File: Data/CV_CRGO300517_1/PWRCCD_CRGO300517_1/CHARGE_DISCHARGE/CHARGE_#789.DTA
EXPLAIN
TAG	PWR800_CHARGE
TITLE	LABEL	PWR Cyclic Charge Discharge (Cell) - Charge Step	Test &Identifier
DATE	LABEL	22-6-2017	Date
TIME	LABEL	16:06:52	Time
NOTES	NOTES	3	&Notes...
	supercap test cell
	0.6mg
	6M KOH
PSTAT	PSTAT	IFC5000-01520	Potentiostat
CAPACITY	QUANT	1.00000E-003	Capacity (A-hr)
CELLTYPE	SELECTOR	1	&Cell Type
WORKINGCONNECTION	SELECTOR	0	&Working Lead
MAXCHARGETIME	VARIABLEANDUNITS	1.00000E+002	s	1.00000E+002	second(s)	Max &Charge Time
CHARGECURRENT	QUANT	6.00000E-003	&Charge Current (A)
VOLTAGEFINISH	TWOPARAM	F	1.00000E-003	3.60000E+003	&Voltage Finish	 I (A) < 	Max Time(s)
SAMPLETIME	QUANT	1.00000E-002	Sa&mple Period (s)
CHARGESTOPAT1	MULTIPARAM	4	1.00000E+000	Charge Stop At &1	Voltage > Limit	V
CHARGESTOPAT2	MULTIPARAM	0	0.00000E+000	Charge Stop At &2	None	N/A
AESBHCSELECTOR	TOGGLE	F	Save Both Half Cells
IRCOMP	TOGGLE	F	IR &Measure
EOC	QUANT	0	Open Circuit (V)
SEQUENCER	TOGGLE	TRUE	Run as Sequence
PSTATMODEL	IQUANT	53	Pstat Model
PSTATSECTION	LABEL	IFC5000-01520	Pstat Section
PSTATSERIALNO	LABEL	01520	Pstat Serial Number
CTRLMODE	IQUANT	0	Control Mode
ELECTROMETER	IQUANT	1	RE=0 or CS=1
IESTAB	IQUANT	0	I/E Stability
CASPEED	IQUANT	4	Control Amp Speed
CONVENTION	IQUANT	1	Current Convention
ICHRANGE	IQUANT	2	Ich Range
ICHRANGEMODE	TOGGLE	T	Ich Auto Range
ICHOFFSETENABLE	TOGGLE	F	Ich Offset Enable
ICHOFFSET	QUANT	0	Ich Offset (V)
ICHFILTER	IQUANT	1	Ich Filter
VCHRANGE	IQUANT	2	Vch Range
VCHRANGEMODE	TOGGLE	T	Vch Auto Range
VCHOFFSETENABLE	TOGGLE	F	Vch Offset Enable
VCHOFFSET	QUANT	0	Vch Offset (V)
VCHFILTER	IQUANT	1	Vch Filter
IERANGELOWERLIMIT	IQUANT	9	I/E Range Lower Limit
IERANGEMODE	TOGGLE	F	I/E AutoRange
IERANGE	IQUANT	10	I/E Range
ACHSELECT	IQUANT	1	Ach Select
ACHRANGE	IQUANT	2	Ach Range
ACHOFFSETENABLE	TOGGLE	F	Ach Offset Enable
ACHOFFSET	QUANT	0	Ach Offset (V)
ACHFILTER	IQUANT	1	Ach Filter
CABLEID	IQUANT	14	Cable ID
DCCALDATE	LABEL	20-10-2016	DC Calibration Date
ACCALDATE	LABEL	12/3/2015	AC Calibration Date
FRAMEWORKVERSION	QUANT	7.01	Framework Version
INSTRUMENTVERSION	LABEL	4.00	Instrument Version
CURVE	TABLE	55
	Pt	T	Vf	Im	Vu	Pwr	Sig	Ach	Temp	IERange	Over
	#	s	V	A	V	W	V	V	deg C	#	bits
	0	0.013333	6.47844E-001	5.99379E-003	0.00000E+000	3.88304E-003	3.59960E-001	-1.17082E+000	3.57780E+000	10	...........
	1	0.026667	6.57015E-001	5.99386E-003	0.00000E+000	3.93806E-003	3.59960E-001	-1.16414E+000	3.57780E+000	10	...........
	2	0.04	6.65484E-001	5.99690E-003	0.00000E+000	3.99084E-003	3.59960E-001	-1.16048E+000	3.57780E+000	10	...........
	3	0.053333	6.73443E-001	5.99520E-003	0.00000E+000	4.03743E-003	3.59960E-001	-1.17098E+000	3.57780E+000	10	...........
	4	0.066667	6.81179E-001	5.99903E-003	0.00000E+000	4.08641E-003	3.59960E-001	-1.16398E+000	3.57780E+000	10	...........
	5	0.08	6.88686E-001	5.99086E-003	0.00000E+000	4.12582E-003	3.59960E-001	-1.15982E+000	3.57780E+000	10	...........
	6	0.093333	6.96092E-001	5.99189E-003	0.00000E+000	4.17091E-003	3.59960E-001	-1.17076E+000	3.57780E+000	10	...........
	7	0.106667	7.03302E-001	5.99628E-003	0.00000E+000	4.21720E-003	3.59960E-001	-1.16381E+000	3.57780E+000	10	...........
	8	0.12	7.10482E-001	5.99508E-003	0.00000E+000	4.25940E-003	3.59960E-001	-1.16012E+000	3.57780E+000	10	...........
	9	0.133333	7.17592E-001	5.99243E-003	0.00000E+000	4.30012E-003	3.59960E-001	-1.17077E+000	3.57780E+000	10	...........
	10	0.146667	7.24597E-001	5.99152E-003	0.00000E+000	4.34144E-003	3.59960E-001	-1.16318E+000	3.57780E+000	10	...........
	11	0.16	7.31564E-001	5.99280E-003	0.00000E+000	4.38411E-003	3.59960E-001	-1.15979E+000	3.57780E+000	10	...........
	12	0.173333	7.38505E-001	5.99479E-003	0.00000E+000	4.42718E-003	3.59960E-001	-1.17088E+000	3.57780E+000	10	...........
	13	0.186667	7.45360E-001	5.99801E-003	0.00000E+000	4.47067E-003	3.59960E-001	-1.16272E+000	3.57780E+000	10	...........
	14	0.2	7.52186E-001	5.99404E-003	0.00000E+000	4.50863E-003	3.59960E-001	-1.15914E+000	3.57780E+000	10	...........
	15	0.213333	7.59052E-001	5.98986E-003	0.00000E+000	4.54662E-003	3.59960E-001	-1.16985E+000	3.57780E+000	10	...........
	16	0.226667	7.65840E-001	5.99913E-003	0.00000E+000	4.59437E-003	3.59960E-001	-1.16211E+000	3.57780E+000	10	...........
	17	0.24	7.72584E-001	5.99685E-003	0.00000E+000	4.63307E-003	3.59960E-001	-1.15937E+000	3.57780E+000	10	...........
	18	0.253333	7.79314E-001	5.99416E-003	0.00000E+000	4.67133E-003	3.59960E-001	-1.17003E+000	3.57780E+000	10	...........
	19	0.266667	7.86011E-001	5.99240E-003	0.00000E+000	4.71010E-003	3.59960E-001	-1.16191E+000	3.57780E+000	10	...........
	20	0.28	7.92705E-001	5.99241E-003	0.00000E+000	4.75022E-003	3.59960E-001	-1.15872E+000	3.57780E+000	10	...........
	21	0.293333	7.99410E-001	5.99494E-003	0.00000E+000	4.79241E-003	3.59960E-001	-1.17007E+000	3.57780E+000	10	...........
	22	0.306667	8.06032E-001	5.99532E-003	0.00000E+000	4.83243E-003	3.59960E-001	-1.16190E+000	3.57780E+000	10	...........
	23	0.32	8.12607E-001	5.99666E-003	0.00000E+000	4.87293E-003	3.59960E-001	-1.15885E+000	3.57780E+000	10	...........
	24	0.333333	8.19173E-001	5.99346E-003	0.00000E+000	4.90968E-003	3.59960E-001	-1.16988E+000	3.57780E+000	10	...........
	25	0.346667	8.25716E-001	5.98811E-003	0.00000E+000	4.94447E-003	3.59960E-001	-1.16126E+000	3.57780E+000	10	...........
	26	0.36	8.32262E-001	5.99227E-003	0.00000E+000	4.98714E-003	3.59960E-001	-1.15877E+000	3.57780E+000	10	...........
	27	0.373333	8.38817E-001	5.99637E-003	0.00000E+000	5.02985E-003	3.59960E-001	-1.17016E+000	3.57780E+000	10	...........
	28	0.386667	8.45344E-001	5.99602E-003	0.00000E+000	5.06870E-003	3.59960E-001	-1.16141E+000	3.57780E+000	10	...........
	29	0.4	8.51832E-001	5.99277E-003	0.00000E+000	5.10483E-003	3.59960E-001	-1.15872E+000	3.57780E+000	10	...........
	30	0.413333	8.58288E-001	5.99301E-003	0.00000E+000	5.14373E-003	3.59960E-001	-1.16985E+000	3.57780E+000	10	...........
	31	0.426667	8.64711E-001	5.99320E-003	0.00000E+000	5.18239E-003	3.59960E-001	-1.16098E+000	3.57780E+000	10	...........
	32	0.44	8.71170E-001	5.99642E-003	0.00000E+000	5.22390E-003	3.59960E-001	-1.15910E+000	3.57780E+000	10	...........
	33	0.453333	8.77559E-001	5.99549E-003	0.00000E+000	5.26140E-003	3.59960E-001	-1.17031E+000	3.57780E+000	10	...........
	34	0.466667	8.83891E-001	5.99265E-003	0.00000E+000	5.29685E-003	3.59960E-001	-1.16095E+000	3.57780E+000	10	...........
	35	0.48	8.90207E-001	5.99505E-003	0.00000E+000	5.33684E-003	3.59960E-001	-1.15842E+000	3.57780E+000	10	...........
	36	0.493333	8.96484E-001	5.99147E-003	0.00000E+000	5.37126E-003	3.59960E-001	-1.16985E+000	3.57780E+000	10	...........
	37	0.506667	9.02719E-001	5.99515E-003	0.00000E+000	5.41194E-003	3.59960E-001	-1.16064E+000	3.57780E+000	10	...........
	38	0.52	9.08955E-001	5.99626E-003	0.00000E+000	5.45034E-003	3.59960E-001	-1.15846E+000	3.57780E+000	10	...........
	39	0.533333	9.15116E-001	5.99666E-003	0.00000E+000	5.48764E-003	3.59960E-001	-1.16966E+000	3.57780E+000	10	...........
	40	0.546667	9.21282E-001	5.99393E-003	0.00000E+000	5.52210E-003	3.59960E-001	-1.15999E+000	3.57780E+000	10	...........
	41	0.56	9.27413E-001	5.99840E-003	0.00000E+000	5.56300E-003	3.59960E-001	-1.15817E+000	3.57780E+000	10	...........
	42	0.573333	9.33459E-001	5.99335E-003	0.00000E+000	5.59455E-003	3.59960E-001	-1.16981E+000	3.57780E+000	10	...........
	43	0.586667	9.39463E-001	5.99492E-003	0.00000E+000	5.63200E-003	3.59960E-001	-1.16016E+000	3.57780E+000	10	...........
	44	0.6	9.45489E-001	5.99427E-003	0.00000E+000	5.66752E-003	3.59960E-001	-1.15835E+000	3.57780E+000	10	...........
	45	0.613333	9.51431E-001	5.99431E-003	0.00000E+000	5.70317E-003	3.59960E-001	-1.16967E+000	3.57780E+000	10	...........
	46	0.626667	9.57348E-001	5.99440E-003	0.00000E+000	5.73872E-003	3.59960E-001	-1.15972E+000	3.57780E+000	10	...........
	47	0.64	9.63184E-001	5.99699E-003	0.00000E+000	5.77621E-003	3.59960E-001	-1.15849E+000	3.57780E+000	10	...........
	48	0.653333	9.68961E-001	5.99166E-003	0.00000E+000	5.80569E-003	3.59960E-001	-1.17001E+000	3.57780E+000	10	...........
	49	0.666667	9.74742E-001	5.99332E-003	0.00000E+000	5.84194E-003	3.59960E-001	-1.15983E+000	3.57780E+000	10	...........
	50	0.68	9.80454E-001	5.99365E-003	0.00000E+000	5.87650E-003	3.59960E-001	-1.15837E+000	3.57780E+000	10	...........
	51	0.693333	9.86069E-001	5.99428E-003	0.00000E+000	5.91077E-003	3.59960E-001	-1.16972E+000	3.57780E+000	10	...........
	52	0.706667	9.91608E-001	5.98691E-003	0.00000E+000	5.93667E-003	3.59960E-001	-1.15984E+000	3.57780E+000	10	...........
	53	0.72	9.97190E-001	5.99614E-003	0.00000E+000	5.97929E-003	3.59960E-001	-1.15884E+000	3.57780E+000	10	...........
	54	0.721667	1.00021E+000	5.99746E-003	0.00000E+000	5.99875E-003	3.59960E-001	-1.16597E+000	3.57780E+000	10	...........
STARTTIMEOFFSET	QUANT	1288.332	Start Time Offset (s)