File: Data/CV_CRGO300517_1/PWRCCD_CRGO300517_1/CHARGE_DISCHARGE/CHARGE_#58.DTA
EXPLAIN
TAG	PWR800_CHARGE
TITLE	LABEL	PWR Cyclic Charge Discharge (Cell) - Charge Step	Test &Identifier
DATE	LABEL	22-6-2017	Date
TIME	LABEL	15:37:38	Time
NOTES	NOTES	3	&Notes...
	supercap test cell
	0.6mg
	6M KOH
PSTAT	PSTAT	IFC5000-01520	Potentiostat
CAPACITY	QUANT	1.00000E-003	Capacity (A-hr)
CELLTYPE	SELECTOR	1	&Cell Type
WORKINGCONNECTION	SELECTOR	0	&Working Lead
MAXCHARGETIME	VARIABLEANDUNITS	1.00000E+002	s	1.00000E+002	second(s)	Max &Charge Time
CHARGECURRENT	QUANT	6.00000E-003	&Charge Current (A)
VOLTAGEFINISH	TWOPARAM	F	1.00000E-003	3.60000E+003	&Voltage Finish	 I (A) < 	Max Time(s)
SAMPLETIME	QUANT	1.00000E-002	Sa&mple Period (s)
CHARGESTOPAT1	MULTIPARAM	4	1.00000E+000	Charge Stop At &1	Voltage > Limit	V
CHARGESTOPAT2	MULTIPARAM	0	0.00000E+000	Charge Stop At &2	None	N/A
AESBHCSELECTOR	TOGGLE	F	Save Both Half Cells
IRCOMP	TOGGLE	F	IR &Measure
EOC	QUANT	0	Open Circuit (V)
SEQUENCER	TOGGLE	TRUE	Run as Sequence
PSTATMODEL	IQUANT	53	Pstat Model
PSTATSECTION	LABEL	IFC5000-01520	Pstat Section
PSTATSERIALNO	LABEL	01520	Pstat Serial Number
CTRLMODE	IQUANT	0	Control Mode
ELECTROMETER	IQUANT	1	RE=0 or CS=1
IESTAB	IQUANT	0	I/E Stability
CASPEED	IQUANT	4	Control Amp Speed
CONVENTION	IQUANT	1	Current Convention
ICHRANGE	IQUANT	2	Ich Range
ICHRANGEMODE	TOGGLE	T	Ich Auto Range
ICHOFFSETENABLE	TOGGLE	F	Ich Offset Enable
ICHOFFSET	QUANT	0	Ich Offset (V)
ICHFILTER	IQUANT	1	Ich Filter
VCHRANGE	IQUANT	2	Vch Range
VCHRANGEMODE	TOGGLE	T	Vch Auto Range
VCHOFFSETENABLE	TOGGLE	F	Vch Offset Enable
VCHOFFSET	QUANT	0	Vch Offset (V)
VCHFILTER	IQUANT	1	Vch Filter
IERANGELOWERLIMIT	IQUANT	9	I/E Range Lower Limit
IERANGEMODE	TOGGLE	F	I/E AutoRange
IERANGE	IQUANT	10	I/E Range
ACHSELECT	IQUANT	1	Ach Select
ACHRANGE	IQUANT	2	Ach Range
ACHOFFSETENABLE	TOGGLE	F	Ach Offset Enable
ACHOFFSET	QUANT	0	Ach Offset (V)
ACHFILTER	IQUANT	1	Ach Filter
CABLEID	IQUANT	14	Cable ID
DCCALDATE	LABEL	20-10-2016	DC Calibration Date
ACCALDATE	LABEL	12/3/2015	AC Calibration Date
FRAMEWORKVERSION	QUANT	7.01	Framework Version
INSTRUMENTVERSION	LABEL	4.00	Instrument Version
CURVE	TABLE	73
	Pt	T	Vf	Im	Vu	Pwr	Sig	Ach	Temp	IERange	Over
	#	s	V	A	V	W	V	V	deg C	#	bits
	0	0.013333	5.76978E-001	5.99674E-003	0.00000E+000	3.45999E-003	3.59960E-001	-1.04585E+000	3.57730E+000	10	...........
	1	0.026667	5.85132E-001	5.99550E-003	0.00000E+000	3.50816E-003	3.59960E-001	-1.05396E+000	3.57730E+000	10	...........
	2	0.04	5.92605E-001	5.99326E-003	0.00000E+000	3.55163E-003	3.59960E-001	-1.04261E+000	3.57730E+000	10	...........
	3	0.053333	5.99621E-001	5.99326E-003	0.00000E+000	3.59368E-003	3.59960E-001	-1.04569E+000	3.57730E+000	10	...........
	4	0.066667	6.06432E-001	5.99585E-003	0.00000E+000	3.63607E-003	3.59960E-001	-1.05411E+000	3.57730E+000	10	...........
	5	0.08	6.13056E-001	5.99475E-003	0.00000E+000	3.67512E-003	3.59960E-001	-1.04281E+000	3.57730E+000	10	...........
	6	0.093333	6.19555E-001	5.99410E-003	0.00000E+000	3.71367E-003	3.59960E-001	-1.04576E+000	3.57730E+000	10	...........
	7	0.106667	6.25911E-001	5.99373E-003	0.00000E+000	3.75154E-003	3.59960E-001	-1.05397E+000	3.57730E+000	10	...........
	8	0.12	6.32109E-001	5.99662E-003	0.00000E+000	3.79052E-003	3.59960E-001	-1.04242E+000	3.57730E+000	10	...........
	9	0.133333	6.38304E-001	5.99235E-003	0.00000E+000	3.82494E-003	3.59960E-001	-1.04539E+000	3.57730E+000	10	...........
	10	0.146667	6.44479E-001	5.99796E-003	0.00000E+000	3.86556E-003	3.59960E-001	-1.05414E+000	3.57730E+000	10	...........
	11	0.16	6.50555E-001	5.99527E-003	0.00000E+000	3.90025E-003	3.59960E-001	-1.04242E+000	3.57730E+000	10	...........
	12	0.173333	6.56583E-001	5.99486E-003	0.00000E+000	3.93612E-003	3.59960E-001	-1.04488E+000	3.57730E+000	10	...........
	13	0.186667	6.62597E-001	5.99310E-003	0.00000E+000	3.97101E-003	3.59960E-001	-1.05373E+000	3.57730E+000	10	...........
	14	0.2	6.68597E-001	5.99714E-003	0.00000E+000	4.00967E-003	3.59960E-001	-1.04225E+000	3.57730E+000	10	...........
	15	0.213333	6.74500E-001	5.99471E-003	0.00000E+000	4.04343E-003	3.59960E-001	-1.04492E+000	3.57730E+000	10	...........
	16	0.226667	6.80368E-001	5.99278E-003	0.00000E+000	4.07730E-003	3.59960E-001	-1.05404E+000	3.57730E+000	10	...........
	17	0.24	6.86259E-001	5.99570E-003	0.00000E+000	4.11461E-003	3.59960E-001	-1.04246E+000	3.57730E+000	10	...........
	18	0.253333	6.92134E-001	5.99416E-003	0.00000E+000	4.14876E-003	3.59960E-001	-1.04467E+000	3.57730E+000	10	...........
	19	0.266667	6.97940E-001	5.99425E-003	0.00000E+000	4.18363E-003	3.59960E-001	-1.05392E+000	3.57730E+000	10	...........
	20	0.28	7.03808E-001	5.99212E-003	0.00000E+000	4.21731E-003	3.59960E-001	-1.04240E+000	3.57730E+000	10	...........
	21	0.293333	7.09657E-001	5.99265E-003	0.00000E+000	4.25273E-003	3.59960E-001	-1.04451E+000	3.57730E+000	10	...........
	22	0.306667	7.15445E-001	5.99223E-003	0.00000E+000	4.28711E-003	3.59960E-001	-1.05386E+000	3.57730E+000	10	...........
	23	0.32	7.21293E-001	5.99195E-003	0.00000E+000	4.32195E-003	3.59960E-001	-1.04200E+000	3.57730E+000	10	...........
	24	0.333333	7.27101E-001	5.99260E-003	0.00000E+000	4.35722E-003	3.59960E-001	-1.04460E+000	3.57730E+000	10	...........
	25	0.346667	7.32861E-001	5.99300E-003	0.00000E+000	4.39204E-003	3.59960E-001	-1.05411E+000	3.57730E+000	10	...........
	26	0.36	7.38657E-001	5.99131E-003	0.00000E+000	4.42552E-003	3.59960E-001	-1.04252E+000	3.57730E+000	10	...........
	27	0.373333	7.44457E-001	5.99619E-003	0.00000E+000	4.46391E-003	3.59960E-001	-1.04433E+000	3.57730E+000	10	...........
	28	0.386667	7.50268E-001	5.99604E-003	0.00000E+000	4.49864E-003	3.59960E-001	-1.05408E+000	3.57730E+000	10	...........
	29	0.4	7.56051E-001	5.99637E-003	0.00000E+000	4.53356E-003	3.59960E-001	-1.04253E+000	3.57730E+000	10	...........
	30	0.413333	7.61798E-001	5.99367E-003	0.00000E+000	4.56597E-003	3.59960E-001	-1.04461E+000	3.57730E+000	10	...........
	31	0.426667	7.67569E-001	5.99686E-003	0.00000E+000	4.60300E-003	3.59960E-001	-1.05436E+000	3.57730E+000	10	...........
	32	0.44	7.73355E-001	5.99331E-003	0.00000E+000	4.63496E-003	3.59960E-001	-1.04238E+000	3.57730E+000	10	...........
	33	0.453333	7.79105E-001	5.99491E-003	0.00000E+000	4.67066E-003	3.59960E-001	-1.04416E+000	3.57730E+000	10	...........
	34	0.466667	7.84881E-001	5.99511E-003	0.00000E+000	4.70544E-003	3.59960E-001	-1.05431E+000	3.57730E+000	10	...........
	35	0.48	7.90660E-001	5.99522E-003	0.00000E+000	4.74018E-003	3.59960E-001	-1.04228E+000	3.57730E+000	10	...........
	36	0.493333	7.96429E-001	5.99468E-003	0.00000E+000	4.77433E-003	3.59960E-001	-1.04373E+000	3.57730E+000	10	...........
	37	0.506667	8.02208E-001	5.99574E-003	0.00000E+000	4.80983E-003	3.59960E-001	-1.05391E+000	3.57730E+000	10	...........
	38	0.52	8.07947E-001	5.98986E-003	0.00000E+000	4.83949E-003	3.59960E-001	-1.04196E+000	3.57730E+000	10	...........
	39	0.533333	8.13701E-001	5.99232E-003	0.00000E+000	4.87596E-003	3.59960E-001	-1.04357E+000	3.57730E+000	10	...........
	40	0.546667	8.19471E-001	5.99446E-003	0.00000E+000	4.91229E-003	3.59960E-001	-1.05416E+000	3.57730E+000	10	...........
	41	0.56	8.25232E-001	5.99468E-003	0.00000E+000	4.94700E-003	3.59960E-001	-1.04213E+000	3.57730E+000	10	...........
	42	0.573333	8.30978E-001	5.99427E-003	0.00000E+000	4.98111E-003	3.59960E-001	-1.04347E+000	3.57730E+000	10	...........
	43	0.586667	8.36749E-001	5.99383E-003	0.00000E+000	5.01533E-003	3.59960E-001	-1.05375E+000	3.57730E+000	10	...........
	44	0.6	8.42488E-001	5.99391E-003	0.00000E+000	5.04980E-003	3.59960E-001	-1.04196E+000	3.57730E+000	10	...........
	45	0.613333	8.48269E-001	5.99220E-003	0.00000E+000	5.08299E-003	3.59960E-001	-1.04357E+000	3.57730E+000	10	...........
	46	0.626667	8.54006E-001	5.99298E-003	0.00000E+000	5.11804E-003	3.59960E-001	-1.05404E+000	3.57730E+000	10	...........
	47	0.64	8.59767E-001	5.99290E-003	0.00000E+000	5.15250E-003	3.59960E-001	-1.04213E+000	3.57730E+000	10	...........
	48	0.653333	8.65487E-001	5.99426E-003	0.00000E+000	5.18795E-003	3.59960E-001	-1.04319E+000	3.57730E+000	10	...........
	49	0.666667	8.71219E-001	5.99109E-003	0.00000E+000	5.21955E-003	3.59960E-001	-1.05402E+000	3.57730E+000	10	...........
	50	0.68	8.76915E-001	5.99468E-003	0.00000E+000	5.25682E-003	3.59960E-001	-1.04233E+000	3.57730E+000	10	...........
	51	0.693333	8.82603E-001	5.99379E-003	0.00000E+000	5.29014E-003	3.59960E-001	-1.04356E+000	3.57730E+000	10	...........
	52	0.706667	8.88293E-001	5.99309E-003	0.00000E+000	5.32362E-003	3.59960E-001	-1.05422E+000	3.57730E+000	10	...........
	53	0.72	8.93966E-001	5.99328E-003	0.00000E+000	5.35779E-003	3.59960E-001	-1.04231E+000	3.57730E+000	10	...........
	54	0.733333	8.99687E-001	5.99668E-003	0.00000E+000	5.39513E-003	3.59960E-001	-1.04333E+000	3.57730E+000	10	...........
	55	0.746667	9.05371E-001	5.99251E-003	0.00000E+000	5.42545E-003	3.59960E-001	-1.05440E+000	3.57730E+000	10	...........
	56	0.76	9.11012E-001	5.99224E-003	0.00000E+000	5.45900E-003	3.59960E-001	-1.04264E+000	3.57730E+000	10	...........
	57	0.773333	9.16657E-001	5.99722E-003	0.00000E+000	5.49740E-003	3.59960E-001	-1.04303E+000	3.57730E+000	10	...........
	58	0.786667	9.22296E-001	5.99238E-003	0.00000E+000	5.52675E-003	3.59960E-001	-1.05405E+000	3.57730E+000	10	...........
	59	0.8	9.27962E-001	5.98948E-003	0.00000E+000	5.55802E-003	3.59960E-001	-1.04198E+000	3.57730E+000	10	...........
	60	0.813333	9.33567E-001	5.99480E-003	0.00000E+000	5.59655E-003	3.59960E-001	-1.04273E+000	3.57730E+000	10	...........
	61	0.826667	9.39121E-001	5.99477E-003	0.00000E+000	5.62982E-003	3.59960E-001	-1.05392E+000	3.57730E+000	10	...........
	62	0.84	9.44662E-001	5.99856E-003	0.00000E+000	5.66661E-003	3.59960E-001	-1.04193E+000	3.57730E+000	10	...........
	63	0.853333	9.50232E-001	5.99561E-003	0.00000E+000	5.69722E-003	3.59960E-001	-1.04225E+000	3.57730E+000	10	...........
	64	0.866667	9.55729E-001	5.99494E-003	0.00000E+000	5.72954E-003	3.59960E-001	-1.05365E+000	3.57730E+000	10	...........
	65	0.88	9.61221E-001	5.99164E-003	0.00000E+000	5.75929E-003	3.59960E-001	-1.04205E+000	3.57730E+000	10	...........
	66	0.893333	9.66673E-001	5.99303E-003	0.00000E+000	5.79330E-003	3.59960E-001	-1.04253E+000	3.57730E+000	10	...........
	67	0.906667	9.72154E-001	5.99169E-003	0.00000E+000	5.82485E-003	3.59960E-001	-1.05366E+000	3.57745E+000	10	...........
	68	0.92	9.77599E-001	5.99503E-003	0.00000E+000	5.86074E-003	3.59960E-001	-1.04192E+000	3.57850E+000	10	...........
	69	0.933333	9.82963E-001	5.99432E-003	0.00000E+000	5.89220E-003	3.59960E-001	-1.04225E+000	3.57850E+000	10	...........
	70	0.946667	9.88333E-001	5.99298E-003	0.00000E+000	5.92306E-003	3.59960E-001	-1.05384E+000	3.57850E+000	10	...........
	71	0.96	9.93603E-001	5.99460E-003	0.00000E+000	5.95626E-003	3.59960E-001	-1.04214E+000	3.57850E+000	10	...........
	72	0.97167	9.98533E-001	5.99211E-003	0.00000E+000	5.98332E-003	3.59960E-001	-1.04353E+000	3.57850E+000	10	...........
STARTTIMEOFFSET	QUANT	116.0733	Start Time Offset (s)