File: Data/CV_CRGO300517_1/PWRCCD_CRGO300517_1/CHARGE_DISCHARGE/CHARGE_#547.DTA
EXPLAIN
TAG	PWR800_CHARGE
TITLE	LABEL	PWR Cyclic Charge Discharge (Cell) - Charge Step	Test &Identifier
DATE	LABEL	22-6-2017	Date
TIME	LABEL	15:57:44	Time
NOTES	NOTES	3	&Notes...
	supercap test cell
	0.6mg
	6M KOH
PSTAT	PSTAT	IFC5000-01520	Potentiostat
CAPACITY	QUANT	1.00000E-003	Capacity (A-hr)
CELLTYPE	SELECTOR	1	&Cell Type
WORKINGCONNECTION	SELECTOR	0	&Working Lead
MAXCHARGETIME	VARIABLEANDUNITS	1.00000E+002	s	1.00000E+002	second(s)	Max &Charge Time
CHARGECURRENT	QUANT	6.00000E-003	&Charge Current (A)
VOLTAGEFINISH	TWOPARAM	F	1.00000E-003	3.60000E+003	&Voltage Finish	 I (A) < 	Max Time(s)
SAMPLETIME	QUANT	1.00000E-002	Sa&mple Period (s)
CHARGESTOPAT1	MULTIPARAM	4	1.00000E+000	Charge Stop At &1	Voltage > Limit	V
CHARGESTOPAT2	MULTIPARAM	0	0.00000E+000	Charge Stop At &2	None	N/A
AESBHCSELECTOR	TOGGLE	F	Save Both Half Cells
IRCOMP	TOGGLE	F	IR &Measure
EOC	QUANT	0	Open Circuit (V)
SEQUENCER	TOGGLE	TRUE	Run as Sequence
PSTATMODEL	IQUANT	53	Pstat Model
PSTATSECTION	LABEL	IFC5000-01520	Pstat Section
PSTATSERIALNO	LABEL	01520	Pstat Serial Number
CTRLMODE	IQUANT	0	Control Mode
ELECTROMETER	IQUANT	1	RE=0 or CS=1
IESTAB	IQUANT	0	I/E Stability
CASPEED	IQUANT	4	Control Amp Speed
CONVENTION	IQUANT	1	Current Convention
ICHRANGE	IQUANT	2	Ich Range
ICHRANGEMODE	TOGGLE	T	Ich Auto Range
ICHOFFSETENABLE	TOGGLE	F	Ich Offset Enable
ICHOFFSET	QUANT	0	Ich Offset (V)
ICHFILTER	IQUANT	1	Ich Filter
VCHRANGE	IQUANT	2	Vch Range
VCHRANGEMODE	TOGGLE	T	Vch Auto Range
VCHOFFSETENABLE	TOGGLE	F	Vch Offset Enable
VCHOFFSET	QUANT	0	Vch Offset (V)
VCHFILTER	IQUANT	1	Vch Filter
IERANGELOWERLIMIT	IQUANT	9	I/E Range Lower Limit
IERANGEMODE	TOGGLE	F	I/E AutoRange
IERANGE	IQUANT	10	I/E Range
ACHSELECT	IQUANT	1	Ach Select
ACHRANGE	IQUANT	2	Ach Range
ACHOFFSETENABLE	TOGGLE	F	Ach Offset Enable
ACHOFFSET	QUANT	0	Ach Offset (V)
ACHFILTER	IQUANT	1	Ach Filter
CABLEID	IQUANT	14	Cable ID
DCCALDATE	LABEL	20-10-2016	DC Calibration Date
ACCALDATE	LABEL	12/3/2015	AC Calibration Date
FRAMEWORKVERSION	QUANT	7.01	Framework Version
INSTRUMENTVERSION	LABEL	4.00	Instrument Version
CURVE	TABLE	58
	Pt	T	Vf	Im	Vu	Pwr	Sig	Ach	Temp	IERange	Over
	#	s	V	A	V	W	V	V	deg C	#	bits
	0	0.013333	6.34668E-001	5.99100E-003	0.00000E+000	3.80229E-003	3.59960E-001	-1.13714E+000	3.57660E+000	10	...........
	1	0.026667	6.43632E-001	6.00024E-003	0.00000E+000	3.86195E-003	3.59960E-001	-1.13992E+000	3.57660E+000	10	...........
	2	0.04	6.51845E-001	5.99596E-003	0.00000E+000	3.90844E-003	3.59960E-001	-1.14760E+000	3.57660E+000	10	...........
	3	0.053333	6.59628E-001	5.99484E-003	0.00000E+000	3.95437E-003	3.59960E-001	-1.13713E+000	3.57660E+000	10	...........
	4	0.066667	6.67217E-001	5.99726E-003	0.00000E+000	4.00148E-003	3.59960E-001	-1.13982E+000	3.57660E+000	10	...........
	5	0.08	6.74512E-001	5.99540E-003	0.00000E+000	4.04397E-003	3.59960E-001	-1.14716E+000	3.57660E+000	10	...........
	6	0.093333	6.81648E-001	5.99307E-003	0.00000E+000	4.08516E-003	3.59960E-001	-1.13684E+000	3.57660E+000	10	...........
	7	0.106667	6.88690E-001	5.99383E-003	0.00000E+000	4.12789E-003	3.59960E-001	-1.13988E+000	3.57660E+000	10	...........
	8	0.12	6.95708E-001	5.99301E-003	0.00000E+000	4.16938E-003	3.59960E-001	-1.14706E+000	3.57660E+000	10	...........
	9	0.133333	7.02554E-001	5.99389E-003	0.00000E+000	4.21103E-003	3.59960E-001	-1.13668E+000	3.57660E+000	10	...........
	10	0.146667	7.09380E-001	5.99540E-003	0.00000E+000	4.25302E-003	3.59960E-001	-1.13943E+000	3.57660E+000	10	...........
	11	0.16	7.16175E-001	5.99459E-003	0.00000E+000	4.29318E-003	3.59960E-001	-1.14707E+000	3.57660E+000	10	...........
	12	0.173333	7.22935E-001	5.99503E-003	0.00000E+000	4.33402E-003	3.59960E-001	-1.13682E+000	3.57660E+000	10	...........
	13	0.186667	7.29663E-001	5.99573E-003	0.00000E+000	4.37486E-003	3.59960E-001	-1.13940E+000	3.57660E+000	10	...........
	14	0.2	7.36301E-001	5.99030E-003	0.00000E+000	4.41066E-003	3.59960E-001	-1.14674E+000	3.57660E+000	10	...........
	15	0.213333	7.42971E-001	5.99607E-003	0.00000E+000	4.45491E-003	3.59960E-001	-1.13641E+000	3.57660E+000	10	...........
	16	0.226667	7.49564E-001	5.99744E-003	0.00000E+000	4.49547E-003	3.59960E-001	-1.13934E+000	3.57660E+000	10	...........
	17	0.24	7.56190E-001	5.99494E-003	0.00000E+000	4.53331E-003	3.59960E-001	-1.14670E+000	3.57660E+000	10	...........
	18	0.253333	7.62727E-001	5.99693E-003	0.00000E+000	4.57402E-003	3.59960E-001	-1.13656E+000	3.57660E+000	10	...........
	19	0.266667	7.69306E-001	5.99492E-003	0.00000E+000	4.61193E-003	3.59960E-001	-1.13899E+000	3.57660E+000	10	...........
	20	0.28	7.75847E-001	5.99487E-003	0.00000E+000	4.65110E-003	3.59960E-001	-1.14606E+000	3.57660E+000	10	...........
	21	0.293333	7.82371E-001	5.99094E-003	0.00000E+000	4.68714E-003	3.59960E-001	-1.13570E+000	3.57660E+000	10	...........
	22	0.306667	7.88866E-001	5.99569E-003	0.00000E+000	4.72980E-003	3.59960E-001	-1.13858E+000	3.57660E+000	10	...........
	23	0.32	7.95391E-001	5.99378E-003	0.00000E+000	4.76740E-003	3.59960E-001	-1.14592E+000	3.57660E+000	10	...........
	24	0.333333	8.01813E-001	5.99503E-003	0.00000E+000	4.80690E-003	3.59960E-001	-1.13542E+000	3.57660E+000	10	...........
	25	0.346667	8.08261E-001	5.99276E-003	0.00000E+000	4.84371E-003	3.59960E-001	-1.13845E+000	3.57660E+000	10	...........
	26	0.36	8.14718E-001	5.99478E-003	0.00000E+000	4.88406E-003	3.59960E-001	-1.14556E+000	3.57660E+000	10	...........
	27	0.373333	8.21132E-001	5.99186E-003	0.00000E+000	4.92011E-003	3.59960E-001	-1.13548E+000	3.57660E+000	10	...........
	28	0.386667	8.27519E-001	5.99238E-003	0.00000E+000	4.95881E-003	3.59960E-001	-1.13851E+000	3.57660E+000	10	...........
	29	0.4	8.33913E-001	5.99366E-003	0.00000E+000	4.99818E-003	3.59960E-001	-1.14538E+000	3.57660E+000	10	...........
	30	0.413333	8.40311E-001	5.99466E-003	0.00000E+000	5.03738E-003	3.59960E-001	-1.13531E+000	3.57660E+000	10	...........
	31	0.426667	8.46655E-001	5.99223E-003	0.00000E+000	5.07335E-003	3.59960E-001	-1.13827E+000	3.57660E+000	10	...........
	32	0.44	8.52983E-001	5.99723E-003	0.00000E+000	5.11554E-003	3.59960E-001	-1.14542E+000	3.57660E+000	10	...........
	33	0.453333	8.59336E-001	5.99367E-003	0.00000E+000	5.15057E-003	3.59960E-001	-1.13547E+000	3.57660E+000	10	...........
	34	0.466667	8.65542E-001	5.99074E-003	0.00000E+000	5.18523E-003	3.59960E-001	-1.13820E+000	3.57660E+000	10	...........
	35	0.48	8.71865E-001	5.99601E-003	0.00000E+000	5.22772E-003	3.59960E-001	-1.14516E+000	3.57660E+000	10	...........
	36	0.493333	8.78101E-001	5.99301E-003	0.00000E+000	5.26247E-003	3.59960E-001	-1.13509E+000	3.57660E+000	10	...........
	37	0.506667	8.84341E-001	5.99394E-003	0.00000E+000	5.30069E-003	3.59960E-001	-1.13815E+000	3.57660E+000	10	...........
	38	0.52	8.90523E-001	5.99164E-003	0.00000E+000	5.33570E-003	3.59960E-001	-1.14514E+000	3.57660E+000	10	...........
	39	0.533333	8.96680E-001	5.98934E-003	0.00000E+000	5.37052E-003	3.59960E-001	-1.13480E+000	3.57660E+000	10	...........
	40	0.546667	9.02827E-001	5.99618E-003	0.00000E+000	5.41351E-003	3.59960E-001	-1.13765E+000	3.57660E+000	10	...........
	41	0.56	9.08930E-001	5.99395E-003	0.00000E+000	5.44808E-003	3.59960E-001	-1.14497E+000	3.57660E+000	10	...........
	42	0.573333	9.15001E-001	5.99321E-003	0.00000E+000	5.48379E-003	3.59960E-001	-1.13476E+000	3.57660E+000	10	...........
	43	0.586667	9.21072E-001	5.99139E-003	0.00000E+000	5.51851E-003	3.59960E-001	-1.13797E+000	3.57660E+000	10	...........
	44	0.6	9.27108E-001	5.99266E-003	0.00000E+000	5.55585E-003	3.59960E-001	-1.14445E+000	3.57660E+000	10	...........
	45	0.613333	9.33073E-001	5.99351E-003	0.00000E+000	5.59238E-003	3.59960E-001	-1.13420E+000	3.57660E+000	10	...........
	46	0.626667	9.38978E-001	5.99913E-003	0.00000E+000	5.63305E-003	3.59960E-001	-1.13731E+000	3.57660E+000	10	...........
	47	0.64	9.44867E-001	5.99715E-003	0.00000E+000	5.66651E-003	3.59960E-001	-1.14437E+000	3.57660E+000	10	...........
	48	0.653333	9.50734E-001	5.99477E-003	0.00000E+000	5.69944E-003	3.59960E-001	-1.13402E+000	3.57660E+000	10	...........
	49	0.666667	9.56564E-001	5.99367E-003	0.00000E+000	5.73333E-003	3.59960E-001	-1.13670E+000	3.57660E+000	10	...........
	50	0.68	9.62376E-001	5.98961E-003	0.00000E+000	5.76426E-003	3.59960E-001	-1.14334E+000	3.57660E+000	10	...........
	51	0.693333	9.68090E-001	5.99795E-003	0.00000E+000	5.80656E-003	3.59960E-001	-1.13337E+000	3.57660E+000	10	...........
	52	0.706667	9.73828E-001	5.99491E-003	0.00000E+000	5.83801E-003	3.59960E-001	-1.13648E+000	3.57660E+000	10	...........
	53	0.72	9.79495E-001	5.99559E-003	0.00000E+000	5.87265E-003	3.59960E-001	-1.14309E+000	3.57660E+000	10	...........
	54	0.733333	9.85063E-001	5.99618E-003	0.00000E+000	5.90662E-003	3.59960E-001	-1.13268E+000	3.57660E+000	10	...........
	55	0.746667	9.90652E-001	5.99012E-003	0.00000E+000	5.93412E-003	3.59960E-001	-1.13555E+000	3.57660E+000	10	...........
	56	0.76	9.96115E-001	5.99595E-003	0.00000E+000	5.97266E-003	3.59960E-001	-1.14210E+000	3.57660E+000	10	...........
	57	0.765	9.99861E-001	5.99560E-003	0.00000E+000	5.99476E-003	3.59960E-001	-1.12756E+000	3.57660E+000	10	...........
STARTTIMEOFFSET	QUANT	930.9485	Start Time Offset (s)