File: Data/CV_CRGO300517_1/PWRCCD_CRGO300517_1/CHARGE_DISCHARGE/CHARGE_#435.DTA
EXPLAIN
TAG	PWR800_CHARGE
TITLE	LABEL	PWR Cyclic Charge Discharge (Cell) - Charge Step	Test &Identifier
DATE	LABEL	22-6-2017	Date
TIME	LABEL	15:53:21	Time
NOTES	NOTES	3	&Notes...
	supercap test cell
	0.6mg
	6M KOH
PSTAT	PSTAT	IFC5000-01520	Potentiostat
CAPACITY	QUANT	1.00000E-003	Capacity (A-hr)
CELLTYPE	SELECTOR	1	&Cell Type
WORKINGCONNECTION	SELECTOR	0	&Working Lead
MAXCHARGETIME	VARIABLEANDUNITS	1.00000E+002	s	1.00000E+002	second(s)	Max &Charge Time
CHARGECURRENT	QUANT	6.00000E-003	&Charge Current (A)
VOLTAGEFINISH	TWOPARAM	F	1.00000E-003	3.60000E+003	&Voltage Finish	 I (A) < 	Max Time(s)
SAMPLETIME	QUANT	1.00000E-002	Sa&mple Period (s)
CHARGESTOPAT1	MULTIPARAM	4	1.00000E+000	Charge Stop At &1	Voltage > Limit	V
CHARGESTOPAT2	MULTIPARAM	0	0.00000E+000	Charge Stop At &2	None	N/A
AESBHCSELECTOR	TOGGLE	F	Save Both Half Cells
IRCOMP	TOGGLE	F	IR &Measure
EOC	QUANT	0	Open Circuit (V)
SEQUENCER	TOGGLE	TRUE	Run as Sequence
PSTATMODEL	IQUANT	53	Pstat Model
PSTATSECTION	LABEL	IFC5000-01520	Pstat Section
PSTATSERIALNO	LABEL	01520	Pstat Serial Number
CTRLMODE	IQUANT	0	Control Mode
ELECTROMETER	IQUANT	1	RE=0 or CS=1
IESTAB	IQUANT	0	I/E Stability
CASPEED	IQUANT	4	Control Amp Speed
CONVENTION	IQUANT	1	Current Convention
ICHRANGE	IQUANT	2	Ich Range
ICHRANGEMODE	TOGGLE	T	Ich Auto Range
ICHOFFSETENABLE	TOGGLE	F	Ich Offset Enable
ICHOFFSET	QUANT	0	Ich Offset (V)
ICHFILTER	IQUANT	1	Ich Filter
VCHRANGE	IQUANT	2	Vch Range
VCHRANGEMODE	TOGGLE	T	Vch Auto Range
VCHOFFSETENABLE	TOGGLE	F	Vch Offset Enable
VCHOFFSET	QUANT	0	Vch Offset (V)
VCHFILTER	IQUANT	1	Vch Filter
IERANGELOWERLIMIT	IQUANT	9	I/E Range Lower Limit
IERANGEMODE	TOGGLE	F	I/E AutoRange
IERANGE	IQUANT	10	I/E Range
ACHSELECT	IQUANT	1	Ach Select
ACHRANGE	IQUANT	2	Ach Range
ACHOFFSETENABLE	TOGGLE	F	Ach Offset Enable
ACHOFFSET	QUANT	0	Ach Offset (V)
ACHFILTER	IQUANT	1	Ach Filter
CABLEID	IQUANT	14	Cable ID
DCCALDATE	LABEL	20-10-2016	DC Calibration Date
ACCALDATE	LABEL	12/3/2015	AC Calibration Date
FRAMEWORKVERSION	QUANT	7.01	Framework Version
INSTRUMENTVERSION	LABEL	4.00	Instrument Version
CURVE	TABLE	60
	Pt	T	Vf	Im	Vu	Pwr	Sig	Ach	Temp	IERange	Over
	#	s	V	A	V	W	V	V	deg C	#	bits
	0	0.013333	6.27451E-001	5.99247E-003	0.00000E+000	3.75998E-003	3.59960E-001	-1.14185E+000	3.57790E+000	10	...........
	1	0.026667	6.36156E-001	5.98860E-003	0.00000E+000	3.80968E-003	3.59960E-001	-1.13665E+000	3.57790E+000	10	...........
	2	0.04	6.44269E-001	5.99373E-003	0.00000E+000	3.86157E-003	3.59960E-001	-1.13220E+000	3.57790E+000	10	...........
	3	0.053333	6.51950E-001	5.99260E-003	0.00000E+000	3.90688E-003	3.59960E-001	-1.14209E+000	3.57790E+000	10	...........
	4	0.066667	6.59339E-001	5.99348E-003	0.00000E+000	3.95174E-003	3.59960E-001	-1.13641E+000	3.57790E+000	10	...........
	5	0.08	6.66571E-001	5.99020E-003	0.00000E+000	3.99289E-003	3.59960E-001	-1.13207E+000	3.57790E+000	10	...........
	6	0.093333	6.73618E-001	5.99374E-003	0.00000E+000	4.03749E-003	3.59960E-001	-1.14207E+000	3.57790E+000	10	...........
	7	0.106667	6.80610E-001	5.99661E-003	0.00000E+000	4.08135E-003	3.59960E-001	-1.13635E+000	3.57790E+000	10	...........
	8	0.12	6.87427E-001	5.99571E-003	0.00000E+000	4.12161E-003	3.59960E-001	-1.13161E+000	3.57790E+000	10	...........
	9	0.133333	6.94213E-001	5.99554E-003	0.00000E+000	4.16219E-003	3.59960E-001	-1.14130E+000	3.57790E+000	10	...........
	10	0.146667	7.00928E-001	5.99423E-003	0.00000E+000	4.20153E-003	3.59960E-001	-1.13548E+000	3.57790E+000	10	...........
	11	0.16	7.07635E-001	5.99502E-003	0.00000E+000	4.24229E-003	3.59960E-001	-1.13123E+000	3.57790E+000	10	...........
	12	0.173333	7.14220E-001	5.99384E-003	0.00000E+000	4.28092E-003	3.59960E-001	-1.14164E+000	3.57790E+000	10	...........
	13	0.186667	7.20871E-001	5.99280E-003	0.00000E+000	4.32003E-003	3.59960E-001	-1.13544E+000	3.57790E+000	10	...........
	14	0.2	7.27456E-001	5.99477E-003	0.00000E+000	4.36093E-003	3.59960E-001	-1.13107E+000	3.57790E+000	10	...........
	15	0.213333	7.33977E-001	5.99350E-003	0.00000E+000	4.39909E-003	3.59960E-001	-1.14127E+000	3.57790E+000	10	...........
	16	0.226667	7.40533E-001	5.99437E-003	0.00000E+000	4.43903E-003	3.59960E-001	-1.13533E+000	3.57790E+000	10	...........
	17	0.24	7.47067E-001	5.99586E-003	0.00000E+000	4.47930E-003	3.59960E-001	-1.13126E+000	3.57790E+000	10	...........
	18	0.253333	7.53533E-001	5.99281E-003	0.00000E+000	4.51578E-003	3.59960E-001	-1.14129E+000	3.57790E+000	10	...........
	19	0.266667	7.59995E-001	5.99176E-003	0.00000E+000	4.55371E-003	3.59960E-001	-1.13499E+000	3.57790E+000	10	...........
	20	0.28	7.66439E-001	5.99333E-003	0.00000E+000	4.59352E-003	3.59960E-001	-1.13089E+000	3.57790E+000	10	...........
	21	0.293333	7.72885E-001	5.99043E-003	0.00000E+000	4.62992E-003	3.59960E-001	-1.14120E+000	3.57790E+000	10	...........
	22	0.306667	7.79345E-001	5.99354E-003	0.00000E+000	4.67104E-003	3.59960E-001	-1.13511E+000	3.57790E+000	10	...........
	23	0.32	7.85758E-001	5.99836E-003	0.00000E+000	4.71326E-003	3.59960E-001	-1.13113E+000	3.57790E+000	10	...........
	24	0.333333	7.92127E-001	5.99331E-003	0.00000E+000	4.74746E-003	3.59960E-001	-1.14154E+000	3.57790E+000	10	...........
	25	0.346667	7.98533E-001	5.98949E-003	0.00000E+000	4.78281E-003	3.59960E-001	-1.13497E+000	3.57790E+000	10	...........
	26	0.36	8.04924E-001	5.99111E-003	0.00000E+000	4.82239E-003	3.59960E-001	-1.13126E+000	3.57790E+000	10	...........
	27	0.373333	8.11237E-001	5.99249E-003	0.00000E+000	4.86133E-003	3.59960E-001	-1.14185E+000	3.57790E+000	10	...........
	28	0.386667	8.17577E-001	5.99626E-003	0.00000E+000	4.90240E-003	3.59960E-001	-1.13496E+000	3.57790E+000	10	...........
	29	0.4	8.23944E-001	5.99508E-003	0.00000E+000	4.93961E-003	3.59960E-001	-1.13138E+000	3.57790E+000	10	...........
	30	0.413333	8.30256E-001	5.99870E-003	0.00000E+000	4.98046E-003	3.59960E-001	-1.14162E+000	3.57790E+000	10	...........
	31	0.426667	8.36545E-001	5.99075E-003	0.00000E+000	5.01153E-003	3.59960E-001	-1.13492E+000	3.57790E+000	10	...........
	32	0.44	8.42822E-001	5.99230E-003	0.00000E+000	5.05044E-003	3.59960E-001	-1.13121E+000	3.57790E+000	10	...........
	33	0.453333	8.49132E-001	5.99691E-003	0.00000E+000	5.09217E-003	3.59960E-001	-1.14139E+000	3.57790E+000	10	...........
	34	0.466667	8.55309E-001	5.99012E-003	0.00000E+000	5.12341E-003	3.59960E-001	-1.13446E+000	3.57790E+000	10	...........
	35	0.48	8.61559E-001	5.99464E-003	0.00000E+000	5.16473E-003	3.59960E-001	-1.13081E+000	3.57790E+000	10	...........
	36	0.493333	8.67768E-001	5.99492E-003	0.00000E+000	5.20220E-003	3.59960E-001	-1.14174E+000	3.57790E+000	10	...........
	37	0.506667	8.74011E-001	5.99030E-003	0.00000E+000	5.23559E-003	3.59960E-001	-1.13456E+000	3.57790E+000	10	...........
	38	0.52	8.80147E-001	5.99736E-003	0.00000E+000	5.27856E-003	3.59960E-001	-1.13107E+000	3.57790E+000	10	...........
	39	0.533333	8.86282E-001	5.98859E-003	0.00000E+000	5.30758E-003	3.59960E-001	-1.14173E+000	3.57790E+000	10	...........
	40	0.546667	8.92400E-001	5.99557E-003	0.00000E+000	5.35045E-003	3.59960E-001	-1.13455E+000	3.57790E+000	10	...........
	41	0.56	8.98514E-001	5.99537E-003	0.00000E+000	5.38692E-003	3.59960E-001	-1.13105E+000	3.57790E+000	10	...........
	42	0.573333	9.04576E-001	5.99679E-003	0.00000E+000	5.42455E-003	3.59960E-001	-1.14171E+000	3.57762E+000	10	...........
	43	0.586667	9.10607E-001	5.99545E-003	0.00000E+000	5.45950E-003	3.59960E-001	-1.13438E+000	3.57680E+000	10	...........
	44	0.6	9.16631E-001	5.99030E-003	0.00000E+000	5.49089E-003	3.59960E-001	-1.13091E+000	3.57680E+000	10	...........
	45	0.613333	9.22649E-001	5.99126E-003	0.00000E+000	5.52783E-003	3.59960E-001	-1.14182E+000	3.57680E+000	10	...........
	46	0.626667	9.28611E-001	5.99407E-003	0.00000E+000	5.56616E-003	3.59960E-001	-1.13424E+000	3.57680E+000	10	...........
	47	0.64	9.34501E-001	5.99485E-003	0.00000E+000	5.60219E-003	3.59960E-001	-1.13103E+000	3.57680E+000	10	...........
	48	0.653333	9.40372E-001	5.99463E-003	0.00000E+000	5.63718E-003	3.59960E-001	-1.14199E+000	3.57680E+000	10	...........
	49	0.666667	9.46225E-001	5.99392E-003	0.00000E+000	5.67160E-003	3.59960E-001	-1.13438E+000	3.57680E+000	10	...........
	50	0.68	9.52074E-001	5.99373E-003	0.00000E+000	5.70647E-003	3.59960E-001	-1.13103E+000	3.57680E+000	10	...........
	51	0.693333	9.57821E-001	5.99342E-003	0.00000E+000	5.74062E-003	3.59960E-001	-1.14180E+000	3.57680E+000	10	...........
	52	0.706667	9.63543E-001	5.99044E-003	0.00000E+000	5.77205E-003	3.59960E-001	-1.13433E+000	3.57680E+000	10	...........
	53	0.72	9.69239E-001	5.99261E-003	0.00000E+000	5.80827E-003	3.59960E-001	-1.13121E+000	3.57680E+000	10	...........
	54	0.733333	9.74903E-001	5.99669E-003	0.00000E+000	5.84619E-003	3.59960E-001	-1.14206E+000	3.57680E+000	10	...........
	55	0.746667	9.80492E-001	5.98938E-003	0.00000E+000	5.87254E-003	3.59960E-001	-1.13419E+000	3.57680E+000	10	...........
	56	0.76	9.86025E-001	5.98943E-003	0.00000E+000	5.90573E-003	3.59960E-001	-1.13110E+000	3.57680E+000	10	...........
	57	0.773333	9.91530E-001	5.99671E-003	0.00000E+000	5.94592E-003	3.59960E-001	-1.14170E+000	3.57680E+000	10	...........
	58	0.786667	9.97018E-001	5.99376E-003	0.00000E+000	5.97589E-003	3.59960E-001	-1.13391E+000	3.57680E+000	10	...........
	59	0.788333	1.00005E+000	5.97618E-003	0.00000E+000	5.97651E-003	3.59960E-001	-1.14346E+000	3.57680E+000	10	...........
STARTTIMEOFFSET	QUANT	757.9483	Start Time Offset (s)