File: Data/CV_CRGO300517_1/PWRCCD_CRGO300517_1/CHARGE_DISCHARGE/CHARGE_#37.DTA
EXPLAIN
TAG	PWR800_CHARGE
TITLE	LABEL	PWR Cyclic Charge Discharge (Cell) - Charge Step	Test &Identifier
DATE	LABEL	22-6-2017	Date
TIME	LABEL	15:36:40	Time
NOTES	NOTES	3	&Notes...
	supercap test cell
	0.6mg
	6M KOH
PSTAT	PSTAT	IFC5000-01520	Potentiostat
CAPACITY	QUANT	1.00000E-003	Capacity (A-hr)
CELLTYPE	SELECTOR	1	&Cell Type
WORKINGCONNECTION	SELECTOR	0	&Working Lead
MAXCHARGETIME	VARIABLEANDUNITS	1.00000E+002	s	1.00000E+002	second(s)	Max &Charge Time
CHARGECURRENT	QUANT	6.00000E-003	&Charge Current (A)
VOLTAGEFINISH	TWOPARAM	F	1.00000E-003	3.60000E+003	&Voltage Finish	 I (A) < 	Max Time(s)
SAMPLETIME	QUANT	1.00000E-002	Sa&mple Period (s)
CHARGESTOPAT1	MULTIPARAM	4	1.00000E+000	Charge Stop At &1	Voltage > Limit	V
CHARGESTOPAT2	MULTIPARAM	0	0.00000E+000	Charge Stop At &2	None	N/A
AESBHCSELECTOR	TOGGLE	F	Save Both Half Cells
IRCOMP	TOGGLE	F	IR &Measure
EOC	QUANT	0	Open Circuit (V)
SEQUENCER	TOGGLE	TRUE	Run as Sequence
PSTATMODEL	IQUANT	53	Pstat Model
PSTATSECTION	LABEL	IFC5000-01520	Pstat Section
PSTATSERIALNO	LABEL	01520	Pstat Serial Number
CTRLMODE	IQUANT	0	Control Mode
ELECTROMETER	IQUANT	1	RE=0 or CS=1
IESTAB	IQUANT	0	I/E Stability
CASPEED	IQUANT	4	Control Amp Speed
CONVENTION	IQUANT	1	Current Convention
ICHRANGE	IQUANT	2	Ich Range
ICHRANGEMODE	TOGGLE	T	Ich Auto Range
ICHOFFSETENABLE	TOGGLE	F	Ich Offset Enable
ICHOFFSET	QUANT	0	Ich Offset (V)
ICHFILTER	IQUANT	1	Ich Filter
VCHRANGE	IQUANT	2	Vch Range
VCHRANGEMODE	TOGGLE	T	Vch Auto Range
VCHOFFSETENABLE	TOGGLE	F	Vch Offset Enable
VCHOFFSET	QUANT	0	Vch Offset (V)
VCHFILTER	IQUANT	1	Vch Filter
IERANGELOWERLIMIT	IQUANT	9	I/E Range Lower Limit
IERANGEMODE	TOGGLE	F	I/E AutoRange
IERANGE	IQUANT	10	I/E Range
ACHSELECT	IQUANT	1	Ach Select
ACHRANGE	IQUANT	2	Ach Range
ACHOFFSETENABLE	TOGGLE	F	Ach Offset Enable
ACHOFFSET	QUANT	0	Ach Offset (V)
ACHFILTER	IQUANT	1	Ach Filter
CABLEID	IQUANT	14	Cable ID
DCCALDATE	LABEL	20-10-2016	DC Calibration Date
ACCALDATE	LABEL	12/3/2015	AC Calibration Date
FRAMEWORKVERSION	QUANT	7.01	Framework Version
INSTRUMENTVERSION	LABEL	4.00	Instrument Version
CURVE	TABLE	76
	Pt	T	Vf	Im	Vu	Pwr	Sig	Ach	Temp	IERange	Over
	#	s	V	A	V	W	V	V	deg C	#	bits
	0	0.013333	5.68768E-001	5.99022E-003	0.00000E+000	3.40705E-003	3.59960E-001	-1.02882E+000	3.57770E+000	10	...........
	1	0.026667	5.76824E-001	5.99331E-003	0.00000E+000	3.45708E-003	3.59960E-001	-1.02567E+000	3.57770E+000	10	...........
	2	0.04	5.84215E-001	5.99731E-003	0.00000E+000	3.50372E-003	3.59960E-001	-1.03759E+000	3.57770E+000	10	...........
	3	0.053333	5.91217E-001	5.99323E-003	0.00000E+000	3.54330E-003	3.59960E-001	-1.02874E+000	3.57770E+000	10	...........
	4	0.066667	5.97903E-001	5.99583E-003	0.00000E+000	3.58492E-003	3.59960E-001	-1.02545E+000	3.57770E+000	10	...........
	5	0.08	6.04420E-001	5.99208E-003	0.00000E+000	3.62173E-003	3.59960E-001	-1.03773E+000	3.57770E+000	10	...........
	6	0.093333	6.10806E-001	5.99380E-003	0.00000E+000	3.66105E-003	3.59960E-001	-1.02923E+000	3.57770E+000	10	...........
	7	0.106667	6.17164E-001	5.99384E-003	0.00000E+000	3.69918E-003	3.59960E-001	-1.02550E+000	3.57770E+000	10	...........
	8	0.12	6.23331E-001	5.99451E-003	0.00000E+000	3.73656E-003	3.59960E-001	-1.03754E+000	3.57770E+000	10	...........
	9	0.133333	6.29412E-001	5.99504E-003	0.00000E+000	3.77335E-003	3.59960E-001	-1.02873E+000	3.57770E+000	10	...........
	10	0.146667	6.35449E-001	5.99422E-003	0.00000E+000	3.80902E-003	3.59960E-001	-1.02545E+000	3.57770E+000	10	...........
	11	0.16	6.41421E-001	5.99532E-003	0.00000E+000	3.84553E-003	3.59960E-001	-1.03723E+000	3.57770E+000	10	...........
	12	0.173333	6.47381E-001	5.99368E-003	0.00000E+000	3.88019E-003	3.59960E-001	-1.02852E+000	3.57770E+000	10	...........
	13	0.186667	6.53260E-001	5.99601E-003	0.00000E+000	3.91695E-003	3.59960E-001	-1.02490E+000	3.57770E+000	10	...........
	14	0.2	6.59092E-001	5.99143E-003	0.00000E+000	3.94890E-003	3.59960E-001	-1.03693E+000	3.57770E+000	10	...........
	15	0.213333	6.64943E-001	5.99351E-003	0.00000E+000	3.98534E-003	3.59960E-001	-1.02818E+000	3.57770E+000	10	...........
	16	0.226667	6.70790E-001	5.99526E-003	0.00000E+000	4.02156E-003	3.59960E-001	-1.02497E+000	3.57770E+000	10	...........
	17	0.24	6.76592E-001	5.99195E-003	0.00000E+000	4.05410E-003	3.59960E-001	-1.03702E+000	3.57770E+000	10	...........
	18	0.253333	6.82350E-001	5.99953E-003	0.00000E+000	4.09378E-003	3.59960E-001	-1.02836E+000	3.57770E+000	10	...........
	19	0.266667	6.88091E-001	5.99108E-003	0.00000E+000	4.12241E-003	3.59960E-001	-1.02483E+000	3.57770E+000	10	...........
	20	0.28	6.93862E-001	5.99516E-003	0.00000E+000	4.15981E-003	3.59960E-001	-1.03721E+000	3.57770E+000	10	...........
	21	0.293333	6.99593E-001	5.99026E-003	0.00000E+000	4.19074E-003	3.59960E-001	-1.02806E+000	3.57770E+000	10	...........
	22	0.306667	7.05294E-001	5.99385E-003	0.00000E+000	4.22743E-003	3.59960E-001	-1.02485E+000	3.57770E+000	10	...........
	23	0.32	7.11016E-001	5.99118E-003	0.00000E+000	4.25983E-003	3.59960E-001	-1.03697E+000	3.57770E+000	10	...........
	24	0.333333	7.16764E-001	5.99455E-003	0.00000E+000	4.29668E-003	3.59960E-001	-1.02791E+000	3.57770E+000	10	...........
	25	0.346667	7.22483E-001	5.99089E-003	0.00000E+000	4.32832E-003	3.59960E-001	-1.02481E+000	3.57770E+000	10	...........
	26	0.36	7.28211E-001	5.99390E-003	0.00000E+000	4.36482E-003	3.59960E-001	-1.03703E+000	3.57770E+000	10	...........
	27	0.373333	7.33894E-001	5.99500E-003	0.00000E+000	4.39970E-003	3.59960E-001	-1.02810E+000	3.57770E+000	10	...........
	28	0.386667	7.39560E-001	5.99964E-003	0.00000E+000	4.43710E-003	3.59960E-001	-1.02496E+000	3.57770E+000	10	...........
	29	0.4	7.45261E-001	5.99588E-003	0.00000E+000	4.46849E-003	3.59960E-001	-1.03697E+000	3.57770E+000	10	...........
	30	0.413333	7.50944E-001	5.99561E-003	0.00000E+000	4.50237E-003	3.59960E-001	-1.02802E+000	3.57770E+000	10	...........
	31	0.426667	7.56602E-001	5.99548E-003	0.00000E+000	4.53619E-003	3.59960E-001	-1.02491E+000	3.57770E+000	10	...........
	32	0.44	7.62271E-001	5.99540E-003	0.00000E+000	4.57012E-003	3.59960E-001	-1.03722E+000	3.57770E+000	10	...........
	33	0.453333	7.68001E-001	5.99461E-003	0.00000E+000	4.60386E-003	3.59960E-001	-1.02770E+000	3.57770E+000	10	...........
	34	0.466667	7.73648E-001	5.99659E-003	0.00000E+000	4.63925E-003	3.59960E-001	-1.02462E+000	3.57770E+000	10	...........
	35	0.48	7.79319E-001	5.99271E-003	0.00000E+000	4.67023E-003	3.59960E-001	-1.03664E+000	3.57770E+000	10	...........
	36	0.493333	7.85028E-001	5.99615E-003	0.00000E+000	4.70715E-003	3.59960E-001	-1.02762E+000	3.57770E+000	10	...........
	37	0.506667	7.90688E-001	5.99592E-003	0.00000E+000	4.74090E-003	3.59960E-001	-1.02430E+000	3.57770E+000	10	...........
	38	0.52	7.96374E-001	5.99352E-003	0.00000E+000	4.77308E-003	3.59960E-001	-1.03647E+000	3.57770E+000	10	...........
	39	0.533333	8.02050E-001	5.99485E-003	0.00000E+000	4.80816E-003	3.59960E-001	-1.02725E+000	3.57770E+000	10	...........
	40	0.546667	8.07737E-001	5.99489E-003	0.00000E+000	4.84229E-003	3.59960E-001	-1.02454E+000	3.57770E+000	10	...........
	41	0.56	8.13394E-001	5.99042E-003	0.00000E+000	4.87257E-003	3.59960E-001	-1.03677E+000	3.57770E+000	10	...........
	42	0.573333	8.19071E-001	5.99465E-003	0.00000E+000	4.91004E-003	3.59960E-001	-1.02752E+000	3.57770E+000	10	...........
	43	0.586667	8.24735E-001	5.99487E-003	0.00000E+000	4.94418E-003	3.59960E-001	-1.02424E+000	3.57770E+000	10	...........
	44	0.6	8.30370E-001	5.99240E-003	0.00000E+000	4.97591E-003	3.59960E-001	-1.03663E+000	3.57770E+000	10	...........
	45	0.613333	8.36046E-001	5.99482E-003	0.00000E+000	5.01195E-003	3.59960E-001	-1.02728E+000	3.57770E+000	10	...........
	46	0.626667	8.41730E-001	5.99439E-003	0.00000E+000	5.04566E-003	3.59960E-001	-1.02449E+000	3.57770E+000	10	...........
	47	0.64	8.47434E-001	5.99396E-003	0.00000E+000	5.07948E-003	3.59960E-001	-1.03663E+000	3.57895E+000	10	...........
	48	0.653333	8.53113E-001	5.99311E-003	0.00000E+000	5.11281E-003	3.59960E-001	-1.02711E+000	3.58020E+000	10	...........
	49	0.666667	8.58791E-001	5.99328E-003	0.00000E+000	5.14697E-003	3.59960E-001	-1.02411E+000	3.58020E+000	10	...........
	50	0.68	8.64419E-001	5.99350E-003	0.00000E+000	5.18089E-003	3.59960E-001	-1.03651E+000	3.58020E+000	10	...........
	51	0.693333	8.70090E-001	5.99474E-003	0.00000E+000	5.21596E-003	3.59960E-001	-1.02743E+000	3.58020E+000	10	...........
	52	0.706667	8.75724E-001	5.99729E-003	0.00000E+000	5.25197E-003	3.59960E-001	-1.02458E+000	3.58020E+000	10	...........
	53	0.72	8.81363E-001	5.99603E-003	0.00000E+000	5.28468E-003	3.59960E-001	-1.03667E+000	3.58020E+000	10	...........
	54	0.733333	8.86981E-001	5.99335E-003	0.00000E+000	5.31599E-003	3.59960E-001	-1.02733E+000	3.58020E+000	10	...........
	55	0.746667	8.92597E-001	5.99135E-003	0.00000E+000	5.34786E-003	3.59960E-001	-1.02461E+000	3.58020E+000	10	...........
	56	0.76	8.98245E-001	5.99572E-003	0.00000E+000	5.38563E-003	3.59960E-001	-1.03695E+000	3.58020E+000	10	...........
	57	0.773333	9.03846E-001	5.99494E-003	0.00000E+000	5.41850E-003	3.59960E-001	-1.02738E+000	3.58020E+000	10	...........
	58	0.786667	9.09464E-001	5.99564E-003	0.00000E+000	5.45282E-003	3.59960E-001	-1.02427E+000	3.58020E+000	10	...........
	59	0.8	9.15006E-001	5.99285E-003	0.00000E+000	5.48350E-003	3.59960E-001	-1.03617E+000	3.58020E+000	10	...........
	60	0.813333	9.20611E-001	5.99761E-003	0.00000E+000	5.52146E-003	3.59960E-001	-1.02705E+000	3.58020E+000	10	...........
	61	0.826667	9.26157E-001	5.99254E-003	0.00000E+000	5.55003E-003	3.59960E-001	-1.02407E+000	3.58020E+000	10	...........
	62	0.84	9.31701E-001	5.99417E-003	0.00000E+000	5.58477E-003	3.59960E-001	-1.03648E+000	3.58020E+000	10	...........
	63	0.853333	9.37218E-001	5.99385E-003	0.00000E+000	5.61755E-003	3.59960E-001	-1.02669E+000	3.58020E+000	10	...........
	64	0.866667	9.42699E-001	5.99296E-003	0.00000E+000	5.64955E-003	3.59960E-001	-1.02384E+000	3.58020E+000	10	...........
	65	0.88	9.48239E-001	5.99620E-003	0.00000E+000	5.68583E-003	3.59960E-001	-1.03637E+000	3.58020E+000	10	...........
	66	0.893333	9.53699E-001	5.99076E-003	0.00000E+000	5.71338E-003	3.59960E-001	-1.02699E+000	3.58020E+000	10	...........
	67	0.906667	9.59145E-001	5.99556E-003	0.00000E+000	5.75062E-003	3.59960E-001	-1.02405E+000	3.58020E+000	10	...........
	68	0.92	9.64546E-001	5.99256E-003	0.00000E+000	5.78010E-003	3.59960E-001	-1.03628E+000	3.58020E+000	10	...........
	69	0.933333	9.69922E-001	5.99517E-003	0.00000E+000	5.81484E-003	3.59960E-001	-1.02682E+000	3.58020E+000	10	...........
	70	0.946667	9.75344E-001	5.99329E-003	0.00000E+000	5.84552E-003	3.59960E-001	-1.02389E+000	3.58020E+000	10	...........
	71	0.96	9.80687E-001	5.99639E-003	0.00000E+000	5.88058E-003	3.59960E-001	-1.03656E+000	3.58020E+000	10	...........
	72	0.97333	9.86009E-001	5.99224E-003	0.00000E+000	5.90840E-003	3.59960E-001	-1.02686E+000	3.58020E+000	10	...........
	73	0.98667	9.91346E-001	5.99763E-003	0.00000E+000	5.94572E-003	3.59960E-001	-1.02398E+000	3.58020E+000	10	...........
	74	1	9.96588E-001	5.99482E-003	0.00000E+000	5.97437E-003	3.59960E-001	-1.03624E+000	3.58020E+000	10	...........
	75	1.00333	9.99869E-001	5.98399E-003	0.00000E+000	5.98320E-003	3.59960E-001	-1.01070E+000	3.58020E+000	10	...........
STARTTIMEOFFSET	QUANT	74.925	Start Time Offset (s)