File: Data/CV_CRGO300517_1/PWRCCD_CRGO300517_1/CHARGE_DISCHARGE/CHARGE_#680.DTA
EXPLAIN
TAG	PWR800_CHARGE
TITLE	LABEL	PWR Cyclic Charge Discharge (Cell) - Charge Step	Test &Identifier
DATE	LABEL	22-6-2017	Date
TIME	LABEL	16:02:48	Time
NOTES	NOTES	3	&Notes...
	supercap test cell
	0.6mg
	6M KOH
PSTAT	PSTAT	IFC5000-01520	Potentiostat
CAPACITY	QUANT	1.00000E-003	Capacity (A-hr)
CELLTYPE	SELECTOR	1	&Cell Type
WORKINGCONNECTION	SELECTOR	0	&Working Lead
MAXCHARGETIME	VARIABLEANDUNITS	1.00000E+002	s	1.00000E+002	second(s)	Max &Charge Time
CHARGECURRENT	QUANT	6.00000E-003	&Charge Current (A)
VOLTAGEFINISH	TWOPARAM	F	1.00000E-003	3.60000E+003	&Voltage Finish	 I (A) < 	Max Time(s)
SAMPLETIME	QUANT	1.00000E-002	Sa&mple Period (s)
CHARGESTOPAT1	MULTIPARAM	4	1.00000E+000	Charge Stop At &1	Voltage > Limit	V
CHARGESTOPAT2	MULTIPARAM	0	0.00000E+000	Charge Stop At &2	None	N/A
AESBHCSELECTOR	TOGGLE	F	Save Both Half Cells
IRCOMP	TOGGLE	F	IR &Measure
EOC	QUANT	0	Open Circuit (V)
SEQUENCER	TOGGLE	TRUE	Run as Sequence
PSTATMODEL	IQUANT	53	Pstat Model
PSTATSECTION	LABEL	IFC5000-01520	Pstat Section
PSTATSERIALNO	LABEL	01520	Pstat Serial Number
CTRLMODE	IQUANT	0	Control Mode
ELECTROMETER	IQUANT	1	RE=0 or CS=1
IESTAB	IQUANT	0	I/E Stability
CASPEED	IQUANT	4	Control Amp Speed
CONVENTION	IQUANT	1	Current Convention
ICHRANGE	IQUANT	2	Ich Range
ICHRANGEMODE	TOGGLE	T	Ich Auto Range
ICHOFFSETENABLE	TOGGLE	F	Ich Offset Enable
ICHOFFSET	QUANT	0	Ich Offset (V)
ICHFILTER	IQUANT	1	Ich Filter
VCHRANGE	IQUANT	2	Vch Range
VCHRANGEMODE	TOGGLE	T	Vch Auto Range
VCHOFFSETENABLE	TOGGLE	F	Vch Offset Enable
VCHOFFSET	QUANT	0	Vch Offset (V)
VCHFILTER	IQUANT	1	Vch Filter
IERANGELOWERLIMIT	IQUANT	9	I/E Range Lower Limit
IERANGEMODE	TOGGLE	F	I/E AutoRange
IERANGE	IQUANT	10	I/E Range
ACHSELECT	IQUANT	1	Ach Select
ACHRANGE	IQUANT	2	Ach Range
ACHOFFSETENABLE	TOGGLE	F	Ach Offset Enable
ACHOFFSET	QUANT	0	Ach Offset (V)
ACHFILTER	IQUANT	1	Ach Filter
CABLEID	IQUANT	14	Cable ID
DCCALDATE	LABEL	20-10-2016	DC Calibration Date
ACCALDATE	LABEL	12/3/2015	AC Calibration Date
FRAMEWORKVERSION	QUANT	7.01	Framework Version
INSTRUMENTVERSION	LABEL	4.00	Instrument Version
CURVE	TABLE	56
	Pt	T	Vf	Im	Vu	Pwr	Sig	Ach	Temp	IERange	Over
	#	s	V	A	V	W	V	V	deg C	#	bits
	0	0.013333	6.42294E-001	5.99085E-003	0.00000E+000	3.84789E-003	3.59960E-001	-1.15439E+000	3.57780E+000	10	...........
	1	0.026667	6.51356E-001	5.99672E-003	0.00000E+000	3.90600E-003	3.59960E-001	-1.16446E+000	3.57780E+000	10	...........
	2	0.04	6.59696E-001	5.99264E-003	0.00000E+000	3.95332E-003	3.59960E-001	-1.15354E+000	3.57780E+000	10	...........
	3	0.053333	6.67610E-001	5.99639E-003	0.00000E+000	4.00325E-003	3.59960E-001	-1.15435E+000	3.57780E+000	10	...........
	4	0.066667	6.75264E-001	5.99835E-003	0.00000E+000	4.05047E-003	3.59960E-001	-1.16428E+000	3.57780E+000	10	...........
	5	0.08	6.82679E-001	5.99037E-003	0.00000E+000	4.08950E-003	3.59960E-001	-1.15317E+000	3.57780E+000	10	...........
	6	0.093333	6.89989E-001	5.99963E-003	0.00000E+000	4.13968E-003	3.59960E-001	-1.15446E+000	3.57780E+000	10	...........
	7	0.106667	6.97171E-001	5.99432E-003	0.00000E+000	4.17907E-003	3.59960E-001	-1.16392E+000	3.57780E+000	10	...........
	8	0.12	7.04262E-001	5.99619E-003	0.00000E+000	4.22289E-003	3.59960E-001	-1.15301E+000	3.57780E+000	10	...........
	9	0.133333	7.11222E-001	5.99285E-003	0.00000E+000	4.26225E-003	3.59960E-001	-1.15406E+000	3.57780E+000	10	...........
	10	0.146667	7.18176E-001	5.99764E-003	0.00000E+000	4.30736E-003	3.59960E-001	-1.16364E+000	3.57780E+000	10	...........
	11	0.16	7.25051E-001	5.99377E-003	0.00000E+000	4.34579E-003	3.59960E-001	-1.15291E+000	3.57780E+000	10	...........
	12	0.173333	7.31856E-001	5.99659E-003	0.00000E+000	4.38864E-003	3.59960E-001	-1.15408E+000	3.57780E+000	10	...........
	13	0.186667	7.38707E-001	5.99557E-003	0.00000E+000	4.42898E-003	3.59960E-001	-1.16376E+000	3.57780E+000	10	...........
	14	0.2	7.45476E-001	5.99185E-003	0.00000E+000	4.46678E-003	3.59960E-001	-1.15264E+000	3.57780E+000	10	...........
	15	0.213333	7.52230E-001	5.99729E-003	0.00000E+000	4.51134E-003	3.59960E-001	-1.15413E+000	3.57780E+000	10	...........
	16	0.226667	7.58985E-001	5.99387E-003	0.00000E+000	4.54926E-003	3.59960E-001	-1.16348E+000	3.57780E+000	10	...........
	17	0.24	7.65649E-001	5.99318E-003	0.00000E+000	4.58867E-003	3.59960E-001	-1.15278E+000	3.57780E+000	10	...........
	18	0.253333	7.72317E-001	5.99361E-003	0.00000E+000	4.62897E-003	3.59960E-001	-1.15400E+000	3.57780E+000	10	...........
	19	0.266667	7.78925E-001	5.99033E-003	0.00000E+000	4.66602E-003	3.59960E-001	-1.16328E+000	3.57780E+000	10	...........
	20	0.28	7.85577E-001	5.99246E-003	0.00000E+000	4.70754E-003	3.59960E-001	-1.15244E+000	3.57780E+000	10	...........
	21	0.293333	7.92178E-001	5.99523E-003	0.00000E+000	4.74929E-003	3.59960E-001	-1.15437E+000	3.57780E+000	10	...........
	22	0.306667	7.98801E-001	5.99153E-003	0.00000E+000	4.78604E-003	3.59960E-001	-1.16339E+000	3.57780E+000	10	...........
	23	0.32	8.05317E-001	5.99543E-003	0.00000E+000	4.82822E-003	3.59960E-001	-1.15274E+000	3.57780E+000	10	...........
	24	0.333333	8.11856E-001	5.99302E-003	0.00000E+000	4.86547E-003	3.59960E-001	-1.15417E+000	3.57780E+000	10	...........
	25	0.346667	8.18414E-001	5.99256E-003	0.00000E+000	4.90440E-003	3.59960E-001	-1.16335E+000	3.57780E+000	10	...........
	26	0.36	8.24958E-001	5.99401E-003	0.00000E+000	4.94481E-003	3.59960E-001	-1.15262E+000	3.57780E+000	10	...........
	27	0.373333	8.31412E-001	5.99324E-003	0.00000E+000	4.98285E-003	3.59960E-001	-1.15450E+000	3.57780E+000	10	...........
	28	0.386667	8.37873E-001	5.99552E-003	0.00000E+000	5.02349E-003	3.59960E-001	-1.16304E+000	3.57780E+000	10	...........
	29	0.4	8.44293E-001	5.99875E-003	0.00000E+000	5.06470E-003	3.59960E-001	-1.15240E+000	3.57780E+000	10	...........
	30	0.413333	8.50726E-001	5.99330E-003	0.00000E+000	5.09866E-003	3.59960E-001	-1.15415E+000	3.57780E+000	10	...........
	31	0.426667	8.57119E-001	5.99372E-003	0.00000E+000	5.13733E-003	3.59960E-001	-1.16269E+000	3.57780E+000	10	...........
	32	0.44	8.63530E-001	5.99220E-003	0.00000E+000	5.17444E-003	3.59960E-001	-1.15210E+000	3.57780E+000	10	...........
	33	0.453333	8.69922E-001	5.99252E-003	0.00000E+000	5.21303E-003	3.59960E-001	-1.15415E+000	3.57780E+000	10	...........
	34	0.466667	8.76232E-001	5.99134E-003	0.00000E+000	5.24980E-003	3.59960E-001	-1.16258E+000	3.57780E+000	10	...........
	35	0.48	8.82539E-001	5.99860E-003	0.00000E+000	5.29400E-003	3.59960E-001	-1.15195E+000	3.57780E+000	10	...........
	36	0.493333	8.88797E-001	5.99003E-003	0.00000E+000	5.32391E-003	3.59960E-001	-1.15420E+000	3.57780E+000	10	...........
	37	0.506667	8.95046E-001	5.99287E-003	0.00000E+000	5.36390E-003	3.59960E-001	-1.16258E+000	3.57780E+000	10	...........
	38	0.52	9.01212E-001	5.99488E-003	0.00000E+000	5.40266E-003	3.59960E-001	-1.15190E+000	3.57780E+000	10	...........
	39	0.533333	9.07412E-001	5.98894E-003	0.00000E+000	5.43444E-003	3.59960E-001	-1.15383E+000	3.57780E+000	10	...........
	40	0.546667	9.13553E-001	5.99516E-003	0.00000E+000	5.47690E-003	3.59960E-001	-1.16243E+000	3.57780E+000	10	...........
	41	0.56	9.19663E-001	5.99438E-003	0.00000E+000	5.51281E-003	3.59960E-001	-1.15187E+000	3.57780E+000	10	...........
	42	0.573333	9.25785E-001	5.99447E-003	0.00000E+000	5.54959E-003	3.59960E-001	-1.15424E+000	3.57780E+000	10	...........
	43	0.586667	9.31751E-001	5.99210E-003	0.00000E+000	5.58315E-003	3.59960E-001	-1.16237E+000	3.57780E+000	10	...........
	44	0.6	9.37756E-001	5.99742E-003	0.00000E+000	5.62412E-003	3.59960E-001	-1.15162E+000	3.57780E+000	10	...........
	45	0.613333	9.43686E-001	5.99387E-003	0.00000E+000	5.65633E-003	3.59960E-001	-1.15413E+000	3.57780E+000	10	...........
	46	0.626667	9.49627E-001	5.99055E-003	0.00000E+000	5.68878E-003	3.59960E-001	-1.16229E+000	3.57780E+000	10	...........
	47	0.64	9.55531E-001	5.99009E-003	0.00000E+000	5.72372E-003	3.59960E-001	-1.15187E+000	3.57780E+000	10	...........
	48	0.653333	9.61353E-001	5.99209E-003	0.00000E+000	5.76052E-003	3.59960E-001	-1.15432E+000	3.57780E+000	10	...........
	49	0.666667	9.67104E-001	5.99323E-003	0.00000E+000	5.79608E-003	3.59960E-001	-1.16233E+000	3.57780E+000	10	...........
	50	0.68	9.72853E-001	5.99400E-003	0.00000E+000	5.83128E-003	3.59960E-001	-1.15177E+000	3.57780E+000	10	...........
	51	0.693333	9.78581E-001	5.99465E-003	0.00000E+000	5.86625E-003	3.59960E-001	-1.15466E+000	3.57780E+000	10	...........
	52	0.706667	9.84197E-001	5.99620E-003	0.00000E+000	5.90144E-003	3.59960E-001	-1.16244E+000	3.57780E+000	10	...........
	53	0.72	9.89778E-001	5.99404E-003	0.00000E+000	5.93277E-003	3.59960E-001	-1.15195E+000	3.57780E+000	10	...........
	54	0.733333	9.95305E-001	5.99376E-003	0.00000E+000	5.96562E-003	3.59960E-001	-1.15455E+000	3.57780E+000	10	...........
	55	0.74	9.99399E-001	5.98745E-003	0.00000E+000	5.98385E-003	3.59960E-001	-1.15864E+000	3.57780E+000	10	...........
STARTTIMEOFFSET	QUANT	1129.811	Start Time Offset (s)