File: Data/CV_CRGO300517_1/PWRCCD_CRGO300517_1/CHARGE_DISCHARGE/CHARGE_#532.DTA
EXPLAIN
TAG	PWR800_CHARGE
TITLE	LABEL	PWR Cyclic Charge Discharge (Cell) - Charge Step	Test &Identifier
DATE	LABEL	22-6-2017	Date
TIME	LABEL	15:57:09	Time
NOTES	NOTES	3	&Notes...
	supercap test cell
	0.6mg
	6M KOH
PSTAT	PSTAT	IFC5000-01520	Potentiostat
CAPACITY	QUANT	1.00000E-003	Capacity (A-hr)
CELLTYPE	SELECTOR	1	&Cell Type
WORKINGCONNECTION	SELECTOR	0	&Working Lead
MAXCHARGETIME	VARIABLEANDUNITS	1.00000E+002	s	1.00000E+002	second(s)	Max &Charge Time
CHARGECURRENT	QUANT	6.00000E-003	&Charge Current (A)
VOLTAGEFINISH	TWOPARAM	F	1.00000E-003	3.60000E+003	&Voltage Finish	 I (A) < 	Max Time(s)
SAMPLETIME	QUANT	1.00000E-002	Sa&mple Period (s)
CHARGESTOPAT1	MULTIPARAM	4	1.00000E+000	Charge Stop At &1	Voltage > Limit	V
CHARGESTOPAT2	MULTIPARAM	0	0.00000E+000	Charge Stop At &2	None	N/A
AESBHCSELECTOR	TOGGLE	F	Save Both Half Cells
IRCOMP	TOGGLE	F	IR &Measure
EOC	QUANT	0	Open Circuit (V)
SEQUENCER	TOGGLE	TRUE	Run as Sequence
PSTATMODEL	IQUANT	53	Pstat Model
PSTATSECTION	LABEL	IFC5000-01520	Pstat Section
PSTATSERIALNO	LABEL	01520	Pstat Serial Number
CTRLMODE	IQUANT	0	Control Mode
ELECTROMETER	IQUANT	1	RE=0 or CS=1
IESTAB	IQUANT	0	I/E Stability
CASPEED	IQUANT	4	Control Amp Speed
CONVENTION	IQUANT	1	Current Convention
ICHRANGE	IQUANT	2	Ich Range
ICHRANGEMODE	TOGGLE	T	Ich Auto Range
ICHOFFSETENABLE	TOGGLE	F	Ich Offset Enable
ICHOFFSET	QUANT	0	Ich Offset (V)
ICHFILTER	IQUANT	1	Ich Filter
VCHRANGE	IQUANT	2	Vch Range
VCHRANGEMODE	TOGGLE	T	Vch Auto Range
VCHOFFSETENABLE	TOGGLE	F	Vch Offset Enable
VCHOFFSET	QUANT	0	Vch Offset (V)
VCHFILTER	IQUANT	1	Vch Filter
IERANGELOWERLIMIT	IQUANT	9	I/E Range Lower Limit
IERANGEMODE	TOGGLE	F	I/E AutoRange
IERANGE	IQUANT	10	I/E Range
ACHSELECT	IQUANT	1	Ach Select
ACHRANGE	IQUANT	2	Ach Range
ACHOFFSETENABLE	TOGGLE	F	Ach Offset Enable
ACHOFFSET	QUANT	0	Ach Offset (V)
ACHFILTER	IQUANT	1	Ach Filter
CABLEID	IQUANT	14	Cable ID
DCCALDATE	LABEL	20-10-2016	DC Calibration Date
ACCALDATE	LABEL	12/3/2015	AC Calibration Date
FRAMEWORKVERSION	QUANT	7.01	Framework Version
INSTRUMENTVERSION	LABEL	4.00	Instrument Version
CURVE	TABLE	58
	Pt	T	Vf	Im	Vu	Pwr	Sig	Ach	Temp	IERange	Over
	#	s	V	A	V	W	V	V	deg C	#	bits
	0	0.013333	6.33857E-001	5.99802E-003	0.00000E+000	3.80189E-003	3.59960E-001	-1.14318E+000	3.57640E+000	10	...........
	1	0.026667	6.42788E-001	5.99650E-003	0.00000E+000	3.85448E-003	3.59960E-001	-1.14321E+000	3.57640E+000	10	...........
	2	0.04	6.50975E-001	5.99312E-003	0.00000E+000	3.90137E-003	3.59960E-001	-1.13603E+000	3.57640E+000	10	...........
	3	0.053333	6.58750E-001	5.99860E-003	0.00000E+000	3.95158E-003	3.59960E-001	-1.14314E+000	3.57640E+000	10	...........
	4	0.066667	6.66257E-001	5.99443E-003	0.00000E+000	3.99383E-003	3.59960E-001	-1.14307E+000	3.57640E+000	10	...........
	5	0.08	6.73567E-001	5.99202E-003	0.00000E+000	4.03603E-003	3.59960E-001	-1.13576E+000	3.57640E+000	10	...........
	6	0.093333	6.80748E-001	5.99667E-003	0.00000E+000	4.08222E-003	3.59960E-001	-1.14328E+000	3.57640E+000	10	...........
	7	0.106667	6.87772E-001	5.99200E-003	0.00000E+000	4.12113E-003	3.59960E-001	-1.14322E+000	3.57640E+000	10	...........
	8	0.12	6.94732E-001	5.99520E-003	0.00000E+000	4.16506E-003	3.59960E-001	-1.13584E+000	3.57640E+000	10	...........
	9	0.133333	7.01599E-001	5.99639E-003	0.00000E+000	4.20706E-003	3.59960E-001	-1.14313E+000	3.57640E+000	10	...........
	10	0.146667	7.08395E-001	5.98973E-003	0.00000E+000	4.24310E-003	3.59960E-001	-1.14336E+000	3.57640E+000	10	...........
	11	0.16	7.15164E-001	5.98909E-003	0.00000E+000	4.28318E-003	3.59960E-001	-1.13605E+000	3.57640E+000	10	...........
	12	0.173333	7.21927E-001	5.99523E-003	0.00000E+000	4.32812E-003	3.59960E-001	-1.14333E+000	3.57640E+000	10	...........
	13	0.186667	7.28602E-001	5.99563E-003	0.00000E+000	4.36843E-003	3.59960E-001	-1.14353E+000	3.57640E+000	10	...........
	14	0.2	7.35222E-001	5.98797E-003	0.00000E+000	4.40249E-003	3.59960E-001	-1.13594E+000	3.57640E+000	10	...........
	15	0.213333	7.41856E-001	5.99176E-003	0.00000E+000	4.44502E-003	3.59960E-001	-1.14328E+000	3.57640E+000	10	...........
	16	0.226667	7.48520E-001	5.99491E-003	0.00000E+000	4.48731E-003	3.59960E-001	-1.14337E+000	3.57640E+000	10	...........
	17	0.24	7.55101E-001	5.99320E-003	0.00000E+000	4.52547E-003	3.59960E-001	-1.13621E+000	3.57640E+000	10	...........
	18	0.253333	7.61686E-001	5.99765E-003	0.00000E+000	4.56833E-003	3.59960E-001	-1.14301E+000	3.57640E+000	10	...........
	19	0.266667	7.68233E-001	5.99257E-003	0.00000E+000	4.60369E-003	3.59960E-001	-1.14294E+000	3.57640E+000	10	...........
	20	0.28	7.74768E-001	5.99467E-003	0.00000E+000	4.64448E-003	3.59960E-001	-1.13562E+000	3.57640E+000	10	...........
	21	0.293333	7.81282E-001	5.98920E-003	0.00000E+000	4.67926E-003	3.59960E-001	-1.14311E+000	3.57640E+000	10	...........
	22	0.306667	7.87747E-001	5.99326E-003	0.00000E+000	4.72117E-003	3.59960E-001	-1.14320E+000	3.57640E+000	10	...........
	23	0.32	7.94234E-001	6.00037E-003	0.00000E+000	4.76570E-003	3.59960E-001	-1.13587E+000	3.57640E+000	10	...........
	24	0.333333	8.00694E-001	5.99326E-003	0.00000E+000	4.79877E-003	3.59960E-001	-1.14304E+000	3.57640E+000	10	...........
	25	0.346667	8.07140E-001	5.99492E-003	0.00000E+000	4.83874E-003	3.59960E-001	-1.14311E+000	3.57640E+000	10	...........
	26	0.36	8.13574E-001	5.99881E-003	0.00000E+000	4.88047E-003	3.59960E-001	-1.13582E+000	3.57640E+000	10	...........
	27	0.373333	8.20012E-001	5.99156E-003	0.00000E+000	4.91315E-003	3.59960E-001	-1.14308E+000	3.57640E+000	10	...........
	28	0.386667	8.26389E-001	5.99529E-003	0.00000E+000	4.95444E-003	3.59960E-001	-1.14329E+000	3.57640E+000	10	...........
	29	0.4	8.32741E-001	5.99241E-003	0.00000E+000	4.99013E-003	3.59960E-001	-1.13576E+000	3.57640E+000	10	...........
	30	0.413333	8.39114E-001	5.99600E-003	0.00000E+000	5.03133E-003	3.59960E-001	-1.14332E+000	3.57650E+000	10	...........
	31	0.426667	8.45462E-001	5.99435E-003	0.00000E+000	5.06800E-003	3.59960E-001	-1.14323E+000	3.57660E+000	10	...........
	32	0.44	8.51790E-001	5.99759E-003	0.00000E+000	5.10869E-003	3.59960E-001	-1.13585E+000	3.57660E+000	10	...........
	33	0.453333	8.58097E-001	5.99699E-003	0.00000E+000	5.14600E-003	3.59960E-001	-1.14325E+000	3.57660E+000	10	...........
	34	0.466667	8.64389E-001	5.99579E-003	0.00000E+000	5.18270E-003	3.59960E-001	-1.14326E+000	3.57660E+000	10	...........
	35	0.48	8.70687E-001	5.99904E-003	0.00000E+000	5.22329E-003	3.59960E-001	-1.13594E+000	3.57660E+000	10	...........
	36	0.493333	8.76931E-001	5.99203E-003	0.00000E+000	5.25460E-003	3.59960E-001	-1.14332E+000	3.57660E+000	10	...........
	37	0.506667	8.83142E-001	5.99644E-003	0.00000E+000	5.29571E-003	3.59960E-001	-1.14343E+000	3.57660E+000	10	...........
	38	0.52	8.89287E-001	5.99206E-003	0.00000E+000	5.32866E-003	3.59960E-001	-1.13599E+000	3.57660E+000	10	...........
	39	0.533333	8.95495E-001	5.99794E-003	0.00000E+000	5.37113E-003	3.59960E-001	-1.14300E+000	3.57660E+000	10	...........
	40	0.546667	9.01600E-001	5.99444E-003	0.00000E+000	5.40459E-003	3.59960E-001	-1.14313E+000	3.57660E+000	10	...........
	41	0.56	9.07716E-001	5.99518E-003	0.00000E+000	5.44192E-003	3.59960E-001	-1.13589E+000	3.57660E+000	10	...........
	42	0.573333	9.13776E-001	5.99116E-003	0.00000E+000	5.47458E-003	3.59960E-001	-1.14310E+000	3.57660E+000	10	...........
	43	0.586667	9.19856E-001	5.99326E-003	0.00000E+000	5.51293E-003	3.59960E-001	-1.14264E+000	3.57660E+000	10	...........
	44	0.6	9.25893E-001	5.99545E-003	0.00000E+000	5.55114E-003	3.59960E-001	-1.13532E+000	3.57660E+000	10	...........
	45	0.613333	9.31880E-001	5.99205E-003	0.00000E+000	5.58387E-003	3.59960E-001	-1.14255E+000	3.57660E+000	10	...........
	46	0.626667	9.37808E-001	5.99093E-003	0.00000E+000	5.61835E-003	3.59960E-001	-1.14268E+000	3.57660E+000	10	...........
	47	0.64	9.43678E-001	5.99290E-003	0.00000E+000	5.65537E-003	3.59960E-001	-1.13540E+000	3.57660E+000	10	...........
	48	0.653333	9.49583E-001	5.99285E-003	0.00000E+000	5.69071E-003	3.59960E-001	-1.14268E+000	3.57660E+000	10	...........
	49	0.666667	9.55394E-001	5.99513E-003	0.00000E+000	5.72771E-003	3.59960E-001	-1.14251E+000	3.57660E+000	10	...........
	50	0.68	9.61155E-001	5.99376E-003	0.00000E+000	5.76093E-003	3.59960E-001	-1.13508E+000	3.57660E+000	10	...........
	51	0.693333	9.66869E-001	5.99108E-003	0.00000E+000	5.79259E-003	3.59960E-001	-1.14277E+000	3.57660E+000	10	...........
	52	0.706667	9.72579E-001	5.99171E-003	0.00000E+000	5.82741E-003	3.59960E-001	-1.14264E+000	3.57660E+000	10	...........
	53	0.72	9.78306E-001	5.99676E-003	0.00000E+000	5.86667E-003	3.59960E-001	-1.13520E+000	3.57660E+000	10	...........
	54	0.733333	9.83869E-001	5.99403E-003	0.00000E+000	5.89734E-003	3.59960E-001	-1.14226E+000	3.57660E+000	10	...........
	55	0.746667	9.89456E-001	5.99314E-003	0.00000E+000	5.92995E-003	3.59960E-001	-1.14249E+000	3.57660E+000	10	...........
	56	0.76	9.94940E-001	5.98694E-003	0.00000E+000	5.95664E-003	3.59960E-001	-1.13504E+000	3.57660E+000	10	...........
	57	0.766667	9.99099E-001	5.99458E-003	0.00000E+000	5.98918E-003	3.59960E-001	-1.14985E+000	3.57660E+000	10	...........
STARTTIMEOFFSET	QUANT	908.1016	Start Time Offset (s)