File: Data/CV_CRGO300517_1/PWRCCD_CRGO300517_1/CHARGE_DISCHARGE/CHARGE_#738.DTA
EXPLAIN
TAG	PWR800_CHARGE
TITLE	LABEL	PWR Cyclic Charge Discharge (Cell) - Charge Step	Test &Identifier
DATE	LABEL	22-6-2017	Date
TIME	LABEL	16:04:58	Time
NOTES	NOTES	3	&Notes...
	supercap test cell
	0.6mg
	6M KOH
PSTAT	PSTAT	IFC5000-01520	Potentiostat
CAPACITY	QUANT	1.00000E-003	Capacity (A-hr)
CELLTYPE	SELECTOR	1	&Cell Type
WORKINGCONNECTION	SELECTOR	0	&Working Lead
MAXCHARGETIME	VARIABLEANDUNITS	1.00000E+002	s	1.00000E+002	second(s)	Max &Charge Time
CHARGECURRENT	QUANT	6.00000E-003	&Charge Current (A)
VOLTAGEFINISH	TWOPARAM	F	1.00000E-003	3.60000E+003	&Voltage Finish	 I (A) < 	Max Time(s)
SAMPLETIME	QUANT	1.00000E-002	Sa&mple Period (s)
CHARGESTOPAT1	MULTIPARAM	4	1.00000E+000	Charge Stop At &1	Voltage > Limit	V
CHARGESTOPAT2	MULTIPARAM	0	0.00000E+000	Charge Stop At &2	None	N/A
AESBHCSELECTOR	TOGGLE	F	Save Both Half Cells
IRCOMP	TOGGLE	F	IR &Measure
EOC	QUANT	0	Open Circuit (V)
SEQUENCER	TOGGLE	TRUE	Run as Sequence
PSTATMODEL	IQUANT	53	Pstat Model
PSTATSECTION	LABEL	IFC5000-01520	Pstat Section
PSTATSERIALNO	LABEL	01520	Pstat Serial Number
CTRLMODE	IQUANT	0	Control Mode
ELECTROMETER	IQUANT	1	RE=0 or CS=1
IESTAB	IQUANT	0	I/E Stability
CASPEED	IQUANT	4	Control Amp Speed
CONVENTION	IQUANT	1	Current Convention
ICHRANGE	IQUANT	2	Ich Range
ICHRANGEMODE	TOGGLE	T	Ich Auto Range
ICHOFFSETENABLE	TOGGLE	F	Ich Offset Enable
ICHOFFSET	QUANT	0	Ich Offset (V)
ICHFILTER	IQUANT	1	Ich Filter
VCHRANGE	IQUANT	2	Vch Range
VCHRANGEMODE	TOGGLE	T	Vch Auto Range
VCHOFFSETENABLE	TOGGLE	F	Vch Offset Enable
VCHOFFSET	QUANT	0	Vch Offset (V)
VCHFILTER	IQUANT	1	Vch Filter
IERANGELOWERLIMIT	IQUANT	9	I/E Range Lower Limit
IERANGEMODE	TOGGLE	F	I/E AutoRange
IERANGE	IQUANT	10	I/E Range
ACHSELECT	IQUANT	1	Ach Select
ACHRANGE	IQUANT	2	Ach Range
ACHOFFSETENABLE	TOGGLE	F	Ach Offset Enable
ACHOFFSET	QUANT	0	Ach Offset (V)
ACHFILTER	IQUANT	1	Ach Filter
CABLEID	IQUANT	14	Cable ID
DCCALDATE	LABEL	20-10-2016	DC Calibration Date
ACCALDATE	LABEL	12/3/2015	AC Calibration Date
FRAMEWORKVERSION	QUANT	7.01	Framework Version
INSTRUMENTVERSION	LABEL	4.00	Instrument Version
CURVE	TABLE	55
	Pt	T	Vf	Im	Vu	Pwr	Sig	Ach	Temp	IERange	Over
	#	s	V	A	V	W	V	V	deg C	#	bits
	0	0.013333	6.45162E-001	5.99373E-003	0.00000E+000	3.86692E-003	3.59960E-001	-1.15613E+000	3.57730E+000	10	...........
	1	0.026667	6.54322E-001	5.98570E-003	0.00000E+000	3.91658E-003	3.59960E-001	-1.16246E+000	3.57730E+000	10	...........
	2	0.04	6.62731E-001	5.99614E-003	0.00000E+000	3.97382E-003	3.59960E-001	-1.15261E+000	3.57730E+000	10	...........
	3	0.053333	6.70690E-001	5.99860E-003	0.00000E+000	4.02320E-003	3.59960E-001	-1.15660E+000	3.57730E+000	10	...........
	4	0.066667	6.78388E-001	5.99573E-003	0.00000E+000	4.06743E-003	3.59960E-001	-1.16240E+000	3.57730E+000	10	...........
	5	0.08	6.85802E-001	5.99567E-003	0.00000E+000	4.11184E-003	3.59960E-001	-1.15255E+000	3.57730E+000	10	...........
	6	0.093333	6.93159E-001	5.98967E-003	0.00000E+000	4.15180E-003	3.59960E-001	-1.15637E+000	3.57730E+000	10	...........
	7	0.106667	7.00359E-001	5.99214E-003	0.00000E+000	4.19665E-003	3.59960E-001	-1.16228E+000	3.57730E+000	10	...........
	8	0.12	7.07511E-001	5.99435E-003	0.00000E+000	4.24107E-003	3.59960E-001	-1.15275E+000	3.57730E+000	10	...........
	9	0.133333	7.14523E-001	5.98778E-003	0.00000E+000	4.27841E-003	3.59960E-001	-1.15673E+000	3.57730E+000	10	...........
	10	0.146667	7.21551E-001	5.99198E-003	0.00000E+000	4.32352E-003	3.59960E-001	-1.16211E+000	3.57730E+000	10	...........
	11	0.16	7.28430E-001	5.99326E-003	0.00000E+000	4.36567E-003	3.59960E-001	-1.15242E+000	3.57730E+000	10	...........
	12	0.173333	7.35281E-001	5.99302E-003	0.00000E+000	4.40655E-003	3.59960E-001	-1.15669E+000	3.57730E+000	10	...........
	13	0.186667	7.42147E-001	5.99584E-003	0.00000E+000	4.44979E-003	3.59960E-001	-1.16196E+000	3.57730E+000	10	...........
	14	0.2	7.48967E-001	5.99110E-003	0.00000E+000	4.48714E-003	3.59960E-001	-1.15238E+000	3.57730E+000	10	...........
	15	0.213333	7.55789E-001	5.99256E-003	0.00000E+000	4.52911E-003	3.59960E-001	-1.15682E+000	3.57730E+000	10	...........
	16	0.226667	7.62539E-001	5.98876E-003	0.00000E+000	4.56666E-003	3.59960E-001	-1.16197E+000	3.57730E+000	10	...........
	17	0.24	7.69255E-001	5.99323E-003	0.00000E+000	4.61032E-003	3.59960E-001	-1.15255E+000	3.57730E+000	10	...........
	18	0.253333	7.75977E-001	5.99375E-003	0.00000E+000	4.65101E-003	3.59960E-001	-1.15711E+000	3.57730E+000	10	...........
	19	0.266667	7.82669E-001	5.99087E-003	0.00000E+000	4.68887E-003	3.59960E-001	-1.16184E+000	3.57730E+000	10	...........
	20	0.28	7.89330E-001	5.99467E-003	0.00000E+000	4.73177E-003	3.59960E-001	-1.15247E+000	3.57730E+000	10	...........
	21	0.293333	7.96020E-001	5.99493E-003	0.00000E+000	4.77208E-003	3.59960E-001	-1.15715E+000	3.57730E+000	10	...........
	22	0.306667	8.02597E-001	5.99207E-003	0.00000E+000	4.80922E-003	3.59960E-001	-1.16131E+000	3.57730E+000	10	...........
	23	0.32	8.09205E-001	5.99123E-003	0.00000E+000	4.84813E-003	3.59960E-001	-1.15220E+000	3.57730E+000	10	...........
	24	0.333333	8.15753E-001	5.99343E-003	0.00000E+000	4.88916E-003	3.59960E-001	-1.15710E+000	3.57730E+000	10	...........
	25	0.346667	8.22331E-001	5.99390E-003	0.00000E+000	4.92896E-003	3.59960E-001	-1.16109E+000	3.57730E+000	10	...........
	26	0.36	8.28871E-001	5.99278E-003	0.00000E+000	4.96724E-003	3.59960E-001	-1.15205E+000	3.57730E+000	10	...........
	27	0.373333	8.35376E-001	5.98875E-003	0.00000E+000	5.00286E-003	3.59960E-001	-1.15714E+000	3.57705E+000	10	...........
	28	0.386667	8.41849E-001	5.99164E-003	0.00000E+000	5.04406E-003	3.59960E-001	-1.16118E+000	3.57680E+000	10	...........
	29	0.4	8.48379E-001	5.99570E-003	0.00000E+000	5.08663E-003	3.59960E-001	-1.15235E+000	3.57680E+000	10	...........
	30	0.413333	8.54797E-001	5.99160E-003	0.00000E+000	5.12160E-003	3.59960E-001	-1.15720E+000	3.57680E+000	10	...........
	31	0.426667	8.61183E-001	5.99444E-003	0.00000E+000	5.16231E-003	3.59960E-001	-1.16078E+000	3.57680E+000	10	...........
	32	0.44	8.67595E-001	5.99966E-003	0.00000E+000	5.20528E-003	3.59960E-001	-1.15213E+000	3.57680E+000	10	...........
	33	0.453333	8.73986E-001	5.99718E-003	0.00000E+000	5.24145E-003	3.59960E-001	-1.15761E+000	3.57680E+000	10	...........
	34	0.466667	8.80317E-001	5.99102E-003	0.00000E+000	5.27400E-003	3.59960E-001	-1.16073E+000	3.57680E+000	10	...........
	35	0.48	8.86617E-001	5.99416E-003	0.00000E+000	5.31452E-003	3.59960E-001	-1.15202E+000	3.57680E+000	10	...........
	36	0.493333	8.92892E-001	5.99212E-003	0.00000E+000	5.35032E-003	3.59960E-001	-1.15750E+000	3.57680E+000	10	...........
	37	0.506667	8.99145E-001	5.99323E-003	0.00000E+000	5.38878E-003	3.59960E-001	-1.16057E+000	3.57680E+000	10	...........
	38	0.52	9.05348E-001	5.99724E-003	0.00000E+000	5.42959E-003	3.59960E-001	-1.15224E+000	3.57680E+000	10	...........
	39	0.533333	9.11545E-001	5.98942E-003	0.00000E+000	5.45963E-003	3.59960E-001	-1.15785E+000	3.57680E+000	10	...........
	40	0.546667	9.17692E-001	5.99368E-003	0.00000E+000	5.50035E-003	3.59960E-001	-1.16042E+000	3.57680E+000	10	...........
	41	0.56	9.23846E-001	5.99684E-003	0.00000E+000	5.54015E-003	3.59960E-001	-1.15203E+000	3.57680E+000	10	...........
	42	0.573333	9.29896E-001	5.99264E-003	0.00000E+000	5.57253E-003	3.59960E-001	-1.15785E+000	3.57680E+000	10	...........
	43	0.586667	9.35913E-001	5.99210E-003	0.00000E+000	5.60808E-003	3.59960E-001	-1.16066E+000	3.57680E+000	10	...........
	44	0.6	9.41862E-001	5.99591E-003	0.00000E+000	5.64732E-003	3.59960E-001	-1.15189E+000	3.57680E+000	10	...........
	45	0.613333	9.47846E-001	5.99403E-003	0.00000E+000	5.68142E-003	3.59960E-001	-1.15803E+000	3.57680E+000	10	...........
	46	0.626667	9.53761E-001	5.99373E-003	0.00000E+000	5.71658E-003	3.59960E-001	-1.15990E+000	3.57680E+000	10	...........
	47	0.64	9.59531E-001	5.99089E-003	0.00000E+000	5.74845E-003	3.59960E-001	-1.15168E+000	3.57680E+000	10	...........
	48	0.653333	9.65374E-001	5.99728E-003	0.00000E+000	5.78961E-003	3.59960E-001	-1.15800E+000	3.57680E+000	10	...........
	49	0.666667	9.71148E-001	5.98590E-003	0.00000E+000	5.81319E-003	3.59960E-001	-1.15955E+000	3.57680E+000	10	...........
	50	0.68	9.76898E-001	5.99962E-003	0.00000E+000	5.86102E-003	3.59960E-001	-1.15125E+000	3.57680E+000	10	...........
	51	0.693333	9.82524E-001	5.99107E-003	0.00000E+000	5.88637E-003	3.59960E-001	-1.15779E+000	3.57680E+000	10	...........
	52	0.706667	9.88165E-001	5.99273E-003	0.00000E+000	5.92180E-003	3.59960E-001	-1.15960E+000	3.57680E+000	10	...........
	53	0.72	9.93719E-001	5.99073E-003	0.00000E+000	5.95310E-003	3.59960E-001	-1.15173E+000	3.57680E+000	10	...........
	54	0.73	9.98597E-001	5.99616E-003	0.00000E+000	5.98774E-003	3.59960E-001	-1.16363E+000	3.57680E+000	10	...........
STARTTIMEOFFSET	QUANT	1214.675	Start Time Offset (s)