File: Data/CV_CRGO300517_1/PWRCCD_CRGO300517_1/CHARGE_DISCHARGE/CHARGE_#824.DTA
EXPLAIN
TAG	PWR800_CHARGE
TITLE	LABEL	PWR Cyclic Charge Discharge (Cell) - Charge Step	Test &Identifier
DATE	LABEL	22-6-2017	Date
TIME	LABEL	16:08:10	Time
NOTES	NOTES	3	&Notes...
	supercap test cell
	0.6mg
	6M KOH
PSTAT	PSTAT	IFC5000-01520	Potentiostat
CAPACITY	QUANT	1.00000E-003	Capacity (A-hr)
CELLTYPE	SELECTOR	1	&Cell Type
WORKINGCONNECTION	SELECTOR	0	&Working Lead
MAXCHARGETIME	VARIABLEANDUNITS	1.00000E+002	s	1.00000E+002	second(s)	Max &Charge Time
CHARGECURRENT	QUANT	6.00000E-003	&Charge Current (A)
VOLTAGEFINISH	TWOPARAM	F	1.00000E-003	3.60000E+003	&Voltage Finish	 I (A) < 	Max Time(s)
SAMPLETIME	QUANT	1.00000E-002	Sa&mple Period (s)
CHARGESTOPAT1	MULTIPARAM	4	1.00000E+000	Charge Stop At &1	Voltage > Limit	V
CHARGESTOPAT2	MULTIPARAM	0	0.00000E+000	Charge Stop At &2	None	N/A
AESBHCSELECTOR	TOGGLE	F	Save Both Half Cells
IRCOMP	TOGGLE	F	IR &Measure
EOC	QUANT	0	Open Circuit (V)
SEQUENCER	TOGGLE	TRUE	Run as Sequence
PSTATMODEL	IQUANT	53	Pstat Model
PSTATSECTION	LABEL	IFC5000-01520	Pstat Section
PSTATSERIALNO	LABEL	01520	Pstat Serial Number
CTRLMODE	IQUANT	0	Control Mode
ELECTROMETER	IQUANT	1	RE=0 or CS=1
IESTAB	IQUANT	0	I/E Stability
CASPEED	IQUANT	4	Control Amp Speed
CONVENTION	IQUANT	1	Current Convention
ICHRANGE	IQUANT	2	Ich Range
ICHRANGEMODE	TOGGLE	T	Ich Auto Range
ICHOFFSETENABLE	TOGGLE	F	Ich Offset Enable
ICHOFFSET	QUANT	0	Ich Offset (V)
ICHFILTER	IQUANT	1	Ich Filter
VCHRANGE	IQUANT	2	Vch Range
VCHRANGEMODE	TOGGLE	T	Vch Auto Range
VCHOFFSETENABLE	TOGGLE	F	Vch Offset Enable
VCHOFFSET	QUANT	0	Vch Offset (V)
VCHFILTER	IQUANT	1	Vch Filter
IERANGELOWERLIMIT	IQUANT	9	I/E Range Lower Limit
IERANGEMODE	TOGGLE	F	I/E AutoRange
IERANGE	IQUANT	10	I/E Range
ACHSELECT	IQUANT	1	Ach Select
ACHRANGE	IQUANT	2	Ach Range
ACHOFFSETENABLE	TOGGLE	F	Ach Offset Enable
ACHOFFSET	QUANT	0	Ach Offset (V)
ACHFILTER	IQUANT	1	Ach Filter
CABLEID	IQUANT	14	Cable ID
DCCALDATE	LABEL	20-10-2016	DC Calibration Date
ACCALDATE	LABEL	12/3/2015	AC Calibration Date
FRAMEWORKVERSION	QUANT	7.01	Framework Version
INSTRUMENTVERSION	LABEL	4.00	Instrument Version
CURVE	TABLE	54
	Pt	T	Vf	Im	Vu	Pwr	Sig	Ach	Temp	IERange	Over
	#	s	V	A	V	W	V	V	deg C	#	bits
	0	0.013333	6.49759E-001	5.99260E-003	0.00000E+000	3.89375E-003	3.59960E-001	-1.16900E+000	3.57640E+000	10	...........
	1	0.026667	6.58953E-001	5.98951E-003	0.00000E+000	3.94681E-003	3.59960E-001	-1.16176E+000	3.57640E+000	10	...........
	2	0.04	6.67429E-001	5.99083E-003	0.00000E+000	3.99845E-003	3.59960E-001	-1.16932E+000	3.57640E+000	10	...........
	3	0.053333	6.75458E-001	5.99245E-003	0.00000E+000	4.04764E-003	3.59960E-001	-1.16883E+000	3.57640E+000	10	...........
	4	0.066667	6.83184E-001	5.99290E-003	0.00000E+000	4.09426E-003	3.59960E-001	-1.16172E+000	3.57640E+000	10	...........
	5	0.08	6.90707E-001	5.99111E-003	0.00000E+000	4.13810E-003	3.59960E-001	-1.16895E+000	3.57640E+000	10	...........
	6	0.093333	6.98100E-001	5.99519E-003	0.00000E+000	4.18524E-003	3.59960E-001	-1.16816E+000	3.57640E+000	10	...........
	7	0.106667	7.05360E-001	5.99413E-003	0.00000E+000	4.22802E-003	3.59960E-001	-1.16136E+000	3.57640E+000	10	...........
	8	0.12	7.12494E-001	5.98993E-003	0.00000E+000	4.26779E-003	3.59960E-001	-1.16912E+000	3.57640E+000	10	...........
	9	0.133333	7.19659E-001	5.99234E-003	0.00000E+000	4.31244E-003	3.59960E-001	-1.16829E+000	3.57640E+000	10	...........
	10	0.146667	7.26698E-001	5.99518E-003	0.00000E+000	4.35668E-003	3.59960E-001	-1.16116E+000	3.57640E+000	10	...........
	11	0.16	7.33659E-001	5.99799E-003	0.00000E+000	4.40048E-003	3.59960E-001	-1.16887E+000	3.57640E+000	10	...........
	12	0.173333	7.40599E-001	5.99619E-003	0.00000E+000	4.44077E-003	3.59960E-001	-1.16796E+000	3.57640E+000	10	...........
	13	0.186667	7.47539E-001	5.98954E-003	0.00000E+000	4.47741E-003	3.59960E-001	-1.16130E+000	3.57640E+000	10	...........
	14	0.2	7.54383E-001	5.99694E-003	0.00000E+000	4.52399E-003	3.59960E-001	-1.16910E+000	3.57640E+000	10	...........
	15	0.213333	7.61194E-001	5.99431E-003	0.00000E+000	4.56284E-003	3.59960E-001	-1.16744E+000	3.57640E+000	10	...........
	16	0.226667	7.67964E-001	5.99163E-003	0.00000E+000	4.60136E-003	3.59960E-001	-1.16102E+000	3.57640E+000	10	...........
	17	0.24	7.74764E-001	5.99413E-003	0.00000E+000	4.64404E-003	3.59960E-001	-1.16892E+000	3.57640E+000	10	...........
	18	0.253333	7.81512E-001	5.99371E-003	0.00000E+000	4.68415E-003	3.59960E-001	-1.16750E+000	3.57640E+000	10	...........
	19	0.266667	7.88222E-001	5.99070E-003	0.00000E+000	4.72200E-003	3.59960E-001	-1.16103E+000	3.57640E+000	10	...........
	20	0.28	7.94934E-001	5.99082E-003	0.00000E+000	4.76231E-003	3.59960E-001	-1.16917E+000	3.57640E+000	10	...........
	21	0.293333	8.01623E-001	5.98930E-003	0.00000E+000	4.80116E-003	3.59960E-001	-1.16761E+000	3.57640E+000	10	...........
	22	0.306667	8.08247E-001	5.99318E-003	0.00000E+000	4.84397E-003	3.59960E-001	-1.16145E+000	3.57640E+000	10	...........
	23	0.32	8.14912E-001	5.99343E-003	0.00000E+000	4.88411E-003	3.59960E-001	-1.16966E+000	3.57640E+000	10	...........
	24	0.333333	8.21508E-001	5.99402E-003	0.00000E+000	4.92414E-003	3.59960E-001	-1.16775E+000	3.57640E+000	10	...........
	25	0.346667	8.28070E-001	5.99350E-003	0.00000E+000	4.96304E-003	3.59960E-001	-1.16118E+000	3.57640E+000	10	...........
	26	0.36	8.34607E-001	5.99511E-003	0.00000E+000	5.00355E-003	3.59960E-001	-1.16937E+000	3.57640E+000	10	...........
	27	0.373333	8.41146E-001	5.98981E-003	0.00000E+000	5.03830E-003	3.59960E-001	-1.16737E+000	3.57640E+000	10	...........
	28	0.386667	8.47705E-001	5.99370E-003	0.00000E+000	5.08089E-003	3.59960E-001	-1.16134E+000	3.57640E+000	10	...........
	29	0.4	8.54164E-001	5.99511E-003	0.00000E+000	5.12080E-003	3.59960E-001	-1.16930E+000	3.57644E+000	10	...........
	30	0.413333	8.60640E-001	5.99464E-003	0.00000E+000	5.15922E-003	3.59960E-001	-1.16695E+000	3.57670E+000	10	...........
	31	0.426667	8.67047E-001	5.99438E-003	0.00000E+000	5.19741E-003	3.59960E-001	-1.16060E+000	3.57670E+000	10	...........
	32	0.44	8.73500E-001	5.99476E-003	0.00000E+000	5.23642E-003	3.59960E-001	-1.16908E+000	3.57670E+000	10	...........
	33	0.453333	8.79861E-001	5.99786E-003	0.00000E+000	5.27728E-003	3.59960E-001	-1.16665E+000	3.57670E+000	10	...........
	34	0.466667	8.86203E-001	5.99261E-003	0.00000E+000	5.31067E-003	3.59960E-001	-1.16060E+000	3.57670E+000	10	...........
	35	0.48	8.92503E-001	5.99387E-003	0.00000E+000	5.34955E-003	3.59960E-001	-1.16921E+000	3.57670E+000	10	...........
	36	0.493333	8.98803E-001	5.99469E-003	0.00000E+000	5.38804E-003	3.59960E-001	-1.16648E+000	3.57670E+000	10	...........
	37	0.506667	9.05059E-001	5.99462E-003	0.00000E+000	5.42548E-003	3.59960E-001	-1.16068E+000	3.57670E+000	10	...........
	38	0.52	9.11254E-001	5.99690E-003	0.00000E+000	5.46470E-003	3.59960E-001	-1.16943E+000	3.57670E+000	10	...........
	39	0.533333	9.17431E-001	5.99053E-003	0.00000E+000	5.49589E-003	3.59960E-001	-1.16648E+000	3.57670E+000	10	...........
	40	0.546667	9.23657E-001	5.99513E-003	0.00000E+000	5.53744E-003	3.59960E-001	-1.16070E+000	3.57670E+000	10	...........
	41	0.56	9.29738E-001	5.98996E-003	0.00000E+000	5.56910E-003	3.59960E-001	-1.16935E+000	3.57670E+000	10	...........
	42	0.573333	9.35770E-001	5.99138E-003	0.00000E+000	5.60656E-003	3.59960E-001	-1.16618E+000	3.57670E+000	10	...........
	43	0.586667	9.41812E-001	5.99716E-003	0.00000E+000	5.64820E-003	3.59960E-001	-1.16072E+000	3.57670E+000	10	...........
	44	0.6	9.47766E-001	5.99130E-003	0.00000E+000	5.67835E-003	3.59960E-001	-1.16948E+000	3.57670E+000	10	...........
	45	0.613333	9.53663E-001	5.99530E-003	0.00000E+000	5.71750E-003	3.59960E-001	-1.16626E+000	3.57670E+000	10	...........
	46	0.626667	9.59555E-001	5.98939E-003	0.00000E+000	5.74715E-003	3.59960E-001	-1.16058E+000	3.57670E+000	10	...........
	47	0.64	9.65395E-001	5.98917E-003	0.00000E+000	5.78192E-003	3.59960E-001	-1.16953E+000	3.57670E+000	10	...........
	48	0.653333	9.71181E-001	5.99853E-003	0.00000E+000	5.82565E-003	3.59960E-001	-1.16642E+000	3.57670E+000	10	...........
	49	0.666667	9.76908E-001	5.99395E-003	0.00000E+000	5.85554E-003	3.59960E-001	-1.16072E+000	3.57670E+000	10	...........
	50	0.68	9.82565E-001	5.98849E-003	0.00000E+000	5.88408E-003	3.59960E-001	-1.16963E+000	3.57670E+000	10	...........
	51	0.693333	9.88198E-001	5.99327E-003	0.00000E+000	5.92254E-003	3.59960E-001	-1.16587E+000	3.57670E+000	10	...........
	52	0.706667	9.93764E-001	5.99214E-003	0.00000E+000	5.95478E-003	3.59960E-001	-1.16048E+000	3.57670E+000	10	...........
	53	0.716667	9.98583E-001	5.99534E-003	0.00000E+000	5.98684E-003	3.59960E-001	-1.17399E+000	3.57670E+000	10	...........
STARTTIMEOFFSET	QUANT	1338.446	Start Time Offset (s)