File: Data/CV_CRGO300517_1/PWRCCD_CRGO300517_1/CHARGE_DISCHARGE/CHARGE_#419.DTA
EXPLAIN
TAG	PWR800_CHARGE
TITLE	LABEL	PWR Cyclic Charge Discharge (Cell) - Charge Step	Test &Identifier
DATE	LABEL	22-6-2017	Date
TIME	LABEL	15:52:43	Time
NOTES	NOTES	3	&Notes...
	supercap test cell
	0.6mg
	6M KOH
PSTAT	PSTAT	IFC5000-01520	Potentiostat
CAPACITY	QUANT	1.00000E-003	Capacity (A-hr)
CELLTYPE	SELECTOR	1	&Cell Type
WORKINGCONNECTION	SELECTOR	0	&Working Lead
MAXCHARGETIME	VARIABLEANDUNITS	1.00000E+002	s	1.00000E+002	second(s)	Max &Charge Time
CHARGECURRENT	QUANT	6.00000E-003	&Charge Current (A)
VOLTAGEFINISH	TWOPARAM	F	1.00000E-003	3.60000E+003	&Voltage Finish	 I (A) < 	Max Time(s)
SAMPLETIME	QUANT	1.00000E-002	Sa&mple Period (s)
CHARGESTOPAT1	MULTIPARAM	4	1.00000E+000	Charge Stop At &1	Voltage > Limit	V
CHARGESTOPAT2	MULTIPARAM	0	0.00000E+000	Charge Stop At &2	None	N/A
AESBHCSELECTOR	TOGGLE	F	Save Both Half Cells
IRCOMP	TOGGLE	F	IR &Measure
EOC	QUANT	0	Open Circuit (V)
SEQUENCER	TOGGLE	TRUE	Run as Sequence
PSTATMODEL	IQUANT	53	Pstat Model
PSTATSECTION	LABEL	IFC5000-01520	Pstat Section
PSTATSERIALNO	LABEL	01520	Pstat Serial Number
CTRLMODE	IQUANT	0	Control Mode
ELECTROMETER	IQUANT	1	RE=0 or CS=1
IESTAB	IQUANT	0	I/E Stability
CASPEED	IQUANT	4	Control Amp Speed
CONVENTION	IQUANT	1	Current Convention
ICHRANGE	IQUANT	2	Ich Range
ICHRANGEMODE	TOGGLE	T	Ich Auto Range
ICHOFFSETENABLE	TOGGLE	F	Ich Offset Enable
ICHOFFSET	QUANT	0	Ich Offset (V)
ICHFILTER	IQUANT	1	Ich Filter
VCHRANGE	IQUANT	2	Vch Range
VCHRANGEMODE	TOGGLE	T	Vch Auto Range
VCHOFFSETENABLE	TOGGLE	F	Vch Offset Enable
VCHOFFSET	QUANT	0	Vch Offset (V)
VCHFILTER	IQUANT	1	Vch Filter
IERANGELOWERLIMIT	IQUANT	9	I/E Range Lower Limit
IERANGEMODE	TOGGLE	F	I/E AutoRange
IERANGE	IQUANT	10	I/E Range
ACHSELECT	IQUANT	1	Ach Select
ACHRANGE	IQUANT	2	Ach Range
ACHOFFSETENABLE	TOGGLE	F	Ach Offset Enable
ACHOFFSET	QUANT	0	Ach Offset (V)
ACHFILTER	IQUANT	1	Ach Filter
CABLEID	IQUANT	14	Cable ID
DCCALDATE	LABEL	20-10-2016	DC Calibration Date
ACCALDATE	LABEL	12/3/2015	AC Calibration Date
FRAMEWORKVERSION	QUANT	7.01	Framework Version
INSTRUMENTVERSION	LABEL	4.00	Instrument Version
CURVE	TABLE	60
	Pt	T	Vf	Im	Vu	Pwr	Sig	Ach	Temp	IERange	Over
	#	s	V	A	V	W	V	V	deg C	#	bits
	0	0.013333	6.26097E-001	5.99051E-003	0.00000E+000	3.75064E-003	3.59960E-001	-1.13938E+000	3.57790E+000	10	...........
	1	0.026667	6.34900E-001	6.00178E-003	0.00000E+000	3.81053E-003	3.59960E-001	-1.12947E+000	3.57790E+000	10	...........
	2	0.04	6.42978E-001	5.99688E-003	0.00000E+000	3.85586E-003	3.59960E-001	-1.13252E+000	3.57790E+000	10	...........
	3	0.053333	6.50626E-001	5.99178E-003	0.00000E+000	3.89841E-003	3.59960E-001	-1.13915E+000	3.57790E+000	10	...........
	4	0.066667	6.57990E-001	5.99367E-003	0.00000E+000	3.94377E-003	3.59960E-001	-1.12917E+000	3.57790E+000	10	...........
	5	0.08	6.65189E-001	5.99618E-003	0.00000E+000	3.98859E-003	3.59960E-001	-1.13248E+000	3.57790E+000	10	...........
	6	0.093333	6.72265E-001	5.99296E-003	0.00000E+000	4.02886E-003	3.59960E-001	-1.13923E+000	3.57790E+000	10	...........
	7	0.106667	6.79179E-001	5.99621E-003	0.00000E+000	4.07250E-003	3.59960E-001	-1.12945E+000	3.57790E+000	10	...........
	8	0.12	6.85975E-001	5.99269E-003	0.00000E+000	4.11084E-003	3.59960E-001	-1.13268E+000	3.57790E+000	10	...........
	9	0.133333	6.92762E-001	5.99205E-003	0.00000E+000	4.15106E-003	3.59960E-001	-1.13908E+000	3.57790E+000	10	...........
	10	0.146667	6.99434E-001	5.99392E-003	0.00000E+000	4.19235E-003	3.59960E-001	-1.12930E+000	3.57790E+000	10	...........
	11	0.16	7.06097E-001	5.99553E-003	0.00000E+000	4.23343E-003	3.59960E-001	-1.13239E+000	3.57790E+000	10	...........
	12	0.173333	7.12714E-001	5.99504E-003	0.00000E+000	4.27275E-003	3.59960E-001	-1.13887E+000	3.57790E+000	10	...........
	13	0.186667	7.19351E-001	5.99997E-003	0.00000E+000	4.31608E-003	3.59960E-001	-1.12936E+000	3.57790E+000	10	...........
	14	0.2	7.25875E-001	5.99643E-003	0.00000E+000	4.35266E-003	3.59960E-001	-1.13207E+000	3.57790E+000	10	...........
	15	0.213333	7.32424E-001	5.99496E-003	0.00000E+000	4.39085E-003	3.59960E-001	-1.13837E+000	3.57790E+000	10	...........
	16	0.226667	7.38934E-001	5.99407E-003	0.00000E+000	4.42922E-003	3.59960E-001	-1.12873E+000	3.57790E+000	10	...........
	17	0.24	7.45377E-001	5.99396E-003	0.00000E+000	4.46776E-003	3.59960E-001	-1.13250E+000	3.57790E+000	10	...........
	18	0.253333	7.51871E-001	5.99111E-003	0.00000E+000	4.50454E-003	3.59960E-001	-1.13841E+000	3.57790E+000	10	...........
	19	0.266667	7.58330E-001	5.99296E-003	0.00000E+000	4.54464E-003	3.59960E-001	-1.12880E+000	3.57790E+000	10	...........
	20	0.28	7.64742E-001	5.99422E-003	0.00000E+000	4.58403E-003	3.59960E-001	-1.13201E+000	3.57790E+000	10	...........
	21	0.293333	7.71218E-001	5.99393E-003	0.00000E+000	4.62263E-003	3.59960E-001	-1.13809E+000	3.57790E+000	10	...........
	22	0.306667	7.77647E-001	5.99547E-003	0.00000E+000	4.66236E-003	3.59960E-001	-1.12871E+000	3.57790E+000	10	...........
	23	0.32	7.84082E-001	5.99252E-003	0.00000E+000	4.69862E-003	3.59960E-001	-1.13251E+000	3.57790E+000	10	...........
	24	0.333333	7.90423E-001	5.99361E-003	0.00000E+000	4.73749E-003	3.59960E-001	-1.13809E+000	3.57790E+000	10	...........
	25	0.346667	7.96800E-001	5.99543E-003	0.00000E+000	4.77716E-003	3.59960E-001	-1.12864E+000	3.57790E+000	10	...........
	26	0.36	8.03124E-001	5.99938E-003	0.00000E+000	4.81825E-003	3.59960E-001	-1.13239E+000	3.57790E+000	10	...........
	27	0.373333	8.09485E-001	5.99332E-003	0.00000E+000	4.85150E-003	3.59960E-001	-1.13794E+000	3.57790E+000	10	...........
	28	0.386667	8.15803E-001	5.99359E-003	0.00000E+000	4.88959E-003	3.59960E-001	-1.12872E+000	3.57790E+000	10	...........
	29	0.4	8.22133E-001	5.99555E-003	0.00000E+000	4.92914E-003	3.59960E-001	-1.13242E+000	3.57790E+000	10	...........
	30	0.413333	8.28406E-001	5.99077E-003	0.00000E+000	4.96278E-003	3.59960E-001	-1.13772E+000	3.57790E+000	10	...........
	31	0.426667	8.34650E-001	5.99202E-003	0.00000E+000	5.00124E-003	3.59960E-001	-1.12840E+000	3.57790E+000	10	...........
	32	0.44	8.40918E-001	5.99324E-003	0.00000E+000	5.03982E-003	3.59960E-001	-1.13258E+000	3.57790E+000	10	...........
	33	0.453333	8.47194E-001	5.99683E-003	0.00000E+000	5.08047E-003	3.59960E-001	-1.13804E+000	3.57790E+000	10	...........
	34	0.466667	8.53422E-001	5.99444E-003	0.00000E+000	5.11579E-003	3.59960E-001	-1.12856E+000	3.57790E+000	10	...........
	35	0.48	8.59673E-001	5.99584E-003	0.00000E+000	5.15446E-003	3.59960E-001	-1.13236E+000	3.57783E+000	10	...........
	36	0.493333	8.65886E-001	5.99651E-003	0.00000E+000	5.19229E-003	3.59960E-001	-1.13754E+000	3.57760E+000	10	...........
	37	0.506667	8.72154E-001	5.99443E-003	0.00000E+000	5.22807E-003	3.59960E-001	-1.12860E+000	3.57760E+000	10	...........
	38	0.52	8.78299E-001	5.99424E-003	0.00000E+000	5.26473E-003	3.59960E-001	-1.13231E+000	3.57760E+000	10	...........
	39	0.533333	8.84424E-001	5.99517E-003	0.00000E+000	5.30227E-003	3.59960E-001	-1.13734E+000	3.57760E+000	10	...........
	40	0.546667	8.90563E-001	5.99691E-003	0.00000E+000	5.34063E-003	3.59960E-001	-1.12793E+000	3.57760E+000	10	...........
	41	0.56	8.96607E-001	5.99615E-003	0.00000E+000	5.37619E-003	3.59960E-001	-1.13227E+000	3.57760E+000	10	...........
	42	0.573333	9.02660E-001	5.99381E-003	0.00000E+000	5.41038E-003	3.59960E-001	-1.13711E+000	3.57760E+000	10	...........
	43	0.586667	9.08763E-001	5.99522E-003	0.00000E+000	5.44823E-003	3.59960E-001	-1.12819E+000	3.57760E+000	10	...........
	44	0.6	9.14769E-001	5.99139E-003	0.00000E+000	5.48074E-003	3.59960E-001	-1.13234E+000	3.57760E+000	10	...........
	45	0.613333	9.20802E-001	5.99353E-003	0.00000E+000	5.51886E-003	3.59960E-001	-1.13703E+000	3.57760E+000	10	...........
	46	0.626667	9.26749E-001	5.99447E-003	0.00000E+000	5.55537E-003	3.59960E-001	-1.12815E+000	3.57760E+000	10	...........
	47	0.64	9.32707E-001	5.99561E-003	0.00000E+000	5.59214E-003	3.59960E-001	-1.13253E+000	3.57760E+000	10	...........
	48	0.653333	9.38565E-001	5.99481E-003	0.00000E+000	5.62652E-003	3.59960E-001	-1.13705E+000	3.57760E+000	10	...........
	49	0.666667	9.44413E-001	5.99618E-003	0.00000E+000	5.66287E-003	3.59960E-001	-1.12810E+000	3.57760E+000	10	...........
	50	0.68	9.50256E-001	5.99634E-003	0.00000E+000	5.69805E-003	3.59960E-001	-1.13235E+000	3.57760E+000	10	...........
	51	0.693333	9.56018E-001	5.99384E-003	0.00000E+000	5.73022E-003	3.59960E-001	-1.13673E+000	3.57760E+000	10	...........
	52	0.706667	9.61725E-001	5.99556E-003	0.00000E+000	5.76608E-003	3.59960E-001	-1.12807E+000	3.57760E+000	10	...........
	53	0.72	9.67418E-001	5.99324E-003	0.00000E+000	5.79797E-003	3.59960E-001	-1.13255E+000	3.57760E+000	10	...........
	54	0.733333	9.73072E-001	5.99311E-003	0.00000E+000	5.83173E-003	3.59960E-001	-1.13683E+000	3.57760E+000	10	...........
	55	0.746667	9.78724E-001	5.99077E-003	0.00000E+000	5.86330E-003	3.59960E-001	-1.12822E+000	3.57760E+000	10	...........
	56	0.76	9.84278E-001	5.99453E-003	0.00000E+000	5.90029E-003	3.59960E-001	-1.13277E+000	3.57760E+000	10	...........
	57	0.773333	9.89799E-001	5.99452E-003	0.00000E+000	5.93337E-003	3.59960E-001	-1.13697E+000	3.57760E+000	10	...........
	58	0.786667	9.95296E-001	5.99284E-003	0.00000E+000	5.96465E-003	3.59960E-001	-1.12824E+000	3.57760E+000	10	...........
	59	0.793333	9.99404E-001	5.99177E-003	0.00000E+000	5.98820E-003	3.59960E-001	-1.14133E+000	3.57760E+000	10	...........
STARTTIMEOFFSET	QUANT	732.7468	Start Time Offset (s)