File: Data/CV_CRGO300517_1/PWRCCD_CRGO300517_1/CHARGE_DISCHARGE/CHARGE_#972.DTA
EXPLAIN
TAG	PWR800_CHARGE
TITLE	LABEL	PWR Cyclic Charge Discharge (Cell) - Charge Step	Test &Identifier
DATE	LABEL	22-6-2017	Date
TIME	LABEL	16:13:37	Time
NOTES	NOTES	3	&Notes...
	supercap test cell
	0.6mg
	6M KOH
PSTAT	PSTAT	IFC5000-01520	Potentiostat
CAPACITY	QUANT	1.00000E-003	Capacity (A-hr)
CELLTYPE	SELECTOR	1	&Cell Type
WORKINGCONNECTION	SELECTOR	0	&Working Lead
MAXCHARGETIME	VARIABLEANDUNITS	1.00000E+002	s	1.00000E+002	second(s)	Max &Charge Time
CHARGECURRENT	QUANT	6.00000E-003	&Charge Current (A)
VOLTAGEFINISH	TWOPARAM	F	1.00000E-003	3.60000E+003	&Voltage Finish	 I (A) < 	Max Time(s)
SAMPLETIME	QUANT	1.00000E-002	Sa&mple Period (s)
CHARGESTOPAT1	MULTIPARAM	4	1.00000E+000	Charge Stop At &1	Voltage > Limit	V
CHARGESTOPAT2	MULTIPARAM	0	0.00000E+000	Charge Stop At &2	None	N/A
AESBHCSELECTOR	TOGGLE	F	Save Both Half Cells
IRCOMP	TOGGLE	F	IR &Measure
EOC	QUANT	0	Open Circuit (V)
SEQUENCER	TOGGLE	TRUE	Run as Sequence
PSTATMODEL	IQUANT	53	Pstat Model
PSTATSECTION	LABEL	IFC5000-01520	Pstat Section
PSTATSERIALNO	LABEL	01520	Pstat Serial Number
CTRLMODE	IQUANT	0	Control Mode
ELECTROMETER	IQUANT	1	RE=0 or CS=1
IESTAB	IQUANT	0	I/E Stability
CASPEED	IQUANT	4	Control Amp Speed
CONVENTION	IQUANT	1	Current Convention
ICHRANGE	IQUANT	2	Ich Range
ICHRANGEMODE	TOGGLE	T	Ich Auto Range
ICHOFFSETENABLE	TOGGLE	F	Ich Offset Enable
ICHOFFSET	QUANT	0	Ich Offset (V)
ICHFILTER	IQUANT	1	Ich Filter
VCHRANGE	IQUANT	2	Vch Range
VCHRANGEMODE	TOGGLE	T	Vch Auto Range
VCHOFFSETENABLE	TOGGLE	F	Vch Offset Enable
VCHOFFSET	QUANT	0	Vch Offset (V)
VCHFILTER	IQUANT	1	Vch Filter
IERANGELOWERLIMIT	IQUANT	9	I/E Range Lower Limit
IERANGEMODE	TOGGLE	F	I/E AutoRange
IERANGE	IQUANT	10	I/E Range
ACHSELECT	IQUANT	1	Ach Select
ACHRANGE	IQUANT	2	Ach Range
ACHOFFSETENABLE	TOGGLE	F	Ach Offset Enable
ACHOFFSET	QUANT	0	Ach Offset (V)
ACHFILTER	IQUANT	1	Ach Filter
CABLEID	IQUANT	14	Cable ID
DCCALDATE	LABEL	20-10-2016	DC Calibration Date
ACCALDATE	LABEL	12/3/2015	AC Calibration Date
FRAMEWORKVERSION	QUANT	7.01	Framework Version
INSTRUMENTVERSION	LABEL	4.00	Instrument Version
CURVE	TABLE	53
	Pt	T	Vf	Im	Vu	Pwr	Sig	Ach	Temp	IERange	Over
	#	s	V	A	V	W	V	V	deg C	#	bits
	0	0.013333	6.55469E-001	5.99664E-003	0.00000E+000	3.93061E-003	3.59960E-001	-1.17163E+000	3.57780E+000	10	...........
	1	0.026667	6.64776E-001	5.99576E-003	0.00000E+000	3.98584E-003	3.59960E-001	-1.18264E+000	3.57780E+000	10	...........
	2	0.04	6.73424E-001	5.98982E-003	0.00000E+000	4.03369E-003	3.59960E-001	-1.17295E+000	3.57780E+000	10	...........
	3	0.053333	6.81559E-001	5.99694E-003	0.00000E+000	4.08727E-003	3.59960E-001	-1.17180E+000	3.57780E+000	10	...........
	4	0.066667	6.89394E-001	5.99055E-003	0.00000E+000	4.12985E-003	3.59960E-001	-1.18283E+000	3.57780E+000	10	...........
	5	0.08	6.97071E-001	5.99105E-003	0.00000E+000	4.17618E-003	3.59960E-001	-1.17305E+000	3.57780E+000	10	...........
	6	0.093333	7.04571E-001	5.99346E-003	0.00000E+000	4.22282E-003	3.59960E-001	-1.17169E+000	3.57780E+000	10	...........
	7	0.106667	7.11951E-001	5.98992E-003	0.00000E+000	4.26453E-003	3.59960E-001	-1.18270E+000	3.57780E+000	10	...........
	8	0.12	7.19271E-001	5.99367E-003	0.00000E+000	4.31107E-003	3.59960E-001	-1.17329E+000	3.57780E+000	10	...........
	9	0.133333	7.26490E-001	5.99035E-003	0.00000E+000	4.35193E-003	3.59960E-001	-1.17166E+000	3.57780E+000	10	...........
	10	0.146667	7.33608E-001	5.99318E-003	0.00000E+000	4.39664E-003	3.59960E-001	-1.18271E+000	3.57780E+000	10	...........
	11	0.16	7.40681E-001	5.99283E-003	0.00000E+000	4.43877E-003	3.59960E-001	-1.17261E+000	3.57780E+000	10	...........
	12	0.173333	7.47739E-001	5.99684E-003	0.00000E+000	4.48407E-003	3.59960E-001	-1.17120E+000	3.57780E+000	10	...........
	13	0.186667	7.54733E-001	5.99737E-003	0.00000E+000	4.52641E-003	3.59960E-001	-1.18240E+000	3.57780E+000	10	...........
	14	0.2	7.61705E-001	5.99035E-003	0.00000E+000	4.56288E-003	3.59960E-001	-1.17270E+000	3.57780E+000	10	...........
	15	0.213333	7.68602E-001	5.99263E-003	0.00000E+000	4.60595E-003	3.59960E-001	-1.17096E+000	3.57780E+000	10	...........
	16	0.226667	7.75492E-001	5.99505E-003	0.00000E+000	4.64912E-003	3.59960E-001	-1.18217E+000	3.57780E+000	10	...........
	17	0.24	7.82392E-001	5.99036E-003	0.00000E+000	4.68681E-003	3.59960E-001	-1.17242E+000	3.57780E+000	10	...........
	18	0.253333	7.89217E-001	5.99476E-003	0.00000E+000	4.73117E-003	3.59960E-001	-1.17105E+000	3.57780E+000	10	...........
	19	0.266667	7.96061E-001	5.99771E-003	0.00000E+000	4.77455E-003	3.59960E-001	-1.18230E+000	3.57780E+000	10	...........
	20	0.28	8.02824E-001	5.99617E-003	0.00000E+000	4.81387E-003	3.59960E-001	-1.17259E+000	3.57780E+000	10	...........
	21	0.293333	8.09555E-001	5.98995E-003	0.00000E+000	4.84920E-003	3.59960E-001	-1.17075E+000	3.57780E+000	10	...........
	22	0.306667	8.16310E-001	5.99200E-003	0.00000E+000	4.89133E-003	3.59960E-001	-1.18198E+000	3.57780E+000	10	...........
	23	0.32	8.22997E-001	5.99785E-003	0.00000E+000	4.93621E-003	3.59960E-001	-1.17285E+000	3.57780E+000	10	...........
	24	0.333333	8.29642E-001	5.99248E-003	0.00000E+000	4.97161E-003	3.59960E-001	-1.17106E+000	3.57780E+000	10	...........
	25	0.346667	8.36281E-001	5.99343E-003	0.00000E+000	5.01219E-003	3.59960E-001	-1.18216E+000	3.57780E+000	10	...........
	26	0.36	8.42897E-001	5.99059E-003	0.00000E+000	5.04945E-003	3.59960E-001	-1.17238E+000	3.57780E+000	10	...........
	27	0.373333	8.49508E-001	5.99040E-003	0.00000E+000	5.08890E-003	3.59960E-001	-1.17082E+000	3.57780E+000	10	...........
	28	0.386667	8.56078E-001	5.99235E-003	0.00000E+000	5.12992E-003	3.59960E-001	-1.18203E+000	3.57780E+000	10	...........
	29	0.4	8.62588E-001	5.99253E-003	0.00000E+000	5.16908E-003	3.59960E-001	-1.17258E+000	3.57780E+000	10	...........
	30	0.413333	8.69113E-001	5.99229E-003	0.00000E+000	5.20798E-003	3.59960E-001	-1.17069E+000	3.57780E+000	10	...........
	31	0.426667	8.75618E-001	5.99249E-003	0.00000E+000	5.24713E-003	3.59960E-001	-1.18156E+000	3.57780E+000	10	...........
	32	0.44	8.82035E-001	5.99203E-003	0.00000E+000	5.28518E-003	3.59960E-001	-1.17201E+000	3.57780E+000	10	...........
	33	0.453333	8.88428E-001	5.99523E-003	0.00000E+000	5.32633E-003	3.59960E-001	-1.17072E+000	3.57780E+000	10	...........
	34	0.466667	8.94785E-001	5.99158E-003	0.00000E+000	5.36118E-003	3.59960E-001	-1.18179E+000	3.57780E+000	10	...........
	35	0.48	9.01112E-001	5.99427E-003	0.00000E+000	5.40151E-003	3.59960E-001	-1.17160E+000	3.57780E+000	10	...........
	36	0.493333	9.07418E-001	5.99249E-003	0.00000E+000	5.43769E-003	3.59960E-001	-1.17001E+000	3.57780E+000	10	...........
	37	0.506667	9.13652E-001	5.99687E-003	0.00000E+000	5.47905E-003	3.59960E-001	-1.18113E+000	3.57780E+000	10	...........
	38	0.52	9.19908E-001	5.99454E-003	0.00000E+000	5.51443E-003	3.59960E-001	-1.17173E+000	3.57780E+000	10	...........
	39	0.533333	9.26104E-001	5.99668E-003	0.00000E+000	5.55355E-003	3.59960E-001	-1.17009E+000	3.57780E+000	10	...........
	40	0.546667	9.32200E-001	5.99361E-003	0.00000E+000	5.58725E-003	3.59960E-001	-1.18100E+000	3.57780E+000	10	...........
	41	0.56	9.38279E-001	5.99205E-003	0.00000E+000	5.62221E-003	3.59960E-001	-1.17132E+000	3.57780E+000	10	...........
	42	0.573333	9.44287E-001	5.98895E-003	0.00000E+000	5.65529E-003	3.59960E-001	-1.16985E+000	3.57780E+000	10	...........
	43	0.586667	9.50303E-001	5.99514E-003	0.00000E+000	5.69720E-003	3.59960E-001	-1.18110E+000	3.57780E+000	10	...........
	44	0.6	9.56224E-001	5.99051E-003	0.00000E+000	5.72827E-003	3.59960E-001	-1.17176E+000	3.57780E+000	10	...........
	45	0.613333	9.62122E-001	5.99338E-003	0.00000E+000	5.76637E-003	3.59960E-001	-1.17000E+000	3.57780E+000	10	...........
	46	0.626667	9.67937E-001	5.99673E-003	0.00000E+000	5.80446E-003	3.59960E-001	-1.18098E+000	3.57780E+000	10	...........
	47	0.64	9.73722E-001	5.99001E-003	0.00000E+000	5.83260E-003	3.59960E-001	-1.17148E+000	3.57780E+000	10	...........
	48	0.653333	9.79505E-001	5.99701E-003	0.00000E+000	5.87411E-003	3.59960E-001	-1.17014E+000	3.57780E+000	10	...........
	49	0.666667	9.85141E-001	5.99470E-003	0.00000E+000	5.90562E-003	3.59960E-001	-1.18116E+000	3.57780E+000	10	...........
	50	0.68	9.90791E-001	5.99559E-003	0.00000E+000	5.94037E-003	3.59960E-001	-1.17166E+000	3.57780E+000	10	...........
	51	0.693333	9.96336E-001	5.99074E-003	0.00000E+000	5.96879E-003	3.59960E-001	-1.16983E+000	3.57780E+000	10	...........
	52	0.696667	9.99839E-001	5.99571E-003	0.00000E+000	5.99474E-003	3.59960E-001	-1.18083E+000	3.57780E+000	10	...........
STARTTIMEOFFSET	QUANT	1546.545	Start Time Offset (s)