File: Data/CV_CRGO300517_1/PWRCCD_CRGO300517_1/CHARGE_DISCHARGE/CHARGE_#581.DTA
EXPLAIN
TAG	PWR800_CHARGE
TITLE	LABEL	PWR Cyclic Charge Discharge (Cell) - Charge Step	Test &Identifier
DATE	LABEL	22-6-2017	Date
TIME	LABEL	15:59:02	Time
NOTES	NOTES	3	&Notes...
	supercap test cell
	0.6mg
	6M KOH
PSTAT	PSTAT	IFC5000-01520	Potentiostat
CAPACITY	QUANT	1.00000E-003	Capacity (A-hr)
CELLTYPE	SELECTOR	1	&Cell Type
WORKINGCONNECTION	SELECTOR	0	&Working Lead
MAXCHARGETIME	VARIABLEANDUNITS	1.00000E+002	s	1.00000E+002	second(s)	Max &Charge Time
CHARGECURRENT	QUANT	6.00000E-003	&Charge Current (A)
VOLTAGEFINISH	TWOPARAM	F	1.00000E-003	3.60000E+003	&Voltage Finish	 I (A) < 	Max Time(s)
SAMPLETIME	QUANT	1.00000E-002	Sa&mple Period (s)
CHARGESTOPAT1	MULTIPARAM	4	1.00000E+000	Charge Stop At &1	Voltage > Limit	V
CHARGESTOPAT2	MULTIPARAM	0	0.00000E+000	Charge Stop At &2	None	N/A
AESBHCSELECTOR	TOGGLE	F	Save Both Half Cells
IRCOMP	TOGGLE	F	IR &Measure
EOC	QUANT	0	Open Circuit (V)
SEQUENCER	TOGGLE	TRUE	Run as Sequence
PSTATMODEL	IQUANT	53	Pstat Model
PSTATSECTION	LABEL	IFC5000-01520	Pstat Section
PSTATSERIALNO	LABEL	01520	Pstat Serial Number
CTRLMODE	IQUANT	0	Control Mode
ELECTROMETER	IQUANT	1	RE=0 or CS=1
IESTAB	IQUANT	0	I/E Stability
CASPEED	IQUANT	4	Control Amp Speed
CONVENTION	IQUANT	1	Current Convention
ICHRANGE	IQUANT	2	Ich Range
ICHRANGEMODE	TOGGLE	T	Ich Auto Range
ICHOFFSETENABLE	TOGGLE	F	Ich Offset Enable
ICHOFFSET	QUANT	0	Ich Offset (V)
ICHFILTER	IQUANT	1	Ich Filter
VCHRANGE	IQUANT	2	Vch Range
VCHRANGEMODE	TOGGLE	T	Vch Auto Range
VCHOFFSETENABLE	TOGGLE	F	Vch Offset Enable
VCHOFFSET	QUANT	0	Vch Offset (V)
VCHFILTER	IQUANT	1	Vch Filter
IERANGELOWERLIMIT	IQUANT	9	I/E Range Lower Limit
IERANGEMODE	TOGGLE	F	I/E AutoRange
IERANGE	IQUANT	10	I/E Range
ACHSELECT	IQUANT	1	Ach Select
ACHRANGE	IQUANT	2	Ach Range
ACHOFFSETENABLE	TOGGLE	F	Ach Offset Enable
ACHOFFSET	QUANT	0	Ach Offset (V)
ACHFILTER	IQUANT	1	Ach Filter
CABLEID	IQUANT	14	Cable ID
DCCALDATE	LABEL	20-10-2016	DC Calibration Date
ACCALDATE	LABEL	12/3/2015	AC Calibration Date
FRAMEWORKVERSION	QUANT	7.01	Framework Version
INSTRUMENTVERSION	LABEL	4.00	Instrument Version
CURVE	TABLE	57
	Pt	T	Vf	Im	Vu	Pwr	Sig	Ach	Temp	IERange	Over
	#	s	V	A	V	W	V	V	deg C	#	bits
	0	0.013333	6.37161E-001	5.99387E-003	0.00000E+000	3.81906E-003	3.59960E-001	-1.14930E+000	3.57840E+000	10	...........
	1	0.026667	6.46119E-001	5.99065E-003	0.00000E+000	3.87068E-003	3.59960E-001	-1.14179E+000	3.57840E+000	10	...........
	2	0.04	6.54399E-001	5.99160E-003	0.00000E+000	3.92090E-003	3.59960E-001	-1.14873E+000	3.57840E+000	10	...........
	3	0.053333	6.62184E-001	5.98836E-003	0.00000E+000	3.96540E-003	3.59960E-001	-1.14907E+000	3.57840E+000	10	...........
	4	0.066667	6.69758E-001	5.99046E-003	0.00000E+000	4.01216E-003	3.59960E-001	-1.14153E+000	3.57840E+000	10	...........
	5	0.08	6.77085E-001	5.99974E-003	0.00000E+000	4.06233E-003	3.59960E-001	-1.14859E+000	3.57840E+000	10	...........
	6	0.093333	6.84302E-001	5.99599E-003	0.00000E+000	4.10307E-003	3.59960E-001	-1.14932E+000	3.57840E+000	10	...........
	7	0.106667	6.91396E-001	5.99386E-003	0.00000E+000	4.14413E-003	3.59960E-001	-1.14195E+000	3.57840E+000	10	...........
	8	0.12	6.98396E-001	5.99147E-003	0.00000E+000	4.18442E-003	3.59960E-001	-1.14851E+000	3.57840E+000	10	...........
	9	0.133333	7.05286E-001	5.99551E-003	0.00000E+000	4.22855E-003	3.59960E-001	-1.14898E+000	3.57840E+000	10	...........
	10	0.146667	7.12125E-001	5.99240E-003	0.00000E+000	4.26734E-003	3.59960E-001	-1.14163E+000	3.57840E+000	10	...........
	11	0.16	7.18944E-001	5.99092E-003	0.00000E+000	4.30714E-003	3.59960E-001	-1.14840E+000	3.57840E+000	10	...........
	12	0.173333	7.25674E-001	5.99852E-003	0.00000E+000	4.35297E-003	3.59960E-001	-1.14906E+000	3.57840E+000	10	...........
	13	0.186667	7.32424E-001	5.99500E-003	0.00000E+000	4.39088E-003	3.59960E-001	-1.14122E+000	3.57840E+000	10	...........
	14	0.2	7.39144E-001	5.99308E-003	0.00000E+000	4.42975E-003	3.59960E-001	-1.14797E+000	3.57840E+000	10	...........
	15	0.213333	7.45819E-001	5.99713E-003	0.00000E+000	4.47277E-003	3.59960E-001	-1.14862E+000	3.57840E+000	10	...........
	16	0.226667	7.52484E-001	5.99358E-003	0.00000E+000	4.51007E-003	3.59960E-001	-1.14115E+000	3.57840E+000	10	...........
	17	0.24	7.59115E-001	5.99284E-003	0.00000E+000	4.54926E-003	3.59960E-001	-1.14821E+000	3.57840E+000	10	...........
	18	0.253333	7.65700E-001	5.99598E-003	0.00000E+000	4.59112E-003	3.59960E-001	-1.14884E+000	3.57840E+000	10	...........
	19	0.266667	7.72300E-001	5.99138E-003	0.00000E+000	4.62714E-003	3.59960E-001	-1.14084E+000	3.57840E+000	10	...........
	20	0.28	7.78860E-001	5.99329E-003	0.00000E+000	4.66793E-003	3.59960E-001	-1.14788E+000	3.57840E+000	10	...........
	21	0.293333	7.85403E-001	5.99808E-003	0.00000E+000	4.71091E-003	3.59960E-001	-1.14859E+000	3.57840E+000	10	...........
	22	0.306667	7.91956E-001	5.99206E-003	0.00000E+000	4.74545E-003	3.59960E-001	-1.14099E+000	3.57840E+000	10	...........
	23	0.32	7.98493E-001	5.99490E-003	0.00000E+000	4.78689E-003	3.59960E-001	-1.14802E+000	3.57840E+000	10	...........
	24	0.333333	8.04973E-001	5.99406E-003	0.00000E+000	4.82506E-003	3.59960E-001	-1.14840E+000	3.57840E+000	10	...........
	25	0.346667	8.11451E-001	5.99691E-003	0.00000E+000	4.86620E-003	3.59960E-001	-1.14084E+000	3.57840E+000	10	...........
	26	0.36	8.17914E-001	5.99189E-003	0.00000E+000	4.90085E-003	3.59960E-001	-1.14786E+000	3.57840E+000	10	...........
	27	0.373333	8.24378E-001	5.99333E-003	0.00000E+000	4.94077E-003	3.59960E-001	-1.14842E+000	3.57840E+000	10	...........
	28	0.386667	8.30771E-001	5.98886E-003	0.00000E+000	4.97537E-003	3.59960E-001	-1.14079E+000	3.57840E+000	10	...........
	29	0.4	8.37171E-001	5.99066E-003	0.00000E+000	5.01521E-003	3.59960E-001	-1.14789E+000	3.57840E+000	10	...........
	30	0.413333	8.43560E-001	5.99316E-003	0.00000E+000	5.05559E-003	3.59960E-001	-1.14855E+000	3.57840E+000	10	...........
	31	0.426667	8.49967E-001	5.99516E-003	0.00000E+000	5.09569E-003	3.59960E-001	-1.14100E+000	3.57840E+000	10	...........
	32	0.44	8.56313E-001	5.99623E-003	0.00000E+000	5.13465E-003	3.59960E-001	-1.14795E+000	3.57840E+000	10	...........
	33	0.453333	8.62628E-001	5.98951E-003	0.00000E+000	5.16672E-003	3.59960E-001	-1.14843E+000	3.57840E+000	10	...........
	34	0.466667	8.68966E-001	5.99539E-003	0.00000E+000	5.20978E-003	3.59960E-001	-1.14063E+000	3.57840E+000	10	...........
	35	0.48	8.75238E-001	5.99278E-003	0.00000E+000	5.24511E-003	3.59960E-001	-1.14779E+000	3.57761E+000	10	...........
	36	0.493333	8.81455E-001	5.99206E-003	0.00000E+000	5.28173E-003	3.59960E-001	-1.14819E+000	3.57750E+000	10	...........
	37	0.506667	8.87681E-001	5.99231E-003	0.00000E+000	5.31926E-003	3.59960E-001	-1.14056E+000	3.57750E+000	10	...........
	38	0.52	8.93890E-001	5.99462E-003	0.00000E+000	5.35853E-003	3.59960E-001	-1.14743E+000	3.57750E+000	10	...........
	39	0.533333	9.00072E-001	5.99009E-003	0.00000E+000	5.39151E-003	3.59960E-001	-1.14789E+000	3.57750E+000	10	...........
	40	0.546667	9.06192E-001	5.99557E-003	0.00000E+000	5.43314E-003	3.59960E-001	-1.14032E+000	3.57750E+000	10	...........
	41	0.56	9.12332E-001	5.99345E-003	0.00000E+000	5.46801E-003	3.59960E-001	-1.14751E+000	3.57750E+000	10	...........
	42	0.573333	9.18459E-001	5.99487E-003	0.00000E+000	5.50604E-003	3.59960E-001	-1.14820E+000	3.57750E+000	10	...........
	43	0.586667	9.24554E-001	5.98995E-003	0.00000E+000	5.53803E-003	3.59960E-001	-1.14050E+000	3.57750E+000	10	...........
	44	0.6	9.30542E-001	5.99397E-003	0.00000E+000	5.57764E-003	3.59960E-001	-1.14737E+000	3.57750E+000	10	...........
	45	0.613333	9.36525E-001	5.99527E-003	0.00000E+000	5.61473E-003	3.59960E-001	-1.14792E+000	3.57750E+000	10	...........
	46	0.626667	9.42429E-001	5.99899E-003	0.00000E+000	5.65362E-003	3.59960E-001	-1.14052E+000	3.57750E+000	10	...........
	47	0.64	9.48362E-001	5.99623E-003	0.00000E+000	5.68660E-003	3.59960E-001	-1.14748E+000	3.57750E+000	10	...........
	48	0.653333	9.54206E-001	5.99334E-003	0.00000E+000	5.71888E-003	3.59960E-001	-1.14795E+000	3.57750E+000	10	...........
	49	0.666667	9.60005E-001	5.99119E-003	0.00000E+000	5.75158E-003	3.59960E-001	-1.14026E+000	3.57750E+000	10	...........
	50	0.68	9.65758E-001	5.99486E-003	0.00000E+000	5.78958E-003	3.59960E-001	-1.14724E+000	3.57750E+000	10	...........
	51	0.693333	9.71502E-001	5.98848E-003	0.00000E+000	5.81782E-003	3.59960E-001	-1.14786E+000	3.57750E+000	10	...........
	52	0.706667	9.77207E-001	5.99286E-003	0.00000E+000	5.85627E-003	3.59960E-001	-1.14061E+000	3.57750E+000	10	...........
	53	0.72	9.82810E-001	5.99448E-003	0.00000E+000	5.89143E-003	3.59960E-001	-1.14754E+000	3.57750E+000	10	...........
	54	0.733333	9.88388E-001	5.99770E-003	0.00000E+000	5.92806E-003	3.59960E-001	-1.14797E+000	3.57750E+000	10	...........
	55	0.746667	9.93880E-001	5.99373E-003	0.00000E+000	5.95705E-003	3.59960E-001	-1.14038E+000	3.57750E+000	10	...........
	56	0.756667	9.98729E-001	5.99949E-003	0.00000E+000	5.99186E-003	3.59960E-001	-1.15309E+000	3.57750E+000	10	...........
STARTTIMEOFFSET	QUANT	982.389	Start Time Offset (s)