File: Data/CV_CRGO300517_1/PWRCCD_CRGO300517_1/CHARGE_DISCHARGE/CHARGE_#63.DTA
EXPLAIN
TAG	PWR800_CHARGE
TITLE	LABEL	PWR Cyclic Charge Discharge (Cell) - Charge Step	Test &Identifier
DATE	LABEL	22-6-2017	Date
TIME	LABEL	15:37:51	Time
NOTES	NOTES	3	&Notes...
	supercap test cell
	0.6mg
	6M KOH
PSTAT	PSTAT	IFC5000-01520	Potentiostat
CAPACITY	QUANT	1.00000E-003	Capacity (A-hr)
CELLTYPE	SELECTOR	1	&Cell Type
WORKINGCONNECTION	SELECTOR	0	&Working Lead
MAXCHARGETIME	VARIABLEANDUNITS	1.00000E+002	s	1.00000E+002	second(s)	Max &Charge Time
CHARGECURRENT	QUANT	6.00000E-003	&Charge Current (A)
VOLTAGEFINISH	TWOPARAM	F	1.00000E-003	3.60000E+003	&Voltage Finish	 I (A) < 	Max Time(s)
SAMPLETIME	QUANT	1.00000E-002	Sa&mple Period (s)
CHARGESTOPAT1	MULTIPARAM	4	1.00000E+000	Charge Stop At &1	Voltage > Limit	V
CHARGESTOPAT2	MULTIPARAM	0	0.00000E+000	Charge Stop At &2	None	N/A
AESBHCSELECTOR	TOGGLE	F	Save Both Half Cells
IRCOMP	TOGGLE	F	IR &Measure
EOC	QUANT	0	Open Circuit (V)
SEQUENCER	TOGGLE	TRUE	Run as Sequence
PSTATMODEL	IQUANT	53	Pstat Model
PSTATSECTION	LABEL	IFC5000-01520	Pstat Section
PSTATSERIALNO	LABEL	01520	Pstat Serial Number
CTRLMODE	IQUANT	0	Control Mode
ELECTROMETER	IQUANT	1	RE=0 or CS=1
IESTAB	IQUANT	0	I/E Stability
CASPEED	IQUANT	4	Control Amp Speed
CONVENTION	IQUANT	1	Current Convention
ICHRANGE	IQUANT	2	Ich Range
ICHRANGEMODE	TOGGLE	T	Ich Auto Range
ICHOFFSETENABLE	TOGGLE	F	Ich Offset Enable
ICHOFFSET	QUANT	0	Ich Offset (V)
ICHFILTER	IQUANT	1	Ich Filter
VCHRANGE	IQUANT	2	Vch Range
VCHRANGEMODE	TOGGLE	T	Vch Auto Range
VCHOFFSETENABLE	TOGGLE	F	Vch Offset Enable
VCHOFFSET	QUANT	0	Vch Offset (V)
VCHFILTER	IQUANT	1	Vch Filter
IERANGELOWERLIMIT	IQUANT	9	I/E Range Lower Limit
IERANGEMODE	TOGGLE	F	I/E AutoRange
IERANGE	IQUANT	10	I/E Range
ACHSELECT	IQUANT	1	Ach Select
ACHRANGE	IQUANT	2	Ach Range
ACHOFFSETENABLE	TOGGLE	F	Ach Offset Enable
ACHOFFSET	QUANT	0	Ach Offset (V)
ACHFILTER	IQUANT	1	Ach Filter
CABLEID	IQUANT	14	Cable ID
DCCALDATE	LABEL	20-10-2016	DC Calibration Date
ACCALDATE	LABEL	12/3/2015	AC Calibration Date
FRAMEWORKVERSION	QUANT	7.01	Framework Version
INSTRUMENTVERSION	LABEL	4.00	Instrument Version
CURVE	TABLE	73
	Pt	T	Vf	Im	Vu	Pwr	Sig	Ach	Temp	IERange	Over
	#	s	V	A	V	W	V	V	deg C	#	bits
	0	0.013333	5.78762E-001	5.99351E-003	0.00000E+000	3.46882E-003	3.59960E-001	-1.04427E+000	3.57850E+000	10	...........
	1	0.026667	5.86921E-001	5.99029E-003	0.00000E+000	3.51583E-003	3.59960E-001	-1.05154E+000	3.57850E+000	10	...........
	2	0.04	5.94414E-001	5.99712E-003	0.00000E+000	3.56477E-003	3.59960E-001	-1.05318E+000	3.57850E+000	10	...........
	3	0.053333	6.01459E-001	5.99287E-003	0.00000E+000	3.60447E-003	3.59960E-001	-1.04424E+000	3.57850E+000	10	...........
	4	0.066667	6.08210E-001	5.99298E-003	0.00000E+000	3.64499E-003	3.59960E-001	-1.05065E+000	3.57850E+000	10	...........
	5	0.08	6.14909E-001	5.99658E-003	0.00000E+000	3.68735E-003	3.59960E-001	-1.05249E+000	3.57850E+000	10	...........
	6	0.093333	6.21348E-001	5.99669E-003	0.00000E+000	3.72603E-003	3.59960E-001	-1.04385E+000	3.57850E+000	10	...........
	7	0.106667	6.27705E-001	5.99636E-003	0.00000E+000	3.76394E-003	3.59960E-001	-1.05084E+000	3.57850E+000	10	...........
	8	0.12	6.33970E-001	5.99370E-003	0.00000E+000	3.79982E-003	3.59960E-001	-1.05264E+000	3.57850E+000	10	...........
	9	0.133333	6.40155E-001	5.99527E-003	0.00000E+000	3.83790E-003	3.59960E-001	-1.04379E+000	3.57850E+000	10	...........
	10	0.146667	6.46338E-001	5.99306E-003	0.00000E+000	3.87354E-003	3.59960E-001	-1.05021E+000	3.57850E+000	10	...........
	11	0.16	6.52397E-001	5.99446E-003	0.00000E+000	3.91077E-003	3.59960E-001	-1.05260E+000	3.57850E+000	10	...........
	12	0.173333	6.58423E-001	5.99343E-003	0.00000E+000	3.94621E-003	3.59960E-001	-1.04387E+000	3.57850E+000	10	...........
	13	0.186667	6.64424E-001	5.99862E-003	0.00000E+000	3.98563E-003	3.59960E-001	-1.05032E+000	3.57850E+000	10	...........
	14	0.2	6.70430E-001	5.99208E-003	0.00000E+000	4.01727E-003	3.59960E-001	-1.05281E+000	3.57850E+000	10	...........
	15	0.213333	6.76372E-001	5.98935E-003	0.00000E+000	4.05103E-003	3.59960E-001	-1.04357E+000	3.57850E+000	10	...........
	16	0.226667	6.82289E-001	5.99014E-003	0.00000E+000	4.08701E-003	3.59960E-001	-1.04998E+000	3.57850E+000	10	...........
	17	0.24	6.88199E-001	5.99101E-003	0.00000E+000	4.12300E-003	3.59960E-001	-1.05302E+000	3.57850E+000	10	...........
	18	0.253333	6.94118E-001	5.99475E-003	0.00000E+000	4.16107E-003	3.59960E-001	-1.04388E+000	3.57850E+000	10	...........
	19	0.266667	6.99951E-001	5.99531E-003	0.00000E+000	4.19642E-003	3.59960E-001	-1.04980E+000	3.57850E+000	10	...........
	20	0.28	7.05801E-001	5.99030E-003	0.00000E+000	4.22796E-003	3.59960E-001	-1.05309E+000	3.57850E+000	10	...........
	21	0.293333	7.11651E-001	5.99241E-003	0.00000E+000	4.26451E-003	3.59960E-001	-1.04389E+000	3.57850E+000	10	...........
	22	0.306667	7.17543E-001	5.99318E-003	0.00000E+000	4.30036E-003	3.59960E-001	-1.04987E+000	3.57850E+000	10	...........
	23	0.32	7.23383E-001	5.99546E-003	0.00000E+000	4.33701E-003	3.59960E-001	-1.05325E+000	3.57850E+000	10	...........
	24	0.333333	7.29180E-001	5.99559E-003	0.00000E+000	4.37186E-003	3.59960E-001	-1.04381E+000	3.57850E+000	10	...........
	25	0.346667	7.34994E-001	5.99086E-003	0.00000E+000	4.40324E-003	3.59960E-001	-1.04971E+000	3.57829E+000	10	...........
	26	0.36	7.40799E-001	5.99180E-003	0.00000E+000	4.43872E-003	3.59960E-001	-1.05356E+000	3.57820E+000	10	...........
	27	0.373333	7.46642E-001	5.99388E-003	0.00000E+000	4.47528E-003	3.59960E-001	-1.04379E+000	3.57820E+000	10	...........
	28	0.386667	7.52419E-001	5.99294E-003	0.00000E+000	4.50920E-003	3.59960E-001	-1.04917E+000	3.57820E+000	10	...........
	29	0.4	7.58223E-001	5.99504E-003	0.00000E+000	4.54558E-003	3.59960E-001	-1.05293E+000	3.57820E+000	10	...........
	30	0.413333	7.64008E-001	5.99486E-003	0.00000E+000	4.58012E-003	3.59960E-001	-1.04351E+000	3.57820E+000	10	...........
	31	0.426667	7.69789E-001	5.99247E-003	0.00000E+000	4.61293E-003	3.59960E-001	-1.04905E+000	3.57820E+000	10	...........
	32	0.44	7.75595E-001	5.99385E-003	0.00000E+000	4.64880E-003	3.59960E-001	-1.05325E+000	3.57820E+000	10	...........
	33	0.453333	7.81388E-001	5.99563E-003	0.00000E+000	4.68491E-003	3.59960E-001	-1.04359E+000	3.57820E+000	10	...........
	34	0.466667	7.87168E-001	5.99435E-003	0.00000E+000	4.71856E-003	3.59960E-001	-1.04869E+000	3.57820E+000	10	...........
	35	0.48	7.92994E-001	5.99343E-003	0.00000E+000	4.75275E-003	3.59960E-001	-1.05308E+000	3.57820E+000	10	...........
	36	0.493333	7.98785E-001	5.99405E-003	0.00000E+000	4.78796E-003	3.59960E-001	-1.04339E+000	3.57820E+000	10	...........
	37	0.506667	8.04548E-001	5.99633E-003	0.00000E+000	4.82433E-003	3.59960E-001	-1.04885E+000	3.57820E+000	10	...........
	38	0.52	8.10319E-001	5.99434E-003	0.00000E+000	4.85733E-003	3.59960E-001	-1.05339E+000	3.57820E+000	10	...........
	39	0.533333	8.16068E-001	5.99458E-003	0.00000E+000	4.89199E-003	3.59960E-001	-1.04324E+000	3.57820E+000	10	...........
	40	0.546667	8.21846E-001	5.99357E-003	0.00000E+000	4.92579E-003	3.59960E-001	-1.04835E+000	3.57820E+000	10	...........
	41	0.56	8.27629E-001	5.99692E-003	0.00000E+000	4.96323E-003	3.59960E-001	-1.05329E+000	3.57820E+000	10	...........
	42	0.573333	8.33330E-001	5.99506E-003	0.00000E+000	4.99587E-003	3.59960E-001	-1.04348E+000	3.57820E+000	10	...........
	43	0.586667	8.39112E-001	5.99490E-003	0.00000E+000	5.03039E-003	3.59960E-001	-1.04848E+000	3.57820E+000	10	...........
	44	0.6	8.44869E-001	5.99806E-003	0.00000E+000	5.06757E-003	3.59960E-001	-1.05338E+000	3.57820E+000	10	...........
	45	0.613333	8.50649E-001	5.99416E-003	0.00000E+000	5.09892E-003	3.59960E-001	-1.04339E+000	3.57820E+000	10	...........
	46	0.626667	8.56392E-001	5.99495E-003	0.00000E+000	5.13403E-003	3.59960E-001	-1.04837E+000	3.57820E+000	10	...........
	47	0.64	8.62158E-001	5.99844E-003	0.00000E+000	5.17161E-003	3.59960E-001	-1.05362E+000	3.57820E+000	10	...........
	48	0.653333	8.67871E-001	5.99653E-003	0.00000E+000	5.20422E-003	3.59960E-001	-1.04353E+000	3.57820E+000	10	...........
	49	0.666667	8.73657E-001	5.99545E-003	0.00000E+000	5.23797E-003	3.59960E-001	-1.04803E+000	3.57820E+000	10	...........
	50	0.68	8.79354E-001	5.99305E-003	0.00000E+000	5.27002E-003	3.59960E-001	-1.05356E+000	3.57820E+000	10	...........
	51	0.693333	8.85074E-001	5.99333E-003	0.00000E+000	5.30454E-003	3.59960E-001	-1.04295E+000	3.57820E+000	10	...........
	52	0.706667	8.90746E-001	5.99745E-003	0.00000E+000	5.34221E-003	3.59960E-001	-1.04767E+000	3.57820E+000	10	...........
	53	0.72	8.96449E-001	5.99481E-003	0.00000E+000	5.37405E-003	3.59960E-001	-1.05316E+000	3.57820E+000	10	...........
	54	0.733333	9.02118E-001	5.99076E-003	0.00000E+000	5.40437E-003	3.59960E-001	-1.04266E+000	3.57820E+000	10	...........
	55	0.746667	9.07771E-001	5.99278E-003	0.00000E+000	5.44007E-003	3.59960E-001	-1.04737E+000	3.57820E+000	10	...........
	56	0.76	9.13443E-001	5.98895E-003	0.00000E+000	5.47057E-003	3.59960E-001	-1.05331E+000	3.57820E+000	10	...........
	57	0.773333	9.19109E-001	5.99141E-003	0.00000E+000	5.50676E-003	3.59960E-001	-1.04288E+000	3.57820E+000	10	...........
	58	0.786667	9.24777E-001	5.99639E-003	0.00000E+000	5.54533E-003	3.59960E-001	-1.04724E+000	3.57820E+000	10	...........
	59	0.8	9.30356E-001	5.99327E-003	0.00000E+000	5.57587E-003	3.59960E-001	-1.05312E+000	3.57820E+000	10	...........
	60	0.813333	9.35963E-001	5.99128E-003	0.00000E+000	5.60761E-003	3.59960E-001	-1.04264E+000	3.57820E+000	10	...........
	61	0.826667	9.41531E-001	5.99542E-003	0.00000E+000	5.64487E-003	3.59960E-001	-1.04725E+000	3.57820E+000	10	...........
	62	0.84	9.47079E-001	5.99191E-003	0.00000E+000	5.67482E-003	3.59960E-001	-1.05358E+000	3.57820E+000	10	...........
	63	0.853333	9.52654E-001	5.99250E-003	0.00000E+000	5.70878E-003	3.59960E-001	-1.04288E+000	3.57820E+000	10	...........
	64	0.866667	9.58131E-001	5.99151E-003	0.00000E+000	5.74065E-003	3.59960E-001	-1.04698E+000	3.57820E+000	10	...........
	65	0.88	9.63594E-001	5.99446E-003	0.00000E+000	5.77623E-003	3.59960E-001	-1.05349E+000	3.57820E+000	10	...........
	66	0.893333	9.69044E-001	5.99240E-003	0.00000E+000	5.80690E-003	3.59960E-001	-1.04281E+000	3.57820E+000	10	...........
	67	0.906667	9.74568E-001	5.99658E-003	0.00000E+000	5.84407E-003	3.59960E-001	-1.04712E+000	3.57820E+000	10	...........
	68	0.92	9.79939E-001	5.99789E-003	0.00000E+000	5.87757E-003	3.59960E-001	-1.05383E+000	3.57820E+000	10	...........
	69	0.933333	9.85329E-001	5.99807E-003	0.00000E+000	5.91007E-003	3.59960E-001	-1.04268E+000	3.57820E+000	10	...........
	70	0.946667	9.90661E-001	5.99500E-003	0.00000E+000	5.93901E-003	3.59960E-001	-1.04684E+000	3.57820E+000	10	...........
	71	0.96	9.95946E-001	5.99167E-003	0.00000E+000	5.96739E-003	3.59960E-001	-1.05409E+000	3.57820E+000	10	...........
	72	0.965	9.99570E-001	5.99271E-003	0.00000E+000	5.99013E-003	3.59960E-001	-1.03858E+000	3.57820E+000	10	...........
STARTTIMEOFFSET	QUANT	125.6933	Start Time Offset (s)