File: Data/CV_CRGO300517_1/PWRCCD_CRGO300517_1/CHARGE_DISCHARGE/CHARGE_#483.DTA
EXPLAIN
TAG	PWR800_CHARGE
TITLE	LABEL	PWR Cyclic Charge Discharge (Cell) - Charge Step	Test &Identifier
DATE	LABEL	22-6-2017	Date
TIME	LABEL	15:55:15	Time
NOTES	NOTES	3	&Notes...
	supercap test cell
	0.6mg
	6M KOH
PSTAT	PSTAT	IFC5000-01520	Potentiostat
CAPACITY	QUANT	1.00000E-003	Capacity (A-hr)
CELLTYPE	SELECTOR	1	&Cell Type
WORKINGCONNECTION	SELECTOR	0	&Working Lead
MAXCHARGETIME	VARIABLEANDUNITS	1.00000E+002	s	1.00000E+002	second(s)	Max &Charge Time
CHARGECURRENT	QUANT	6.00000E-003	&Charge Current (A)
VOLTAGEFINISH	TWOPARAM	F	1.00000E-003	3.60000E+003	&Voltage Finish	 I (A) < 	Max Time(s)
SAMPLETIME	QUANT	1.00000E-002	Sa&mple Period (s)
CHARGESTOPAT1	MULTIPARAM	4	1.00000E+000	Charge Stop At &1	Voltage > Limit	V
CHARGESTOPAT2	MULTIPARAM	0	0.00000E+000	Charge Stop At &2	None	N/A
AESBHCSELECTOR	TOGGLE	F	Save Both Half Cells
IRCOMP	TOGGLE	F	IR &Measure
EOC	QUANT	0	Open Circuit (V)
SEQUENCER	TOGGLE	TRUE	Run as Sequence
PSTATMODEL	IQUANT	53	Pstat Model
PSTATSECTION	LABEL	IFC5000-01520	Pstat Section
PSTATSERIALNO	LABEL	01520	Pstat Serial Number
CTRLMODE	IQUANT	0	Control Mode
ELECTROMETER	IQUANT	1	RE=0 or CS=1
IESTAB	IQUANT	0	I/E Stability
CASPEED	IQUANT	4	Control Amp Speed
CONVENTION	IQUANT	1	Current Convention
ICHRANGE	IQUANT	2	Ich Range
ICHRANGEMODE	TOGGLE	T	Ich Auto Range
ICHOFFSETENABLE	TOGGLE	F	Ich Offset Enable
ICHOFFSET	QUANT	0	Ich Offset (V)
ICHFILTER	IQUANT	1	Ich Filter
VCHRANGE	IQUANT	2	Vch Range
VCHRANGEMODE	TOGGLE	T	Vch Auto Range
VCHOFFSETENABLE	TOGGLE	F	Vch Offset Enable
VCHOFFSET	QUANT	0	Vch Offset (V)
VCHFILTER	IQUANT	1	Vch Filter
IERANGELOWERLIMIT	IQUANT	9	I/E Range Lower Limit
IERANGEMODE	TOGGLE	F	I/E AutoRange
IERANGE	IQUANT	10	I/E Range
ACHSELECT	IQUANT	1	Ach Select
ACHRANGE	IQUANT	2	Ach Range
ACHOFFSETENABLE	TOGGLE	F	Ach Offset Enable
ACHOFFSET	QUANT	0	Ach Offset (V)
ACHFILTER	IQUANT	1	Ach Filter
CABLEID	IQUANT	14	Cable ID
DCCALDATE	LABEL	20-10-2016	DC Calibration Date
ACCALDATE	LABEL	12/3/2015	AC Calibration Date
FRAMEWORKVERSION	QUANT	7.01	Framework Version
INSTRUMENTVERSION	LABEL	4.00	Instrument Version
CURVE	TABLE	59
	Pt	T	Vf	Im	Vu	Pwr	Sig	Ach	Temp	IERange	Over
	#	s	V	A	V	W	V	V	deg C	#	bits
	0	0.013333	6.30734E-001	5.99056E-003	0.00000E+000	3.77845E-003	3.59960E-001	-1.14070E+000	3.57670E+000	10	...........
	1	0.026667	6.39658E-001	5.99729E-003	0.00000E+000	3.83621E-003	3.59960E-001	-1.14792E+000	3.57670E+000	10	...........
	2	0.04	6.47788E-001	5.99442E-003	0.00000E+000	3.88311E-003	3.59960E-001	-1.14765E+000	3.57670E+000	10	...........
	3	0.053333	6.55508E-001	5.99597E-003	0.00000E+000	3.93041E-003	3.59960E-001	-1.14062E+000	3.57670E+000	10	...........
	4	0.066667	6.62936E-001	5.99551E-003	0.00000E+000	3.97464E-003	3.59960E-001	-1.14799E+000	3.57670E+000	10	...........
	5	0.08	6.70252E-001	5.99221E-003	0.00000E+000	4.01629E-003	3.59960E-001	-1.14736E+000	3.57670E+000	10	...........
	6	0.093333	6.77351E-001	5.99313E-003	0.00000E+000	4.05946E-003	3.59960E-001	-1.14067E+000	3.57670E+000	10	...........
	7	0.106667	6.84301E-001	5.99093E-003	0.00000E+000	4.09960E-003	3.59960E-001	-1.14792E+000	3.57670E+000	10	...........
	8	0.12	6.91204E-001	5.98971E-003	0.00000E+000	4.14011E-003	3.59960E-001	-1.14716E+000	3.57670E+000	10	...........
	9	0.133333	6.98044E-001	5.99421E-003	0.00000E+000	4.18422E-003	3.59960E-001	-1.14028E+000	3.57670E+000	10	...........
	10	0.146667	7.04779E-001	5.99505E-003	0.00000E+000	4.22519E-003	3.59960E-001	-1.14771E+000	3.57670E+000	10	...........
	11	0.16	7.11469E-001	5.99279E-003	0.00000E+000	4.26368E-003	3.59960E-001	-1.14706E+000	3.57670E+000	10	...........
	12	0.173333	7.18176E-001	5.99141E-003	0.00000E+000	4.30289E-003	3.59960E-001	-1.14038E+000	3.57670E+000	10	...........
	13	0.186667	7.24867E-001	5.99542E-003	0.00000E+000	4.34588E-003	3.59960E-001	-1.14757E+000	3.57670E+000	10	...........
	14	0.2	7.31446E-001	5.99620E-003	0.00000E+000	4.38590E-003	3.59960E-001	-1.14680E+000	3.57670E+000	10	...........
	15	0.213333	7.38012E-001	5.99493E-003	0.00000E+000	4.42433E-003	3.59960E-001	-1.14026E+000	3.57670E+000	10	...........
	16	0.226667	7.44622E-001	5.99038E-003	0.00000E+000	4.46057E-003	3.59960E-001	-1.14809E+000	3.57670E+000	10	...........
	17	0.24	7.51158E-001	5.99658E-003	0.00000E+000	4.50438E-003	3.59960E-001	-1.14700E+000	3.57670E+000	10	...........
	18	0.253333	7.57687E-001	5.99191E-003	0.00000E+000	4.53999E-003	3.59960E-001	-1.14031E+000	3.57670E+000	10	...........
	19	0.266667	7.64193E-001	5.99370E-003	0.00000E+000	4.58034E-003	3.59960E-001	-1.14799E+000	3.57670E+000	10	...........
	20	0.28	7.70685E-001	5.99593E-003	0.00000E+000	4.62098E-003	3.59960E-001	-1.14672E+000	3.57670E+000	10	...........
	21	0.293333	7.77182E-001	5.99237E-003	0.00000E+000	4.65716E-003	3.59960E-001	-1.14031E+000	3.57670E+000	10	...........
	22	0.306667	7.83685E-001	5.98917E-003	0.00000E+000	4.69362E-003	3.59960E-001	-1.14797E+000	3.57670E+000	10	...........
	23	0.32	7.90140E-001	5.99878E-003	0.00000E+000	4.73987E-003	3.59960E-001	-1.14616E+000	3.57670E+000	10	...........
	24	0.333333	7.96580E-001	5.99776E-003	0.00000E+000	4.77769E-003	3.59960E-001	-1.13960E+000	3.57670E+000	10	...........
	25	0.346667	8.02942E-001	5.99306E-003	0.00000E+000	4.81208E-003	3.59960E-001	-1.14750E+000	3.57670E+000	10	...........
	26	0.36	8.09307E-001	5.99166E-003	0.00000E+000	4.84910E-003	3.59960E-001	-1.14579E+000	3.57670E+000	10	...........
	27	0.373333	8.15666E-001	5.99422E-003	0.00000E+000	4.88928E-003	3.59960E-001	-1.13958E+000	3.57670E+000	10	...........
	28	0.386667	8.22084E-001	5.99443E-003	0.00000E+000	4.92793E-003	3.59960E-001	-1.14740E+000	3.57670E+000	10	...........
	29	0.4	8.28452E-001	5.99375E-003	0.00000E+000	4.96553E-003	3.59960E-001	-1.14584E+000	3.57670E+000	10	...........
	30	0.413333	8.34769E-001	5.99689E-003	0.00000E+000	5.00602E-003	3.59960E-001	-1.13960E+000	3.57670E+000	10	...........
	31	0.426667	8.41099E-001	5.99357E-003	0.00000E+000	5.04119E-003	3.59960E-001	-1.14765E+000	3.57670E+000	10	...........
	32	0.44	8.47445E-001	5.99185E-003	0.00000E+000	5.07776E-003	3.59960E-001	-1.14551E+000	3.57670E+000	10	...........
	33	0.453333	8.53687E-001	5.99225E-003	0.00000E+000	5.11551E-003	3.59960E-001	-1.13934E+000	3.57670E+000	10	...........
	34	0.466667	8.59945E-001	5.99403E-003	0.00000E+000	5.15454E-003	3.59960E-001	-1.14762E+000	3.57670E+000	10	...........
	35	0.48	8.66183E-001	5.99624E-003	0.00000E+000	5.19384E-003	3.59960E-001	-1.14538E+000	3.57670E+000	10	...........
	36	0.493333	8.72463E-001	5.99026E-003	0.00000E+000	5.22628E-003	3.59960E-001	-1.13946E+000	3.57670E+000	10	...........
	37	0.506667	8.78649E-001	5.99432E-003	0.00000E+000	5.26691E-003	3.59960E-001	-1.14763E+000	3.57670E+000	10	...........
	38	0.52	8.84838E-001	5.99657E-003	0.00000E+000	5.30599E-003	3.59960E-001	-1.14507E+000	3.57670E+000	10	...........
	39	0.533333	8.90994E-001	5.99811E-003	0.00000E+000	5.34428E-003	3.59960E-001	-1.13936E+000	3.57670E+000	10	...........
	40	0.546667	8.97090E-001	5.99222E-003	0.00000E+000	5.37556E-003	3.59960E-001	-1.14753E+000	3.57670E+000	10	...........
	41	0.56	9.03188E-001	5.99323E-003	0.00000E+000	5.41301E-003	3.59960E-001	-1.14511E+000	3.57670E+000	10	...........
	42	0.573333	9.09292E-001	5.99252E-003	0.00000E+000	5.44895E-003	3.59960E-001	-1.13925E+000	3.57670E+000	10	...........
	43	0.586667	9.15314E-001	5.99372E-003	0.00000E+000	5.48613E-003	3.59960E-001	-1.14763E+000	3.57670E+000	10	...........
	44	0.6	9.21380E-001	5.99272E-003	0.00000E+000	5.52157E-003	3.59960E-001	-1.14472E+000	3.57670E+000	10	...........
	45	0.613333	9.27392E-001	5.99360E-003	0.00000E+000	5.55842E-003	3.59960E-001	-1.13929E+000	3.57670E+000	10	...........
	46	0.626667	9.33298E-001	5.99060E-003	0.00000E+000	5.59101E-003	3.59960E-001	-1.14770E+000	3.57670E+000	10	...........
	47	0.64	9.39201E-001	5.99315E-003	0.00000E+000	5.62878E-003	3.59960E-001	-1.14451E+000	3.57670E+000	10	...........
	48	0.653333	9.45076E-001	5.99337E-003	0.00000E+000	5.66419E-003	3.59960E-001	-1.13864E+000	3.57670E+000	10	...........
	49	0.666667	9.50957E-001	5.99783E-003	0.00000E+000	5.70368E-003	3.59960E-001	-1.14728E+000	3.57670E+000	10	...........
	50	0.68	9.56702E-001	5.99099E-003	0.00000E+000	5.73159E-003	3.59960E-001	-1.14422E+000	3.57670E+000	10	...........
	51	0.693333	9.62463E-001	5.99180E-003	0.00000E+000	5.76688E-003	3.59960E-001	-1.13883E+000	3.57670E+000	10	...........
	52	0.706667	9.68180E-001	5.99494E-003	0.00000E+000	5.80418E-003	3.59960E-001	-1.14734E+000	3.57670E+000	10	...........
	53	0.72	9.73881E-001	5.99191E-003	0.00000E+000	5.83541E-003	3.59960E-001	-1.14400E+000	3.57670E+000	10	...........
	54	0.733333	9.79531E-001	5.99420E-003	0.00000E+000	5.87151E-003	3.59960E-001	-1.13857E+000	3.57670E+000	10	...........
	55	0.746667	9.85072E-001	5.99574E-003	0.00000E+000	5.90624E-003	3.59960E-001	-1.14749E+000	3.57670E+000	10	...........
	56	0.76	9.90580E-001	5.98867E-003	0.00000E+000	5.93226E-003	3.59960E-001	-1.14404E+000	3.57670E+000	10	...........
	57	0.773333	9.96089E-001	5.99452E-003	0.00000E+000	5.97108E-003	3.59960E-001	-1.13872E+000	3.57670E+000	10	...........
	58	0.778333	9.99867E-001	5.99693E-003	0.00000E+000	5.99614E-003	3.59960E-001	-1.15310E+000	3.57670E+000	10	...........
STARTTIMEOFFSET	QUANT	832.7886	Start Time Offset (s)