File: Data/CV_CRGO300517_1/PWRCCD_CRGO300517_1/CHARGE_DISCHARGE/CHARGE_#896.DTA
EXPLAIN
TAG	PWR800_CHARGE
TITLE	LABEL	PWR Cyclic Charge Discharge (Cell) - Charge Step	Test &Identifier
DATE	LABEL	22-6-2017	Date
TIME	LABEL	16:10:50	Time
NOTES	NOTES	3	&Notes...
	supercap test cell
	0.6mg
	6M KOH
PSTAT	PSTAT	IFC5000-01520	Potentiostat
CAPACITY	QUANT	1.00000E-003	Capacity (A-hr)
CELLTYPE	SELECTOR	1	&Cell Type
WORKINGCONNECTION	SELECTOR	0	&Working Lead
MAXCHARGETIME	VARIABLEANDUNITS	1.00000E+002	s	1.00000E+002	second(s)	Max &Charge Time
CHARGECURRENT	QUANT	6.00000E-003	&Charge Current (A)
VOLTAGEFINISH	TWOPARAM	F	1.00000E-003	3.60000E+003	&Voltage Finish	 I (A) < 	Max Time(s)
SAMPLETIME	QUANT	1.00000E-002	Sa&mple Period (s)
CHARGESTOPAT1	MULTIPARAM	4	1.00000E+000	Charge Stop At &1	Voltage > Limit	V
CHARGESTOPAT2	MULTIPARAM	0	0.00000E+000	Charge Stop At &2	None	N/A
AESBHCSELECTOR	TOGGLE	F	Save Both Half Cells
IRCOMP	TOGGLE	F	IR &Measure
EOC	QUANT	0	Open Circuit (V)
SEQUENCER	TOGGLE	TRUE	Run as Sequence
PSTATMODEL	IQUANT	53	Pstat Model
PSTATSECTION	LABEL	IFC5000-01520	Pstat Section
PSTATSERIALNO	LABEL	01520	Pstat Serial Number
CTRLMODE	IQUANT	0	Control Mode
ELECTROMETER	IQUANT	1	RE=0 or CS=1
IESTAB	IQUANT	0	I/E Stability
CASPEED	IQUANT	4	Control Amp Speed
CONVENTION	IQUANT	1	Current Convention
ICHRANGE	IQUANT	2	Ich Range
ICHRANGEMODE	TOGGLE	T	Ich Auto Range
ICHOFFSETENABLE	TOGGLE	F	Ich Offset Enable
ICHOFFSET	QUANT	0	Ich Offset (V)
ICHFILTER	IQUANT	1	Ich Filter
VCHRANGE	IQUANT	2	Vch Range
VCHRANGEMODE	TOGGLE	T	Vch Auto Range
VCHOFFSETENABLE	TOGGLE	F	Vch Offset Enable
VCHOFFSET	QUANT	0	Vch Offset (V)
VCHFILTER	IQUANT	1	Vch Filter
IERANGELOWERLIMIT	IQUANT	9	I/E Range Lower Limit
IERANGEMODE	TOGGLE	F	I/E AutoRange
IERANGE	IQUANT	10	I/E Range
ACHSELECT	IQUANT	1	Ach Select
ACHRANGE	IQUANT	2	Ach Range
ACHOFFSETENABLE	TOGGLE	F	Ach Offset Enable
ACHOFFSET	QUANT	0	Ach Offset (V)
ACHFILTER	IQUANT	1	Ach Filter
CABLEID	IQUANT	14	Cable ID
DCCALDATE	LABEL	20-10-2016	DC Calibration Date
ACCALDATE	LABEL	12/3/2015	AC Calibration Date
FRAMEWORKVERSION	QUANT	7.01	Framework Version
INSTRUMENTVERSION	LABEL	4.00	Instrument Version
CURVE	TABLE	53
	Pt	T	Vf	Im	Vu	Pwr	Sig	Ach	Temp	IERange	Over
	#	s	V	A	V	W	V	V	deg C	#	bits
	0	0.013333	6.53046E-001	5.99259E-003	0.00000E+000	3.91344E-003	3.59960E-001	-1.16677E+000	3.57780E+000	10	...........
	1	0.026667	6.62319E-001	5.99424E-003	0.00000E+000	3.97010E-003	3.59960E-001	-1.16934E+000	3.57780E+000	10	...........
	2	0.04	6.70849E-001	5.99546E-003	0.00000E+000	4.02205E-003	3.59960E-001	-1.17729E+000	3.57780E+000	10	...........
	3	0.053333	6.78913E-001	5.99146E-003	0.00000E+000	4.06768E-003	3.59960E-001	-1.16675E+000	3.57780E+000	10	...........
	4	0.066667	6.86709E-001	5.99353E-003	0.00000E+000	4.11581E-003	3.59960E-001	-1.16911E+000	3.57780E+000	10	...........
	5	0.08	6.94344E-001	5.99360E-003	0.00000E+000	4.16162E-003	3.59960E-001	-1.17684E+000	3.57780E+000	10	...........
	6	0.093333	7.01786E-001	5.99482E-003	0.00000E+000	4.20708E-003	3.59960E-001	-1.16666E+000	3.57780E+000	10	...........
	7	0.106667	7.09116E-001	5.99628E-003	0.00000E+000	4.25206E-003	3.59960E-001	-1.16929E+000	3.57780E+000	10	...........
	8	0.12	7.16334E-001	5.99499E-003	0.00000E+000	4.29442E-003	3.59960E-001	-1.17705E+000	3.57780E+000	10	...........
	9	0.133333	7.23534E-001	5.99453E-003	0.00000E+000	4.33725E-003	3.59960E-001	-1.16650E+000	3.57780E+000	10	...........
	10	0.146667	7.30602E-001	5.99130E-003	0.00000E+000	4.37725E-003	3.59960E-001	-1.16896E+000	3.57780E+000	10	...........
	11	0.16	7.37657E-001	5.99556E-003	0.00000E+000	4.42267E-003	3.59960E-001	-1.17704E+000	3.57780E+000	10	...........
	12	0.173333	7.44625E-001	5.99142E-003	0.00000E+000	4.46136E-003	3.59960E-001	-1.16670E+000	3.57780E+000	10	...........
	13	0.186667	7.51560E-001	5.99249E-003	0.00000E+000	4.50371E-003	3.59960E-001	-1.16897E+000	3.57780E+000	10	...........
	14	0.2	7.58493E-001	5.99500E-003	0.00000E+000	4.54717E-003	3.59960E-001	-1.17682E+000	3.57780E+000	10	...........
	15	0.213333	7.65362E-001	5.99589E-003	0.00000E+000	4.58903E-003	3.59960E-001	-1.16604E+000	3.57780E+000	10	...........
	16	0.226667	7.72210E-001	5.99155E-003	0.00000E+000	4.62673E-003	3.59960E-001	-1.16862E+000	3.57780E+000	10	...........
	17	0.24	7.79015E-001	5.99279E-003	0.00000E+000	4.66847E-003	3.59960E-001	-1.17670E+000	3.57780E+000	10	...........
	18	0.253333	7.85796E-001	5.99545E-003	0.00000E+000	4.71120E-003	3.59960E-001	-1.16611E+000	3.57780E+000	10	...........
	19	0.266667	7.92539E-001	5.99420E-003	0.00000E+000	4.75063E-003	3.59960E-001	-1.16861E+000	3.57780E+000	10	...........
	20	0.28	7.99276E-001	5.99472E-003	0.00000E+000	4.79144E-003	3.59960E-001	-1.17645E+000	3.57780E+000	10	...........
	21	0.293333	8.05988E-001	5.99133E-003	0.00000E+000	4.82894E-003	3.59960E-001	-1.16589E+000	3.57780E+000	10	...........
	22	0.306667	8.12670E-001	5.99754E-003	0.00000E+000	4.87402E-003	3.59960E-001	-1.16860E+000	3.57780E+000	10	...........
	23	0.32	8.19335E-001	5.98992E-003	0.00000E+000	4.90775E-003	3.59960E-001	-1.17651E+000	3.57780E+000	10	...........
	24	0.333333	8.25966E-001	5.99178E-003	0.00000E+000	4.94900E-003	3.59960E-001	-1.16588E+000	3.57780E+000	10	...........
	25	0.346667	8.32563E-001	5.99247E-003	0.00000E+000	4.98911E-003	3.59960E-001	-1.16856E+000	3.57780E+000	10	...........
	26	0.36	8.39161E-001	5.99453E-003	0.00000E+000	5.03038E-003	3.59960E-001	-1.17650E+000	3.57780E+000	10	...........
	27	0.373333	8.45721E-001	5.99149E-003	0.00000E+000	5.06712E-003	3.59960E-001	-1.16621E+000	3.57780E+000	10	...........
	28	0.386667	8.52278E-001	5.99242E-003	0.00000E+000	5.10721E-003	3.59960E-001	-1.16850E+000	3.57780E+000	10	...........
	29	0.4	8.58786E-001	5.99858E-003	0.00000E+000	5.15149E-003	3.59960E-001	-1.17620E+000	3.57780E+000	10	...........
	30	0.413333	8.65273E-001	5.99040E-003	0.00000E+000	5.18333E-003	3.59960E-001	-1.16595E+000	3.57780E+000	10	...........
	31	0.426667	8.71748E-001	5.99755E-003	0.00000E+000	5.22835E-003	3.59960E-001	-1.16855E+000	3.57780E+000	10	...........
	32	0.44	8.78154E-001	5.99870E-003	0.00000E+000	5.26779E-003	3.59960E-001	-1.17644E+000	3.57780E+000	10	...........
	33	0.453333	8.84576E-001	5.99112E-003	0.00000E+000	5.29960E-003	3.59960E-001	-1.16595E+000	3.57780E+000	10	...........
	34	0.466667	8.90900E-001	5.99041E-003	0.00000E+000	5.33686E-003	3.59960E-001	-1.16841E+000	3.57780E+000	10	...........
	35	0.48	8.97206E-001	5.99449E-003	0.00000E+000	5.37829E-003	3.59960E-001	-1.17629E+000	3.57780E+000	10	...........
	36	0.493333	9.03516E-001	5.99702E-003	0.00000E+000	5.41841E-003	3.59960E-001	-1.16589E+000	3.57780E+000	10	...........
	37	0.506667	9.09763E-001	5.99661E-003	0.00000E+000	5.45549E-003	3.59960E-001	-1.16840E+000	3.57780E+000	10	...........
	38	0.52	9.15977E-001	5.99064E-003	0.00000E+000	5.48729E-003	3.59960E-001	-1.17611E+000	3.57725E+000	10	...........
	39	0.533333	9.22179E-001	5.99363E-003	0.00000E+000	5.52720E-003	3.59960E-001	-1.16544E+000	3.57670E+000	10	...........
	40	0.546667	9.28272E-001	5.99607E-003	0.00000E+000	5.56598E-003	3.59960E-001	-1.16797E+000	3.57670E+000	10	...........
	41	0.56	9.34307E-001	5.99305E-003	0.00000E+000	5.59935E-003	3.59960E-001	-1.17600E+000	3.57670E+000	10	...........
	42	0.573333	9.40303E-001	5.99489E-003	0.00000E+000	5.63701E-003	3.59960E-001	-1.16546E+000	3.57670E+000	10	...........
	43	0.586667	9.46325E-001	5.99541E-003	0.00000E+000	5.67361E-003	3.59960E-001	-1.16818E+000	3.57670E+000	10	...........
	44	0.6	9.52314E-001	5.99220E-003	0.00000E+000	5.70645E-003	3.59960E-001	-1.17567E+000	3.57670E+000	10	...........
	45	0.613333	9.58181E-001	5.98996E-003	0.00000E+000	5.73947E-003	3.59960E-001	-1.16535E+000	3.57670E+000	10	...........
	46	0.626667	9.64046E-001	5.99366E-003	0.00000E+000	5.77816E-003	3.59960E-001	-1.16789E+000	3.57670E+000	10	...........
	47	0.64	9.69845E-001	5.99664E-003	0.00000E+000	5.81581E-003	3.59960E-001	-1.17592E+000	3.57670E+000	10	...........
	48	0.653333	9.75626E-001	5.99597E-003	0.00000E+000	5.84983E-003	3.59960E-001	-1.16519E+000	3.57670E+000	10	...........
	49	0.666667	9.81303E-001	5.99050E-003	0.00000E+000	5.87849E-003	3.59960E-001	-1.16773E+000	3.57670E+000	10	...........
	50	0.68	9.86912E-001	5.99805E-003	0.00000E+000	5.91954E-003	3.59960E-001	-1.17554E+000	3.57670E+000	10	...........
	51	0.693333	9.92542E-001	5.99996E-003	0.00000E+000	5.95521E-003	3.59960E-001	-1.16531E+000	3.57670E+000	10	...........
	52	0.706667	9.98096E-001	5.99108E-003	0.00000E+000	5.97967E-003	3.59960E-001	-1.16783E+000	3.57670E+000	10	...........
STARTTIMEOFFSET	QUANT	1440.436	Start Time Offset (s)