File: Data/CV_CRGO300517_1/PWRCCD_CRGO300517_1/CHARGE_DISCHARGE/CHARGE_#740.DTA
EXPLAIN
TAG	PWR800_CHARGE
TITLE	LABEL	PWR Cyclic Charge Discharge (Cell) - Charge Step	Test &Identifier
DATE	LABEL	22-6-2017	Date
TIME	LABEL	16:05:03	Time
NOTES	NOTES	3	&Notes...
	supercap test cell
	0.6mg
	6M KOH
PSTAT	PSTAT	IFC5000-01520	Potentiostat
CAPACITY	QUANT	1.00000E-003	Capacity (A-hr)
CELLTYPE	SELECTOR	1	&Cell Type
WORKINGCONNECTION	SELECTOR	0	&Working Lead
MAXCHARGETIME	VARIABLEANDUNITS	1.00000E+002	s	1.00000E+002	second(s)	Max &Charge Time
CHARGECURRENT	QUANT	6.00000E-003	&Charge Current (A)
VOLTAGEFINISH	TWOPARAM	F	1.00000E-003	3.60000E+003	&Voltage Finish	 I (A) < 	Max Time(s)
SAMPLETIME	QUANT	1.00000E-002	Sa&mple Period (s)
CHARGESTOPAT1	MULTIPARAM	4	1.00000E+000	Charge Stop At &1	Voltage > Limit	V
CHARGESTOPAT2	MULTIPARAM	0	0.00000E+000	Charge Stop At &2	None	N/A
AESBHCSELECTOR	TOGGLE	F	Save Both Half Cells
IRCOMP	TOGGLE	F	IR &Measure
EOC	QUANT	0	Open Circuit (V)
SEQUENCER	TOGGLE	TRUE	Run as Sequence
PSTATMODEL	IQUANT	53	Pstat Model
PSTATSECTION	LABEL	IFC5000-01520	Pstat Section
PSTATSERIALNO	LABEL	01520	Pstat Serial Number
CTRLMODE	IQUANT	0	Control Mode
ELECTROMETER	IQUANT	1	RE=0 or CS=1
IESTAB	IQUANT	0	I/E Stability
CASPEED	IQUANT	4	Control Amp Speed
CONVENTION	IQUANT	1	Current Convention
ICHRANGE	IQUANT	2	Ich Range
ICHRANGEMODE	TOGGLE	T	Ich Auto Range
ICHOFFSETENABLE	TOGGLE	F	Ich Offset Enable
ICHOFFSET	QUANT	0	Ich Offset (V)
ICHFILTER	IQUANT	1	Ich Filter
VCHRANGE	IQUANT	2	Vch Range
VCHRANGEMODE	TOGGLE	T	Vch Auto Range
VCHOFFSETENABLE	TOGGLE	F	Vch Offset Enable
VCHOFFSET	QUANT	0	Vch Offset (V)
VCHFILTER	IQUANT	1	Vch Filter
IERANGELOWERLIMIT	IQUANT	9	I/E Range Lower Limit
IERANGEMODE	TOGGLE	F	I/E AutoRange
IERANGE	IQUANT	10	I/E Range
ACHSELECT	IQUANT	1	Ach Select
ACHRANGE	IQUANT	2	Ach Range
ACHOFFSETENABLE	TOGGLE	F	Ach Offset Enable
ACHOFFSET	QUANT	0	Ach Offset (V)
ACHFILTER	IQUANT	1	Ach Filter
CABLEID	IQUANT	14	Cable ID
DCCALDATE	LABEL	20-10-2016	DC Calibration Date
ACCALDATE	LABEL	12/3/2015	AC Calibration Date
FRAMEWORKVERSION	QUANT	7.01	Framework Version
INSTRUMENTVERSION	LABEL	4.00	Instrument Version
CURVE	TABLE	55
	Pt	T	Vf	Im	Vu	Pwr	Sig	Ach	Temp	IERange	Over
	#	s	V	A	V	W	V	V	deg C	#	bits
	0	0.013333	6.45133E-001	5.99503E-003	0.00000E+000	3.86759E-003	3.59960E-001	-1.15731E+000	3.57670E+000	10	...........
	1	0.026667	6.54267E-001	5.99895E-003	0.00000E+000	3.92492E-003	3.59960E-001	-1.16628E+000	3.57670E+000	10	...........
	2	0.04	6.62696E-001	5.99149E-003	0.00000E+000	3.97053E-003	3.59960E-001	-1.15553E+000	3.57670E+000	10	...........
	3	0.053333	6.70686E-001	5.99777E-003	0.00000E+000	4.02262E-003	3.59960E-001	-1.15754E+000	3.57670E+000	10	...........
	4	0.066667	6.78349E-001	5.99209E-003	0.00000E+000	4.06473E-003	3.59960E-001	-1.16618E+000	3.57670E+000	10	...........
	5	0.08	6.85815E-001	5.99672E-003	0.00000E+000	4.11264E-003	3.59960E-001	-1.15545E+000	3.57670E+000	10	...........
	6	0.093333	6.93154E-001	5.99113E-003	0.00000E+000	4.15278E-003	3.59960E-001	-1.15733E+000	3.57670E+000	10	...........
	7	0.106667	7.00393E-001	5.99245E-003	0.00000E+000	4.19707E-003	3.59960E-001	-1.16592E+000	3.57670E+000	10	...........
	8	0.12	7.07510E-001	5.99617E-003	0.00000E+000	4.24235E-003	3.59960E-001	-1.15546E+000	3.57670E+000	10	...........
	9	0.133333	7.14578E-001	5.99083E-003	0.00000E+000	4.28092E-003	3.59960E-001	-1.15749E+000	3.57670E+000	10	...........
	10	0.146667	7.21585E-001	5.99126E-003	0.00000E+000	4.32320E-003	3.59960E-001	-1.16588E+000	3.57670E+000	10	...........
	11	0.16	7.28502E-001	5.98966E-003	0.00000E+000	4.36348E-003	3.59960E-001	-1.15503E+000	3.57670E+000	10	...........
	12	0.173333	7.35376E-001	5.99694E-003	0.00000E+000	4.41001E-003	3.59960E-001	-1.15726E+000	3.57670E+000	10	...........
	13	0.186667	7.42211E-001	5.99717E-003	0.00000E+000	4.45117E-003	3.59960E-001	-1.16551E+000	3.57670E+000	10	...........
	14	0.2	7.49042E-001	5.99809E-003	0.00000E+000	4.49282E-003	3.59960E-001	-1.15515E+000	3.57670E+000	10	...........
	15	0.213333	7.55820E-001	5.99314E-003	0.00000E+000	4.52974E-003	3.59960E-001	-1.15729E+000	3.57670E+000	10	...........
	16	0.226667	7.62581E-001	5.99600E-003	0.00000E+000	4.57244E-003	3.59960E-001	-1.16556E+000	3.57670E+000	10	...........
	17	0.24	7.69307E-001	6.00051E-003	0.00000E+000	4.61624E-003	3.59960E-001	-1.15480E+000	3.57670E+000	10	...........
	18	0.253333	7.75992E-001	5.99693E-003	0.00000E+000	4.65357E-003	3.59960E-001	-1.15766E+000	3.57670E+000	10	...........
	19	0.266667	7.82714E-001	5.99390E-003	0.00000E+000	4.69150E-003	3.59960E-001	-1.16565E+000	3.57670E+000	10	...........
	20	0.28	7.89386E-001	5.98957E-003	0.00000E+000	4.72808E-003	3.59960E-001	-1.15491E+000	3.57670E+000	10	...........
	21	0.293333	7.96031E-001	5.99356E-003	0.00000E+000	4.77106E-003	3.59960E-001	-1.15734E+000	3.57670E+000	10	...........
	22	0.306667	8.02647E-001	5.99599E-003	0.00000E+000	4.81267E-003	3.59960E-001	-1.16515E+000	3.57670E+000	10	...........
	23	0.32	8.09242E-001	5.99262E-003	0.00000E+000	4.84948E-003	3.59960E-001	-1.15458E+000	3.57670E+000	10	...........
	24	0.333333	8.15815E-001	5.99376E-003	0.00000E+000	4.88980E-003	3.59960E-001	-1.15730E+000	3.57670E+000	10	...........
	25	0.346667	8.22395E-001	5.99652E-003	0.00000E+000	4.93151E-003	3.59960E-001	-1.16479E+000	3.57670E+000	10	...........
	26	0.36	8.28907E-001	5.98996E-003	0.00000E+000	4.96512E-003	3.59960E-001	-1.15416E+000	3.57670E+000	10	...........
	27	0.373333	8.35389E-001	5.99878E-003	0.00000E+000	5.01131E-003	3.59960E-001	-1.15713E+000	3.57670E+000	10	...........
	28	0.386667	8.41891E-001	5.99669E-003	0.00000E+000	5.04856E-003	3.59960E-001	-1.16459E+000	3.57670E+000	10	...........
	29	0.4	8.48374E-001	5.99502E-003	0.00000E+000	5.08602E-003	3.59960E-001	-1.15443E+000	3.57670E+000	10	...........
	30	0.413333	8.54827E-001	5.99199E-003	0.00000E+000	5.12211E-003	3.59960E-001	-1.15718E+000	3.57670E+000	10	...........
	31	0.426667	8.61291E-001	5.99781E-003	0.00000E+000	5.16586E-003	3.59960E-001	-1.16441E+000	3.57670E+000	10	...........
	32	0.44	8.67686E-001	6.00002E-003	0.00000E+000	5.20613E-003	3.59960E-001	-1.15393E+000	3.57670E+000	10	...........
	33	0.453333	8.74042E-001	5.99307E-003	0.00000E+000	5.23820E-003	3.59960E-001	-1.15714E+000	3.57670E+000	10	...........
	34	0.466667	8.80363E-001	5.99835E-003	0.00000E+000	5.28073E-003	3.59960E-001	-1.16441E+000	3.57670E+000	10	...........
	35	0.48	8.86697E-001	5.99165E-003	0.00000E+000	5.31278E-003	3.59960E-001	-1.15405E+000	3.57670E+000	10	...........
	36	0.493333	8.92978E-001	5.99063E-003	0.00000E+000	5.34950E-003	3.59960E-001	-1.15712E+000	3.57670E+000	10	...........
	37	0.506667	8.99219E-001	5.99303E-003	0.00000E+000	5.38905E-003	3.59960E-001	-1.16393E+000	3.57670E+000	10	...........
	38	0.52	9.05424E-001	5.99718E-003	0.00000E+000	5.42999E-003	3.59960E-001	-1.15385E+000	3.57670E+000	10	...........
	39	0.533333	9.11610E-001	5.99391E-003	0.00000E+000	5.46411E-003	3.59960E-001	-1.15763E+000	3.57670E+000	10	...........
	40	0.546667	9.17765E-001	5.99623E-003	0.00000E+000	5.50313E-003	3.59960E-001	-1.16406E+000	3.57670E+000	10	...........
	41	0.56	9.23902E-001	5.99180E-003	0.00000E+000	5.53584E-003	3.59960E-001	-1.15380E+000	3.57670E+000	10	...........
	42	0.573333	9.29993E-001	5.99131E-003	0.00000E+000	5.57188E-003	3.59960E-001	-1.15749E+000	3.57670E+000	10	...........
	43	0.586667	9.35995E-001	5.99049E-003	0.00000E+000	5.60707E-003	3.59960E-001	-1.16399E+000	3.57670E+000	10	...........
	44	0.6	9.41953E-001	5.99258E-003	0.00000E+000	5.64473E-003	3.59960E-001	-1.15407E+000	3.57670E+000	10	...........
	45	0.613333	9.47891E-001	5.99695E-003	0.00000E+000	5.68446E-003	3.59960E-001	-1.15775E+000	3.57670E+000	10	...........
	46	0.626667	9.53803E-001	5.99826E-003	0.00000E+000	5.72116E-003	3.59960E-001	-1.16369E+000	3.57670E+000	10	...........
	47	0.64	9.59667E-001	6.00025E-003	0.00000E+000	5.75824E-003	3.59960E-001	-1.15375E+000	3.57670E+000	10	...........
	48	0.653333	9.65445E-001	5.99226E-003	0.00000E+000	5.78520E-003	3.59960E-001	-1.15742E+000	3.57670E+000	10	...........
	49	0.666667	9.71235E-001	5.99373E-003	0.00000E+000	5.82132E-003	3.59960E-001	-1.16340E+000	3.57670E+000	10	...........
	50	0.68	9.76975E-001	5.99403E-003	0.00000E+000	5.85602E-003	3.59960E-001	-1.15366E+000	3.57670E+000	10	...........
	51	0.693333	9.82614E-001	5.99683E-003	0.00000E+000	5.89256E-003	3.59960E-001	-1.15750E+000	3.57670E+000	10	...........
	52	0.706667	9.88197E-001	5.99119E-003	0.00000E+000	5.92048E-003	3.59960E-001	-1.16304E+000	3.57670E+000	10	...........
	53	0.72	9.93749E-001	5.99098E-003	0.00000E+000	5.95353E-003	3.59960E-001	-1.15351E+000	3.57670E+000	10	...........
	54	0.73	9.98615E-001	5.99524E-003	0.00000E+000	5.98693E-003	3.59960E-001	-1.16336E+000	3.57670E+000	10	...........
STARTTIMEOFFSET	QUANT	1217.582	Start Time Offset (s)