File: Data/CV_CRGO300517_1/PWRCCD_CRGO300517_1/CHARGE_DISCHARGE/CHARGE_#362.DTA
EXPLAIN
TAG	PWR800_CHARGE
TITLE	LABEL	PWR Cyclic Charge Discharge (Cell) - Charge Step	Test &Identifier
DATE	LABEL	22-6-2017	Date
TIME	LABEL	15:50:27	Time
NOTES	NOTES	3	&Notes...
	supercap test cell
	0.6mg
	6M KOH
PSTAT	PSTAT	IFC5000-01520	Potentiostat
CAPACITY	QUANT	1.00000E-003	Capacity (A-hr)
CELLTYPE	SELECTOR	1	&Cell Type
WORKINGCONNECTION	SELECTOR	0	&Working Lead
MAXCHARGETIME	VARIABLEANDUNITS	1.00000E+002	s	1.00000E+002	second(s)	Max &Charge Time
CHARGECURRENT	QUANT	6.00000E-003	&Charge Current (A)
VOLTAGEFINISH	TWOPARAM	F	1.00000E-003	3.60000E+003	&Voltage Finish	 I (A) < 	Max Time(s)
SAMPLETIME	QUANT	1.00000E-002	Sa&mple Period (s)
CHARGESTOPAT1	MULTIPARAM	4	1.00000E+000	Charge Stop At &1	Voltage > Limit	V
CHARGESTOPAT2	MULTIPARAM	0	0.00000E+000	Charge Stop At &2	None	N/A
AESBHCSELECTOR	TOGGLE	F	Save Both Half Cells
IRCOMP	TOGGLE	F	IR &Measure
EOC	QUANT	0	Open Circuit (V)
SEQUENCER	TOGGLE	TRUE	Run as Sequence
PSTATMODEL	IQUANT	53	Pstat Model
PSTATSECTION	LABEL	IFC5000-01520	Pstat Section
PSTATSERIALNO	LABEL	01520	Pstat Serial Number
CTRLMODE	IQUANT	0	Control Mode
ELECTROMETER	IQUANT	1	RE=0 or CS=1
IESTAB	IQUANT	0	I/E Stability
CASPEED	IQUANT	4	Control Amp Speed
CONVENTION	IQUANT	1	Current Convention
ICHRANGE	IQUANT	2	Ich Range
ICHRANGEMODE	TOGGLE	T	Ich Auto Range
ICHOFFSETENABLE	TOGGLE	F	Ich Offset Enable
ICHOFFSET	QUANT	0	Ich Offset (V)
ICHFILTER	IQUANT	1	Ich Filter
VCHRANGE	IQUANT	2	Vch Range
VCHRANGEMODE	TOGGLE	T	Vch Auto Range
VCHOFFSETENABLE	TOGGLE	F	Vch Offset Enable
VCHOFFSET	QUANT	0	Vch Offset (V)
VCHFILTER	IQUANT	1	Vch Filter
IERANGELOWERLIMIT	IQUANT	9	I/E Range Lower Limit
IERANGEMODE	TOGGLE	F	I/E AutoRange
IERANGE	IQUANT	10	I/E Range
ACHSELECT	IQUANT	1	Ach Select
ACHRANGE	IQUANT	2	Ach Range
ACHOFFSETENABLE	TOGGLE	F	Ach Offset Enable
ACHOFFSET	QUANT	0	Ach Offset (V)
ACHFILTER	IQUANT	1	Ach Filter
CABLEID	IQUANT	14	Cable ID
DCCALDATE	LABEL	20-10-2016	DC Calibration Date
ACCALDATE	LABEL	12/3/2015	AC Calibration Date
FRAMEWORKVERSION	QUANT	7.01	Framework Version
INSTRUMENTVERSION	LABEL	4.00	Instrument Version
CURVE	TABLE	61
	Pt	T	Vf	Im	Vu	Pwr	Sig	Ach	Temp	IERange	Over
	#	s	V	A	V	W	V	V	deg C	#	bits
	0	0.013333	6.21684E-001	5.99553E-003	0.00000E+000	3.72733E-003	3.59960E-001	-1.12378E+000	3.57800E+000	10	...........
	1	0.026667	6.30394E-001	5.99134E-003	0.00000E+000	3.77690E-003	3.59960E-001	-1.12282E+000	3.57800E+000	10	...........
	2	0.04	6.38413E-001	5.99693E-003	0.00000E+000	3.82852E-003	3.59960E-001	-1.13415E+000	3.57800E+000	10	...........
	3	0.053333	6.45963E-001	5.99494E-003	0.00000E+000	3.87251E-003	3.59960E-001	-1.12406E+000	3.57800E+000	10	...........
	4	0.066667	6.53267E-001	5.99583E-003	0.00000E+000	3.91687E-003	3.59960E-001	-1.12278E+000	3.57800E+000	10	...........
	5	0.08	6.60407E-001	5.99668E-003	0.00000E+000	3.96025E-003	3.59960E-001	-1.13393E+000	3.57800E+000	10	...........
	6	0.093333	6.67404E-001	5.99384E-003	0.00000E+000	4.00031E-003	3.59960E-001	-1.12397E+000	3.57800E+000	10	...........
	7	0.106667	6.74287E-001	5.98993E-003	0.00000E+000	4.03894E-003	3.59960E-001	-1.12278E+000	3.57800E+000	10	...........
	8	0.12	6.81079E-001	5.99435E-003	0.00000E+000	4.08263E-003	3.59960E-001	-1.13417E+000	3.57800E+000	10	...........
	9	0.133333	6.87784E-001	5.98903E-003	0.00000E+000	4.11916E-003	3.59960E-001	-1.12410E+000	3.57800E+000	10	...........
	10	0.146667	6.94461E-001	5.99563E-003	0.00000E+000	4.16373E-003	3.59960E-001	-1.12276E+000	3.57800E+000	10	...........
	11	0.16	7.01002E-001	5.99353E-003	0.00000E+000	4.20148E-003	3.59960E-001	-1.13430E+000	3.57800E+000	10	...........
	12	0.173333	7.07536E-001	5.99718E-003	0.00000E+000	4.24322E-003	3.59960E-001	-1.12459E+000	3.57800E+000	10	...........
	13	0.186667	7.14081E-001	5.99390E-003	0.00000E+000	4.28013E-003	3.59960E-001	-1.12282E+000	3.57800E+000	10	...........
	14	0.2	7.20632E-001	5.99838E-003	0.00000E+000	4.32263E-003	3.59960E-001	-1.13393E+000	3.57800E+000	10	...........
	15	0.213333	7.27089E-001	5.99600E-003	0.00000E+000	4.35963E-003	3.59960E-001	-1.12400E+000	3.57800E+000	10	...........
	16	0.226667	7.33540E-001	5.99234E-003	0.00000E+000	4.39563E-003	3.59960E-001	-1.12250E+000	3.57800E+000	10	...........
	17	0.24	7.39962E-001	5.99611E-003	0.00000E+000	4.43689E-003	3.59960E-001	-1.13384E+000	3.57800E+000	10	...........
	18	0.253333	7.46381E-001	5.99241E-003	0.00000E+000	4.47263E-003	3.59960E-001	-1.12418E+000	3.57800E+000	10	...........
	19	0.266667	7.52755E-001	5.99192E-003	0.00000E+000	4.51045E-003	3.59960E-001	-1.12220E+000	3.57800E+000	10	...........
	20	0.28	7.59150E-001	5.99797E-003	0.00000E+000	4.55336E-003	3.59960E-001	-1.13359E+000	3.57800E+000	10	...........
	21	0.293333	7.65519E-001	5.99497E-003	0.00000E+000	4.58926E-003	3.59960E-001	-1.12423E+000	3.57800E+000	10	...........
	22	0.306667	7.71886E-001	5.99130E-003	0.00000E+000	4.62460E-003	3.59960E-001	-1.12243E+000	3.57800E+000	10	...........
	23	0.32	7.78232E-001	5.99431E-003	0.00000E+000	4.66497E-003	3.59960E-001	-1.13365E+000	3.57800E+000	10	...........
	24	0.333333	7.84591E-001	5.99047E-003	0.00000E+000	4.70007E-003	3.59960E-001	-1.12422E+000	3.57800E+000	10	...........
	25	0.346667	7.90925E-001	5.99567E-003	0.00000E+000	4.74213E-003	3.59960E-001	-1.12177E+000	3.57800E+000	10	...........
	26	0.36	7.97217E-001	5.99366E-003	0.00000E+000	4.77824E-003	3.59960E-001	-1.13329E+000	3.57800E+000	10	...........
	27	0.373333	8.03501E-001	5.99264E-003	0.00000E+000	4.81510E-003	3.59960E-001	-1.12417E+000	3.57800E+000	10	...........
	28	0.386667	8.09771E-001	5.99368E-003	0.00000E+000	4.85351E-003	3.59960E-001	-1.12194E+000	3.57800E+000	10	...........
	29	0.4	8.16048E-001	5.99529E-003	0.00000E+000	4.89245E-003	3.59960E-001	-1.13306E+000	3.57800E+000	10	...........
	30	0.413333	8.22292E-001	5.99034E-003	0.00000E+000	4.92581E-003	3.59960E-001	-1.12410E+000	3.57800E+000	10	...........
	31	0.426667	8.28561E-001	5.99406E-003	0.00000E+000	4.96644E-003	3.59960E-001	-1.12181E+000	3.57800E+000	10	...........
	32	0.44	8.34767E-001	5.99357E-003	0.00000E+000	5.00323E-003	3.59960E-001	-1.13344E+000	3.57725E+000	10	...........
	33	0.453333	8.41024E-001	5.99351E-003	0.00000E+000	5.04069E-003	3.59960E-001	-1.12451E+000	3.57700E+000	10	...........
	34	0.466667	8.47280E-001	5.99375E-003	0.00000E+000	5.07838E-003	3.59960E-001	-1.12165E+000	3.57700E+000	10	...........
	35	0.48	8.53450E-001	5.99246E-003	0.00000E+000	5.11426E-003	3.59960E-001	-1.13303E+000	3.57700E+000	10	...........
	36	0.493333	8.59571E-001	6.00008E-003	0.00000E+000	5.15749E-003	3.59960E-001	-1.12464E+000	3.57700E+000	10	...........
	37	0.506667	8.65714E-001	5.99423E-003	0.00000E+000	5.18929E-003	3.59960E-001	-1.12173E+000	3.57700E+000	10	...........
	38	0.52	8.71904E-001	5.99234E-003	0.00000E+000	5.22475E-003	3.59960E-001	-1.13235E+000	3.57700E+000	10	...........
	39	0.533333	8.78019E-001	5.99423E-003	0.00000E+000	5.26305E-003	3.59960E-001	-1.12401E+000	3.57700E+000	10	...........
	40	0.546667	8.84141E-001	5.99129E-003	0.00000E+000	5.29714E-003	3.59960E-001	-1.12097E+000	3.57700E+000	10	...........
	41	0.56	8.90192E-001	5.99159E-003	0.00000E+000	5.33367E-003	3.59960E-001	-1.13229E+000	3.57700E+000	10	...........
	42	0.573333	8.96248E-001	5.99518E-003	0.00000E+000	5.37317E-003	3.59960E-001	-1.12401E+000	3.57700E+000	10	...........
	43	0.586667	9.02275E-001	5.99517E-003	0.00000E+000	5.40929E-003	3.59960E-001	-1.12093E+000	3.57700E+000	10	...........
	44	0.6	9.08258E-001	5.99313E-003	0.00000E+000	5.44331E-003	3.59960E-001	-1.13171E+000	3.57700E+000	10	...........
	45	0.613333	9.14267E-001	5.99439E-003	0.00000E+000	5.48047E-003	3.59960E-001	-1.12365E+000	3.57700E+000	10	...........
	46	0.626667	9.20282E-001	5.99711E-003	0.00000E+000	5.51903E-003	3.59960E-001	-1.12056E+000	3.57700E+000	10	...........
	47	0.64	9.26207E-001	5.99565E-003	0.00000E+000	5.55321E-003	3.59960E-001	-1.13173E+000	3.57700E+000	10	...........
	48	0.653333	9.32096E-001	5.99448E-003	0.00000E+000	5.58743E-003	3.59960E-001	-1.12373E+000	3.57700E+000	10	...........
	49	0.666667	9.37969E-001	5.99589E-003	0.00000E+000	5.62395E-003	3.59960E-001	-1.12029E+000	3.57700E+000	10	...........
	50	0.68	9.43804E-001	5.99134E-003	0.00000E+000	5.65465E-003	3.59960E-001	-1.13142E+000	3.57700E+000	10	...........
	51	0.693333	9.49628E-001	5.99404E-003	0.00000E+000	5.69211E-003	3.59960E-001	-1.12411E+000	3.57700E+000	10	...........
	52	0.706667	9.55405E-001	5.99190E-003	0.00000E+000	5.72469E-003	3.59960E-001	-1.12094E+000	3.57700E+000	10	...........
	53	0.72	9.61095E-001	5.99289E-003	0.00000E+000	5.75974E-003	3.59960E-001	-1.13186E+000	3.57700E+000	10	...........
	54	0.733333	9.66769E-001	5.99327E-003	0.00000E+000	5.79411E-003	3.59960E-001	-1.12469E+000	3.57700E+000	10	...........
	55	0.746667	9.72434E-001	5.99321E-003	0.00000E+000	5.82800E-003	3.59960E-001	-1.12103E+000	3.57700E+000	10	...........
	56	0.76	9.78047E-001	5.99173E-003	0.00000E+000	5.86019E-003	3.59960E-001	-1.13217E+000	3.57700E+000	10	...........
	57	0.773333	9.83575E-001	5.99261E-003	0.00000E+000	5.89419E-003	3.59960E-001	-1.12474E+000	3.57700E+000	10	...........
	58	0.786667	9.89081E-001	5.99185E-003	0.00000E+000	5.92643E-003	3.59960E-001	-1.12107E+000	3.57700E+000	10	...........
	59	0.8	9.94544E-001	5.99622E-003	0.00000E+000	5.96351E-003	3.59960E-001	-1.13164E+000	3.57700E+000	10	...........
	60	0.808333	9.98966E-001	5.99092E-003	0.00000E+000	5.98472E-003	3.59960E-001	-1.11760E+000	3.57700E+000	10	...........
STARTTIMEOFFSET	QUANT	641.9882	Start Time Offset (s)