File: Data/CV_CRGO300517_1/PWRCCD_CRGO300517_1/CHARGE_DISCHARGE/CHARGE_#813.DTA
EXPLAIN
TAG	PWR800_CHARGE
TITLE	LABEL	PWR Cyclic Charge Discharge (Cell) - Charge Step	Test &Identifier
DATE	LABEL	22-6-2017	Date
TIME	LABEL	16:07:46	Time
NOTES	NOTES	3	&Notes...
	supercap test cell
	0.6mg
	6M KOH
PSTAT	PSTAT	IFC5000-01520	Potentiostat
CAPACITY	QUANT	1.00000E-003	Capacity (A-hr)
CELLTYPE	SELECTOR	1	&Cell Type
WORKINGCONNECTION	SELECTOR	0	&Working Lead
MAXCHARGETIME	VARIABLEANDUNITS	1.00000E+002	s	1.00000E+002	second(s)	Max &Charge Time
CHARGECURRENT	QUANT	6.00000E-003	&Charge Current (A)
VOLTAGEFINISH	TWOPARAM	F	1.00000E-003	3.60000E+003	&Voltage Finish	 I (A) < 	Max Time(s)
SAMPLETIME	QUANT	1.00000E-002	Sa&mple Period (s)
CHARGESTOPAT1	MULTIPARAM	4	1.00000E+000	Charge Stop At &1	Voltage > Limit	V
CHARGESTOPAT2	MULTIPARAM	0	0.00000E+000	Charge Stop At &2	None	N/A
AESBHCSELECTOR	TOGGLE	F	Save Both Half Cells
IRCOMP	TOGGLE	F	IR &Measure
EOC	QUANT	0	Open Circuit (V)
SEQUENCER	TOGGLE	TRUE	Run as Sequence
PSTATMODEL	IQUANT	53	Pstat Model
PSTATSECTION	LABEL	IFC5000-01520	Pstat Section
PSTATSERIALNO	LABEL	01520	Pstat Serial Number
CTRLMODE	IQUANT	0	Control Mode
ELECTROMETER	IQUANT	1	RE=0 or CS=1
IESTAB	IQUANT	0	I/E Stability
CASPEED	IQUANT	4	Control Amp Speed
CONVENTION	IQUANT	1	Current Convention
ICHRANGE	IQUANT	2	Ich Range
ICHRANGEMODE	TOGGLE	T	Ich Auto Range
ICHOFFSETENABLE	TOGGLE	F	Ich Offset Enable
ICHOFFSET	QUANT	0	Ich Offset (V)
ICHFILTER	IQUANT	1	Ich Filter
VCHRANGE	IQUANT	2	Vch Range
VCHRANGEMODE	TOGGLE	T	Vch Auto Range
VCHOFFSETENABLE	TOGGLE	F	Vch Offset Enable
VCHOFFSET	QUANT	0	Vch Offset (V)
VCHFILTER	IQUANT	1	Vch Filter
IERANGELOWERLIMIT	IQUANT	9	I/E Range Lower Limit
IERANGEMODE	TOGGLE	F	I/E AutoRange
IERANGE	IQUANT	10	I/E Range
ACHSELECT	IQUANT	1	Ach Select
ACHRANGE	IQUANT	2	Ach Range
ACHOFFSETENABLE	TOGGLE	F	Ach Offset Enable
ACHOFFSET	QUANT	0	Ach Offset (V)
ACHFILTER	IQUANT	1	Ach Filter
CABLEID	IQUANT	14	Cable ID
DCCALDATE	LABEL	20-10-2016	DC Calibration Date
ACCALDATE	LABEL	12/3/2015	AC Calibration Date
FRAMEWORKVERSION	QUANT	7.01	Framework Version
INSTRUMENTVERSION	LABEL	4.00	Instrument Version
CURVE	TABLE	54
	Pt	T	Vf	Im	Vu	Pwr	Sig	Ach	Temp	IERange	Over
	#	s	V	A	V	W	V	V	deg C	#	bits
	0	0.013333	6.48858E-001	5.99680E-003	0.00000E+000	3.89107E-003	3.59960E-001	-1.16473E+000	3.57780E+000	10	...........
	1	0.026667	6.58023E-001	5.99123E-003	0.00000E+000	3.94236E-003	3.59960E-001	-1.17359E+000	3.57780E+000	10	...........
	2	0.04	6.66473E-001	5.99056E-003	0.00000E+000	3.99255E-003	3.59960E-001	-1.16284E+000	3.57780E+000	10	...........
	3	0.053333	6.74490E-001	5.99536E-003	0.00000E+000	4.04381E-003	3.59960E-001	-1.16450E+000	3.57780E+000	10	...........
	4	0.066667	6.82220E-001	5.99453E-003	0.00000E+000	4.08959E-003	3.59960E-001	-1.17336E+000	3.57780E+000	10	...........
	5	0.08	6.89746E-001	5.99341E-003	0.00000E+000	4.13392E-003	3.59960E-001	-1.16291E+000	3.57780E+000	10	...........
	6	0.093333	6.97132E-001	5.99676E-003	0.00000E+000	4.18054E-003	3.59960E-001	-1.16446E+000	3.57780E+000	10	...........
	7	0.106667	7.04403E-001	5.99416E-003	0.00000E+000	4.22230E-003	3.59960E-001	-1.17319E+000	3.57780E+000	10	...........
	8	0.12	7.11562E-001	5.98836E-003	0.00000E+000	4.26109E-003	3.59960E-001	-1.16215E+000	3.57780E+000	10	...........
	9	0.133333	7.18716E-001	5.99234E-003	0.00000E+000	4.30679E-003	3.59960E-001	-1.16382E+000	3.57780E+000	10	...........
	10	0.146667	7.25749E-001	5.99276E-003	0.00000E+000	4.34924E-003	3.59960E-001	-1.17283E+000	3.57780E+000	10	...........
	11	0.16	7.32704E-001	5.99326E-003	0.00000E+000	4.39128E-003	3.59960E-001	-1.16236E+000	3.57780E+000	10	...........
	12	0.173333	7.39652E-001	5.99522E-003	0.00000E+000	4.43437E-003	3.59960E-001	-1.16397E+000	3.57780E+000	10	...........
	13	0.186667	7.46553E-001	5.99474E-003	0.00000E+000	4.47539E-003	3.59960E-001	-1.17276E+000	3.57780E+000	10	...........
	14	0.2	7.53394E-001	5.99336E-003	0.00000E+000	4.51536E-003	3.59960E-001	-1.16210E+000	3.57780E+000	10	...........
	15	0.213333	7.60203E-001	5.99314E-003	0.00000E+000	4.55601E-003	3.59960E-001	-1.16410E+000	3.57780E+000	10	...........
	16	0.226667	7.67007E-001	5.98858E-003	0.00000E+000	4.59328E-003	3.59960E-001	-1.17271E+000	3.57780E+000	10	...........
	17	0.24	7.73807E-001	5.99092E-003	0.00000E+000	4.63582E-003	3.59960E-001	-1.16207E+000	3.57780E+000	10	...........
	18	0.253333	7.80569E-001	5.99880E-003	0.00000E+000	4.68248E-003	3.59960E-001	-1.16362E+000	3.57780E+000	10	...........
	19	0.266667	7.87282E-001	5.98770E-003	0.00000E+000	4.71401E-003	3.59960E-001	-1.17269E+000	3.57780E+000	10	...........
	20	0.28	7.94014E-001	5.99734E-003	0.00000E+000	4.76197E-003	3.59960E-001	-1.16202E+000	3.57780E+000	10	...........
	21	0.293333	8.00664E-001	6.00014E-003	0.00000E+000	4.80410E-003	3.59960E-001	-1.16369E+000	3.57780E+000	10	...........
	22	0.306667	8.07310E-001	5.99755E-003	0.00000E+000	4.84188E-003	3.59960E-001	-1.17216E+000	3.57780E+000	10	...........
	23	0.32	8.13920E-001	5.99207E-003	0.00000E+000	4.87707E-003	3.59960E-001	-1.16172E+000	3.57780E+000	10	...........
	24	0.333333	8.20588E-001	5.99490E-003	0.00000E+000	4.91934E-003	3.59960E-001	-1.16383E+000	3.57780E+000	10	...........
	25	0.346667	8.27185E-001	5.99541E-003	0.00000E+000	4.95931E-003	3.59960E-001	-1.17279E+000	3.57780E+000	10	...........
	26	0.36	8.33725E-001	5.99135E-003	0.00000E+000	4.99514E-003	3.59960E-001	-1.16192E+000	3.57780E+000	10	...........
	27	0.373333	8.40259E-001	6.00128E-003	0.00000E+000	5.04263E-003	3.59960E-001	-1.16384E+000	3.57780E+000	10	...........
	28	0.386667	8.46785E-001	5.99195E-003	0.00000E+000	5.07389E-003	3.59960E-001	-1.17251E+000	3.57780E+000	10	...........
	29	0.4	8.53253E-001	5.99135E-003	0.00000E+000	5.11214E-003	3.59960E-001	-1.16202E+000	3.57780E+000	10	...........
	30	0.413333	8.59712E-001	5.99617E-003	0.00000E+000	5.15498E-003	3.59960E-001	-1.16376E+000	3.57780E+000	10	...........
	31	0.426667	8.66132E-001	5.99698E-003	0.00000E+000	5.19418E-003	3.59960E-001	-1.17229E+000	3.57780E+000	10	...........
	32	0.44	8.72561E-001	5.99341E-003	0.00000E+000	5.22961E-003	3.59960E-001	-1.16132E+000	3.57780E+000	10	...........
	33	0.453333	8.78939E-001	5.99486E-003	0.00000E+000	5.26911E-003	3.59960E-001	-1.16319E+000	3.57780E+000	10	...........
	34	0.466667	8.85335E-001	5.99259E-003	0.00000E+000	5.30545E-003	3.59960E-001	-1.17216E+000	3.57780E+000	10	...........
	35	0.48	8.91605E-001	5.99243E-003	0.00000E+000	5.34288E-003	3.59960E-001	-1.16153E+000	3.57780E+000	10	...........
	36	0.493333	8.97907E-001	5.99571E-003	0.00000E+000	5.38359E-003	3.59960E-001	-1.16339E+000	3.57780E+000	10	...........
	37	0.506667	9.04137E-001	5.99478E-003	0.00000E+000	5.42011E-003	3.59960E-001	-1.17204E+000	3.57780E+000	10	...........
	38	0.52	9.10360E-001	5.99561E-003	0.00000E+000	5.45816E-003	3.59960E-001	-1.16142E+000	3.57780E+000	10	...........
	39	0.533333	9.16508E-001	5.99530E-003	0.00000E+000	5.49474E-003	3.59960E-001	-1.16341E+000	3.57780E+000	10	...........
	40	0.546667	9.22729E-001	5.99432E-003	0.00000E+000	5.53114E-003	3.59960E-001	-1.17212E+000	3.57780E+000	10	...........
	41	0.56	9.28851E-001	5.99720E-003	0.00000E+000	5.57051E-003	3.59960E-001	-1.16168E+000	3.57780E+000	10	...........
	42	0.573333	9.34880E-001	5.99572E-003	0.00000E+000	5.60528E-003	3.59960E-001	-1.16327E+000	3.57780E+000	10	...........
	43	0.586667	9.40871E-001	5.99144E-003	0.00000E+000	5.63718E-003	3.59960E-001	-1.17201E+000	3.57780E+000	10	...........
	44	0.6	9.46848E-001	5.99299E-003	0.00000E+000	5.67445E-003	3.59960E-001	-1.16151E+000	3.57780E+000	10	...........
	45	0.613333	9.52774E-001	5.99337E-003	0.00000E+000	5.71033E-003	3.59960E-001	-1.16328E+000	3.57780E+000	10	...........
	46	0.626667	9.58622E-001	5.98479E-003	0.00000E+000	5.73715E-003	3.59960E-001	-1.17199E+000	3.57780E+000	10	...........
	47	0.64	9.64453E-001	5.99208E-003	0.00000E+000	5.77908E-003	3.59960E-001	-1.16146E+000	3.57780E+000	10	...........
	48	0.653333	9.70250E-001	5.99039E-003	0.00000E+000	5.81218E-003	3.59960E-001	-1.16308E+000	3.57780E+000	10	...........
	49	0.666667	9.76014E-001	5.99403E-003	0.00000E+000	5.85026E-003	3.59960E-001	-1.17200E+000	3.57780E+000	10	...........
	50	0.68	9.81665E-001	5.99270E-003	0.00000E+000	5.88282E-003	3.59960E-001	-1.16170E+000	3.57780E+000	10	...........
	51	0.693333	9.87284E-001	5.99300E-003	0.00000E+000	5.91679E-003	3.59960E-001	-1.16342E+000	3.57780E+000	10	...........
	52	0.706667	9.92851E-001	5.99319E-003	0.00000E+000	5.95034E-003	3.59960E-001	-1.17199E+000	3.57780E+000	10	...........
	53	0.718333	9.98039E-001	5.99291E-003	0.00000E+000	5.98116E-003	3.59960E-001	-1.15927E+000	3.57780E+000	10	...........
STARTTIMEOFFSET	QUANT	1322.739	Start Time Offset (s)