File: Data/CV_CRGO300517_1/PWRCCD_CRGO300517_1/CHARGE_DISCHARGE/CHARGE_#763.DTA
EXPLAIN
TAG	PWR800_CHARGE
TITLE	LABEL	PWR Cyclic Charge Discharge (Cell) - Charge Step	Test &Identifier
DATE	LABEL	22-6-2017	Date
TIME	LABEL	16:05:54	Time
NOTES	NOTES	3	&Notes...
	supercap test cell
	0.6mg
	6M KOH
PSTAT	PSTAT	IFC5000-01520	Potentiostat
CAPACITY	QUANT	1.00000E-003	Capacity (A-hr)
CELLTYPE	SELECTOR	1	&Cell Type
WORKINGCONNECTION	SELECTOR	0	&Working Lead
MAXCHARGETIME	VARIABLEANDUNITS	1.00000E+002	s	1.00000E+002	second(s)	Max &Charge Time
CHARGECURRENT	QUANT	6.00000E-003	&Charge Current (A)
VOLTAGEFINISH	TWOPARAM	F	1.00000E-003	3.60000E+003	&Voltage Finish	 I (A) < 	Max Time(s)
SAMPLETIME	QUANT	1.00000E-002	Sa&mple Period (s)
CHARGESTOPAT1	MULTIPARAM	4	1.00000E+000	Charge Stop At &1	Voltage > Limit	V
CHARGESTOPAT2	MULTIPARAM	0	0.00000E+000	Charge Stop At &2	None	N/A
AESBHCSELECTOR	TOGGLE	F	Save Both Half Cells
IRCOMP	TOGGLE	F	IR &Measure
EOC	QUANT	0	Open Circuit (V)
SEQUENCER	TOGGLE	TRUE	Run as Sequence
PSTATMODEL	IQUANT	53	Pstat Model
PSTATSECTION	LABEL	IFC5000-01520	Pstat Section
PSTATSERIALNO	LABEL	01520	Pstat Serial Number
CTRLMODE	IQUANT	0	Control Mode
ELECTROMETER	IQUANT	1	RE=0 or CS=1
IESTAB	IQUANT	0	I/E Stability
CASPEED	IQUANT	4	Control Amp Speed
CONVENTION	IQUANT	1	Current Convention
ICHRANGE	IQUANT	2	Ich Range
ICHRANGEMODE	TOGGLE	T	Ich Auto Range
ICHOFFSETENABLE	TOGGLE	F	Ich Offset Enable
ICHOFFSET	QUANT	0	Ich Offset (V)
ICHFILTER	IQUANT	1	Ich Filter
VCHRANGE	IQUANT	2	Vch Range
VCHRANGEMODE	TOGGLE	T	Vch Auto Range
VCHOFFSETENABLE	TOGGLE	F	Vch Offset Enable
VCHOFFSET	QUANT	0	Vch Offset (V)
VCHFILTER	IQUANT	1	Vch Filter
IERANGELOWERLIMIT	IQUANT	9	I/E Range Lower Limit
IERANGEMODE	TOGGLE	F	I/E AutoRange
IERANGE	IQUANT	10	I/E Range
ACHSELECT	IQUANT	1	Ach Select
ACHRANGE	IQUANT	2	Ach Range
ACHOFFSETENABLE	TOGGLE	F	Ach Offset Enable
ACHOFFSET	QUANT	0	Ach Offset (V)
ACHFILTER	IQUANT	1	Ach Filter
CABLEID	IQUANT	14	Cable ID
DCCALDATE	LABEL	20-10-2016	DC Calibration Date
ACCALDATE	LABEL	12/3/2015	AC Calibration Date
FRAMEWORKVERSION	QUANT	7.01	Framework Version
INSTRUMENTVERSION	LABEL	4.00	Instrument Version
CURVE	TABLE	55
	Pt	T	Vf	Im	Vu	Pwr	Sig	Ach	Temp	IERange	Over
	#	s	V	A	V	W	V	V	deg C	#	bits
	0	0.013333	6.46498E-001	5.99225E-003	0.00000E+000	3.87398E-003	3.59960E-001	-1.16630E+000	3.57640E+000	10	...........
	1	0.026667	6.55638E-001	5.99780E-003	0.00000E+000	3.93238E-003	3.59960E-001	-1.16096E+000	3.57640E+000	10	...........
	2	0.04	6.64055E-001	5.99718E-003	0.00000E+000	3.98246E-003	3.59960E-001	-1.17015E+000	3.57640E+000	10	...........
	3	0.053333	6.72060E-001	5.99479E-003	0.00000E+000	4.02886E-003	3.59960E-001	-1.16630E+000	3.57640E+000	10	...........
	4	0.066667	6.79764E-001	5.99326E-003	0.00000E+000	4.07400E-003	3.59960E-001	-1.16064E+000	3.57640E+000	10	...........
	5	0.08	6.87262E-001	5.99226E-003	0.00000E+000	4.11825E-003	3.59960E-001	-1.16986E+000	3.57640E+000	10	...........
	6	0.093333	6.94654E-001	5.99222E-003	0.00000E+000	4.16251E-003	3.59960E-001	-1.16615E+000	3.57640E+000	10	...........
	7	0.106667	7.01858E-001	5.99532E-003	0.00000E+000	4.20786E-003	3.59960E-001	-1.16069E+000	3.57640E+000	10	...........
	8	0.12	7.08993E-001	5.99344E-003	0.00000E+000	4.24930E-003	3.59960E-001	-1.17001E+000	3.57640E+000	10	...........
	9	0.133333	7.16117E-001	5.99981E-003	0.00000E+000	4.29656E-003	3.59960E-001	-1.16601E+000	3.57640E+000	10	...........
	10	0.146667	7.23152E-001	5.99658E-003	0.00000E+000	4.33643E-003	3.59960E-001	-1.16064E+000	3.57640E+000	10	...........
	11	0.16	7.30055E-001	5.99387E-003	0.00000E+000	4.37586E-003	3.59960E-001	-1.17041E+000	3.57640E+000	10	...........
	12	0.173333	7.36958E-001	5.99303E-003	0.00000E+000	4.41661E-003	3.59960E-001	-1.16614E+000	3.57640E+000	10	...........
	13	0.186667	7.43871E-001	5.99742E-003	0.00000E+000	4.46131E-003	3.59960E-001	-1.16052E+000	3.57640E+000	10	...........
	14	0.2	7.50703E-001	5.99468E-003	0.00000E+000	4.50022E-003	3.59960E-001	-1.17001E+000	3.57640E+000	10	...........
	15	0.213333	7.57482E-001	5.99570E-003	0.00000E+000	4.54163E-003	3.59960E-001	-1.16579E+000	3.57640E+000	10	...........
	16	0.226667	7.64294E-001	5.99718E-003	0.00000E+000	4.58361E-003	3.59960E-001	-1.16034E+000	3.57640E+000	10	...........
	17	0.24	7.71064E-001	5.99474E-003	0.00000E+000	4.62233E-003	3.59960E-001	-1.16962E+000	3.57640E+000	10	...........
	18	0.253333	7.77808E-001	5.99512E-003	0.00000E+000	4.66305E-003	3.59960E-001	-1.16522E+000	3.57640E+000	10	...........
	19	0.266667	7.84494E-001	5.99377E-003	0.00000E+000	4.70208E-003	3.59960E-001	-1.16004E+000	3.57640E+000	10	...........
	20	0.28	7.91151E-001	5.98889E-003	0.00000E+000	4.73811E-003	3.59960E-001	-1.16953E+000	3.57640E+000	10	...........
	21	0.293333	7.97821E-001	5.98876E-003	0.00000E+000	4.77796E-003	3.59960E-001	-1.16539E+000	3.57640E+000	10	...........
	22	0.306667	8.04393E-001	5.99654E-003	0.00000E+000	4.82358E-003	3.59960E-001	-1.16013E+000	3.57640E+000	10	...........
	23	0.32	8.11019E-001	5.99990E-003	0.00000E+000	4.86604E-003	3.59960E-001	-1.16945E+000	3.57640E+000	10	...........
	24	0.333333	8.17613E-001	5.99288E-003	0.00000E+000	4.89986E-003	3.59960E-001	-1.16524E+000	3.57640E+000	10	...........
	25	0.346667	8.24164E-001	5.99374E-003	0.00000E+000	4.93982E-003	3.59960E-001	-1.16000E+000	3.57640E+000	10	...........
	26	0.36	8.30709E-001	5.99300E-003	0.00000E+000	4.97844E-003	3.59960E-001	-1.16960E+000	3.57640E+000	10	...........
	27	0.373333	8.37205E-001	5.99355E-003	0.00000E+000	5.01783E-003	3.59960E-001	-1.16519E+000	3.57640E+000	10	...........
	28	0.386667	8.43716E-001	5.99179E-003	0.00000E+000	5.05537E-003	3.59960E-001	-1.15987E+000	3.57640E+000	10	...........
	29	0.4	8.50184E-001	5.99054E-003	0.00000E+000	5.09306E-003	3.59960E-001	-1.16925E+000	3.57640E+000	10	...........
	30	0.413333	8.56641E-001	5.99155E-003	0.00000E+000	5.13261E-003	3.59960E-001	-1.16481E+000	3.57640E+000	10	...........
	31	0.426667	8.63078E-001	5.99120E-003	0.00000E+000	5.17088E-003	3.59960E-001	-1.16000E+000	3.57640E+000	10	...........
	32	0.44	8.69486E-001	5.98956E-003	0.00000E+000	5.20783E-003	3.59960E-001	-1.16957E+000	3.57640E+000	10	...........
	33	0.453333	8.75866E-001	5.99399E-003	0.00000E+000	5.24993E-003	3.59960E-001	-1.16495E+000	3.57640E+000	10	...........
	34	0.466667	8.82212E-001	5.99399E-003	0.00000E+000	5.28797E-003	3.59960E-001	-1.15983E+000	3.57640E+000	10	...........
	35	0.48	8.88547E-001	5.99465E-003	0.00000E+000	5.32652E-003	3.59960E-001	-1.16966E+000	3.57640E+000	10	...........
	36	0.493333	8.94803E-001	5.99280E-003	0.00000E+000	5.36237E-003	3.59960E-001	-1.16496E+000	3.57640E+000	10	...........
	37	0.506667	9.01092E-001	5.99206E-003	0.00000E+000	5.39940E-003	3.59960E-001	-1.15980E+000	3.57680E+000	10	...........
	38	0.52	9.07312E-001	5.98810E-003	0.00000E+000	5.43307E-003	3.59960E-001	-1.16935E+000	3.57680E+000	10	...........
	39	0.533333	9.13499E-001	5.98858E-003	0.00000E+000	5.47056E-003	3.59960E-001	-1.16446E+000	3.57680E+000	10	...........
	40	0.546667	9.19648E-001	5.98919E-003	0.00000E+000	5.50795E-003	3.59960E-001	-1.15938E+000	3.57680E+000	10	...........
	41	0.56	9.25753E-001	5.99811E-003	0.00000E+000	5.55277E-003	3.59960E-001	-1.16916E+000	3.57680E+000	10	...........
	42	0.573333	9.31779E-001	5.99307E-003	0.00000E+000	5.58422E-003	3.59960E-001	-1.16437E+000	3.57680E+000	10	...........
	43	0.586667	9.37814E-001	5.99119E-003	0.00000E+000	5.61862E-003	3.59960E-001	-1.15920E+000	3.57680E+000	10	...........
	44	0.6	9.43821E-001	5.99423E-003	0.00000E+000	5.65748E-003	3.59960E-001	-1.16906E+000	3.57680E+000	10	...........
	45	0.613333	9.49764E-001	5.99412E-003	0.00000E+000	5.69300E-003	3.59960E-001	-1.16421E+000	3.57680E+000	10	...........
	46	0.626667	9.55693E-001	5.99374E-003	0.00000E+000	5.72817E-003	3.59960E-001	-1.15946E+000	3.57680E+000	10	...........
	47	0.64	9.61509E-001	5.99100E-003	0.00000E+000	5.76039E-003	3.59960E-001	-1.16909E+000	3.57680E+000	10	...........
	48	0.653333	9.67292E-001	5.98994E-003	0.00000E+000	5.79402E-003	3.59960E-001	-1.16420E+000	3.57680E+000	10	...........
	49	0.666667	9.73079E-001	5.99059E-003	0.00000E+000	5.82932E-003	3.59960E-001	-1.15889E+000	3.57680E+000	10	...........
	50	0.68	9.78805E-001	5.99370E-003	0.00000E+000	5.86666E-003	3.59960E-001	-1.16905E+000	3.57680E+000	10	...........
	51	0.693333	9.84456E-001	5.99063E-003	0.00000E+000	5.89751E-003	3.59960E-001	-1.16422E+000	3.57680E+000	10	...........
	52	0.706667	9.90036E-001	5.99464E-003	0.00000E+000	5.93491E-003	3.59960E-001	-1.15933E+000	3.57680E+000	10	...........
	53	0.72	9.95591E-001	5.99941E-003	0.00000E+000	5.97296E-003	3.59960E-001	-1.16881E+000	3.57680E+000	10	...........
	54	0.725	9.99340E-001	5.99557E-003	0.00000E+000	5.99162E-003	3.59960E-001	-1.14944E+000	3.57680E+000	10	...........
STARTTIMEOFFSET	QUANT	1250.881	Start Time Offset (s)