File: Data/CV_CRGO300517_1/PWRCCD_CRGO300517_1/CHARGE_DISCHARGE/CHARGE_#59.DTA
EXPLAIN
TAG	PWR800_CHARGE
TITLE	LABEL	PWR Cyclic Charge Discharge (Cell) - Charge Step	Test &Identifier
DATE	LABEL	22-6-2017	Date
TIME	LABEL	15:37:41	Time
NOTES	NOTES	3	&Notes...
	supercap test cell
	0.6mg
	6M KOH
PSTAT	PSTAT	IFC5000-01520	Potentiostat
CAPACITY	QUANT	1.00000E-003	Capacity (A-hr)
CELLTYPE	SELECTOR	1	&Cell Type
WORKINGCONNECTION	SELECTOR	0	&Working Lead
MAXCHARGETIME	VARIABLEANDUNITS	1.00000E+002	s	1.00000E+002	second(s)	Max &Charge Time
CHARGECURRENT	QUANT	6.00000E-003	&Charge Current (A)
VOLTAGEFINISH	TWOPARAM	F	1.00000E-003	3.60000E+003	&Voltage Finish	 I (A) < 	Max Time(s)
SAMPLETIME	QUANT	1.00000E-002	Sa&mple Period (s)
CHARGESTOPAT1	MULTIPARAM	4	1.00000E+000	Charge Stop At &1	Voltage > Limit	V
CHARGESTOPAT2	MULTIPARAM	0	0.00000E+000	Charge Stop At &2	None	N/A
AESBHCSELECTOR	TOGGLE	F	Save Both Half Cells
IRCOMP	TOGGLE	F	IR &Measure
EOC	QUANT	0	Open Circuit (V)
SEQUENCER	TOGGLE	TRUE	Run as Sequence
PSTATMODEL	IQUANT	53	Pstat Model
PSTATSECTION	LABEL	IFC5000-01520	Pstat Section
PSTATSERIALNO	LABEL	01520	Pstat Serial Number
CTRLMODE	IQUANT	0	Control Mode
ELECTROMETER	IQUANT	1	RE=0 or CS=1
IESTAB	IQUANT	0	I/E Stability
CASPEED	IQUANT	4	Control Amp Speed
CONVENTION	IQUANT	1	Current Convention
ICHRANGE	IQUANT	2	Ich Range
ICHRANGEMODE	TOGGLE	T	Ich Auto Range
ICHOFFSETENABLE	TOGGLE	F	Ich Offset Enable
ICHOFFSET	QUANT	0	Ich Offset (V)
ICHFILTER	IQUANT	1	Ich Filter
VCHRANGE	IQUANT	2	Vch Range
VCHRANGEMODE	TOGGLE	T	Vch Auto Range
VCHOFFSETENABLE	TOGGLE	F	Vch Offset Enable
VCHOFFSET	QUANT	0	Vch Offset (V)
VCHFILTER	IQUANT	1	Vch Filter
IERANGELOWERLIMIT	IQUANT	9	I/E Range Lower Limit
IERANGEMODE	TOGGLE	F	I/E AutoRange
IERANGE	IQUANT	10	I/E Range
ACHSELECT	IQUANT	1	Ach Select
ACHRANGE	IQUANT	2	Ach Range
ACHOFFSETENABLE	TOGGLE	F	Ach Offset Enable
ACHOFFSET	QUANT	0	Ach Offset (V)
ACHFILTER	IQUANT	1	Ach Filter
CABLEID	IQUANT	14	Cable ID
DCCALDATE	LABEL	20-10-2016	DC Calibration Date
ACCALDATE	LABEL	12/3/2015	AC Calibration Date
FRAMEWORKVERSION	QUANT	7.01	Framework Version
INSTRUMENTVERSION	LABEL	4.00	Instrument Version
CURVE	TABLE	73
	Pt	T	Vf	Im	Vu	Pwr	Sig	Ach	Temp	IERange	Over
	#	s	V	A	V	W	V	V	deg C	#	bits
	0	0.013333	5.77623E-001	5.99456E-003	0.00000E+000	3.46260E-003	3.59960E-001	-1.04746E+000	3.57710E+000	10	...........
	1	0.026667	5.85771E-001	5.99235E-003	0.00000E+000	3.51015E-003	3.59960E-001	-1.05376E+000	3.57710E+000	10	...........
	2	0.04	5.93259E-001	5.99168E-003	0.00000E+000	3.55462E-003	3.59960E-001	-1.04309E+000	3.57710E+000	10	...........
	3	0.053333	6.00257E-001	5.99834E-003	0.00000E+000	3.60055E-003	3.59960E-001	-1.04698E+000	3.57710E+000	10	...........
	4	0.066667	6.07082E-001	5.99490E-003	0.00000E+000	3.63940E-003	3.59960E-001	-1.05338E+000	3.57710E+000	10	...........
	5	0.08	6.13707E-001	5.99514E-003	0.00000E+000	3.67926E-003	3.59960E-001	-1.04283E+000	3.57710E+000	10	...........
	6	0.093333	6.20206E-001	5.99740E-003	0.00000E+000	3.71962E-003	3.59960E-001	-1.04713E+000	3.57710E+000	10	...........
	7	0.106667	6.26531E-001	5.99379E-003	0.00000E+000	3.75530E-003	3.59960E-001	-1.05375E+000	3.57710E+000	10	...........
	8	0.12	6.32786E-001	5.99577E-003	0.00000E+000	3.79404E-003	3.59960E-001	-1.04285E+000	3.57710E+000	10	...........
	9	0.133333	6.38957E-001	5.99764E-003	0.00000E+000	3.83223E-003	3.59960E-001	-1.04683E+000	3.57710E+000	10	...........
	10	0.146667	6.45078E-001	5.99247E-003	0.00000E+000	3.86561E-003	3.59960E-001	-1.05369E+000	3.57710E+000	10	...........
	11	0.16	6.51168E-001	5.99456E-003	0.00000E+000	3.90346E-003	3.59960E-001	-1.04285E+000	3.57710E+000	10	...........
	12	0.173333	6.57184E-001	5.99187E-003	0.00000E+000	3.93776E-003	3.59960E-001	-1.04701E+000	3.57710E+000	10	...........
	13	0.186667	6.63162E-001	5.99270E-003	0.00000E+000	3.97413E-003	3.59960E-001	-1.05384E+000	3.57710E+000	10	...........
	14	0.2	6.69149E-001	5.99387E-003	0.00000E+000	4.01080E-003	3.59960E-001	-1.04279E+000	3.57727E+000	10	...........
	15	0.213333	6.75089E-001	5.99306E-003	0.00000E+000	4.04585E-003	3.59960E-001	-1.04680E+000	3.57730E+000	10	...........
	16	0.226667	6.80990E-001	5.99560E-003	0.00000E+000	4.08294E-003	3.59960E-001	-1.05390E+000	3.57730E+000	10	...........
	17	0.24	6.86851E-001	5.99400E-003	0.00000E+000	4.11698E-003	3.59960E-001	-1.04298E+000	3.57730E+000	10	...........
	18	0.253333	6.92717E-001	5.99536E-003	0.00000E+000	4.15308E-003	3.59960E-001	-1.04657E+000	3.57730E+000	10	...........
	19	0.266667	6.98546E-001	5.99645E-003	0.00000E+000	4.18880E-003	3.59960E-001	-1.05379E+000	3.57730E+000	10	...........
	20	0.28	7.04382E-001	5.99442E-003	0.00000E+000	4.22236E-003	3.59960E-001	-1.04284E+000	3.57730E+000	10	...........
	21	0.293333	7.10253E-001	5.99874E-003	0.00000E+000	4.26062E-003	3.59960E-001	-1.04663E+000	3.57730E+000	10	...........
	22	0.306667	7.16080E-001	5.99435E-003	0.00000E+000	4.29244E-003	3.59960E-001	-1.05411E+000	3.57730E+000	10	...........
	23	0.32	7.21896E-001	5.99006E-003	0.00000E+000	4.32420E-003	3.59960E-001	-1.04270E+000	3.57730E+000	10	...........
	24	0.333333	7.27697E-001	5.99305E-003	0.00000E+000	4.36113E-003	3.59960E-001	-1.04568E+000	3.57730E+000	10	...........
	25	0.346667	7.33482E-001	5.99470E-003	0.00000E+000	4.39700E-003	3.59960E-001	-1.05351E+000	3.57730E+000	10	...........
	26	0.36	7.39265E-001	5.99344E-003	0.00000E+000	4.43074E-003	3.59960E-001	-1.04249E+000	3.57730E+000	10	...........
	27	0.373333	7.45082E-001	5.99287E-003	0.00000E+000	4.46518E-003	3.59960E-001	-1.04595E+000	3.57730E+000	10	...........
	28	0.386667	7.50909E-001	5.99500E-003	0.00000E+000	4.50170E-003	3.59960E-001	-1.05375E+000	3.57730E+000	10	...........
	29	0.4	7.56675E-001	5.99462E-003	0.00000E+000	4.53598E-003	3.59960E-001	-1.04223E+000	3.57730E+000	10	...........
	30	0.413333	7.62481E-001	5.99106E-003	0.00000E+000	4.56807E-003	3.59960E-001	-1.04554E+000	3.57730E+000	10	...........
	31	0.426667	7.68247E-001	5.99763E-003	0.00000E+000	4.60766E-003	3.59960E-001	-1.05376E+000	3.57730E+000	10	...........
	32	0.44	7.73995E-001	5.99254E-003	0.00000E+000	4.63820E-003	3.59960E-001	-1.04252E+000	3.57730E+000	10	...........
	33	0.453333	7.79754E-001	5.99255E-003	0.00000E+000	4.67271E-003	3.59960E-001	-1.04552E+000	3.57730E+000	10	...........
	34	0.466667	7.85553E-001	5.99393E-003	0.00000E+000	4.70855E-003	3.59960E-001	-1.05365E+000	3.57730E+000	10	...........
	35	0.48	7.91278E-001	5.99246E-003	0.00000E+000	4.74170E-003	3.59960E-001	-1.04235E+000	3.57730E+000	10	...........
	36	0.493333	7.97066E-001	5.99716E-003	0.00000E+000	4.78014E-003	3.59960E-001	-1.04561E+000	3.57730E+000	10	...........
	37	0.506667	8.02846E-001	5.99403E-003	0.00000E+000	4.81228E-003	3.59960E-001	-1.05382E+000	3.57730E+000	10	...........
	38	0.52	8.08606E-001	5.99324E-003	0.00000E+000	4.84617E-003	3.59960E-001	-1.04227E+000	3.57730E+000	10	...........
	39	0.533333	8.14367E-001	5.99387E-003	0.00000E+000	4.88121E-003	3.59960E-001	-1.04541E+000	3.57730E+000	10	...........
	40	0.546667	8.20150E-001	5.99328E-003	0.00000E+000	4.91539E-003	3.59960E-001	-1.05376E+000	3.57730E+000	10	...........
	41	0.56	8.25900E-001	5.99608E-003	0.00000E+000	4.95216E-003	3.59960E-001	-1.04267E+000	3.57730E+000	10	...........
	42	0.573333	8.31671E-001	5.99693E-003	0.00000E+000	4.98747E-003	3.59960E-001	-1.04557E+000	3.57730E+000	10	...........
	43	0.586667	8.37404E-001	5.99392E-003	0.00000E+000	5.01933E-003	3.59960E-001	-1.05381E+000	3.57730E+000	10	...........
	44	0.6	8.43151E-001	5.99313E-003	0.00000E+000	5.05312E-003	3.59960E-001	-1.04231E+000	3.57730E+000	10	...........
	45	0.613333	8.48909E-001	5.99328E-003	0.00000E+000	5.08775E-003	3.59960E-001	-1.04507E+000	3.57730E+000	10	...........
	46	0.626667	8.54646E-001	5.99357E-003	0.00000E+000	5.12239E-003	3.59960E-001	-1.05408E+000	3.57730E+000	10	...........
	47	0.64	8.60405E-001	5.99171E-003	0.00000E+000	5.15529E-003	3.59960E-001	-1.04240E+000	3.57730E+000	10	...........
	48	0.653333	8.66149E-001	5.99468E-003	0.00000E+000	5.19229E-003	3.59960E-001	-1.04461E+000	3.57730E+000	10	...........
	49	0.666667	8.71912E-001	5.99426E-003	0.00000E+000	5.22647E-003	3.59960E-001	-1.05341E+000	3.57730E+000	10	...........
	50	0.68	8.77597E-001	5.99238E-003	0.00000E+000	5.25890E-003	3.59960E-001	-1.04196E+000	3.57730E+000	10	...........
	51	0.693333	8.83316E-001	5.99299E-003	0.00000E+000	5.29370E-003	3.59960E-001	-1.04456E+000	3.57730E+000	10	...........
	52	0.706667	8.89019E-001	5.99379E-003	0.00000E+000	5.32860E-003	3.59960E-001	-1.05373E+000	3.57730E+000	10	...........
	53	0.72	8.94701E-001	5.99420E-003	0.00000E+000	5.36302E-003	3.59960E-001	-1.04202E+000	3.57730E+000	10	...........
	54	0.733333	9.00406E-001	5.99236E-003	0.00000E+000	5.39556E-003	3.59960E-001	-1.04423E+000	3.57730E+000	10	...........
	55	0.746667	9.06065E-001	5.99156E-003	0.00000E+000	5.42874E-003	3.59960E-001	-1.05374E+000	3.57730E+000	10	...........
	56	0.76	9.11719E-001	5.99582E-003	0.00000E+000	5.46650E-003	3.59960E-001	-1.04215E+000	3.57730E+000	10	...........
	57	0.773333	9.17346E-001	5.99555E-003	0.00000E+000	5.50000E-003	3.59960E-001	-1.04445E+000	3.57730E+000	10	...........
	58	0.786667	9.23049E-001	5.99212E-003	0.00000E+000	5.53102E-003	3.59960E-001	-1.05377E+000	3.57730E+000	10	...........
	59	0.8	9.28636E-001	5.99772E-003	0.00000E+000	5.56970E-003	3.59960E-001	-1.04190E+000	3.57730E+000	10	...........
	60	0.813333	9.34227E-001	5.99144E-003	0.00000E+000	5.59737E-003	3.59960E-001	-1.04416E+000	3.57730E+000	10	...........
	61	0.826667	9.39810E-001	5.99243E-003	0.00000E+000	5.63174E-003	3.59960E-001	-1.05387E+000	3.57730E+000	10	...........
	62	0.84	9.45363E-001	5.99438E-003	0.00000E+000	5.66686E-003	3.59960E-001	-1.04215E+000	3.57730E+000	10	...........
	63	0.853333	9.50935E-001	5.99698E-003	0.00000E+000	5.70274E-003	3.59960E-001	-1.04401E+000	3.57730E+000	10	...........
	64	0.866667	9.56417E-001	5.99403E-003	0.00000E+000	5.73279E-003	3.59960E-001	-1.05393E+000	3.57730E+000	10	...........
	65	0.88	9.61899E-001	5.99208E-003	0.00000E+000	5.76377E-003	3.59960E-001	-1.04218E+000	3.57730E+000	10	...........
	66	0.893333	9.67353E-001	5.99545E-003	0.00000E+000	5.79972E-003	3.59960E-001	-1.04423E+000	3.57730E+000	10	...........
	67	0.906667	9.72795E-001	5.99644E-003	0.00000E+000	5.83331E-003	3.59960E-001	-1.05414E+000	3.57730E+000	10	...........
	68	0.92	9.78195E-001	5.99369E-003	0.00000E+000	5.86299E-003	3.59960E-001	-1.04242E+000	3.57730E+000	10	...........
	69	0.933333	9.83582E-001	5.99660E-003	0.00000E+000	5.89814E-003	3.59960E-001	-1.04410E+000	3.57730E+000	10	...........
	70	0.946667	9.88894E-001	5.99372E-003	0.00000E+000	5.92715E-003	3.59960E-001	-1.05408E+000	3.57730E+000	10	...........
	71	0.96	9.94216E-001	5.99178E-003	0.00000E+000	5.95712E-003	3.59960E-001	-1.04230E+000	3.57730E+000	10	...........
	72	0.97	9.98867E-001	5.99109E-003	0.00000E+000	5.98430E-003	3.59960E-001	-1.04854E+000	3.57730E+000	10	...........
STARTTIMEOFFSET	QUANT	118.0033	Start Time Offset (s)