File: Data/CV_CRGO300517_1/PWRCCD_CRGO300517_1/CHARGE_DISCHARGE/CHARGE_#313.DTA
EXPLAIN
TAG	PWR800_CHARGE
TITLE	LABEL	PWR Cyclic Charge Discharge (Cell) - Charge Step	Test &Identifier
DATE	LABEL	22-6-2017	Date
TIME	LABEL	15:48:27	Time
NOTES	NOTES	3	&Notes...
	supercap test cell
	0.6mg
	6M KOH
PSTAT	PSTAT	IFC5000-01520	Potentiostat
CAPACITY	QUANT	1.00000E-003	Capacity (A-hr)
CELLTYPE	SELECTOR	1	&Cell Type
WORKINGCONNECTION	SELECTOR	0	&Working Lead
MAXCHARGETIME	VARIABLEANDUNITS	1.00000E+002	s	1.00000E+002	second(s)	Max &Charge Time
CHARGECURRENT	QUANT	6.00000E-003	&Charge Current (A)
VOLTAGEFINISH	TWOPARAM	F	1.00000E-003	3.60000E+003	&Voltage Finish	 I (A) < 	Max Time(s)
SAMPLETIME	QUANT	1.00000E-002	Sa&mple Period (s)
CHARGESTOPAT1	MULTIPARAM	4	1.00000E+000	Charge Stop At &1	Voltage > Limit	V
CHARGESTOPAT2	MULTIPARAM	0	0.00000E+000	Charge Stop At &2	None	N/A
AESBHCSELECTOR	TOGGLE	F	Save Both Half Cells
IRCOMP	TOGGLE	F	IR &Measure
EOC	QUANT	0	Open Circuit (V)
SEQUENCER	TOGGLE	TRUE	Run as Sequence
PSTATMODEL	IQUANT	53	Pstat Model
PSTATSECTION	LABEL	IFC5000-01520	Pstat Section
PSTATSERIALNO	LABEL	01520	Pstat Serial Number
CTRLMODE	IQUANT	0	Control Mode
ELECTROMETER	IQUANT	1	RE=0 or CS=1
IESTAB	IQUANT	0	I/E Stability
CASPEED	IQUANT	4	Control Amp Speed
CONVENTION	IQUANT	1	Current Convention
ICHRANGE	IQUANT	2	Ich Range
ICHRANGEMODE	TOGGLE	T	Ich Auto Range
ICHOFFSETENABLE	TOGGLE	F	Ich Offset Enable
ICHOFFSET	QUANT	0	Ich Offset (V)
ICHFILTER	IQUANT	1	Ich Filter
VCHRANGE	IQUANT	2	Vch Range
VCHRANGEMODE	TOGGLE	T	Vch Auto Range
VCHOFFSETENABLE	TOGGLE	F	Vch Offset Enable
VCHOFFSET	QUANT	0	Vch Offset (V)
VCHFILTER	IQUANT	1	Vch Filter
IERANGELOWERLIMIT	IQUANT	9	I/E Range Lower Limit
IERANGEMODE	TOGGLE	F	I/E AutoRange
IERANGE	IQUANT	10	I/E Range
ACHSELECT	IQUANT	1	Ach Select
ACHRANGE	IQUANT	2	Ach Range
ACHOFFSETENABLE	TOGGLE	F	Ach Offset Enable
ACHOFFSET	QUANT	0	Ach Offset (V)
ACHFILTER	IQUANT	1	Ach Filter
CABLEID	IQUANT	14	Cable ID
DCCALDATE	LABEL	20-10-2016	DC Calibration Date
ACCALDATE	LABEL	12/3/2015	AC Calibration Date
FRAMEWORKVERSION	QUANT	7.01	Framework Version
INSTRUMENTVERSION	LABEL	4.00	Instrument Version
CURVE	TABLE	62
	Pt	T	Vf	Im	Vu	Pwr	Sig	Ach	Temp	IERange	Over
	#	s	V	A	V	W	V	V	deg C	#	bits
	0	0.013333	6.17780E-001	5.99380E-003	0.00000E+000	3.70285E-003	3.59960E-001	-1.10759E+000	3.57660E+000	10	...........
	1	0.026667	6.26362E-001	5.99298E-003	0.00000E+000	3.75377E-003	3.59960E-001	-1.11252E+000	3.57660E+000	10	...........
	2	0.04	6.34314E-001	5.99629E-003	0.00000E+000	3.80353E-003	3.59960E-001	-1.11524E+000	3.57660E+000	10	...........
	3	0.053333	6.41803E-001	5.98999E-003	0.00000E+000	3.84440E-003	3.59960E-001	-1.10694E+000	3.57660E+000	10	...........
	4	0.066667	6.49052E-001	5.99431E-003	0.00000E+000	3.89062E-003	3.59960E-001	-1.11224E+000	3.57660E+000	10	...........
	5	0.08	6.56104E-001	5.99681E-003	0.00000E+000	3.93453E-003	3.59960E-001	-1.11542E+000	3.57660E+000	10	...........
	6	0.093333	6.63041E-001	5.99563E-003	0.00000E+000	3.97534E-003	3.59960E-001	-1.10724E+000	3.57660E+000	10	...........
	7	0.106667	6.69872E-001	5.99408E-003	0.00000E+000	4.01527E-003	3.59960E-001	-1.11206E+000	3.57660E+000	10	...........
	8	0.12	6.76569E-001	5.99449E-003	0.00000E+000	4.05569E-003	3.59960E-001	-1.11523E+000	3.57660E+000	10	...........
	9	0.133333	6.83214E-001	5.99099E-003	0.00000E+000	4.09313E-003	3.59960E-001	-1.10726E+000	3.57660E+000	10	...........
	10	0.146667	6.89801E-001	5.99415E-003	0.00000E+000	4.13477E-003	3.59960E-001	-1.11237E+000	3.57660E+000	10	...........
	11	0.16	6.96391E-001	5.99693E-003	0.00000E+000	4.17621E-003	3.59960E-001	-1.11537E+000	3.57660E+000	10	...........
	12	0.173333	7.02862E-001	5.99284E-003	0.00000E+000	4.21214E-003	3.59960E-001	-1.10703E+000	3.57660E+000	10	...........
	13	0.186667	7.09302E-001	5.99542E-003	0.00000E+000	4.25256E-003	3.59960E-001	-1.11187E+000	3.57660E+000	10	...........
	14	0.2	7.15755E-001	5.99144E-003	0.00000E+000	4.28841E-003	3.59960E-001	-1.11501E+000	3.57660E+000	10	...........
	15	0.213333	7.22193E-001	5.98938E-003	0.00000E+000	4.32548E-003	3.59960E-001	-1.10708E+000	3.57660E+000	10	...........
	16	0.226667	7.28597E-001	5.99283E-003	0.00000E+000	4.36636E-003	3.59960E-001	-1.11178E+000	3.57660E+000	10	...........
	17	0.24	7.34918E-001	5.99456E-003	0.00000E+000	4.40552E-003	3.59960E-001	-1.11474E+000	3.57660E+000	10	...........
	18	0.253333	7.41277E-001	5.99022E-003	0.00000E+000	4.44042E-003	3.59960E-001	-1.10649E+000	3.57660E+000	10	...........
	19	0.266667	7.47666E-001	5.99548E-003	0.00000E+000	4.48262E-003	3.59960E-001	-1.11150E+000	3.57660E+000	10	...........
	20	0.28	7.54018E-001	5.99071E-003	0.00000E+000	4.51711E-003	3.59960E-001	-1.11488E+000	3.57660E+000	10	...........
	21	0.293333	7.60320E-001	5.99422E-003	0.00000E+000	4.55753E-003	3.59960E-001	-1.10657E+000	3.57660E+000	10	...........
	22	0.306667	7.66598E-001	5.99407E-003	0.00000E+000	4.59504E-003	3.59960E-001	-1.11127E+000	3.57660E+000	10	...........
	23	0.32	7.72885E-001	5.99661E-003	0.00000E+000	4.63469E-003	3.59960E-001	-1.11444E+000	3.57660E+000	10	...........
	24	0.333333	7.79149E-001	5.99186E-003	0.00000E+000	4.66855E-003	3.59960E-001	-1.10643E+000	3.57660E+000	10	...........
	25	0.346667	7.85470E-001	5.99433E-003	0.00000E+000	4.70837E-003	3.59960E-001	-1.11134E+000	3.57660E+000	10	...........
	26	0.36	7.91753E-001	5.99276E-003	0.00000E+000	4.74479E-003	3.59960E-001	-1.11456E+000	3.57660E+000	10	...........
	27	0.373333	7.98058E-001	5.99667E-003	0.00000E+000	4.78569E-003	3.59960E-001	-1.10612E+000	3.57660E+000	10	...........
	28	0.386667	8.04220E-001	5.99193E-003	0.00000E+000	4.81884E-003	3.59960E-001	-1.11087E+000	3.57700E+000	10	...........
	29	0.4	8.10419E-001	5.99757E-003	0.00000E+000	4.86054E-003	3.59960E-001	-1.11451E+000	3.57700E+000	10	...........
	30	0.413333	8.16637E-001	5.99472E-003	0.00000E+000	4.89551E-003	3.59960E-001	-1.10600E+000	3.57700E+000	10	...........
	31	0.426667	8.22865E-001	5.99016E-003	0.00000E+000	4.92909E-003	3.59960E-001	-1.11077E+000	3.57700E+000	10	...........
	32	0.44	8.29093E-001	5.99359E-003	0.00000E+000	4.96925E-003	3.59960E-001	-1.11407E+000	3.57700E+000	10	...........
	33	0.453333	8.35244E-001	5.99450E-003	0.00000E+000	5.00687E-003	3.59960E-001	-1.10603E+000	3.57700E+000	10	...........
	34	0.466667	8.41404E-001	5.99747E-003	0.00000E+000	5.04630E-003	3.59960E-001	-1.11090E+000	3.57700E+000	10	...........
	35	0.48	8.47568E-001	5.99179E-003	0.00000E+000	5.07845E-003	3.59960E-001	-1.11435E+000	3.57700E+000	10	...........
	36	0.493333	8.53709E-001	5.99297E-003	0.00000E+000	5.11625E-003	3.59960E-001	-1.10602E+000	3.57700E+000	10	...........
	37	0.506667	8.59868E-001	5.99721E-003	0.00000E+000	5.15681E-003	3.59960E-001	-1.11047E+000	3.57700E+000	10	...........
	38	0.52	8.65968E-001	5.99465E-003	0.00000E+000	5.19117E-003	3.59960E-001	-1.11400E+000	3.57700E+000	10	...........
	39	0.533333	8.72103E-001	5.99539E-003	0.00000E+000	5.22859E-003	3.59960E-001	-1.10597E+000	3.57700E+000	10	...........
	40	0.546667	8.78179E-001	6.00062E-003	0.00000E+000	5.26962E-003	3.59960E-001	-1.11027E+000	3.57700E+000	10	...........
	41	0.56	8.84244E-001	5.99117E-003	0.00000E+000	5.29766E-003	3.59960E-001	-1.11373E+000	3.57700E+000	10	...........
	42	0.573333	8.90291E-001	5.99377E-003	0.00000E+000	5.33620E-003	3.59960E-001	-1.10512E+000	3.57700E+000	10	...........
	43	0.586667	8.96308E-001	5.99341E-003	0.00000E+000	5.37194E-003	3.59960E-001	-1.10995E+000	3.57700E+000	10	...........
	44	0.6	9.02310E-001	5.99662E-003	0.00000E+000	5.41081E-003	3.59960E-001	-1.11368E+000	3.57700E+000	10	...........
	45	0.613333	9.08316E-001	5.99329E-003	0.00000E+000	5.44380E-003	3.59960E-001	-1.10550E+000	3.57700E+000	10	...........
	46	0.626667	9.14279E-001	5.99899E-003	0.00000E+000	5.48474E-003	3.59960E-001	-1.10991E+000	3.57700E+000	10	...........
	47	0.64	9.20208E-001	5.99440E-003	0.00000E+000	5.51609E-003	3.59960E-001	-1.11359E+000	3.57700E+000	10	...........
	48	0.653333	9.26100E-001	5.99326E-003	0.00000E+000	5.55036E-003	3.59960E-001	-1.10503E+000	3.57700E+000	10	...........
	49	0.666667	9.31984E-001	5.99261E-003	0.00000E+000	5.58502E-003	3.59960E-001	-1.10998E+000	3.57700E+000	10	...........
	50	0.68	9.37790E-001	5.99591E-003	0.00000E+000	5.62290E-003	3.59960E-001	-1.11388E+000	3.57700E+000	10	...........
	51	0.693333	9.43568E-001	5.99454E-003	0.00000E+000	5.65626E-003	3.59960E-001	-1.10517E+000	3.57700E+000	10	...........
	52	0.706667	9.49376E-001	5.99090E-003	0.00000E+000	5.68762E-003	3.59960E-001	-1.10956E+000	3.57700E+000	10	...........
	53	0.72	9.55092E-001	5.99350E-003	0.00000E+000	5.72435E-003	3.59960E-001	-1.11337E+000	3.57700E+000	10	...........
	54	0.733333	9.60758E-001	5.99320E-003	0.00000E+000	5.75801E-003	3.59960E-001	-1.10517E+000	3.57700E+000	10	...........
	55	0.746667	9.66410E-001	5.99099E-003	0.00000E+000	5.78975E-003	3.59960E-001	-1.10966E+000	3.57700E+000	10	...........
	56	0.76	9.72041E-001	5.99690E-003	0.00000E+000	5.82923E-003	3.59960E-001	-1.11369E+000	3.57700E+000	10	...........
	57	0.773333	9.77616E-001	5.99119E-003	0.00000E+000	5.85709E-003	3.59960E-001	-1.10500E+000	3.57700E+000	10	...........
	58	0.786667	9.83156E-001	5.99448E-003	0.00000E+000	5.89351E-003	3.59960E-001	-1.10954E+000	3.57700E+000	10	...........
	59	0.8	9.88632E-001	5.99513E-003	0.00000E+000	5.92698E-003	3.59960E-001	-1.11367E+000	3.57700E+000	10	...........
	60	0.813333	9.94081E-001	5.99031E-003	0.00000E+000	5.95485E-003	3.59960E-001	-1.10511E+000	3.57700E+000	10	...........
	61	0.823333	9.98869E-001	5.99706E-003	0.00000E+000	5.99027E-003	3.59960E-001	-1.11483E+000	3.57700E+000	10	...........
STARTTIMEOFFSET	QUANT	562.4866	Start Time Offset (s)