File: Data/CV_CRGO300517_1/PWRCCD_CRGO300517_1/CHARGE_DISCHARGE/CHARGE_#643.DTA
EXPLAIN
TAG	PWR800_CHARGE
TITLE	LABEL	PWR Cyclic Charge Discharge (Cell) - Charge Step	Test &Identifier
DATE	LABEL	22-6-2017	Date
TIME	LABEL	16:01:24	Time
NOTES	NOTES	3	&Notes...
	supercap test cell
	0.6mg
	6M KOH
PSTAT	PSTAT	IFC5000-01520	Potentiostat
CAPACITY	QUANT	1.00000E-003	Capacity (A-hr)
CELLTYPE	SELECTOR	1	&Cell Type
WORKINGCONNECTION	SELECTOR	0	&Working Lead
MAXCHARGETIME	VARIABLEANDUNITS	1.00000E+002	s	1.00000E+002	second(s)	Max &Charge Time
CHARGECURRENT	QUANT	6.00000E-003	&Charge Current (A)
VOLTAGEFINISH	TWOPARAM	F	1.00000E-003	3.60000E+003	&Voltage Finish	 I (A) < 	Max Time(s)
SAMPLETIME	QUANT	1.00000E-002	Sa&mple Period (s)
CHARGESTOPAT1	MULTIPARAM	4	1.00000E+000	Charge Stop At &1	Voltage > Limit	V
CHARGESTOPAT2	MULTIPARAM	0	0.00000E+000	Charge Stop At &2	None	N/A
AESBHCSELECTOR	TOGGLE	F	Save Both Half Cells
IRCOMP	TOGGLE	F	IR &Measure
EOC	QUANT	0	Open Circuit (V)
SEQUENCER	TOGGLE	TRUE	Run as Sequence
PSTATMODEL	IQUANT	53	Pstat Model
PSTATSECTION	LABEL	IFC5000-01520	Pstat Section
PSTATSERIALNO	LABEL	01520	Pstat Serial Number
CTRLMODE	IQUANT	0	Control Mode
ELECTROMETER	IQUANT	1	RE=0 or CS=1
IESTAB	IQUANT	0	I/E Stability
CASPEED	IQUANT	4	Control Amp Speed
CONVENTION	IQUANT	1	Current Convention
ICHRANGE	IQUANT	2	Ich Range
ICHRANGEMODE	TOGGLE	T	Ich Auto Range
ICHOFFSETENABLE	TOGGLE	F	Ich Offset Enable
ICHOFFSET	QUANT	0	Ich Offset (V)
ICHFILTER	IQUANT	1	Ich Filter
VCHRANGE	IQUANT	2	Vch Range
VCHRANGEMODE	TOGGLE	T	Vch Auto Range
VCHOFFSETENABLE	TOGGLE	F	Vch Offset Enable
VCHOFFSET	QUANT	0	Vch Offset (V)
VCHFILTER	IQUANT	1	Vch Filter
IERANGELOWERLIMIT	IQUANT	9	I/E Range Lower Limit
IERANGEMODE	TOGGLE	F	I/E AutoRange
IERANGE	IQUANT	10	I/E Range
ACHSELECT	IQUANT	1	Ach Select
ACHRANGE	IQUANT	2	Ach Range
ACHOFFSETENABLE	TOGGLE	F	Ach Offset Enable
ACHOFFSET	QUANT	0	Ach Offset (V)
ACHFILTER	IQUANT	1	Ach Filter
CABLEID	IQUANT	14	Cable ID
DCCALDATE	LABEL	20-10-2016	DC Calibration Date
ACCALDATE	LABEL	12/3/2015	AC Calibration Date
FRAMEWORKVERSION	QUANT	7.01	Framework Version
INSTRUMENTVERSION	LABEL	4.00	Instrument Version
CURVE	TABLE	56
	Pt	T	Vf	Im	Vu	Pwr	Sig	Ach	Temp	IERange	Over
	#	s	V	A	V	W	V	V	deg C	#	bits
	0	0.013333	6.39720E-001	5.99310E-003	0.00000E+000	3.83391E-003	3.59960E-001	-1.16017E+000	3.57780E+000	10	...........
	1	0.026667	6.48744E-001	5.99627E-003	0.00000E+000	3.89005E-003	3.59960E-001	-1.14959E+000	3.57780E+000	10	...........
	2	0.04	6.57047E-001	5.99227E-003	0.00000E+000	3.93720E-003	3.59960E-001	-1.15146E+000	3.57780E+000	10	...........
	3	0.053333	6.64973E-001	5.99361E-003	0.00000E+000	3.98559E-003	3.59960E-001	-1.16010E+000	3.57780E+000	10	...........
	4	0.066667	6.72592E-001	5.99733E-003	0.00000E+000	4.03375E-003	3.59960E-001	-1.14960E+000	3.57780E+000	10	...........
	5	0.08	6.79983E-001	5.99258E-003	0.00000E+000	4.07485E-003	3.59960E-001	-1.15150E+000	3.57780E+000	10	...........
	6	0.093333	6.87277E-001	5.99077E-003	0.00000E+000	4.11732E-003	3.59960E-001	-1.15999E+000	3.57780E+000	10	...........
	7	0.106667	6.94399E-001	5.99701E-003	0.00000E+000	4.16432E-003	3.59960E-001	-1.14955E+000	3.57780E+000	10	...........
	8	0.12	7.01420E-001	5.99185E-003	0.00000E+000	4.20280E-003	3.59960E-001	-1.15146E+000	3.57780E+000	10	...........
	9	0.133333	7.08404E-001	5.99525E-003	0.00000E+000	4.24706E-003	3.59960E-001	-1.16008E+000	3.57780E+000	10	...........
	10	0.146667	7.15315E-001	5.99203E-003	0.00000E+000	4.28619E-003	3.59960E-001	-1.14975E+000	3.57780E+000	10	...........
	11	0.16	7.22170E-001	5.98991E-003	0.00000E+000	4.32573E-003	3.59960E-001	-1.15149E+000	3.57780E+000	10	...........
	12	0.173333	7.29003E-001	5.99589E-003	0.00000E+000	4.37102E-003	3.59960E-001	-1.15983E+000	3.57780E+000	10	...........
	13	0.186667	7.35781E-001	5.99123E-003	0.00000E+000	4.40823E-003	3.59960E-001	-1.14939E+000	3.57780E+000	10	...........
	14	0.2	7.42551E-001	5.99498E-003	0.00000E+000	4.45158E-003	3.59960E-001	-1.15116E+000	3.57780E+000	10	...........
	15	0.213333	7.49255E-001	5.99645E-003	0.00000E+000	4.49287E-003	3.59960E-001	-1.15955E+000	3.57780E+000	10	...........
	16	0.226667	7.55951E-001	5.99337E-003	0.00000E+000	4.53070E-003	3.59960E-001	-1.14920E+000	3.57780E+000	10	...........
	17	0.24	7.62594E-001	5.99190E-003	0.00000E+000	4.56939E-003	3.59960E-001	-1.15061E+000	3.57780E+000	10	...........
	18	0.253333	7.69236E-001	5.99171E-003	0.00000E+000	4.60904E-003	3.59960E-001	-1.15923E+000	3.57780E+000	10	...........
	19	0.266667	7.75851E-001	5.99771E-003	0.00000E+000	4.65333E-003	3.59960E-001	-1.14891E+000	3.57780E+000	10	...........
	20	0.28	7.82476E-001	5.99209E-003	0.00000E+000	4.68867E-003	3.59960E-001	-1.15080E+000	3.57780E+000	10	...........
	21	0.293333	7.89046E-001	5.99264E-003	0.00000E+000	4.72847E-003	3.59960E-001	-1.15942E+000	3.57780E+000	10	...........
	22	0.306667	7.95631E-001	5.99080E-003	0.00000E+000	4.76646E-003	3.59960E-001	-1.14871E+000	3.57780E+000	10	...........
	23	0.32	8.02145E-001	5.99182E-003	0.00000E+000	4.80631E-003	3.59960E-001	-1.15068E+000	3.57780E+000	10	...........
	24	0.333333	8.08675E-001	5.99610E-003	0.00000E+000	4.84889E-003	3.59960E-001	-1.15957E+000	3.57780E+000	10	...........
	25	0.346667	8.15156E-001	5.99409E-003	0.00000E+000	4.88612E-003	3.59960E-001	-1.14909E+000	3.57780E+000	10	...........
	26	0.36	8.21622E-001	5.99326E-003	0.00000E+000	4.92419E-003	3.59960E-001	-1.15083E+000	3.57780E+000	10	...........
	27	0.373333	8.28112E-001	5.99446E-003	0.00000E+000	4.96408E-003	3.59960E-001	-1.15923E+000	3.57780E+000	10	...........
	28	0.386667	8.34528E-001	5.99083E-003	0.00000E+000	4.99951E-003	3.59960E-001	-1.14893E+000	3.57780E+000	10	...........
	29	0.4	8.40981E-001	5.99165E-003	0.00000E+000	5.03887E-003	3.59960E-001	-1.15066E+000	3.57780E+000	10	...........
	30	0.413333	8.47441E-001	5.99700E-003	0.00000E+000	5.08211E-003	3.59960E-001	-1.15948E+000	3.57780E+000	10	...........
	31	0.426667	8.53810E-001	5.99333E-003	0.00000E+000	5.11717E-003	3.59960E-001	-1.14891E+000	3.57780E+000	10	...........
	32	0.44	8.60192E-001	5.99587E-003	0.00000E+000	5.15760E-003	3.59960E-001	-1.15053E+000	3.57780E+000	10	...........
	33	0.453333	8.66488E-001	5.99449E-003	0.00000E+000	5.19416E-003	3.59960E-001	-1.15934E+000	3.57780E+000	10	...........
	34	0.466667	8.72833E-001	5.99448E-003	0.00000E+000	5.23218E-003	3.59960E-001	-1.14895E+000	3.57780E+000	10	...........
	35	0.48	8.79129E-001	5.99583E-003	0.00000E+000	5.27111E-003	3.59960E-001	-1.15089E+000	3.57780E+000	10	...........
	36	0.493333	8.85414E-001	5.99447E-003	0.00000E+000	5.30759E-003	3.59960E-001	-1.15937E+000	3.57780E+000	10	...........
	37	0.506667	8.91664E-001	5.99759E-003	0.00000E+000	5.34783E-003	3.59960E-001	-1.14881E+000	3.57780E+000	10	...........
	38	0.52	8.97851E-001	5.99337E-003	0.00000E+000	5.38116E-003	3.59960E-001	-1.15042E+000	3.57780E+000	10	...........
	39	0.533333	9.03960E-001	5.99555E-003	0.00000E+000	5.41974E-003	3.59960E-001	-1.15909E+000	3.57780E+000	10	...........
	40	0.546667	9.10155E-001	5.99829E-003	0.00000E+000	5.45937E-003	3.59960E-001	-1.14865E+000	3.57780E+000	10	...........
	41	0.56	9.16274E-001	5.99250E-003	0.00000E+000	5.49077E-003	3.59960E-001	-1.15041E+000	3.57780E+000	10	...........
	42	0.573333	9.22387E-001	5.99351E-003	0.00000E+000	5.52833E-003	3.59960E-001	-1.15899E+000	3.57780E+000	10	...........
	43	0.586667	9.28431E-001	5.99600E-003	0.00000E+000	5.56688E-003	3.59960E-001	-1.14847E+000	3.57780E+000	10	...........
	44	0.6	9.34392E-001	5.99634E-003	0.00000E+000	5.60293E-003	3.59960E-001	-1.15020E+000	3.57780E+000	10	...........
	45	0.613333	9.40371E-001	5.99679E-003	0.00000E+000	5.63920E-003	3.59960E-001	-1.15907E+000	3.57780E+000	10	...........
	46	0.626667	9.46339E-001	5.99154E-003	0.00000E+000	5.67003E-003	3.59960E-001	-1.14838E+000	3.57780E+000	10	...........
	47	0.64	9.52213E-001	5.99158E-003	0.00000E+000	5.70526E-003	3.59960E-001	-1.15005E+000	3.57780E+000	10	...........
	48	0.653333	9.58036E-001	5.99552E-003	0.00000E+000	5.74393E-003	3.59960E-001	-1.15899E+000	3.57780E+000	10	...........
	49	0.666667	9.63838E-001	5.99239E-003	0.00000E+000	5.77570E-003	3.59960E-001	-1.14857E+000	3.57780E+000	10	...........
	50	0.68	9.69585E-001	5.99151E-003	0.00000E+000	5.80928E-003	3.59960E-001	-1.15024E+000	3.57780E+000	10	...........
	51	0.693333	9.75317E-001	5.99499E-003	0.00000E+000	5.84702E-003	3.59960E-001	-1.15894E+000	3.57780E+000	10	...........
	52	0.706667	9.80964E-001	5.99642E-003	0.00000E+000	5.88227E-003	3.59960E-001	-1.14840E+000	3.57780E+000	10	...........
	53	0.72	9.86555E-001	5.99317E-003	0.00000E+000	5.91259E-003	3.59960E-001	-1.15015E+000	3.57780E+000	10	...........
	54	0.733333	9.92096E-001	5.99257E-003	0.00000E+000	5.94521E-003	3.59960E-001	-1.15907E+000	3.57780E+000	10	...........
	55	0.746667	9.97622E-001	5.99212E-003	0.00000E+000	5.97787E-003	3.59960E-001	-1.14875E+000	3.57780E+000	10	...........
STARTTIMEOFFSET	QUANT	1075.09	Start Time Offset (s)