File: Data/CV_CRGO300517_1/PWRCCD_CRGO300517_1/CHARGE_DISCHARGE/CHARGE_#964.DTA
EXPLAIN
TAG	PWR800_CHARGE
TITLE	LABEL	PWR Cyclic Charge Discharge (Cell) - Charge Step	Test &Identifier
DATE	LABEL	22-6-2017	Date
TIME	LABEL	16:13:20	Time
NOTES	NOTES	3	&Notes...
	supercap test cell
	0.6mg
	6M KOH
PSTAT	PSTAT	IFC5000-01520	Potentiostat
CAPACITY	QUANT	1.00000E-003	Capacity (A-hr)
CELLTYPE	SELECTOR	1	&Cell Type
WORKINGCONNECTION	SELECTOR	0	&Working Lead
MAXCHARGETIME	VARIABLEANDUNITS	1.00000E+002	s	1.00000E+002	second(s)	Max &Charge Time
CHARGECURRENT	QUANT	6.00000E-003	&Charge Current (A)
VOLTAGEFINISH	TWOPARAM	F	1.00000E-003	3.60000E+003	&Voltage Finish	 I (A) < 	Max Time(s)
SAMPLETIME	QUANT	1.00000E-002	Sa&mple Period (s)
CHARGESTOPAT1	MULTIPARAM	4	1.00000E+000	Charge Stop At &1	Voltage > Limit	V
CHARGESTOPAT2	MULTIPARAM	0	0.00000E+000	Charge Stop At &2	None	N/A
AESBHCSELECTOR	TOGGLE	F	Save Both Half Cells
IRCOMP	TOGGLE	F	IR &Measure
EOC	QUANT	0	Open Circuit (V)
SEQUENCER	TOGGLE	TRUE	Run as Sequence
PSTATMODEL	IQUANT	53	Pstat Model
PSTATSECTION	LABEL	IFC5000-01520	Pstat Section
PSTATSERIALNO	LABEL	01520	Pstat Serial Number
CTRLMODE	IQUANT	0	Control Mode
ELECTROMETER	IQUANT	1	RE=0 or CS=1
IESTAB	IQUANT	0	I/E Stability
CASPEED	IQUANT	4	Control Amp Speed
CONVENTION	IQUANT	1	Current Convention
ICHRANGE	IQUANT	2	Ich Range
ICHRANGEMODE	TOGGLE	T	Ich Auto Range
ICHOFFSETENABLE	TOGGLE	F	Ich Offset Enable
ICHOFFSET	QUANT	0	Ich Offset (V)
ICHFILTER	IQUANT	1	Ich Filter
VCHRANGE	IQUANT	2	Vch Range
VCHRANGEMODE	TOGGLE	T	Vch Auto Range
VCHOFFSETENABLE	TOGGLE	F	Vch Offset Enable
VCHOFFSET	QUANT	0	Vch Offset (V)
VCHFILTER	IQUANT	1	Vch Filter
IERANGELOWERLIMIT	IQUANT	9	I/E Range Lower Limit
IERANGEMODE	TOGGLE	F	I/E AutoRange
IERANGE	IQUANT	10	I/E Range
ACHSELECT	IQUANT	1	Ach Select
ACHRANGE	IQUANT	2	Ach Range
ACHOFFSETENABLE	TOGGLE	F	Ach Offset Enable
ACHOFFSET	QUANT	0	Ach Offset (V)
ACHFILTER	IQUANT	1	Ach Filter
CABLEID	IQUANT	14	Cable ID
DCCALDATE	LABEL	20-10-2016	DC Calibration Date
ACCALDATE	LABEL	12/3/2015	AC Calibration Date
FRAMEWORKVERSION	QUANT	7.01	Framework Version
INSTRUMENTVERSION	LABEL	4.00	Instrument Version
CURVE	TABLE	53
	Pt	T	Vf	Im	Vu	Pwr	Sig	Ach	Temp	IERange	Over
	#	s	V	A	V	W	V	V	deg C	#	bits
	0	0.013333	6.56012E-001	5.99951E-003	0.00000E+000	3.93575E-003	3.59960E-001	-1.17797E+000	3.57640E+000	10	...........
	1	0.026667	6.65304E-001	5.99296E-003	0.00000E+000	3.98714E-003	3.59960E-001	-1.17378E+000	3.57640E+000	10	...........
	2	0.04	6.73907E-001	5.99439E-003	0.00000E+000	4.03966E-003	3.59960E-001	-1.18410E+000	3.57640E+000	10	...........
	3	0.053333	6.82051E-001	5.99343E-003	0.00000E+000	4.08782E-003	3.59960E-001	-1.17788E+000	3.57640E+000	10	...........
	4	0.066667	6.89879E-001	5.99491E-003	0.00000E+000	4.13576E-003	3.59960E-001	-1.17402E+000	3.57640E+000	10	...........
	5	0.08	6.97541E-001	5.98853E-003	0.00000E+000	4.17725E-003	3.59960E-001	-1.18416E+000	3.57640E+000	10	...........
	6	0.093333	7.04982E-001	5.98757E-003	0.00000E+000	4.22113E-003	3.59960E-001	-1.17758E+000	3.57640E+000	10	...........
	7	0.106667	7.12378E-001	5.99080E-003	0.00000E+000	4.26771E-003	3.59960E-001	-1.17339E+000	3.57640E+000	10	...........
	8	0.12	7.19684E-001	5.99455E-003	0.00000E+000	4.31418E-003	3.59960E-001	-1.18411E+000	3.57640E+000	10	...........
	9	0.133333	7.26857E-001	5.99570E-003	0.00000E+000	4.35802E-003	3.59960E-001	-1.17754E+000	3.57640E+000	10	...........
	10	0.146667	7.33982E-001	5.99363E-003	0.00000E+000	4.39922E-003	3.59960E-001	-1.17352E+000	3.57640E+000	10	...........
	11	0.16	7.41077E-001	5.98971E-003	0.00000E+000	4.43884E-003	3.59960E-001	-1.18400E+000	3.57640E+000	10	...........
	12	0.173333	7.48113E-001	5.99518E-003	0.00000E+000	4.48507E-003	3.59960E-001	-1.17736E+000	3.57647E+000	10	...........
	13	0.186667	7.55090E-001	5.98861E-003	0.00000E+000	4.52194E-003	3.59960E-001	-1.17360E+000	3.57650E+000	10	...........
	14	0.2	7.62013E-001	5.99318E-003	0.00000E+000	4.56688E-003	3.59960E-001	-1.18421E+000	3.57650E+000	10	...........
	15	0.213333	7.68950E-001	5.99683E-003	0.00000E+000	4.61126E-003	3.59960E-001	-1.17753E+000	3.57650E+000	10	...........
	16	0.226667	7.75841E-001	5.99355E-003	0.00000E+000	4.65004E-003	3.59960E-001	-1.17349E+000	3.57650E+000	10	...........
	17	0.24	7.82687E-001	5.99271E-003	0.00000E+000	4.69042E-003	3.59960E-001	-1.18413E+000	3.57650E+000	10	...........
	18	0.253333	7.89495E-001	5.99247E-003	0.00000E+000	4.73102E-003	3.59960E-001	-1.17762E+000	3.57650E+000	10	...........
	19	0.266667	7.96294E-001	5.99615E-003	0.00000E+000	4.77470E-003	3.59960E-001	-1.17366E+000	3.57650E+000	10	...........
	20	0.28	8.03087E-001	5.99567E-003	0.00000E+000	4.81505E-003	3.59960E-001	-1.18401E+000	3.57650E+000	10	...........
	21	0.293333	8.09822E-001	5.99442E-003	0.00000E+000	4.85441E-003	3.59960E-001	-1.17715E+000	3.57650E+000	10	...........
	22	0.306667	8.16512E-001	5.98504E-003	0.00000E+000	4.88686E-003	3.59960E-001	-1.17320E+000	3.57650E+000	10	...........
	23	0.32	8.23211E-001	5.99551E-003	0.00000E+000	4.93557E-003	3.59960E-001	-1.18384E+000	3.57650E+000	10	...........
	24	0.333333	8.29860E-001	5.99015E-003	0.00000E+000	4.97099E-003	3.59960E-001	-1.17720E+000	3.57650E+000	10	...........
	25	0.346667	8.36477E-001	5.99528E-003	0.00000E+000	5.01492E-003	3.59960E-001	-1.17332E+000	3.57650E+000	10	...........
	26	0.36	8.43095E-001	5.99493E-003	0.00000E+000	5.05429E-003	3.59960E-001	-1.18370E+000	3.57650E+000	10	...........
	27	0.373333	8.49707E-001	5.99733E-003	0.00000E+000	5.09597E-003	3.59960E-001	-1.17684E+000	3.57650E+000	10	...........
	28	0.386667	8.56260E-001	5.99504E-003	0.00000E+000	5.13331E-003	3.59960E-001	-1.17343E+000	3.57650E+000	10	...........
	29	0.4	8.62777E-001	5.99634E-003	0.00000E+000	5.17350E-003	3.59960E-001	-1.18380E+000	3.57650E+000	10	...........
	30	0.413333	8.69269E-001	5.99530E-003	0.00000E+000	5.21153E-003	3.59960E-001	-1.17691E+000	3.57650E+000	10	...........
	31	0.426667	8.75737E-001	5.99729E-003	0.00000E+000	5.25204E-003	3.59960E-001	-1.17303E+000	3.57650E+000	10	...........
	32	0.44	8.82163E-001	5.99483E-003	0.00000E+000	5.28842E-003	3.59960E-001	-1.18365E+000	3.57650E+000	10	...........
	33	0.453333	8.88526E-001	5.99423E-003	0.00000E+000	5.32603E-003	3.59960E-001	-1.17680E+000	3.57650E+000	10	...........
	34	0.466667	8.94903E-001	5.99227E-003	0.00000E+000	5.36250E-003	3.59960E-001	-1.17303E+000	3.57650E+000	10	...........
	35	0.48	9.01257E-001	6.00049E-003	0.00000E+000	5.40798E-003	3.59960E-001	-1.18365E+000	3.57650E+000	10	...........
	36	0.493333	9.07532E-001	5.98812E-003	0.00000E+000	5.43441E-003	3.59960E-001	-1.17666E+000	3.57650E+000	10	...........
	37	0.506667	9.13768E-001	5.99809E-003	0.00000E+000	5.48086E-003	3.59960E-001	-1.17297E+000	3.57650E+000	10	...........
	38	0.52	9.19987E-001	5.99415E-003	0.00000E+000	5.51454E-003	3.59960E-001	-1.18383E+000	3.57650E+000	10	...........
	39	0.533333	9.26200E-001	5.99395E-003	0.00000E+000	5.55160E-003	3.59960E-001	-1.17698E+000	3.57650E+000	10	...........
	40	0.546667	9.32328E-001	5.99401E-003	0.00000E+000	5.58838E-003	3.59960E-001	-1.17310E+000	3.57650E+000	10	...........
	41	0.56	9.38396E-001	5.99500E-003	0.00000E+000	5.62569E-003	3.59960E-001	-1.18386E+000	3.57650E+000	10	...........
	42	0.573333	9.44402E-001	5.98944E-003	0.00000E+000	5.65644E-003	3.59960E-001	-1.17650E+000	3.57650E+000	10	...........
	43	0.586667	9.50401E-001	5.99078E-003	0.00000E+000	5.69364E-003	3.59960E-001	-1.17292E+000	3.57650E+000	10	...........
	44	0.6	9.56303E-001	5.99498E-003	0.00000E+000	5.73302E-003	3.59960E-001	-1.18362E+000	3.57650E+000	10	...........
	45	0.613333	9.62168E-001	5.99885E-003	0.00000E+000	5.77190E-003	3.59960E-001	-1.17623E+000	3.57650E+000	10	...........
	46	0.626667	9.68032E-001	5.99278E-003	0.00000E+000	5.80120E-003	3.59960E-001	-1.17239E+000	3.57650E+000	10	...........
	47	0.64	9.73839E-001	5.99093E-003	0.00000E+000	5.83421E-003	3.59960E-001	-1.18320E+000	3.57650E+000	10	...........
	48	0.653333	9.79538E-001	5.99821E-003	0.00000E+000	5.87548E-003	3.59960E-001	-1.17626E+000	3.57650E+000	10	...........
	49	0.666667	9.85176E-001	5.99167E-003	0.00000E+000	5.90285E-003	3.59960E-001	-1.17270E+000	3.57650E+000	10	...........
	50	0.68	9.90802E-001	5.99251E-003	0.00000E+000	5.93739E-003	3.59960E-001	-1.18348E+000	3.57650E+000	10	...........
	51	0.693333	9.96333E-001	5.99088E-003	0.00000E+000	5.96891E-003	3.59960E-001	-1.17611E+000	3.57650E+000	10	...........
	52	0.696667	9.99789E-001	5.99471E-003	0.00000E+000	5.99344E-003	3.59960E-001	-1.18514E+000	3.57650E+000	10	...........
STARTTIMEOFFSET	QUANT	1535.442	Start Time Offset (s)