File: Data/CV_CRGO300517_1/PWRCCD_CRGO300517_1/CHARGE_DISCHARGE/CHARGE_#722.DTA
EXPLAIN
TAG	PWR800_CHARGE
TITLE	LABEL	PWR Cyclic Charge Discharge (Cell) - Charge Step	Test &Identifier
DATE	LABEL	22-6-2017	Date
TIME	LABEL	16:04:23	Time
NOTES	NOTES	3	&Notes...
	supercap test cell
	0.6mg
	6M KOH
PSTAT	PSTAT	IFC5000-01520	Potentiostat
CAPACITY	QUANT	1.00000E-003	Capacity (A-hr)
CELLTYPE	SELECTOR	1	&Cell Type
WORKINGCONNECTION	SELECTOR	0	&Working Lead
MAXCHARGETIME	VARIABLEANDUNITS	1.00000E+002	s	1.00000E+002	second(s)	Max &Charge Time
CHARGECURRENT	QUANT	6.00000E-003	&Charge Current (A)
VOLTAGEFINISH	TWOPARAM	F	1.00000E-003	3.60000E+003	&Voltage Finish	 I (A) < 	Max Time(s)
SAMPLETIME	QUANT	1.00000E-002	Sa&mple Period (s)
CHARGESTOPAT1	MULTIPARAM	4	1.00000E+000	Charge Stop At &1	Voltage > Limit	V
CHARGESTOPAT2	MULTIPARAM	0	0.00000E+000	Charge Stop At &2	None	N/A
AESBHCSELECTOR	TOGGLE	F	Save Both Half Cells
IRCOMP	TOGGLE	F	IR &Measure
EOC	QUANT	0	Open Circuit (V)
SEQUENCER	TOGGLE	TRUE	Run as Sequence
PSTATMODEL	IQUANT	53	Pstat Model
PSTATSECTION	LABEL	IFC5000-01520	Pstat Section
PSTATSERIALNO	LABEL	01520	Pstat Serial Number
CTRLMODE	IQUANT	0	Control Mode
ELECTROMETER	IQUANT	1	RE=0 or CS=1
IESTAB	IQUANT	0	I/E Stability
CASPEED	IQUANT	4	Control Amp Speed
CONVENTION	IQUANT	1	Current Convention
ICHRANGE	IQUANT	2	Ich Range
ICHRANGEMODE	TOGGLE	T	Ich Auto Range
ICHOFFSETENABLE	TOGGLE	F	Ich Offset Enable
ICHOFFSET	QUANT	0	Ich Offset (V)
ICHFILTER	IQUANT	1	Ich Filter
VCHRANGE	IQUANT	2	Vch Range
VCHRANGEMODE	TOGGLE	T	Vch Auto Range
VCHOFFSETENABLE	TOGGLE	F	Vch Offset Enable
VCHOFFSET	QUANT	0	Vch Offset (V)
VCHFILTER	IQUANT	1	Vch Filter
IERANGELOWERLIMIT	IQUANT	9	I/E Range Lower Limit
IERANGEMODE	TOGGLE	F	I/E AutoRange
IERANGE	IQUANT	10	I/E Range
ACHSELECT	IQUANT	1	Ach Select
ACHRANGE	IQUANT	2	Ach Range
ACHOFFSETENABLE	TOGGLE	F	Ach Offset Enable
ACHOFFSET	QUANT	0	Ach Offset (V)
ACHFILTER	IQUANT	1	Ach Filter
CABLEID	IQUANT	14	Cable ID
DCCALDATE	LABEL	20-10-2016	DC Calibration Date
ACCALDATE	LABEL	12/3/2015	AC Calibration Date
FRAMEWORKVERSION	QUANT	7.01	Framework Version
INSTRUMENTVERSION	LABEL	4.00	Instrument Version
CURVE	TABLE	55
	Pt	T	Vf	Im	Vu	Pwr	Sig	Ach	Temp	IERange	Over
	#	s	V	A	V	W	V	V	deg C	#	bits
	0	0.013333	6.44373E-001	5.99514E-003	0.00000E+000	3.86310E-003	3.59960E-001	-1.16574E+000	3.57640E+000	10	...........
	1	0.026667	6.53493E-001	5.99585E-003	0.00000E+000	3.91825E-003	3.59960E-001	-1.15464E+000	3.57640E+000	10	...........
	2	0.04	6.61885E-001	5.99719E-003	0.00000E+000	3.96945E-003	3.59960E-001	-1.15700E+000	3.57640E+000	10	...........
	3	0.053333	6.69836E-001	5.99516E-003	0.00000E+000	4.01577E-003	3.59960E-001	-1.16545E+000	3.57640E+000	10	...........
	4	0.066667	6.77471E-001	5.99118E-003	0.00000E+000	4.05885E-003	3.59960E-001	-1.15488E+000	3.57670E+000	10	...........
	5	0.08	6.84988E-001	5.99424E-003	0.00000E+000	4.10598E-003	3.59960E-001	-1.15685E+000	3.57700E+000	10	...........
	6	0.093333	6.92304E-001	5.99564E-003	0.00000E+000	4.15080E-003	3.59960E-001	-1.16493E+000	3.57700E+000	10	...........
	7	0.106667	6.99532E-001	5.99852E-003	0.00000E+000	4.19615E-003	3.59960E-001	-1.15437E+000	3.57700E+000	10	...........
	8	0.12	7.06604E-001	5.99227E-003	0.00000E+000	4.23416E-003	3.59960E-001	-1.15659E+000	3.57700E+000	10	...........
	9	0.133333	7.13606E-001	5.99298E-003	0.00000E+000	4.27662E-003	3.59960E-001	-1.16494E+000	3.57700E+000	10	...........
	10	0.146667	7.20638E-001	5.99708E-003	0.00000E+000	4.32172E-003	3.59960E-001	-1.15448E+000	3.57700E+000	10	...........
	11	0.16	7.27572E-001	5.99698E-003	0.00000E+000	4.36324E-003	3.59960E-001	-1.15665E+000	3.57700E+000	10	...........
	12	0.173333	7.34456E-001	5.99608E-003	0.00000E+000	4.40385E-003	3.59960E-001	-1.16468E+000	3.57700E+000	10	...........
	13	0.186667	7.41306E-001	5.99441E-003	0.00000E+000	4.44369E-003	3.59960E-001	-1.15415E+000	3.57700E+000	10	...........
	14	0.2	7.48095E-001	5.99143E-003	0.00000E+000	4.48216E-003	3.59960E-001	-1.15675E+000	3.57700E+000	10	...........
	15	0.213333	7.54912E-001	5.99691E-003	0.00000E+000	4.52714E-003	3.59960E-001	-1.16475E+000	3.57700E+000	10	...........
	16	0.226667	7.61682E-001	5.99613E-003	0.00000E+000	4.56714E-003	3.59960E-001	-1.15416E+000	3.57700E+000	10	...........
	17	0.24	7.68396E-001	5.99310E-003	0.00000E+000	4.60508E-003	3.59960E-001	-1.15637E+000	3.57700E+000	10	...........
	18	0.253333	7.75082E-001	5.99808E-003	0.00000E+000	4.64900E-003	3.59960E-001	-1.16443E+000	3.57700E+000	10	...........
	19	0.266667	7.81753E-001	5.99365E-003	0.00000E+000	4.68555E-003	3.59960E-001	-1.15414E+000	3.57700E+000	10	...........
	20	0.28	7.88429E-001	5.99413E-003	0.00000E+000	4.72595E-003	3.59960E-001	-1.15674E+000	3.57700E+000	10	...........
	21	0.293333	7.95053E-001	5.99758E-003	0.00000E+000	4.76839E-003	3.59960E-001	-1.16452E+000	3.57700E+000	10	...........
	22	0.306667	8.01683E-001	5.99031E-003	0.00000E+000	4.80233E-003	3.59960E-001	-1.15384E+000	3.57700E+000	10	...........
	23	0.32	8.08263E-001	5.99799E-003	0.00000E+000	4.84796E-003	3.59960E-001	-1.15659E+000	3.57700E+000	10	...........
	24	0.333333	8.14847E-001	5.99222E-003	0.00000E+000	4.88274E-003	3.59960E-001	-1.16450E+000	3.57700E+000	10	...........
	25	0.346667	8.21395E-001	5.99605E-003	0.00000E+000	4.92513E-003	3.59960E-001	-1.15404E+000	3.57700E+000	10	...........
	26	0.36	8.27897E-001	5.99583E-003	0.00000E+000	4.96392E-003	3.59960E-001	-1.15664E+000	3.57700E+000	10	...........
	27	0.373333	8.34385E-001	5.99825E-003	0.00000E+000	5.00485E-003	3.59960E-001	-1.16443E+000	3.57700E+000	10	...........
	28	0.386667	8.40876E-001	5.99984E-003	0.00000E+000	5.04512E-003	3.59960E-001	-1.15395E+000	3.57700E+000	10	...........
	29	0.4	8.47349E-001	5.99063E-003	0.00000E+000	5.07615E-003	3.59960E-001	-1.15651E+000	3.57700E+000	10	...........
	30	0.413333	8.53742E-001	5.99307E-003	0.00000E+000	5.11654E-003	3.59960E-001	-1.16409E+000	3.57700E+000	10	...........
	31	0.426667	8.60195E-001	5.98969E-003	0.00000E+000	5.15230E-003	3.59960E-001	-1.15335E+000	3.57700E+000	10	...........
	32	0.44	8.66533E-001	5.99063E-003	0.00000E+000	5.19108E-003	3.59960E-001	-1.15615E+000	3.57700E+000	10	...........
	33	0.453333	8.72907E-001	5.99007E-003	0.00000E+000	5.22877E-003	3.59960E-001	-1.16374E+000	3.57700E+000	10	...........
	34	0.466667	8.79247E-001	5.99140E-003	0.00000E+000	5.26792E-003	3.59960E-001	-1.15352E+000	3.57700E+000	10	...........
	35	0.48	8.85568E-001	5.98946E-003	0.00000E+000	5.30408E-003	3.59960E-001	-1.15629E+000	3.57700E+000	10	...........
	36	0.493333	8.91851E-001	5.99157E-003	0.00000E+000	5.34359E-003	3.59960E-001	-1.16376E+000	3.57700E+000	10	...........
	37	0.506667	8.98104E-001	5.99119E-003	0.00000E+000	5.38071E-003	3.59960E-001	-1.15315E+000	3.57700E+000	10	...........
	38	0.52	9.04294E-001	5.99778E-003	0.00000E+000	5.42375E-003	3.59960E-001	-1.15630E+000	3.57700E+000	10	...........
	39	0.533333	9.10476E-001	5.99631E-003	0.00000E+000	5.45949E-003	3.59960E-001	-1.16380E+000	3.57700E+000	10	...........
	40	0.546667	9.16651E-001	5.99632E-003	0.00000E+000	5.49653E-003	3.59960E-001	-1.15368E+000	3.57700E+000	10	...........
	41	0.56	9.22833E-001	5.99418E-003	0.00000E+000	5.53162E-003	3.59960E-001	-1.15625E+000	3.57700E+000	10	...........
	42	0.573333	9.28865E-001	5.99563E-003	0.00000E+000	5.56913E-003	3.59960E-001	-1.16361E+000	3.57700E+000	10	...........
	43	0.586667	9.34864E-001	5.98981E-003	0.00000E+000	5.59965E-003	3.59960E-001	-1.15335E+000	3.57700E+000	10	...........
	44	0.6	9.40841E-001	5.99612E-003	0.00000E+000	5.64139E-003	3.59960E-001	-1.15639E+000	3.57700E+000	10	...........
	45	0.613333	9.46821E-001	5.99514E-003	0.00000E+000	5.67632E-003	3.59960E-001	-1.16357E+000	3.57700E+000	10	...........
	46	0.626667	9.52716E-001	5.99154E-003	0.00000E+000	5.70824E-003	3.59960E-001	-1.15323E+000	3.57700E+000	10	...........
	47	0.64	9.58545E-001	5.98854E-003	0.00000E+000	5.74029E-003	3.59960E-001	-1.15630E+000	3.57700E+000	10	...........
	48	0.653333	9.64346E-001	5.99384E-003	0.00000E+000	5.78014E-003	3.59960E-001	-1.16347E+000	3.57700E+000	10	...........
	49	0.666667	9.70117E-001	5.99722E-003	0.00000E+000	5.81801E-003	3.59960E-001	-1.15344E+000	3.57700E+000	10	...........
	50	0.68	9.75843E-001	5.99286E-003	0.00000E+000	5.84809E-003	3.59960E-001	-1.15662E+000	3.57700E+000	10	...........
	51	0.693333	9.81526E-001	5.99543E-003	0.00000E+000	5.88467E-003	3.59960E-001	-1.16346E+000	3.57700E+000	10	...........
	52	0.706667	9.87163E-001	5.99100E-003	0.00000E+000	5.91409E-003	3.59960E-001	-1.15318E+000	3.57700E+000	10	...........
	53	0.72	9.92714E-001	5.99702E-003	0.00000E+000	5.95333E-003	3.59960E-001	-1.15629E+000	3.57700E+000	10	...........
	54	0.733333	9.98232E-001	5.99127E-003	0.00000E+000	5.98068E-003	3.59960E-001	-1.16308E+000	3.57700E+000	10	...........
STARTTIMEOFFSET	QUANT	1191.39	Start Time Offset (s)