File: Data/CV_CRGO300517_1/PWRCCD_CRGO300517_1/CHARGE_DISCHARGE/CHARGE_#455.DTA
EXPLAIN
TAG	PWR800_CHARGE
TITLE	LABEL	PWR Cyclic Charge Discharge (Cell) - Charge Step	Test &Identifier
DATE	LABEL	22-6-2017	Date
TIME	LABEL	15:54:08	Time
NOTES	NOTES	3	&Notes...
	supercap test cell
	0.6mg
	6M KOH
PSTAT	PSTAT	IFC5000-01520	Potentiostat
CAPACITY	QUANT	1.00000E-003	Capacity (A-hr)
CELLTYPE	SELECTOR	1	&Cell Type
WORKINGCONNECTION	SELECTOR	0	&Working Lead
MAXCHARGETIME	VARIABLEANDUNITS	1.00000E+002	s	1.00000E+002	second(s)	Max &Charge Time
CHARGECURRENT	QUANT	6.00000E-003	&Charge Current (A)
VOLTAGEFINISH	TWOPARAM	F	1.00000E-003	3.60000E+003	&Voltage Finish	 I (A) < 	Max Time(s)
SAMPLETIME	QUANT	1.00000E-002	Sa&mple Period (s)
CHARGESTOPAT1	MULTIPARAM	4	1.00000E+000	Charge Stop At &1	Voltage > Limit	V
CHARGESTOPAT2	MULTIPARAM	0	0.00000E+000	Charge Stop At &2	None	N/A
AESBHCSELECTOR	TOGGLE	F	Save Both Half Cells
IRCOMP	TOGGLE	F	IR &Measure
EOC	QUANT	0	Open Circuit (V)
SEQUENCER	TOGGLE	TRUE	Run as Sequence
PSTATMODEL	IQUANT	53	Pstat Model
PSTATSECTION	LABEL	IFC5000-01520	Pstat Section
PSTATSERIALNO	LABEL	01520	Pstat Serial Number
CTRLMODE	IQUANT	0	Control Mode
ELECTROMETER	IQUANT	1	RE=0 or CS=1
IESTAB	IQUANT	0	I/E Stability
CASPEED	IQUANT	4	Control Amp Speed
CONVENTION	IQUANT	1	Current Convention
ICHRANGE	IQUANT	2	Ich Range
ICHRANGEMODE	TOGGLE	T	Ich Auto Range
ICHOFFSETENABLE	TOGGLE	F	Ich Offset Enable
ICHOFFSET	QUANT	0	Ich Offset (V)
ICHFILTER	IQUANT	1	Ich Filter
VCHRANGE	IQUANT	2	Vch Range
VCHRANGEMODE	TOGGLE	T	Vch Auto Range
VCHOFFSETENABLE	TOGGLE	F	Vch Offset Enable
VCHOFFSET	QUANT	0	Vch Offset (V)
VCHFILTER	IQUANT	1	Vch Filter
IERANGELOWERLIMIT	IQUANT	9	I/E Range Lower Limit
IERANGEMODE	TOGGLE	F	I/E AutoRange
IERANGE	IQUANT	10	I/E Range
ACHSELECT	IQUANT	1	Ach Select
ACHRANGE	IQUANT	2	Ach Range
ACHOFFSETENABLE	TOGGLE	F	Ach Offset Enable
ACHOFFSET	QUANT	0	Ach Offset (V)
ACHFILTER	IQUANT	1	Ach Filter
CABLEID	IQUANT	14	Cable ID
DCCALDATE	LABEL	20-10-2016	DC Calibration Date
ACCALDATE	LABEL	12/3/2015	AC Calibration Date
FRAMEWORKVERSION	QUANT	7.01	Framework Version
INSTRUMENTVERSION	LABEL	4.00	Instrument Version
CURVE	TABLE	59
	Pt	T	Vf	Im	Vu	Pwr	Sig	Ach	Temp	IERange	Over
	#	s	V	A	V	W	V	V	deg C	#	bits
	0	0.013333	6.28906E-001	5.99622E-003	0.00000E+000	3.77106E-003	3.59960E-001	-1.13836E+000	3.57640E+000	10	...........
	1	0.026667	6.37768E-001	5.99579E-003	0.00000E+000	3.82392E-003	3.59960E-001	-1.14428E+000	3.57640E+000	10	...........
	2	0.04	6.45919E-001	5.99432E-003	0.00000E+000	3.87185E-003	3.59960E-001	-1.13442E+000	3.57640E+000	10	...........
	3	0.053333	6.53605E-001	5.99498E-003	0.00000E+000	3.91835E-003	3.59960E-001	-1.13810E+000	3.57640E+000	10	...........
	4	0.066667	6.60934E-001	5.99346E-003	0.00000E+000	3.96128E-003	3.59960E-001	-1.14402E+000	3.57640E+000	10	...........
	5	0.08	6.68218E-001	5.99649E-003	0.00000E+000	4.00696E-003	3.59960E-001	-1.13423E+000	3.57640E+000	10	...........
	6	0.093333	6.75278E-001	5.99307E-003	0.00000E+000	4.04699E-003	3.59960E-001	-1.13764E+000	3.57640E+000	10	...........
	7	0.106667	6.82262E-001	5.98852E-003	0.00000E+000	4.08574E-003	3.59960E-001	-1.14387E+000	3.57640E+000	10	...........
	8	0.12	6.89110E-001	5.99553E-003	0.00000E+000	4.13158E-003	3.59960E-001	-1.13421E+000	3.57640E+000	10	...........
	9	0.133333	6.95920E-001	5.99310E-003	0.00000E+000	4.17072E-003	3.59960E-001	-1.13791E+000	3.57640E+000	10	...........
	10	0.146667	7.02627E-001	5.99515E-003	0.00000E+000	4.21235E-003	3.59960E-001	-1.14379E+000	3.57640E+000	10	...........
	11	0.16	7.09337E-001	5.98861E-003	0.00000E+000	4.24794E-003	3.59960E-001	-1.13380E+000	3.57640E+000	10	...........
	12	0.173333	7.16017E-001	5.99667E-003	0.00000E+000	4.29372E-003	3.59960E-001	-1.13764E+000	3.57640E+000	10	...........
	13	0.186667	7.22653E-001	5.99277E-003	0.00000E+000	4.33069E-003	3.59960E-001	-1.14400E+000	3.57640E+000	10	...........
	14	0.2	7.29219E-001	5.99238E-003	0.00000E+000	4.36976E-003	3.59960E-001	-1.13401E+000	3.57640E+000	10	...........
	15	0.213333	7.35744E-001	5.99512E-003	0.00000E+000	4.41087E-003	3.59960E-001	-1.13774E+000	3.57640E+000	10	...........
	16	0.226667	7.42341E-001	5.99283E-003	0.00000E+000	4.44873E-003	3.59960E-001	-1.14359E+000	3.57640E+000	10	...........
	17	0.24	7.48897E-001	5.99677E-003	0.00000E+000	4.49097E-003	3.59960E-001	-1.13402E+000	3.57640E+000	10	...........
	18	0.253333	7.55387E-001	5.99538E-003	0.00000E+000	4.52883E-003	3.59960E-001	-1.13787E+000	3.57640E+000	10	...........
	19	0.266667	7.61835E-001	5.99447E-003	0.00000E+000	4.56679E-003	3.59960E-001	-1.14396E+000	3.57640E+000	10	...........
	20	0.28	7.68330E-001	5.99259E-003	0.00000E+000	4.60429E-003	3.59960E-001	-1.13405E+000	3.57640E+000	10	...........
	21	0.293333	7.74791E-001	5.99335E-003	0.00000E+000	4.64359E-003	3.59960E-001	-1.13777E+000	3.57640E+000	10	...........
	22	0.306667	7.81223E-001	5.99299E-003	0.00000E+000	4.68186E-003	3.59960E-001	-1.14364E+000	3.57640E+000	10	...........
	23	0.32	7.87679E-001	5.99654E-003	0.00000E+000	4.72335E-003	3.59960E-001	-1.13413E+000	3.57640E+000	10	...........
	24	0.333333	7.94067E-001	5.99770E-003	0.00000E+000	4.76258E-003	3.59960E-001	-1.13805E+000	3.57640E+000	10	...........
	25	0.346667	8.00460E-001	5.99223E-003	0.00000E+000	4.79654E-003	3.59960E-001	-1.14353E+000	3.57640E+000	10	...........
	26	0.36	8.06829E-001	5.99491E-003	0.00000E+000	4.83686E-003	3.59960E-001	-1.13397E+000	3.57655E+000	10	...........
	27	0.373333	8.13155E-001	5.99102E-003	0.00000E+000	4.87162E-003	3.59960E-001	-1.13768E+000	3.57660E+000	10	...........
	28	0.386667	8.19495E-001	5.99239E-003	0.00000E+000	4.91074E-003	3.59960E-001	-1.14336E+000	3.57660E+000	10	...........
	29	0.4	8.25815E-001	5.99407E-003	0.00000E+000	4.94999E-003	3.59960E-001	-1.13388E+000	3.57660E+000	10	...........
	30	0.413333	8.32158E-001	5.99790E-003	0.00000E+000	4.99120E-003	3.59960E-001	-1.13764E+000	3.57660E+000	10	...........
	31	0.426667	8.38440E-001	5.99404E-003	0.00000E+000	5.02565E-003	3.59960E-001	-1.14323E+000	3.57660E+000	10	...........
	32	0.44	8.44733E-001	5.99140E-003	0.00000E+000	5.06113E-003	3.59960E-001	-1.13364E+000	3.57660E+000	10	...........
	33	0.453333	8.51033E-001	5.99378E-003	0.00000E+000	5.10090E-003	3.59960E-001	-1.13765E+000	3.57660E+000	10	...........
	34	0.466667	8.57304E-001	5.99648E-003	0.00000E+000	5.14081E-003	3.59960E-001	-1.14322E+000	3.57660E+000	10	...........
	35	0.48	8.63505E-001	5.99108E-003	0.00000E+000	5.17333E-003	3.59960E-001	-1.13364E+000	3.57660E+000	10	...........
	36	0.493333	8.69787E-001	5.99250E-003	0.00000E+000	5.21220E-003	3.59960E-001	-1.13734E+000	3.57660E+000	10	...........
	37	0.506667	8.75971E-001	5.99302E-003	0.00000E+000	5.24971E-003	3.59960E-001	-1.14299E+000	3.57660E+000	10	...........
	38	0.52	8.82149E-001	5.99429E-003	0.00000E+000	5.28786E-003	3.59960E-001	-1.13361E+000	3.57660E+000	10	...........
	39	0.533333	8.88299E-001	5.99191E-003	0.00000E+000	5.32261E-003	3.59960E-001	-1.13743E+000	3.57660E+000	10	...........
	40	0.546667	8.94412E-001	5.99408E-003	0.00000E+000	5.36118E-003	3.59960E-001	-1.14311E+000	3.57660E+000	10	...........
	41	0.56	9.00483E-001	5.99406E-003	0.00000E+000	5.39755E-003	3.59960E-001	-1.13332E+000	3.57660E+000	10	...........
	42	0.573333	9.06552E-001	5.99501E-003	0.00000E+000	5.43479E-003	3.59960E-001	-1.13740E+000	3.57660E+000	10	...........
	43	0.586667	9.12579E-001	5.99143E-003	0.00000E+000	5.46766E-003	3.59960E-001	-1.14303E+000	3.57660E+000	10	...........
	44	0.6	9.18650E-001	5.99043E-003	0.00000E+000	5.50311E-003	3.59960E-001	-1.13373E+000	3.57660E+000	10	...........
	45	0.613333	9.24692E-001	5.98858E-003	0.00000E+000	5.53759E-003	3.59960E-001	-1.13756E+000	3.57660E+000	10	...........
	46	0.626667	9.30562E-001	5.99025E-003	0.00000E+000	5.57429E-003	3.59960E-001	-1.14296E+000	3.57660E+000	10	...........
	47	0.64	9.36497E-001	5.99919E-003	0.00000E+000	5.61823E-003	3.59960E-001	-1.13366E+000	3.57660E+000	10	...........
	48	0.653333	9.42325E-001	5.99538E-003	0.00000E+000	5.64959E-003	3.59960E-001	-1.13771E+000	3.57660E+000	10	...........
	49	0.666667	9.48206E-001	5.99537E-003	0.00000E+000	5.68484E-003	3.59960E-001	-1.14305E+000	3.57660E+000	10	...........
	50	0.68	9.53996E-001	5.99392E-003	0.00000E+000	5.71817E-003	3.59960E-001	-1.13342E+000	3.57660E+000	10	...........
	51	0.693333	9.59724E-001	5.99578E-003	0.00000E+000	5.75430E-003	3.59960E-001	-1.13707E+000	3.57660E+000	10	...........
	52	0.706667	9.65454E-001	5.99169E-003	0.00000E+000	5.78470E-003	3.59960E-001	-1.14222E+000	3.57660E+000	10	...........
	53	0.72	9.71135E-001	5.99240E-003	0.00000E+000	5.81943E-003	3.59960E-001	-1.13289E+000	3.57660E+000	10	...........
	54	0.733333	9.76833E-001	5.99636E-003	0.00000E+000	5.85744E-003	3.59960E-001	-1.13697E+000	3.57660E+000	10	...........
	55	0.746667	9.82401E-001	5.99925E-003	0.00000E+000	5.89367E-003	3.59960E-001	-1.14237E+000	3.57660E+000	10	...........
	56	0.76	9.87932E-001	5.99173E-003	0.00000E+000	5.91942E-003	3.59960E-001	-1.13281E+000	3.57660E+000	10	...........
	57	0.773333	9.93439E-001	5.99894E-003	0.00000E+000	5.95959E-003	3.59960E-001	-1.13691E+000	3.57660E+000	10	...........
	58	0.785	9.98583E-001	5.99361E-003	0.00000E+000	5.98512E-003	3.59960E-001	-1.14184E+000	3.57660E+000	10	...........
STARTTIMEOFFSET	QUANT	789.2651	Start Time Offset (s)