File: Data/CV_CRGO300517_1/PWRCCD_CRGO300517_1/CHARGE_DISCHARGE/CHARGE_#690.DTA
EXPLAIN
TAG	PWR800_CHARGE
TITLE	LABEL	PWR Cyclic Charge Discharge (Cell) - Charge Step	Test &Identifier
DATE	LABEL	22-6-2017	Date
TIME	LABEL	16:03:11	Time
NOTES	NOTES	3	&Notes...
	supercap test cell
	0.6mg
	6M KOH
PSTAT	PSTAT	IFC5000-01520	Potentiostat
CAPACITY	QUANT	1.00000E-003	Capacity (A-hr)
CELLTYPE	SELECTOR	1	&Cell Type
WORKINGCONNECTION	SELECTOR	0	&Working Lead
MAXCHARGETIME	VARIABLEANDUNITS	1.00000E+002	s	1.00000E+002	second(s)	Max &Charge Time
CHARGECURRENT	QUANT	6.00000E-003	&Charge Current (A)
VOLTAGEFINISH	TWOPARAM	F	1.00000E-003	3.60000E+003	&Voltage Finish	 I (A) < 	Max Time(s)
SAMPLETIME	QUANT	1.00000E-002	Sa&mple Period (s)
CHARGESTOPAT1	MULTIPARAM	4	1.00000E+000	Charge Stop At &1	Voltage > Limit	V
CHARGESTOPAT2	MULTIPARAM	0	0.00000E+000	Charge Stop At &2	None	N/A
AESBHCSELECTOR	TOGGLE	F	Save Both Half Cells
IRCOMP	TOGGLE	F	IR &Measure
EOC	QUANT	0	Open Circuit (V)
SEQUENCER	TOGGLE	TRUE	Run as Sequence
PSTATMODEL	IQUANT	53	Pstat Model
PSTATSECTION	LABEL	IFC5000-01520	Pstat Section
PSTATSERIALNO	LABEL	01520	Pstat Serial Number
CTRLMODE	IQUANT	0	Control Mode
ELECTROMETER	IQUANT	1	RE=0 or CS=1
IESTAB	IQUANT	0	I/E Stability
CASPEED	IQUANT	4	Control Amp Speed
CONVENTION	IQUANT	1	Current Convention
ICHRANGE	IQUANT	2	Ich Range
ICHRANGEMODE	TOGGLE	T	Ich Auto Range
ICHOFFSETENABLE	TOGGLE	F	Ich Offset Enable
ICHOFFSET	QUANT	0	Ich Offset (V)
ICHFILTER	IQUANT	1	Ich Filter
VCHRANGE	IQUANT	2	Vch Range
VCHRANGEMODE	TOGGLE	T	Vch Auto Range
VCHOFFSETENABLE	TOGGLE	F	Vch Offset Enable
VCHOFFSET	QUANT	0	Vch Offset (V)
VCHFILTER	IQUANT	1	Vch Filter
IERANGELOWERLIMIT	IQUANT	9	I/E Range Lower Limit
IERANGEMODE	TOGGLE	F	I/E AutoRange
IERANGE	IQUANT	10	I/E Range
ACHSELECT	IQUANT	1	Ach Select
ACHRANGE	IQUANT	2	Ach Range
ACHOFFSETENABLE	TOGGLE	F	Ach Offset Enable
ACHOFFSET	QUANT	0	Ach Offset (V)
ACHFILTER	IQUANT	1	Ach Filter
CABLEID	IQUANT	14	Cable ID
DCCALDATE	LABEL	20-10-2016	DC Calibration Date
ACCALDATE	LABEL	12/3/2015	AC Calibration Date
FRAMEWORKVERSION	QUANT	7.01	Framework Version
INSTRUMENTVERSION	LABEL	4.00	Instrument Version
CURVE	TABLE	56
	Pt	T	Vf	Im	Vu	Pwr	Sig	Ach	Temp	IERange	Over
	#	s	V	A	V	W	V	V	deg C	#	bits
	0	0.013333	6.42368E-001	5.99643E-003	0.00000E+000	3.85192E-003	3.59960E-001	-1.15302E+000	3.57690E+000	10	...........
	1	0.026667	6.51454E-001	5.99275E-003	0.00000E+000	3.90400E-003	3.59960E-001	-1.15470E+000	3.57690E+000	10	...........
	2	0.04	6.59792E-001	5.99252E-003	0.00000E+000	3.95382E-003	3.59960E-001	-1.16343E+000	3.57690E+000	10	...........
	3	0.053333	6.67737E-001	5.99308E-003	0.00000E+000	4.00181E-003	3.59960E-001	-1.15230E+000	3.57690E+000	10	...........
	4	0.066667	6.75356E-001	5.99693E-003	0.00000E+000	4.05007E-003	3.59960E-001	-1.15445E+000	3.57690E+000	10	...........
	5	0.08	6.82788E-001	5.99591E-003	0.00000E+000	4.09393E-003	3.59960E-001	-1.16311E+000	3.57690E+000	10	...........
	6	0.093333	6.90052E-001	5.99526E-003	0.00000E+000	4.13704E-003	3.59960E-001	-1.15228E+000	3.57690E+000	10	...........
	7	0.106667	6.97252E-001	5.99233E-003	0.00000E+000	4.17816E-003	3.59960E-001	-1.15396E+000	3.57690E+000	10	...........
	8	0.12	7.04292E-001	5.99310E-003	0.00000E+000	4.22090E-003	3.59960E-001	-1.16268E+000	3.57690E+000	10	...........
	9	0.133333	7.11315E-001	5.99549E-003	0.00000E+000	4.26468E-003	3.59960E-001	-1.15193E+000	3.57690E+000	10	...........
	10	0.146667	7.18294E-001	5.99709E-003	0.00000E+000	4.30767E-003	3.59960E-001	-1.15408E+000	3.57690E+000	10	...........
	11	0.16	7.25200E-001	5.99860E-003	0.00000E+000	4.35018E-003	3.59960E-001	-1.16259E+000	3.57690E+000	10	...........
	12	0.173333	7.32015E-001	5.99332E-003	0.00000E+000	4.38720E-003	3.59960E-001	-1.15180E+000	3.57690E+000	10	...........
	13	0.186667	7.38819E-001	5.99646E-003	0.00000E+000	4.43030E-003	3.59960E-001	-1.15380E+000	3.57743E+000	10	...........
	14	0.2	7.45667E-001	5.99525E-003	0.00000E+000	4.47046E-003	3.59960E-001	-1.16218E+000	3.57760E+000	10	...........
	15	0.213333	7.52434E-001	5.99658E-003	0.00000E+000	4.51203E-003	3.59960E-001	-1.15174E+000	3.57760E+000	10	...........
	16	0.226667	7.59136E-001	5.99128E-003	0.00000E+000	4.54820E-003	3.59960E-001	-1.15411E+000	3.57760E+000	10	...........
	17	0.24	7.65805E-001	5.99659E-003	0.00000E+000	4.59222E-003	3.59960E-001	-1.16189E+000	3.57760E+000	10	...........
	18	0.253333	7.72490E-001	5.99871E-003	0.00000E+000	4.63395E-003	3.59960E-001	-1.15137E+000	3.57760E+000	10	...........
	19	0.266667	7.79167E-001	5.99696E-003	0.00000E+000	4.67264E-003	3.59960E-001	-1.15415E+000	3.57760E+000	10	...........
	20	0.28	7.85809E-001	5.99398E-003	0.00000E+000	4.71012E-003	3.59960E-001	-1.16202E+000	3.57760E+000	10	...........
	21	0.293333	7.92442E-001	5.99503E-003	0.00000E+000	4.75072E-003	3.59960E-001	-1.15154E+000	3.57760E+000	10	...........
	22	0.306667	7.99033E-001	5.99651E-003	0.00000E+000	4.79141E-003	3.59960E-001	-1.15367E+000	3.57760E+000	10	...........
	23	0.32	8.05626E-001	5.99428E-003	0.00000E+000	4.82915E-003	3.59960E-001	-1.16186E+000	3.57760E+000	10	...........
	24	0.333333	8.12180E-001	5.98852E-003	0.00000E+000	4.86376E-003	3.59960E-001	-1.15141E+000	3.57760E+000	10	...........
	25	0.346667	8.18723E-001	5.99543E-003	0.00000E+000	4.90860E-003	3.59960E-001	-1.15399E+000	3.57760E+000	10	...........
	26	0.36	8.25192E-001	5.99205E-003	0.00000E+000	4.94459E-003	3.59960E-001	-1.16170E+000	3.57760E+000	10	...........
	27	0.373333	8.31701E-001	5.99568E-003	0.00000E+000	4.98661E-003	3.59960E-001	-1.15083E+000	3.57760E+000	10	...........
	28	0.386667	8.38169E-001	5.99632E-003	0.00000E+000	5.02593E-003	3.59960E-001	-1.15328E+000	3.57760E+000	10	...........
	29	0.4	8.44634E-001	5.99584E-003	0.00000E+000	5.06429E-003	3.59960E-001	-1.16093E+000	3.57760E+000	10	...........
	30	0.413333	8.51020E-001	5.99042E-003	0.00000E+000	5.09797E-003	3.59960E-001	-1.15050E+000	3.57760E+000	10	...........
	31	0.426667	8.57440E-001	5.99660E-003	0.00000E+000	5.14172E-003	3.59960E-001	-1.15321E+000	3.57760E+000	10	...........
	32	0.44	8.63834E-001	5.99545E-003	0.00000E+000	5.17907E-003	3.59960E-001	-1.16081E+000	3.57760E+000	10	...........
	33	0.453333	8.70162E-001	5.99508E-003	0.00000E+000	5.21670E-003	3.59960E-001	-1.15042E+000	3.57760E+000	10	...........
	34	0.466667	8.76478E-001	5.99177E-003	0.00000E+000	5.25165E-003	3.59960E-001	-1.15337E+000	3.57760E+000	10	...........
	35	0.48	8.82773E-001	5.99184E-003	0.00000E+000	5.28944E-003	3.59960E-001	-1.16083E+000	3.57760E+000	10	...........
	36	0.493333	8.89063E-001	5.99158E-003	0.00000E+000	5.32689E-003	3.59960E-001	-1.15052E+000	3.57760E+000	10	...........
	37	0.506667	8.95333E-001	5.99249E-003	0.00000E+000	5.36527E-003	3.59960E-001	-1.15329E+000	3.57760E+000	10	...........
	38	0.52	9.01566E-001	5.99964E-003	0.00000E+000	5.40908E-003	3.59960E-001	-1.16045E+000	3.57760E+000	10	...........
	39	0.533333	9.07704E-001	5.99381E-003	0.00000E+000	5.44060E-003	3.59960E-001	-1.15021E+000	3.57760E+000	10	...........
	40	0.546667	9.13890E-001	5.99686E-003	0.00000E+000	5.48047E-003	3.59960E-001	-1.15332E+000	3.57760E+000	10	...........
	41	0.56	9.20033E-001	5.99502E-003	0.00000E+000	5.51562E-003	3.59960E-001	-1.16055E+000	3.57760E+000	10	...........
	42	0.573333	9.26123E-001	5.99278E-003	0.00000E+000	5.55005E-003	3.59960E-001	-1.15013E+000	3.57760E+000	10	...........
	43	0.586667	9.32161E-001	5.99095E-003	0.00000E+000	5.58454E-003	3.59960E-001	-1.15320E+000	3.57760E+000	10	...........
	44	0.6	9.38130E-001	5.98988E-003	0.00000E+000	5.61929E-003	3.59960E-001	-1.16029E+000	3.57760E+000	10	...........
	45	0.613333	9.44126E-001	5.99336E-003	0.00000E+000	5.65849E-003	3.59960E-001	-1.15015E+000	3.57760E+000	10	...........
	46	0.626667	9.50078E-001	5.98953E-003	0.00000E+000	5.69052E-003	3.59960E-001	-1.15341E+000	3.57760E+000	10	...........
	47	0.64	9.55931E-001	5.99348E-003	0.00000E+000	5.72935E-003	3.59960E-001	-1.16027E+000	3.57760E+000	10	...........
	48	0.653333	9.61755E-001	5.99320E-003	0.00000E+000	5.76399E-003	3.59960E-001	-1.15003E+000	3.57760E+000	10	...........
	49	0.666667	9.67519E-001	5.98884E-003	0.00000E+000	5.79432E-003	3.59960E-001	-1.15309E+000	3.57760E+000	10	...........
	50	0.68	9.73265E-001	5.99294E-003	0.00000E+000	5.83272E-003	3.59960E-001	-1.16027E+000	3.57760E+000	10	...........
	51	0.693333	9.78995E-001	5.99026E-003	0.00000E+000	5.86443E-003	3.59960E-001	-1.14973E+000	3.57760E+000	10	...........
	52	0.706667	9.84581E-001	6.00006E-003	0.00000E+000	5.90754E-003	3.59960E-001	-1.15283E+000	3.57760E+000	10	...........
	53	0.72	9.90205E-001	5.99182E-003	0.00000E+000	5.93313E-003	3.59960E-001	-1.15940E+000	3.57760E+000	10	...........
	54	0.733333	9.95739E-001	5.99527E-003	0.00000E+000	5.96972E-003	3.59960E-001	-1.14956E+000	3.57760E+000	10	...........
	55	0.738333	9.99547E-001	5.99599E-003	0.00000E+000	5.99327E-003	3.59960E-001	-1.16383E+000	3.57760E+000	10	...........
STARTTIMEOFFSET	QUANT	1144.532	Start Time Offset (s)