File: Data/CV_CRGO300517_1/PWRCCD_CRGO300517_1/CHARGE_DISCHARGE/CHARGE_#567.DTA
EXPLAIN
TAG	PWR800_CHARGE
TITLE	LABEL	PWR Cyclic Charge Discharge (Cell) - Charge Step	Test &Identifier
DATE	LABEL	22-6-2017	Date
TIME	LABEL	15:58:30	Time
NOTES	NOTES	3	&Notes...
	supercap test cell
	0.6mg
	6M KOH
PSTAT	PSTAT	IFC5000-01520	Potentiostat
CAPACITY	QUANT	1.00000E-003	Capacity (A-hr)
CELLTYPE	SELECTOR	1	&Cell Type
WORKINGCONNECTION	SELECTOR	0	&Working Lead
MAXCHARGETIME	VARIABLEANDUNITS	1.00000E+002	s	1.00000E+002	second(s)	Max &Charge Time
CHARGECURRENT	QUANT	6.00000E-003	&Charge Current (A)
VOLTAGEFINISH	TWOPARAM	F	1.00000E-003	3.60000E+003	&Voltage Finish	 I (A) < 	Max Time(s)
SAMPLETIME	QUANT	1.00000E-002	Sa&mple Period (s)
CHARGESTOPAT1	MULTIPARAM	4	1.00000E+000	Charge Stop At &1	Voltage > Limit	V
CHARGESTOPAT2	MULTIPARAM	0	0.00000E+000	Charge Stop At &2	None	N/A
AESBHCSELECTOR	TOGGLE	F	Save Both Half Cells
IRCOMP	TOGGLE	F	IR &Measure
EOC	QUANT	0	Open Circuit (V)
SEQUENCER	TOGGLE	TRUE	Run as Sequence
PSTATMODEL	IQUANT	53	Pstat Model
PSTATSECTION	LABEL	IFC5000-01520	Pstat Section
PSTATSERIALNO	LABEL	01520	Pstat Serial Number
CTRLMODE	IQUANT	0	Control Mode
ELECTROMETER	IQUANT	1	RE=0 or CS=1
IESTAB	IQUANT	0	I/E Stability
CASPEED	IQUANT	4	Control Amp Speed
CONVENTION	IQUANT	1	Current Convention
ICHRANGE	IQUANT	2	Ich Range
ICHRANGEMODE	TOGGLE	T	Ich Auto Range
ICHOFFSETENABLE	TOGGLE	F	Ich Offset Enable
ICHOFFSET	QUANT	0	Ich Offset (V)
ICHFILTER	IQUANT	1	Ich Filter
VCHRANGE	IQUANT	2	Vch Range
VCHRANGEMODE	TOGGLE	T	Vch Auto Range
VCHOFFSETENABLE	TOGGLE	F	Vch Offset Enable
VCHOFFSET	QUANT	0	Vch Offset (V)
VCHFILTER	IQUANT	1	Vch Filter
IERANGELOWERLIMIT	IQUANT	9	I/E Range Lower Limit
IERANGEMODE	TOGGLE	F	I/E AutoRange
IERANGE	IQUANT	10	I/E Range
ACHSELECT	IQUANT	1	Ach Select
ACHRANGE	IQUANT	2	Ach Range
ACHOFFSETENABLE	TOGGLE	F	Ach Offset Enable
ACHOFFSET	QUANT	0	Ach Offset (V)
ACHFILTER	IQUANT	1	Ach Filter
CABLEID	IQUANT	14	Cable ID
DCCALDATE	LABEL	20-10-2016	DC Calibration Date
ACCALDATE	LABEL	12/3/2015	AC Calibration Date
FRAMEWORKVERSION	QUANT	7.01	Framework Version
INSTRUMENTVERSION	LABEL	4.00	Instrument Version
CURVE	TABLE	57
	Pt	T	Vf	Im	Vu	Pwr	Sig	Ach	Temp	IERange	Over
	#	s	V	A	V	W	V	V	deg C	#	bits
	0	0.013333	6.36124E-001	5.99481E-003	0.00000E+000	3.81345E-003	3.59960E-001	-1.14451E+000	3.57790E+000	10	...........
	1	0.026667	6.45095E-001	5.99272E-003	0.00000E+000	3.86587E-003	3.59960E-001	-1.14264E+000	3.57790E+000	10	...........
	2	0.04	6.53333E-001	5.99959E-003	0.00000E+000	3.91973E-003	3.59960E-001	-1.15376E+000	3.57790E+000	10	...........
	3	0.053333	6.61136E-001	5.99191E-003	0.00000E+000	3.96147E-003	3.59960E-001	-1.14454E+000	3.57790E+000	10	...........
	4	0.066667	6.68690E-001	5.99501E-003	0.00000E+000	4.00881E-003	3.59960E-001	-1.14239E+000	3.57790E+000	10	...........
	5	0.08	6.76052E-001	6.00046E-003	0.00000E+000	4.05662E-003	3.59960E-001	-1.15354E+000	3.57790E+000	10	...........
	6	0.093333	6.83224E-001	5.98896E-003	0.00000E+000	4.09180E-003	3.59960E-001	-1.14398E+000	3.57790E+000	10	...........
	7	0.106667	6.90287E-001	5.99451E-003	0.00000E+000	4.13793E-003	3.59960E-001	-1.14226E+000	3.57790E+000	10	...........
	8	0.12	6.97261E-001	5.99899E-003	0.00000E+000	4.18286E-003	3.59960E-001	-1.15317E+000	3.57790E+000	10	...........
	9	0.133333	7.04202E-001	5.99538E-003	0.00000E+000	4.22196E-003	3.59960E-001	-1.14392E+000	3.57790E+000	10	...........
	10	0.146667	7.11017E-001	5.99629E-003	0.00000E+000	4.26347E-003	3.59960E-001	-1.14188E+000	3.57790E+000	10	...........
	11	0.16	7.17826E-001	5.99183E-003	0.00000E+000	4.30109E-003	3.59960E-001	-1.15322E+000	3.57790E+000	10	...........
	12	0.173333	7.24626E-001	5.99555E-003	0.00000E+000	4.34453E-003	3.59960E-001	-1.14384E+000	3.57790E+000	10	...........
	13	0.186667	7.31301E-001	5.99280E-003	0.00000E+000	4.38254E-003	3.59960E-001	-1.14185E+000	3.57790E+000	10	...........
	14	0.2	7.37972E-001	5.99483E-003	0.00000E+000	4.42402E-003	3.59960E-001	-1.15286E+000	3.57790E+000	10	...........
	15	0.213333	7.44718E-001	5.99363E-003	0.00000E+000	4.46357E-003	3.59960E-001	-1.14359E+000	3.57790E+000	10	...........
	16	0.226667	7.51302E-001	5.98894E-003	0.00000E+000	4.49950E-003	3.59960E-001	-1.14173E+000	3.57790E+000	10	...........
	17	0.24	7.57922E-001	5.99518E-003	0.00000E+000	4.54388E-003	3.59960E-001	-1.15290E+000	3.57790E+000	10	...........
	18	0.253333	7.64499E-001	5.99240E-003	0.00000E+000	4.58119E-003	3.59960E-001	-1.14362E+000	3.57790E+000	10	...........
	19	0.266667	7.71129E-001	5.99756E-003	0.00000E+000	4.62489E-003	3.59960E-001	-1.14157E+000	3.57790E+000	10	...........
	20	0.28	7.77612E-001	5.99502E-003	0.00000E+000	4.66180E-003	3.59960E-001	-1.15282E+000	3.57790E+000	10	...........
	21	0.293333	7.84147E-001	5.99140E-003	0.00000E+000	4.69814E-003	3.59960E-001	-1.14366E+000	3.57790E+000	10	...........
	22	0.306667	7.90710E-001	5.99536E-003	0.00000E+000	4.74059E-003	3.59960E-001	-1.14198E+000	3.57790E+000	10	...........
	23	0.32	7.97218E-001	5.99522E-003	0.00000E+000	4.77950E-003	3.59960E-001	-1.15294E+000	3.57790E+000	10	...........
	24	0.333333	8.03631E-001	5.99414E-003	0.00000E+000	4.81708E-003	3.59960E-001	-1.14362E+000	3.57790E+000	10	...........
	25	0.346667	8.10076E-001	5.98919E-003	0.00000E+000	4.85170E-003	3.59960E-001	-1.14189E+000	3.57790E+000	10	...........
	26	0.36	8.16546E-001	5.99331E-003	0.00000E+000	4.89382E-003	3.59960E-001	-1.15311E+000	3.57790E+000	10	...........
	27	0.373333	8.22997E-001	5.98963E-003	0.00000E+000	4.92945E-003	3.59960E-001	-1.14375E+000	3.57790E+000	10	...........
	28	0.386667	8.29425E-001	5.99150E-003	0.00000E+000	4.96950E-003	3.59960E-001	-1.14179E+000	3.57790E+000	10	...........
	29	0.4	8.35803E-001	5.99408E-003	0.00000E+000	5.00987E-003	3.59960E-001	-1.15281E+000	3.57790E+000	10	...........
	30	0.413333	8.42217E-001	5.99799E-003	0.00000E+000	5.05161E-003	3.59960E-001	-1.14294E+000	3.57790E+000	10	...........
	31	0.426667	8.48623E-001	5.99110E-003	0.00000E+000	5.08419E-003	3.59960E-001	-1.14139E+000	3.57790E+000	10	...........
	32	0.44	8.54953E-001	5.99702E-003	0.00000E+000	5.12717E-003	3.59960E-001	-1.15250E+000	3.57790E+000	10	...........
	33	0.453333	8.61273E-001	5.99243E-003	0.00000E+000	5.16111E-003	3.59960E-001	-1.14300E+000	3.57790E+000	10	...........
	34	0.466667	8.67534E-001	5.99233E-003	0.00000E+000	5.19855E-003	3.59960E-001	-1.14129E+000	3.57790E+000	10	...........
	35	0.48	8.73826E-001	5.99439E-003	0.00000E+000	5.23805E-003	3.59960E-001	-1.15232E+000	3.57790E+000	10	...........
	36	0.493333	8.80071E-001	5.99821E-003	0.00000E+000	5.27885E-003	3.59960E-001	-1.14302E+000	3.57790E+000	10	...........
	37	0.506667	8.86302E-001	5.99150E-003	0.00000E+000	5.31028E-003	3.59960E-001	-1.14142E+000	3.57790E+000	10	...........
	38	0.52	8.92472E-001	5.99201E-003	0.00000E+000	5.34770E-003	3.59960E-001	-1.15227E+000	3.57790E+000	10	...........
	39	0.533333	8.98658E-001	5.99556E-003	0.00000E+000	5.38796E-003	3.59960E-001	-1.14286E+000	3.57790E+000	10	...........
	40	0.546667	9.04800E-001	5.99310E-003	0.00000E+000	5.42256E-003	3.59960E-001	-1.14117E+000	3.57790E+000	10	...........
	41	0.56	9.10909E-001	5.98735E-003	0.00000E+000	5.45392E-003	3.59960E-001	-1.15236E+000	3.57790E+000	10	...........
	42	0.573333	9.16963E-001	5.99869E-003	0.00000E+000	5.50058E-003	3.59960E-001	-1.14291E+000	3.57790E+000	10	...........
	43	0.586667	9.23048E-001	5.99493E-003	0.00000E+000	5.53361E-003	3.59960E-001	-1.14136E+000	3.57790E+000	10	...........
	44	0.6	9.29064E-001	5.99554E-003	0.00000E+000	5.57024E-003	3.59960E-001	-1.15224E+000	3.57790E+000	10	...........
	45	0.613333	9.35032E-001	5.99393E-003	0.00000E+000	5.60452E-003	3.59960E-001	-1.14252E+000	3.57790E+000	10	...........
	46	0.626667	9.40926E-001	5.98966E-003	0.00000E+000	5.63583E-003	3.59960E-001	-1.14126E+000	3.57790E+000	10	...........
	47	0.64	9.46866E-001	5.99150E-003	0.00000E+000	5.67314E-003	3.59960E-001	-1.15255E+000	3.57790E+000	10	...........
	48	0.653333	9.52748E-001	5.98964E-003	0.00000E+000	5.70662E-003	3.59960E-001	-1.14268E+000	3.57790E+000	10	...........
	49	0.666667	9.58520E-001	5.99414E-003	0.00000E+000	5.74550E-003	3.59960E-001	-1.14115E+000	3.57790E+000	10	...........
	50	0.68	9.64285E-001	5.99285E-003	0.00000E+000	5.77882E-003	3.59960E-001	-1.15225E+000	3.57790E+000	10	...........
	51	0.693333	9.70004E-001	5.99363E-003	0.00000E+000	5.81385E-003	3.59960E-001	-1.14252E+000	3.57790E+000	10	...........
	52	0.706667	9.75725E-001	5.99086E-003	0.00000E+000	5.84543E-003	3.59960E-001	-1.14161E+000	3.57790E+000	10	...........
	53	0.72	9.81337E-001	5.99063E-003	0.00000E+000	5.87883E-003	3.59960E-001	-1.15228E+000	3.57790E+000	10	...........
	54	0.733333	9.86928E-001	5.99555E-003	0.00000E+000	5.91718E-003	3.59960E-001	-1.14234E+000	3.57790E+000	10	...........
	55	0.746667	9.92486E-001	5.99325E-003	0.00000E+000	5.94822E-003	3.59960E-001	-1.14102E+000	3.57790E+000	10	...........
	56	0.76	9.97972E-001	5.99529E-003	0.00000E+000	5.98313E-003	3.59960E-001	-1.15209E+000	3.57790E+000	10	...........
STARTTIMEOFFSET	QUANT	961.25	Start Time Offset (s)