File: Data/CV_CRGO300517_1/PWRCCD_CRGO300517_1/CHARGE_DISCHARGE/CHARGE_#799.DTA
EXPLAIN
TAG	PWR800_CHARGE
TITLE	LABEL	PWR Cyclic Charge Discharge (Cell) - Charge Step	Test &Identifier
DATE	LABEL	22-6-2017	Date
TIME	LABEL	16:07:15	Time
NOTES	NOTES	3	&Notes...
	supercap test cell
	0.6mg
	6M KOH
PSTAT	PSTAT	IFC5000-01520	Potentiostat
CAPACITY	QUANT	1.00000E-003	Capacity (A-hr)
CELLTYPE	SELECTOR	1	&Cell Type
WORKINGCONNECTION	SELECTOR	0	&Working Lead
MAXCHARGETIME	VARIABLEANDUNITS	1.00000E+002	s	1.00000E+002	second(s)	Max &Charge Time
CHARGECURRENT	QUANT	6.00000E-003	&Charge Current (A)
VOLTAGEFINISH	TWOPARAM	F	1.00000E-003	3.60000E+003	&Voltage Finish	 I (A) < 	Max Time(s)
SAMPLETIME	QUANT	1.00000E-002	Sa&mple Period (s)
CHARGESTOPAT1	MULTIPARAM	4	1.00000E+000	Charge Stop At &1	Voltage > Limit	V
CHARGESTOPAT2	MULTIPARAM	0	0.00000E+000	Charge Stop At &2	None	N/A
AESBHCSELECTOR	TOGGLE	F	Save Both Half Cells
IRCOMP	TOGGLE	F	IR &Measure
EOC	QUANT	0	Open Circuit (V)
SEQUENCER	TOGGLE	TRUE	Run as Sequence
PSTATMODEL	IQUANT	53	Pstat Model
PSTATSECTION	LABEL	IFC5000-01520	Pstat Section
PSTATSERIALNO	LABEL	01520	Pstat Serial Number
CTRLMODE	IQUANT	0	Control Mode
ELECTROMETER	IQUANT	1	RE=0 or CS=1
IESTAB	IQUANT	0	I/E Stability
CASPEED	IQUANT	4	Control Amp Speed
CONVENTION	IQUANT	1	Current Convention
ICHRANGE	IQUANT	2	Ich Range
ICHRANGEMODE	TOGGLE	T	Ich Auto Range
ICHOFFSETENABLE	TOGGLE	F	Ich Offset Enable
ICHOFFSET	QUANT	0	Ich Offset (V)
ICHFILTER	IQUANT	1	Ich Filter
VCHRANGE	IQUANT	2	Vch Range
VCHRANGEMODE	TOGGLE	T	Vch Auto Range
VCHOFFSETENABLE	TOGGLE	F	Vch Offset Enable
VCHOFFSET	QUANT	0	Vch Offset (V)
VCHFILTER	IQUANT	1	Vch Filter
IERANGELOWERLIMIT	IQUANT	9	I/E Range Lower Limit
IERANGEMODE	TOGGLE	F	I/E AutoRange
IERANGE	IQUANT	10	I/E Range
ACHSELECT	IQUANT	1	Ach Select
ACHRANGE	IQUANT	2	Ach Range
ACHOFFSETENABLE	TOGGLE	F	Ach Offset Enable
ACHOFFSET	QUANT	0	Ach Offset (V)
ACHFILTER	IQUANT	1	Ach Filter
CABLEID	IQUANT	14	Cable ID
DCCALDATE	LABEL	20-10-2016	DC Calibration Date
ACCALDATE	LABEL	12/3/2015	AC Calibration Date
FRAMEWORKVERSION	QUANT	7.01	Framework Version
INSTRUMENTVERSION	LABEL	4.00	Instrument Version
CURVE	TABLE	55
	Pt	T	Vf	Im	Vu	Pwr	Sig	Ach	Temp	IERange	Over
	#	s	V	A	V	W	V	V	deg C	#	bits
	0	0.013333	6.48195E-001	5.99261E-003	0.00000E+000	3.88438E-003	3.59960E-001	-1.16391E+000	3.57740E+000	10	...........
	1	0.026667	6.57440E-001	5.99645E-003	0.00000E+000	3.94231E-003	3.59960E-001	-1.17494E+000	3.57740E+000	10	...........
	2	0.04	6.65859E-001	5.99589E-003	0.00000E+000	3.99242E-003	3.59960E-001	-1.16547E+000	3.57740E+000	10	...........
	3	0.053333	6.73888E-001	5.99207E-003	0.00000E+000	4.03799E-003	3.59960E-001	-1.16381E+000	3.57740E+000	10	...........
	4	0.066667	6.81598E-001	5.99294E-003	0.00000E+000	4.08477E-003	3.59960E-001	-1.17497E+000	3.57740E+000	10	...........
	5	0.08	6.89063E-001	5.99504E-003	0.00000E+000	4.13096E-003	3.59960E-001	-1.16543E+000	3.57740E+000	10	...........
	6	0.093333	6.96479E-001	5.99353E-003	0.00000E+000	4.17437E-003	3.59960E-001	-1.16362E+000	3.57740E+000	10	...........
	7	0.106667	7.03724E-001	5.99060E-003	0.00000E+000	4.21573E-003	3.59960E-001	-1.17469E+000	3.57740E+000	10	...........
	8	0.12	7.10882E-001	5.99100E-003	0.00000E+000	4.25889E-003	3.59960E-001	-1.16518E+000	3.57740E+000	10	...........
	9	0.133333	7.18007E-001	5.99443E-003	0.00000E+000	4.30404E-003	3.59960E-001	-1.16333E+000	3.57740E+000	10	...........
	10	0.146667	7.25045E-001	5.99490E-003	0.00000E+000	4.34657E-003	3.59960E-001	-1.17429E+000	3.57740E+000	10	...........
	11	0.16	7.32022E-001	5.99543E-003	0.00000E+000	4.38879E-003	3.59960E-001	-1.16505E+000	3.57740E+000	10	...........
	12	0.173333	7.38902E-001	5.99085E-003	0.00000E+000	4.42665E-003	3.59960E-001	-1.16335E+000	3.57740E+000	10	...........
	13	0.186667	7.45841E-001	5.99499E-003	0.00000E+000	4.47131E-003	3.59960E-001	-1.17453E+000	3.57740E+000	10	...........
	14	0.2	7.52693E-001	5.99335E-003	0.00000E+000	4.51115E-003	3.59960E-001	-1.16511E+000	3.57740E+000	10	...........
	15	0.213333	7.59500E-001	5.99246E-003	0.00000E+000	4.55127E-003	3.59960E-001	-1.16328E+000	3.57740E+000	10	...........
	16	0.226667	7.66270E-001	5.99361E-003	0.00000E+000	4.59273E-003	3.59960E-001	-1.17411E+000	3.57740E+000	10	...........
	17	0.24	7.73035E-001	5.99160E-003	0.00000E+000	4.63172E-003	3.59960E-001	-1.16469E+000	3.57740E+000	10	...........
	18	0.253333	7.79756E-001	5.99206E-003	0.00000E+000	4.67235E-003	3.59960E-001	-1.16315E+000	3.57740E+000	10	...........
	19	0.266667	7.86436E-001	5.99157E-003	0.00000E+000	4.71199E-003	3.59960E-001	-1.17427E+000	3.57740E+000	10	...........
	20	0.28	7.93151E-001	5.99250E-003	0.00000E+000	4.75296E-003	3.59960E-001	-1.16476E+000	3.57740E+000	10	...........
	21	0.293333	7.99836E-001	5.98918E-003	0.00000E+000	4.79036E-003	3.59960E-001	-1.16278E+000	3.57740E+000	10	...........
	22	0.306667	8.06435E-001	5.99441E-003	0.00000E+000	4.83410E-003	3.59960E-001	-1.17429E+000	3.57740E+000	10	...........
	23	0.32	8.13061E-001	5.99261E-003	0.00000E+000	4.87236E-003	3.59960E-001	-1.16505E+000	3.57740E+000	10	...........
	24	0.333333	8.19677E-001	5.99249E-003	0.00000E+000	4.91191E-003	3.59960E-001	-1.16335E+000	3.57740E+000	10	...........
	25	0.346667	8.26226E-001	5.99355E-003	0.00000E+000	4.95203E-003	3.59960E-001	-1.17431E+000	3.57740E+000	10	...........
	26	0.36	8.32766E-001	5.99002E-003	0.00000E+000	4.98828E-003	3.59960E-001	-1.16487E+000	3.57740E+000	10	...........
	27	0.373333	8.39318E-001	5.99493E-003	0.00000E+000	5.03165E-003	3.59960E-001	-1.16297E+000	3.57740E+000	10	...........
	28	0.386667	8.45866E-001	5.99279E-003	0.00000E+000	5.06910E-003	3.59960E-001	-1.17441E+000	3.57740E+000	10	...........
	29	0.4	8.52337E-001	5.99396E-003	0.00000E+000	5.10887E-003	3.59960E-001	-1.16482E+000	3.57740E+000	10	...........
	30	0.413333	8.58775E-001	5.99761E-003	0.00000E+000	5.15060E-003	3.59960E-001	-1.16297E+000	3.57740E+000	10	...........
	31	0.426667	8.65229E-001	5.99374E-003	0.00000E+000	5.18596E-003	3.59960E-001	-1.17395E+000	3.57740E+000	10	...........
	32	0.44	8.71682E-001	5.98984E-003	0.00000E+000	5.22123E-003	3.59960E-001	-1.16433E+000	3.57740E+000	10	...........
	33	0.453333	8.78016E-001	5.99469E-003	0.00000E+000	5.26343E-003	3.59960E-001	-1.16275E+000	3.57740E+000	10	...........
	34	0.466667	8.84391E-001	5.99594E-003	0.00000E+000	5.30276E-003	3.59960E-001	-1.17401E+000	3.57740E+000	10	...........
	35	0.48	8.90706E-001	5.99404E-003	0.00000E+000	5.33893E-003	3.59960E-001	-1.16431E+000	3.57740E+000	10	...........
	36	0.493333	8.96971E-001	5.99508E-003	0.00000E+000	5.37742E-003	3.59960E-001	-1.16249E+000	3.57740E+000	10	...........
	37	0.506667	9.03207E-001	5.99560E-003	0.00000E+000	5.41526E-003	3.59960E-001	-1.17389E+000	3.57740E+000	10	...........
	38	0.52	9.09423E-001	5.99323E-003	0.00000E+000	5.45038E-003	3.59960E-001	-1.16433E+000	3.57740E+000	10	...........
	39	0.533333	9.15577E-001	5.99452E-003	0.00000E+000	5.48844E-003	3.59960E-001	-1.16263E+000	3.57740E+000	10	...........
	40	0.546667	9.21739E-001	5.99440E-003	0.00000E+000	5.52527E-003	3.59960E-001	-1.17380E+000	3.57740E+000	10	...........
	41	0.56	9.27856E-001	5.99434E-003	0.00000E+000	5.56189E-003	3.59960E-001	-1.16412E+000	3.57740E+000	10	...........
	42	0.573333	9.33886E-001	5.99223E-003	0.00000E+000	5.59606E-003	3.59960E-001	-1.16250E+000	3.57740E+000	10	...........
	43	0.586667	9.39902E-001	5.99281E-003	0.00000E+000	5.63265E-003	3.59960E-001	-1.17392E+000	3.57740E+000	10	...........
	44	0.6	9.45890E-001	5.99303E-003	0.00000E+000	5.66875E-003	3.59960E-001	-1.16429E+000	3.57740E+000	10	...........
	45	0.613333	9.51821E-001	5.99491E-003	0.00000E+000	5.70608E-003	3.59960E-001	-1.16253E+000	3.57740E+000	10	...........
	46	0.626667	9.57670E-001	5.99295E-003	0.00000E+000	5.73926E-003	3.59960E-001	-1.17370E+000	3.57740E+000	10	...........
	47	0.64	9.63507E-001	5.99632E-003	0.00000E+000	5.77749E-003	3.59960E-001	-1.16439E+000	3.57740E+000	10	...........
	48	0.653333	9.69254E-001	5.99092E-003	0.00000E+000	5.80673E-003	3.59960E-001	-1.16288E+000	3.57740E+000	10	...........
	49	0.666667	9.75031E-001	5.99416E-003	0.00000E+000	5.84449E-003	3.59960E-001	-1.17415E+000	3.57740E+000	10	...........
	50	0.68	9.80723E-001	5.99246E-003	0.00000E+000	5.87694E-003	3.59960E-001	-1.16447E+000	3.57740E+000	10	...........
	51	0.693333	9.86331E-001	5.99273E-003	0.00000E+000	5.91082E-003	3.59960E-001	-1.16262E+000	3.57740E+000	10	...........
	52	0.706667	9.91946E-001	5.99529E-003	0.00000E+000	5.94701E-003	3.59960E-001	-1.17401E+000	3.57740E+000	10	...........
	53	0.72	9.97487E-001	5.99772E-003	0.00000E+000	5.98265E-003	3.59960E-001	-1.16425E+000	3.57740E+000	10	...........
	54	0.721667	1.00061E+000	5.99955E-003	0.00000E+000	6.00323E-003	3.59960E-001	-1.17625E+000	3.57740E+000	10	...........
STARTTIMEOFFSET	QUANT	1302.682	Start Time Offset (s)