File: Data/CV_CRGO300517_1/PWRCCD_CRGO300517_1/CHARGE_DISCHARGE/CHARGE_#686.DTA
EXPLAIN
TAG	PWR800_CHARGE
TITLE	LABEL	PWR Cyclic Charge Discharge (Cell) - Charge Step	Test &Identifier
DATE	LABEL	22-6-2017	Date
TIME	LABEL	16:03:02	Time
NOTES	NOTES	3	&Notes...
	supercap test cell
	0.6mg
	6M KOH
PSTAT	PSTAT	IFC5000-01520	Potentiostat
CAPACITY	QUANT	1.00000E-003	Capacity (A-hr)
CELLTYPE	SELECTOR	1	&Cell Type
WORKINGCONNECTION	SELECTOR	0	&Working Lead
MAXCHARGETIME	VARIABLEANDUNITS	1.00000E+002	s	1.00000E+002	second(s)	Max &Charge Time
CHARGECURRENT	QUANT	6.00000E-003	&Charge Current (A)
VOLTAGEFINISH	TWOPARAM	F	1.00000E-003	3.60000E+003	&Voltage Finish	 I (A) < 	Max Time(s)
SAMPLETIME	QUANT	1.00000E-002	Sa&mple Period (s)
CHARGESTOPAT1	MULTIPARAM	4	1.00000E+000	Charge Stop At &1	Voltage > Limit	V
CHARGESTOPAT2	MULTIPARAM	0	0.00000E+000	Charge Stop At &2	None	N/A
AESBHCSELECTOR	TOGGLE	F	Save Both Half Cells
IRCOMP	TOGGLE	F	IR &Measure
EOC	QUANT	0	Open Circuit (V)
SEQUENCER	TOGGLE	TRUE	Run as Sequence
PSTATMODEL	IQUANT	53	Pstat Model
PSTATSECTION	LABEL	IFC5000-01520	Pstat Section
PSTATSERIALNO	LABEL	01520	Pstat Serial Number
CTRLMODE	IQUANT	0	Control Mode
ELECTROMETER	IQUANT	1	RE=0 or CS=1
IESTAB	IQUANT	0	I/E Stability
CASPEED	IQUANT	4	Control Amp Speed
CONVENTION	IQUANT	1	Current Convention
ICHRANGE	IQUANT	2	Ich Range
ICHRANGEMODE	TOGGLE	T	Ich Auto Range
ICHOFFSETENABLE	TOGGLE	F	Ich Offset Enable
ICHOFFSET	QUANT	0	Ich Offset (V)
ICHFILTER	IQUANT	1	Ich Filter
VCHRANGE	IQUANT	2	Vch Range
VCHRANGEMODE	TOGGLE	T	Vch Auto Range
VCHOFFSETENABLE	TOGGLE	F	Vch Offset Enable
VCHOFFSET	QUANT	0	Vch Offset (V)
VCHFILTER	IQUANT	1	Vch Filter
IERANGELOWERLIMIT	IQUANT	9	I/E Range Lower Limit
IERANGEMODE	TOGGLE	F	I/E AutoRange
IERANGE	IQUANT	10	I/E Range
ACHSELECT	IQUANT	1	Ach Select
ACHRANGE	IQUANT	2	Ach Range
ACHOFFSETENABLE	TOGGLE	F	Ach Offset Enable
ACHOFFSET	QUANT	0	Ach Offset (V)
ACHFILTER	IQUANT	1	Ach Filter
CABLEID	IQUANT	14	Cable ID
DCCALDATE	LABEL	20-10-2016	DC Calibration Date
ACCALDATE	LABEL	12/3/2015	AC Calibration Date
FRAMEWORKVERSION	QUANT	7.01	Framework Version
INSTRUMENTVERSION	LABEL	4.00	Instrument Version
CURVE	TABLE	56
	Pt	T	Vf	Im	Vu	Pwr	Sig	Ach	Temp	IERange	Over
	#	s	V	A	V	W	V	V	deg C	#	bits
	0	0.013333	6.42666E-001	5.99400E-003	0.00000E+000	3.85214E-003	3.59960E-001	-1.16429E+000	3.57660E+000	10	...........
	1	0.026667	6.51740E-001	5.99186E-003	0.00000E+000	3.90514E-003	3.59960E-001	-1.15375E+000	3.57660E+000	10	...........
	2	0.04	6.60097E-001	5.99333E-003	0.00000E+000	3.95618E-003	3.59960E-001	-1.15518E+000	3.57660E+000	10	...........
	3	0.053333	6.68005E-001	5.99660E-003	0.00000E+000	4.00576E-003	3.59960E-001	-1.16408E+000	3.57660E+000	10	...........
	4	0.066667	6.75623E-001	5.99473E-003	0.00000E+000	4.05018E-003	3.59960E-001	-1.15292E+000	3.57660E+000	10	...........
	5	0.08	6.83031E-001	5.99576E-003	0.00000E+000	4.09529E-003	3.59960E-001	-1.15441E+000	3.57660E+000	10	...........
	6	0.093333	6.90336E-001	5.99236E-003	0.00000E+000	4.13674E-003	3.59960E-001	-1.16370E+000	3.57660E+000	10	...........
	7	0.106667	6.97530E-001	5.99120E-003	0.00000E+000	4.17904E-003	3.59960E-001	-1.15291E+000	3.57660E+000	10	...........
	8	0.12	7.04609E-001	5.99620E-003	0.00000E+000	4.22497E-003	3.59960E-001	-1.15460E+000	3.57660E+000	10	...........
	9	0.133333	7.11601E-001	5.99658E-003	0.00000E+000	4.26717E-003	3.59960E-001	-1.16343E+000	3.57660E+000	10	...........
	10	0.146667	7.18560E-001	5.99201E-003	0.00000E+000	4.30562E-003	3.59960E-001	-1.15272E+000	3.57660E+000	10	...........
	11	0.16	7.25475E-001	5.99417E-003	0.00000E+000	4.34862E-003	3.59960E-001	-1.15440E+000	3.57665E+000	10	...........
	12	0.173333	7.32296E-001	5.99998E-003	0.00000E+000	4.39376E-003	3.59960E-001	-1.16332E+000	3.57700E+000	10	...........
	13	0.186667	7.39074E-001	6.00164E-003	0.00000E+000	4.43565E-003	3.59960E-001	-1.15268E+000	3.57700E+000	10	...........
	14	0.2	7.45873E-001	5.99662E-003	0.00000E+000	4.47271E-003	3.59960E-001	-1.15446E+000	3.57700E+000	10	...........
	15	0.213333	7.52651E-001	5.98991E-003	0.00000E+000	4.50831E-003	3.59960E-001	-1.16299E+000	3.57700E+000	10	...........
	16	0.226667	7.59376E-001	5.99198E-003	0.00000E+000	4.55017E-003	3.59960E-001	-1.15253E+000	3.57700E+000	10	...........
	17	0.24	7.65989E-001	5.99380E-003	0.00000E+000	4.59118E-003	3.59960E-001	-1.15462E+000	3.57700E+000	10	...........
	18	0.253333	7.72734E-001	5.99370E-003	0.00000E+000	4.63153E-003	3.59960E-001	-1.16282E+000	3.57700E+000	10	...........
	19	0.266667	7.79391E-001	6.00071E-003	0.00000E+000	4.67690E-003	3.59960E-001	-1.15220E+000	3.57700E+000	10	...........
	20	0.28	7.86024E-001	5.99076E-003	0.00000E+000	4.70888E-003	3.59960E-001	-1.15422E+000	3.57700E+000	10	...........
	21	0.293333	7.92634E-001	5.99209E-003	0.00000E+000	4.74953E-003	3.59960E-001	-1.16299E+000	3.57700E+000	10	...........
	22	0.306667	7.99240E-001	5.99620E-003	0.00000E+000	4.79240E-003	3.59960E-001	-1.15239E+000	3.57700E+000	10	...........
	23	0.32	8.05795E-001	5.99409E-003	0.00000E+000	4.83001E-003	3.59960E-001	-1.15446E+000	3.57700E+000	10	...........
	24	0.333333	8.12340E-001	5.99146E-003	0.00000E+000	4.86710E-003	3.59960E-001	-1.16281E+000	3.57700E+000	10	...........
	25	0.346667	8.18912E-001	5.99275E-003	0.00000E+000	4.90753E-003	3.59960E-001	-1.15217E+000	3.57700E+000	10	...........
	26	0.36	8.25417E-001	5.99086E-003	0.00000E+000	4.94496E-003	3.59960E-001	-1.15440E+000	3.57700E+000	10	...........
	27	0.373333	8.31881E-001	5.99354E-003	0.00000E+000	4.98591E-003	3.59960E-001	-1.16281E+000	3.57700E+000	10	...........
	28	0.386667	8.38347E-001	5.99337E-003	0.00000E+000	5.02453E-003	3.59960E-001	-1.15187E+000	3.57700E+000	10	...........
	29	0.4	8.44790E-001	5.99425E-003	0.00000E+000	5.06388E-003	3.59960E-001	-1.15393E+000	3.57700E+000	10	...........
	30	0.413333	8.51272E-001	5.99502E-003	0.00000E+000	5.10339E-003	3.59960E-001	-1.16226E+000	3.57700E+000	10	...........
	31	0.426667	8.57674E-001	5.99021E-003	0.00000E+000	5.13765E-003	3.59960E-001	-1.15172E+000	3.57700E+000	10	...........
	32	0.44	8.64051E-001	5.99491E-003	0.00000E+000	5.17991E-003	3.59960E-001	-1.15409E+000	3.57700E+000	10	...........
	33	0.453333	8.70390E-001	5.99148E-003	0.00000E+000	5.21492E-003	3.59960E-001	-1.16213E+000	3.57700E+000	10	...........
	34	0.466667	8.76720E-001	5.99336E-003	0.00000E+000	5.25450E-003	3.59960E-001	-1.15151E+000	3.57700E+000	10	...........
	35	0.48	8.83032E-001	5.99214E-003	0.00000E+000	5.29125E-003	3.59960E-001	-1.15393E+000	3.57700E+000	10	...........
	36	0.493333	8.89279E-001	5.99371E-003	0.00000E+000	5.33008E-003	3.59960E-001	-1.16200E+000	3.57700E+000	10	...........
	37	0.506667	8.95509E-001	5.99384E-003	0.00000E+000	5.36754E-003	3.59960E-001	-1.15173E+000	3.57700E+000	10	...........
	38	0.52	9.01756E-001	5.99704E-003	0.00000E+000	5.40787E-003	3.59960E-001	-1.15425E+000	3.57700E+000	10	...........
	39	0.533333	9.07954E-001	5.99626E-003	0.00000E+000	5.44433E-003	3.59960E-001	-1.16183E+000	3.57700E+000	10	...........
	40	0.546667	9.14081E-001	5.99453E-003	0.00000E+000	5.47949E-003	3.59960E-001	-1.15130E+000	3.57700E+000	10	...........
	41	0.56	9.20219E-001	5.99358E-003	0.00000E+000	5.51541E-003	3.59960E-001	-1.15406E+000	3.57700E+000	10	...........
	42	0.573333	9.26294E-001	5.99343E-003	0.00000E+000	5.55168E-003	3.59960E-001	-1.16203E+000	3.57700E+000	10	...........
	43	0.586667	9.32370E-001	5.99737E-003	0.00000E+000	5.59177E-003	3.59960E-001	-1.15151E+000	3.57700E+000	10	...........
	44	0.6	9.38354E-001	5.99239E-003	0.00000E+000	5.62298E-003	3.59960E-001	-1.15422E+000	3.57700E+000	10	...........
	45	0.613333	9.44276E-001	5.99163E-003	0.00000E+000	5.65775E-003	3.59960E-001	-1.16181E+000	3.57700E+000	10	...........
	46	0.626667	9.50189E-001	5.99366E-003	0.00000E+000	5.69511E-003	3.59960E-001	-1.15166E+000	3.57700E+000	10	...........
	47	0.64	9.56049E-001	5.98876E-003	0.00000E+000	5.72555E-003	3.59960E-001	-1.15465E+000	3.57700E+000	10	...........
	48	0.653333	9.61916E-001	5.99493E-003	0.00000E+000	5.76662E-003	3.59960E-001	-1.16183E+000	3.57700E+000	10	...........
	49	0.666667	9.67671E-001	5.99004E-003	0.00000E+000	5.79638E-003	3.59960E-001	-1.15127E+000	3.57700E+000	10	...........
	50	0.68	9.73388E-001	5.99302E-003	0.00000E+000	5.83353E-003	3.59960E-001	-1.15419E+000	3.57700E+000	10	...........
	51	0.693333	9.79090E-001	5.99292E-003	0.00000E+000	5.86760E-003	3.59960E-001	-1.16163E+000	3.57700E+000	10	...........
	52	0.706667	9.84745E-001	6.00299E-003	0.00000E+000	5.91141E-003	3.59960E-001	-1.15122E+000	3.57700E+000	10	...........
	53	0.72	9.90269E-001	5.99422E-003	0.00000E+000	5.93589E-003	3.59960E-001	-1.15406E+000	3.57700E+000	10	...........
	54	0.733333	9.95792E-001	5.99230E-003	0.00000E+000	5.96709E-003	3.59960E-001	-1.16133E+000	3.57700E+000	10	...........
	55	0.738333	9.99557E-001	5.99507E-003	0.00000E+000	5.99242E-003	3.59960E-001	-1.14540E+000	3.57700E+000	10	...........
STARTTIMEOFFSET	QUANT	1138.649	Start Time Offset (s)