File: Data/CV_CRGO300517_1/PWRCCD_CRGO300517_1/CHARGE_DISCHARGE/CHARGE_#449.DTA
EXPLAIN
TAG	PWR800_CHARGE
TITLE	LABEL	PWR Cyclic Charge Discharge (Cell) - Charge Step	Test &Identifier
DATE	LABEL	22-6-2017	Date
TIME	LABEL	15:53:54	Time
NOTES	NOTES	3	&Notes...
	supercap test cell
	0.6mg
	6M KOH
PSTAT	PSTAT	IFC5000-01520	Potentiostat
CAPACITY	QUANT	1.00000E-003	Capacity (A-hr)
CELLTYPE	SELECTOR	1	&Cell Type
WORKINGCONNECTION	SELECTOR	0	&Working Lead
MAXCHARGETIME	VARIABLEANDUNITS	1.00000E+002	s	1.00000E+002	second(s)	Max &Charge Time
CHARGECURRENT	QUANT	6.00000E-003	&Charge Current (A)
VOLTAGEFINISH	TWOPARAM	F	1.00000E-003	3.60000E+003	&Voltage Finish	 I (A) < 	Max Time(s)
SAMPLETIME	QUANT	1.00000E-002	Sa&mple Period (s)
CHARGESTOPAT1	MULTIPARAM	4	1.00000E+000	Charge Stop At &1	Voltage > Limit	V
CHARGESTOPAT2	MULTIPARAM	0	0.00000E+000	Charge Stop At &2	None	N/A
AESBHCSELECTOR	TOGGLE	F	Save Both Half Cells
IRCOMP	TOGGLE	F	IR &Measure
EOC	QUANT	0	Open Circuit (V)
SEQUENCER	TOGGLE	TRUE	Run as Sequence
PSTATMODEL	IQUANT	53	Pstat Model
PSTATSECTION	LABEL	IFC5000-01520	Pstat Section
PSTATSERIALNO	LABEL	01520	Pstat Serial Number
CTRLMODE	IQUANT	0	Control Mode
ELECTROMETER	IQUANT	1	RE=0 or CS=1
IESTAB	IQUANT	0	I/E Stability
CASPEED	IQUANT	4	Control Amp Speed
CONVENTION	IQUANT	1	Current Convention
ICHRANGE	IQUANT	2	Ich Range
ICHRANGEMODE	TOGGLE	T	Ich Auto Range
ICHOFFSETENABLE	TOGGLE	F	Ich Offset Enable
ICHOFFSET	QUANT	0	Ich Offset (V)
ICHFILTER	IQUANT	1	Ich Filter
VCHRANGE	IQUANT	2	Vch Range
VCHRANGEMODE	TOGGLE	T	Vch Auto Range
VCHOFFSETENABLE	TOGGLE	F	Vch Offset Enable
VCHOFFSET	QUANT	0	Vch Offset (V)
VCHFILTER	IQUANT	1	Vch Filter
IERANGELOWERLIMIT	IQUANT	9	I/E Range Lower Limit
IERANGEMODE	TOGGLE	F	I/E AutoRange
IERANGE	IQUANT	10	I/E Range
ACHSELECT	IQUANT	1	Ach Select
ACHRANGE	IQUANT	2	Ach Range
ACHOFFSETENABLE	TOGGLE	F	Ach Offset Enable
ACHOFFSET	QUANT	0	Ach Offset (V)
ACHFILTER	IQUANT	1	Ach Filter
CABLEID	IQUANT	14	Cable ID
DCCALDATE	LABEL	20-10-2016	DC Calibration Date
ACCALDATE	LABEL	12/3/2015	AC Calibration Date
FRAMEWORKVERSION	QUANT	7.01	Framework Version
INSTRUMENTVERSION	LABEL	4.00	Instrument Version
CURVE	TABLE	59
	Pt	T	Vf	Im	Vu	Pwr	Sig	Ach	Temp	IERange	Over
	#	s	V	A	V	W	V	V	deg C	#	bits
	0	0.013333	6.28520E-001	5.99744E-003	0.00000E+000	3.76951E-003	3.59960E-001	-1.14080E+000	3.57790E+000	10	...........
	1	0.026667	6.37330E-001	5.99336E-003	0.00000E+000	3.81975E-003	3.59960E-001	-1.13947E+000	3.57790E+000	10	...........
	2	0.04	6.45423E-001	5.99156E-003	0.00000E+000	3.86709E-003	3.59960E-001	-1.13272E+000	3.57790E+000	10	...........
	3	0.053333	6.53082E-001	5.99691E-003	0.00000E+000	3.91647E-003	3.59960E-001	-1.14044E+000	3.57790E+000	10	...........
	4	0.066667	6.60462E-001	5.99423E-003	0.00000E+000	3.95896E-003	3.59960E-001	-1.13903E+000	3.57790E+000	10	...........
	5	0.08	6.67657E-001	5.99187E-003	0.00000E+000	4.00052E-003	3.59960E-001	-1.13247E+000	3.57790E+000	10	...........
	6	0.093333	6.74765E-001	5.99686E-003	0.00000E+000	4.04647E-003	3.59960E-001	-1.14036E+000	3.57790E+000	10	...........
	7	0.106667	6.81733E-001	5.99500E-003	0.00000E+000	4.08699E-003	3.59960E-001	-1.13848E+000	3.57790E+000	10	...........
	8	0.12	6.88620E-001	5.99491E-003	0.00000E+000	4.12821E-003	3.59960E-001	-1.13197E+000	3.57790E+000	10	...........
	9	0.133333	6.95431E-001	5.99284E-003	0.00000E+000	4.16761E-003	3.59960E-001	-1.14004E+000	3.57790E+000	10	...........
	10	0.146667	7.02209E-001	5.99031E-003	0.00000E+000	4.20645E-003	3.59960E-001	-1.13853E+000	3.57790E+000	10	...........
	11	0.16	7.08858E-001	6.00079E-003	0.00000E+000	4.25371E-003	3.59960E-001	-1.13226E+000	3.57790E+000	10	...........
	12	0.173333	7.15528E-001	5.99605E-003	0.00000E+000	4.29034E-003	3.59960E-001	-1.14032E+000	3.57790E+000	10	...........
	13	0.186667	7.22191E-001	5.99565E-003	0.00000E+000	4.33000E-003	3.59960E-001	-1.13826E+000	3.57790E+000	10	...........
	14	0.2	7.28782E-001	5.99409E-003	0.00000E+000	4.36839E-003	3.59960E-001	-1.13197E+000	3.57790E+000	10	...........
	15	0.213333	7.35325E-001	5.99588E-003	0.00000E+000	4.40892E-003	3.59960E-001	-1.14037E+000	3.57790E+000	10	...........
	16	0.226667	7.41862E-001	5.99242E-003	0.00000E+000	4.44555E-003	3.59960E-001	-1.13831E+000	3.57790E+000	10	...........
	17	0.24	7.48352E-001	5.99554E-003	0.00000E+000	4.48678E-003	3.59960E-001	-1.13186E+000	3.57790E+000	10	...........
	18	0.253333	7.54851E-001	5.99430E-003	0.00000E+000	4.52480E-003	3.59960E-001	-1.14014E+000	3.57790E+000	10	...........
	19	0.266667	7.61329E-001	6.00152E-003	0.00000E+000	4.56913E-003	3.59960E-001	-1.13786E+000	3.57790E+000	10	...........
	20	0.28	7.67754E-001	5.99429E-003	0.00000E+000	4.60214E-003	3.59960E-001	-1.13207E+000	3.57790E+000	10	...........
	21	0.293333	7.74227E-001	5.99588E-003	0.00000E+000	4.64217E-003	3.59960E-001	-1.14032E+000	3.57790E+000	10	...........
	22	0.306667	7.80669E-001	5.99384E-003	0.00000E+000	4.67921E-003	3.59960E-001	-1.13798E+000	3.57790E+000	10	...........
	23	0.32	7.87068E-001	5.99671E-003	0.00000E+000	4.71982E-003	3.59960E-001	-1.13173E+000	3.57790E+000	10	...........
	24	0.333333	7.93488E-001	5.99261E-003	0.00000E+000	4.75506E-003	3.59960E-001	-1.14016E+000	3.57790E+000	10	...........
	25	0.346667	7.99882E-001	5.99338E-003	0.00000E+000	4.79400E-003	3.59960E-001	-1.13781E+000	3.57790E+000	10	...........
	26	0.36	8.06286E-001	5.99045E-003	0.00000E+000	4.83002E-003	3.59960E-001	-1.13199E+000	3.57790E+000	10	...........
	27	0.373333	8.12658E-001	5.99535E-003	0.00000E+000	4.87217E-003	3.59960E-001	-1.14041E+000	3.57790E+000	10	...........
	28	0.386667	8.19010E-001	5.99201E-003	0.00000E+000	4.90751E-003	3.59960E-001	-1.13765E+000	3.57790E+000	10	...........
	29	0.4	8.25346E-001	5.99400E-003	0.00000E+000	4.94712E-003	3.59960E-001	-1.13161E+000	3.57790E+000	10	...........
	30	0.413333	8.31690E-001	5.99587E-003	0.00000E+000	4.98671E-003	3.59960E-001	-1.13997E+000	3.57790E+000	10	...........
	31	0.426667	8.37963E-001	5.99477E-003	0.00000E+000	5.02340E-003	3.59960E-001	-1.13740E+000	3.57790E+000	10	...........
	32	0.44	8.44273E-001	5.99235E-003	0.00000E+000	5.05918E-003	3.59960E-001	-1.13153E+000	3.57790E+000	10	...........
	33	0.453333	8.50531E-001	5.99347E-003	0.00000E+000	5.09763E-003	3.59960E-001	-1.13995E+000	3.57790E+000	10	...........
	34	0.466667	8.56727E-001	5.99265E-003	0.00000E+000	5.13407E-003	3.59960E-001	-1.13722E+000	3.57790E+000	10	...........
	35	0.48	8.62956E-001	5.99208E-003	0.00000E+000	5.17090E-003	3.59960E-001	-1.13148E+000	3.57790E+000	10	...........
	36	0.493333	8.69198E-001	5.99340E-003	0.00000E+000	5.20945E-003	3.59960E-001	-1.14021E+000	3.57790E+000	10	...........
	37	0.506667	8.75382E-001	5.99529E-003	0.00000E+000	5.24817E-003	3.59960E-001	-1.13713E+000	3.57721E+000	10	...........
	38	0.52	8.81551E-001	5.99404E-003	0.00000E+000	5.28406E-003	3.59960E-001	-1.13144E+000	3.57680E+000	10	...........
	39	0.533333	8.87780E-001	5.99927E-003	0.00000E+000	5.32603E-003	3.59960E-001	-1.14015E+000	3.57680E+000	10	...........
	40	0.546667	8.93892E-001	5.99579E-003	0.00000E+000	5.35959E-003	3.59960E-001	-1.13698E+000	3.57680E+000	10	...........
	41	0.56	8.99960E-001	5.99562E-003	0.00000E+000	5.39581E-003	3.59960E-001	-1.13129E+000	3.57680E+000	10	...........
	42	0.573333	9.06059E-001	5.99437E-003	0.00000E+000	5.43125E-003	3.59960E-001	-1.14020E+000	3.57680E+000	10	...........
	43	0.586667	9.12065E-001	5.99083E-003	0.00000E+000	5.46403E-003	3.59960E-001	-1.13699E+000	3.57680E+000	10	...........
	44	0.6	9.18127E-001	5.99384E-003	0.00000E+000	5.50311E-003	3.59960E-001	-1.13128E+000	3.57680E+000	10	...........
	45	0.613333	9.24176E-001	5.99062E-003	0.00000E+000	5.53639E-003	3.59960E-001	-1.14018E+000	3.57680E+000	10	...........
	46	0.626667	9.30083E-001	5.99502E-003	0.00000E+000	5.57587E-003	3.59960E-001	-1.13713E+000	3.57680E+000	10	...........
	47	0.64	9.35978E-001	5.99530E-003	0.00000E+000	5.61147E-003	3.59960E-001	-1.13155E+000	3.57680E+000	10	...........
	48	0.653333	9.41881E-001	5.99686E-003	0.00000E+000	5.64833E-003	3.59960E-001	-1.14028E+000	3.57680E+000	10	...........
	49	0.666667	9.47697E-001	5.99409E-003	0.00000E+000	5.68059E-003	3.59960E-001	-1.13682E+000	3.57680E+000	10	...........
	50	0.68	9.53499E-001	5.99451E-003	0.00000E+000	5.71576E-003	3.59960E-001	-1.13159E+000	3.57680E+000	10	...........
	51	0.693333	9.59218E-001	5.99416E-003	0.00000E+000	5.74970E-003	3.59960E-001	-1.14039E+000	3.57680E+000	10	...........
	52	0.706667	9.64927E-001	5.99011E-003	0.00000E+000	5.78002E-003	3.59960E-001	-1.13688E+000	3.57680E+000	10	...........
	53	0.72	9.70648E-001	5.99771E-003	0.00000E+000	5.82167E-003	3.59960E-001	-1.13147E+000	3.57680E+000	10	...........
	54	0.733333	9.76345E-001	5.99686E-003	0.00000E+000	5.85500E-003	3.59960E-001	-1.13982E+000	3.57680E+000	10	...........
	55	0.746667	9.81960E-001	5.99187E-003	0.00000E+000	5.88378E-003	3.59960E-001	-1.13648E+000	3.57680E+000	10	...........
	56	0.76	9.87511E-001	5.99615E-003	0.00000E+000	5.92126E-003	3.59960E-001	-1.13117E+000	3.57680E+000	10	...........
	57	0.773333	9.92993E-001	5.99270E-003	0.00000E+000	5.95070E-003	3.59960E-001	-1.14004E+000	3.57680E+000	10	...........
	58	0.785	9.98133E-001	5.99225E-003	0.00000E+000	5.98107E-003	3.59960E-001	-1.13512E+000	3.57680E+000	10	...........
STARTTIMEOFFSET	QUANT	779.8853	Start Time Offset (s)