File: Data/CV_CRGO300517_1/PWRCCD_CRGO300517_1/CHARGE_DISCHARGE/CHARGE_#481.DTA
EXPLAIN
TAG	PWR800_CHARGE
TITLE	LABEL	PWR Cyclic Charge Discharge (Cell) - Charge Step	Test &Identifier
DATE	LABEL	22-6-2017	Date
TIME	LABEL	15:55:10	Time
NOTES	NOTES	3	&Notes...
	supercap test cell
	0.6mg
	6M KOH
PSTAT	PSTAT	IFC5000-01520	Potentiostat
CAPACITY	QUANT	1.00000E-003	Capacity (A-hr)
CELLTYPE	SELECTOR	1	&Cell Type
WORKINGCONNECTION	SELECTOR	0	&Working Lead
MAXCHARGETIME	VARIABLEANDUNITS	1.00000E+002	s	1.00000E+002	second(s)	Max &Charge Time
CHARGECURRENT	QUANT	6.00000E-003	&Charge Current (A)
VOLTAGEFINISH	TWOPARAM	F	1.00000E-003	3.60000E+003	&Voltage Finish	 I (A) < 	Max Time(s)
SAMPLETIME	QUANT	1.00000E-002	Sa&mple Period (s)
CHARGESTOPAT1	MULTIPARAM	4	1.00000E+000	Charge Stop At &1	Voltage > Limit	V
CHARGESTOPAT2	MULTIPARAM	0	0.00000E+000	Charge Stop At &2	None	N/A
AESBHCSELECTOR	TOGGLE	F	Save Both Half Cells
IRCOMP	TOGGLE	F	IR &Measure
EOC	QUANT	0	Open Circuit (V)
SEQUENCER	TOGGLE	TRUE	Run as Sequence
PSTATMODEL	IQUANT	53	Pstat Model
PSTATSECTION	LABEL	IFC5000-01520	Pstat Section
PSTATSERIALNO	LABEL	01520	Pstat Serial Number
CTRLMODE	IQUANT	0	Control Mode
ELECTROMETER	IQUANT	1	RE=0 or CS=1
IESTAB	IQUANT	0	I/E Stability
CASPEED	IQUANT	4	Control Amp Speed
CONVENTION	IQUANT	1	Current Convention
ICHRANGE	IQUANT	2	Ich Range
ICHRANGEMODE	TOGGLE	T	Ich Auto Range
ICHOFFSETENABLE	TOGGLE	F	Ich Offset Enable
ICHOFFSET	QUANT	0	Ich Offset (V)
ICHFILTER	IQUANT	1	Ich Filter
VCHRANGE	IQUANT	2	Vch Range
VCHRANGEMODE	TOGGLE	T	Vch Auto Range
VCHOFFSETENABLE	TOGGLE	F	Vch Offset Enable
VCHOFFSET	QUANT	0	Vch Offset (V)
VCHFILTER	IQUANT	1	Vch Filter
IERANGELOWERLIMIT	IQUANT	9	I/E Range Lower Limit
IERANGEMODE	TOGGLE	F	I/E AutoRange
IERANGE	IQUANT	10	I/E Range
ACHSELECT	IQUANT	1	Ach Select
ACHRANGE	IQUANT	2	Ach Range
ACHOFFSETENABLE	TOGGLE	F	Ach Offset Enable
ACHOFFSET	QUANT	0	Ach Offset (V)
ACHFILTER	IQUANT	1	Ach Filter
CABLEID	IQUANT	14	Cable ID
DCCALDATE	LABEL	20-10-2016	DC Calibration Date
ACCALDATE	LABEL	12/3/2015	AC Calibration Date
FRAMEWORKVERSION	QUANT	7.01	Framework Version
INSTRUMENTVERSION	LABEL	4.00	Instrument Version
CURVE	TABLE	59
	Pt	T	Vf	Im	Vu	Pwr	Sig	Ach	Temp	IERange	Over
	#	s	V	A	V	W	V	V	deg C	#	bits
	0	0.013333	6.30450E-001	5.99258E-003	0.00000E+000	3.77802E-003	3.59960E-001	-1.14394E+000	3.57790E+000	10	...........
	1	0.026667	6.39333E-001	5.99202E-003	0.00000E+000	3.83090E-003	3.59960E-001	-1.13341E+000	3.57790E+000	10	...........
	2	0.04	6.47519E-001	5.99253E-003	0.00000E+000	3.88027E-003	3.59960E-001	-1.13437E+000	3.57790E+000	10	...........
	3	0.053333	6.55234E-001	5.99441E-003	0.00000E+000	3.92774E-003	3.59960E-001	-1.14377E+000	3.57790E+000	10	...........
	4	0.066667	6.62673E-001	5.99121E-003	0.00000E+000	3.97022E-003	3.59960E-001	-1.13342E+000	3.57790E+000	10	...........
	5	0.08	6.69957E-001	5.99452E-003	0.00000E+000	4.01607E-003	3.59960E-001	-1.13481E+000	3.57790E+000	10	...........
	6	0.093333	6.77053E-001	5.98917E-003	0.00000E+000	4.05499E-003	3.59960E-001	-1.14368E+000	3.57790E+000	10	...........
	7	0.106667	6.84053E-001	5.99336E-003	0.00000E+000	4.09978E-003	3.59960E-001	-1.13356E+000	3.57790E+000	10	...........
	8	0.12	6.91000E-001	5.99860E-003	0.00000E+000	4.14503E-003	3.59960E-001	-1.13490E+000	3.57790E+000	10	...........
	9	0.133333	6.97822E-001	5.99396E-003	0.00000E+000	4.18272E-003	3.59960E-001	-1.14367E+000	3.57790E+000	10	...........
	10	0.146667	7.04609E-001	5.99243E-003	0.00000E+000	4.22231E-003	3.59960E-001	-1.13344E+000	3.57790E+000	10	...........
	11	0.16	7.11303E-001	5.99455E-003	0.00000E+000	4.26395E-003	3.59960E-001	-1.13518E+000	3.57790E+000	10	...........
	12	0.173333	7.18025E-001	5.99416E-003	0.00000E+000	4.30395E-003	3.59960E-001	-1.14375E+000	3.57790E+000	10	...........
	13	0.186667	7.24657E-001	5.99973E-003	0.00000E+000	4.34774E-003	3.59960E-001	-1.13330E+000	3.57790E+000	10	...........
	14	0.2	7.31301E-001	5.99687E-003	0.00000E+000	4.38552E-003	3.59960E-001	-1.13522E+000	3.57790E+000	10	...........
	15	0.213333	7.37841E-001	5.98895E-003	0.00000E+000	4.41889E-003	3.59960E-001	-1.14333E+000	3.57790E+000	10	...........
	16	0.226667	7.44451E-001	5.99107E-003	0.00000E+000	4.46006E-003	3.59960E-001	-1.13317E+000	3.57790E+000	10	...........
	17	0.24	7.50977E-001	5.99685E-003	0.00000E+000	4.50349E-003	3.59960E-001	-1.13493E+000	3.57790E+000	10	...........
	18	0.253333	7.57491E-001	5.99434E-003	0.00000E+000	4.54066E-003	3.59960E-001	-1.14351E+000	3.57790E+000	10	...........
	19	0.266667	7.63983E-001	5.99760E-003	0.00000E+000	4.58206E-003	3.59960E-001	-1.13324E+000	3.57790E+000	10	...........
	20	0.28	7.70464E-001	5.99786E-003	0.00000E+000	4.62114E-003	3.59960E-001	-1.13523E+000	3.57790E+000	10	...........
	21	0.293333	7.76964E-001	5.99481E-003	0.00000E+000	4.65775E-003	3.59960E-001	-1.14346E+000	3.57790E+000	10	...........
	22	0.306667	7.83411E-001	5.99629E-003	0.00000E+000	4.69757E-003	3.59960E-001	-1.13318E+000	3.57790E+000	10	...........
	23	0.32	7.89863E-001	5.99187E-003	0.00000E+000	4.73276E-003	3.59960E-001	-1.13539E+000	3.57790E+000	10	...........
	24	0.333333	7.96339E-001	5.99484E-003	0.00000E+000	4.77393E-003	3.59960E-001	-1.14354E+000	3.57790E+000	10	...........
	25	0.346667	8.02724E-001	5.99580E-003	0.00000E+000	4.81297E-003	3.59960E-001	-1.13353E+000	3.57790E+000	10	...........
	26	0.36	8.09126E-001	5.99306E-003	0.00000E+000	4.84914E-003	3.59960E-001	-1.13556E+000	3.57790E+000	10	...........
	27	0.373333	8.15495E-001	5.99571E-003	0.00000E+000	4.88947E-003	3.59960E-001	-1.14350E+000	3.57790E+000	10	...........
	28	0.386667	8.21889E-001	5.99871E-003	0.00000E+000	4.93028E-003	3.59960E-001	-1.13344E+000	3.57790E+000	10	...........
	29	0.4	8.28197E-001	5.98833E-003	0.00000E+000	4.95951E-003	3.59960E-001	-1.13604E+000	3.57790E+000	10	...........
	30	0.413333	8.34523E-001	5.98979E-003	0.00000E+000	4.99861E-003	3.59960E-001	-1.14377E+000	3.57790E+000	10	...........
	31	0.426667	8.40829E-001	5.99412E-003	0.00000E+000	5.04003E-003	3.59960E-001	-1.13374E+000	3.57790E+000	10	...........
	32	0.44	8.47204E-001	5.99710E-003	0.00000E+000	5.08076E-003	3.59960E-001	-1.13615E+000	3.57790E+000	10	...........
	33	0.453333	8.53449E-001	5.98963E-003	0.00000E+000	5.11184E-003	3.59960E-001	-1.14372E+000	3.57790E+000	10	...........
	34	0.466667	8.59725E-001	5.99193E-003	0.00000E+000	5.15141E-003	3.59960E-001	-1.13390E+000	3.57790E+000	10	...........
	35	0.48	8.65992E-001	5.99228E-003	0.00000E+000	5.18927E-003	3.59960E-001	-1.13669E+000	3.57790E+000	10	...........
	36	0.493333	8.72253E-001	5.99706E-003	0.00000E+000	5.23095E-003	3.59960E-001	-1.14387E+000	3.57790E+000	10	...........
	37	0.506667	8.78408E-001	5.99512E-003	0.00000E+000	5.26616E-003	3.59960E-001	-1.13372E+000	3.57790E+000	10	...........
	38	0.52	8.84598E-001	5.98988E-003	0.00000E+000	5.29863E-003	3.59960E-001	-1.13618E+000	3.57790E+000	10	...........
	39	0.533333	8.90760E-001	5.98786E-003	0.00000E+000	5.33374E-003	3.59960E-001	-1.14355E+000	3.57790E+000	10	...........
	40	0.546667	8.96931E-001	5.99285E-003	0.00000E+000	5.37517E-003	3.59960E-001	-1.13370E+000	3.57790E+000	10	...........
	41	0.56	9.03027E-001	5.99554E-003	0.00000E+000	5.41414E-003	3.59960E-001	-1.13674E+000	3.57790E+000	10	...........
	42	0.573333	9.09092E-001	5.99653E-003	0.00000E+000	5.45140E-003	3.59960E-001	-1.14353E+000	3.57790E+000	10	...........
	43	0.586667	9.15163E-001	5.99726E-003	0.00000E+000	5.48847E-003	3.59960E-001	-1.13390E+000	3.57790E+000	10	...........
	44	0.6	9.21229E-001	5.99517E-003	0.00000E+000	5.52292E-003	3.59960E-001	-1.13703E+000	3.57790E+000	10	...........
	45	0.613333	9.27190E-001	5.99560E-003	0.00000E+000	5.55905E-003	3.59960E-001	-1.14369E+000	3.57790E+000	10	...........
	46	0.626667	9.33146E-001	5.99515E-003	0.00000E+000	5.59434E-003	3.59960E-001	-1.13387E+000	3.57843E+000	10	...........
	47	0.64	9.39063E-001	5.99468E-003	0.00000E+000	5.62938E-003	3.59960E-001	-1.13706E+000	3.57850E+000	10	...........
	48	0.653333	9.44950E-001	5.99160E-003	0.00000E+000	5.66176E-003	3.59960E-001	-1.14377E+000	3.57850E+000	10	...........
	49	0.666667	9.50781E-001	5.99623E-003	0.00000E+000	5.70110E-003	3.59960E-001	-1.13402E+000	3.57850E+000	10	...........
	50	0.68	9.56594E-001	5.99529E-003	0.00000E+000	5.73506E-003	3.59960E-001	-1.13737E+000	3.57850E+000	10	...........
	51	0.693333	9.62365E-001	5.99380E-003	0.00000E+000	5.76823E-003	3.59960E-001	-1.14377E+000	3.57850E+000	10	...........
	52	0.706667	9.68033E-001	5.99284E-003	0.00000E+000	5.80127E-003	3.59960E-001	-1.13404E+000	3.57850E+000	10	...........
	53	0.72	9.73743E-001	5.99505E-003	0.00000E+000	5.83764E-003	3.59960E-001	-1.13787E+000	3.57850E+000	10	...........
	54	0.733333	9.79411E-001	5.99181E-003	0.00000E+000	5.86845E-003	3.59960E-001	-1.14400E+000	3.57850E+000	10	...........
	55	0.746667	9.84938E-001	5.99607E-003	0.00000E+000	5.90575E-003	3.59960E-001	-1.13467E+000	3.57850E+000	10	...........
	56	0.76	9.90490E-001	5.99525E-003	0.00000E+000	5.93824E-003	3.59960E-001	-1.13798E+000	3.57850E+000	10	...........
	57	0.773333	9.95986E-001	5.99495E-003	0.00000E+000	5.97089E-003	3.59960E-001	-1.14407E+000	3.57850E+000	10	...........
	58	0.778333	9.99767E-001	5.99563E-003	0.00000E+000	5.99423E-003	3.59960E-001	-1.13103E+000	3.57850E+000	10	...........
STARTTIMEOFFSET	QUANT	829.6902	Start Time Offset (s)