File: Data/CV_CRGO300517_1/PWRCCD_CRGO300517_1/CHARGE_DISCHARGE/CHARGE_#26.DTA
EXPLAIN
TAG	PWR800_CHARGE
TITLE	LABEL	PWR Cyclic Charge Discharge (Cell) - Charge Step	Test &Identifier
DATE	LABEL	22-6-2017	Date
TIME	LABEL	15:36:09	Time
NOTES	NOTES	3	&Notes...
	supercap test cell
	0.6mg
	6M KOH
PSTAT	PSTAT	IFC5000-01520	Potentiostat
CAPACITY	QUANT	1.00000E-003	Capacity (A-hr)
CELLTYPE	SELECTOR	1	&Cell Type
WORKINGCONNECTION	SELECTOR	0	&Working Lead
MAXCHARGETIME	VARIABLEANDUNITS	1.00000E+002	s	1.00000E+002	second(s)	Max &Charge Time
CHARGECURRENT	QUANT	6.00000E-003	&Charge Current (A)
VOLTAGEFINISH	TWOPARAM	F	1.00000E-003	3.60000E+003	&Voltage Finish	 I (A) < 	Max Time(s)
SAMPLETIME	QUANT	1.00000E-002	Sa&mple Period (s)
CHARGESTOPAT1	MULTIPARAM	4	1.00000E+000	Charge Stop At &1	Voltage > Limit	V
CHARGESTOPAT2	MULTIPARAM	0	0.00000E+000	Charge Stop At &2	None	N/A
AESBHCSELECTOR	TOGGLE	F	Save Both Half Cells
IRCOMP	TOGGLE	F	IR &Measure
EOC	QUANT	0	Open Circuit (V)
SEQUENCER	TOGGLE	TRUE	Run as Sequence
PSTATMODEL	IQUANT	53	Pstat Model
PSTATSECTION	LABEL	IFC5000-01520	Pstat Section
PSTATSERIALNO	LABEL	01520	Pstat Serial Number
CTRLMODE	IQUANT	0	Control Mode
ELECTROMETER	IQUANT	1	RE=0 or CS=1
IESTAB	IQUANT	0	I/E Stability
CASPEED	IQUANT	4	Control Amp Speed
CONVENTION	IQUANT	1	Current Convention
ICHRANGE	IQUANT	2	Ich Range
ICHRANGEMODE	TOGGLE	T	Ich Auto Range
ICHOFFSETENABLE	TOGGLE	F	Ich Offset Enable
ICHOFFSET	QUANT	0	Ich Offset (V)
ICHFILTER	IQUANT	1	Ich Filter
VCHRANGE	IQUANT	2	Vch Range
VCHRANGEMODE	TOGGLE	T	Vch Auto Range
VCHOFFSETENABLE	TOGGLE	F	Vch Offset Enable
VCHOFFSET	QUANT	0	Vch Offset (V)
VCHFILTER	IQUANT	1	Vch Filter
IERANGELOWERLIMIT	IQUANT	9	I/E Range Lower Limit
IERANGEMODE	TOGGLE	F	I/E AutoRange
IERANGE	IQUANT	10	I/E Range
ACHSELECT	IQUANT	1	Ach Select
ACHRANGE	IQUANT	2	Ach Range
ACHOFFSETENABLE	TOGGLE	F	Ach Offset Enable
ACHOFFSET	QUANT	0	Ach Offset (V)
ACHFILTER	IQUANT	1	Ach Filter
CABLEID	IQUANT	14	Cable ID
DCCALDATE	LABEL	20-10-2016	DC Calibration Date
ACCALDATE	LABEL	12/3/2015	AC Calibration Date
FRAMEWORKVERSION	QUANT	7.01	Framework Version
INSTRUMENTVERSION	LABEL	4.00	Instrument Version
CURVE	TABLE	77
	Pt	T	Vf	Im	Vu	Pwr	Sig	Ach	Temp	IERange	Over
	#	s	V	A	V	W	V	V	deg C	#	bits
	0	0.013333	5.63995E-001	5.99725E-003	0.00000E+000	3.38242E-003	3.59960E-001	-1.02837E+000	3.57810E+000	10	...........
	1	0.026667	5.71997E-001	5.99124E-003	0.00000E+000	3.42697E-003	3.59960E-001	-1.02815E+000	3.57810E+000	10	...........
	2	0.04	5.79368E-001	5.99785E-003	0.00000E+000	3.47496E-003	3.59960E-001	-1.01989E+000	3.57810E+000	10	...........
	3	0.053333	5.86309E-001	5.99248E-003	0.00000E+000	3.51344E-003	3.59960E-001	-1.02796E+000	3.57810E+000	10	...........
	4	0.066667	5.92988E-001	5.99406E-003	0.00000E+000	3.55441E-003	3.59960E-001	-1.02812E+000	3.57810E+000	10	...........
	5	0.08	5.99431E-001	5.99510E-003	0.00000E+000	3.59365E-003	3.59960E-001	-1.02008E+000	3.57810E+000	10	...........
	6	0.093333	6.05734E-001	5.99076E-003	0.00000E+000	3.62881E-003	3.59960E-001	-1.02788E+000	3.57810E+000	10	...........
	7	0.106667	6.11923E-001	5.99445E-003	0.00000E+000	3.66814E-003	3.59960E-001	-1.02802E+000	3.57810E+000	10	...........
	8	0.12	6.18117E-001	5.99568E-003	0.00000E+000	3.70603E-003	3.59960E-001	-1.01979E+000	3.57810E+000	10	...........
	9	0.133333	6.24154E-001	5.99229E-003	0.00000E+000	3.74011E-003	3.59960E-001	-1.02812E+000	3.57839E+000	10	...........
	10	0.146667	6.30120E-001	5.99302E-003	0.00000E+000	3.77632E-003	3.59960E-001	-1.02832E+000	3.57850E+000	10	...........
	11	0.16	6.36084E-001	5.99358E-003	0.00000E+000	3.81242E-003	3.59960E-001	-1.02004E+000	3.57850E+000	10	...........
	12	0.173333	6.41952E-001	5.99289E-003	0.00000E+000	3.84715E-003	3.59960E-001	-1.02779E+000	3.57850E+000	10	...........
	13	0.186667	6.47825E-001	5.99545E-003	0.00000E+000	3.88400E-003	3.59960E-001	-1.02817E+000	3.57850E+000	10	...........
	14	0.2	6.53652E-001	5.99494E-003	0.00000E+000	3.91860E-003	3.59960E-001	-1.02011E+000	3.57850E+000	10	...........
	15	0.213333	6.59413E-001	5.99431E-003	0.00000E+000	3.95273E-003	3.59960E-001	-1.02785E+000	3.57850E+000	10	...........
	16	0.226667	6.65196E-001	5.99478E-003	0.00000E+000	3.98771E-003	3.59960E-001	-1.02804E+000	3.57850E+000	10	...........
	17	0.24	6.70947E-001	5.99491E-003	0.00000E+000	4.02227E-003	3.59960E-001	-1.01926E+000	3.57850E+000	10	...........
	18	0.253333	6.76679E-001	5.99455E-003	0.00000E+000	4.05639E-003	3.59960E-001	-1.02737E+000	3.57850E+000	10	...........
	19	0.266667	6.82383E-001	5.99551E-003	0.00000E+000	4.09123E-003	3.59960E-001	-1.02801E+000	3.57850E+000	10	...........
	20	0.28	6.88081E-001	5.99280E-003	0.00000E+000	4.12353E-003	3.59960E-001	-1.01944E+000	3.57850E+000	10	...........
	21	0.293333	6.93772E-001	5.99451E-003	0.00000E+000	4.15882E-003	3.59960E-001	-1.02712E+000	3.57850E+000	10	...........
	22	0.306667	6.99425E-001	5.99107E-003	0.00000E+000	4.19031E-003	3.59960E-001	-1.02783E+000	3.57850E+000	10	...........
	23	0.32	7.05046E-001	5.99263E-003	0.00000E+000	4.22508E-003	3.59960E-001	-1.01923E+000	3.57850E+000	10	...........
	24	0.333333	7.10668E-001	5.99338E-003	0.00000E+000	4.25931E-003	3.59960E-001	-1.02694E+000	3.57850E+000	10	...........
	25	0.346667	7.16327E-001	5.99735E-003	0.00000E+000	4.29606E-003	3.59960E-001	-1.02790E+000	3.57850E+000	10	...........
	26	0.36	7.21990E-001	5.99725E-003	0.00000E+000	4.32996E-003	3.59960E-001	-1.01929E+000	3.57850E+000	10	...........
	27	0.373333	7.27601E-001	5.99271E-003	0.00000E+000	4.36030E-003	3.59960E-001	-1.02675E+000	3.57850E+000	10	...........
	28	0.386667	7.33240E-001	5.99080E-003	0.00000E+000	4.39269E-003	3.59960E-001	-1.02775E+000	3.57850E+000	10	...........
	29	0.4	7.38841E-001	5.99225E-003	0.00000E+000	4.42732E-003	3.59960E-001	-1.01923E+000	3.57850E+000	10	...........
	30	0.413333	7.44496E-001	5.99067E-003	0.00000E+000	4.46003E-003	3.59960E-001	-1.02683E+000	3.57850E+000	10	...........
	31	0.426667	7.50092E-001	5.99323E-003	0.00000E+000	4.49547E-003	3.59960E-001	-1.02780E+000	3.57850E+000	10	...........
	32	0.44	7.55731E-001	5.99394E-003	0.00000E+000	4.52981E-003	3.59960E-001	-1.01912E+000	3.57850E+000	10	...........
	33	0.453333	7.61335E-001	5.99204E-003	0.00000E+000	4.56195E-003	3.59960E-001	-1.02682E+000	3.57850E+000	10	...........
	34	0.466667	7.66934E-001	5.99149E-003	0.00000E+000	4.59507E-003	3.59960E-001	-1.02800E+000	3.57850E+000	10	...........
	35	0.48	7.72569E-001	5.99842E-003	0.00000E+000	4.63419E-003	3.59960E-001	-1.01942E+000	3.57850E+000	10	...........
	36	0.493333	7.78126E-001	5.99253E-003	0.00000E+000	4.66294E-003	3.59960E-001	-1.02670E+000	3.57850E+000	10	...........
	37	0.506667	7.83775E-001	5.99474E-003	0.00000E+000	4.69853E-003	3.59960E-001	-1.02774E+000	3.57850E+000	10	...........
	38	0.52	7.89340E-001	5.99164E-003	0.00000E+000	4.72944E-003	3.59960E-001	-1.01907E+000	3.57850E+000	10	...........
	39	0.533333	7.95009E-001	5.99386E-003	0.00000E+000	4.76518E-003	3.59960E-001	-1.02657E+000	3.57850E+000	10	...........
	40	0.546667	8.00651E-001	5.99181E-003	0.00000E+000	4.79735E-003	3.59960E-001	-1.02764E+000	3.57850E+000	10	...........
	41	0.56	8.06237E-001	5.99281E-003	0.00000E+000	4.83163E-003	3.59960E-001	-1.01860E+000	3.57850E+000	10	...........
	42	0.573333	8.11853E-001	5.99296E-003	0.00000E+000	4.86540E-003	3.59960E-001	-1.02614E+000	3.57850E+000	10	...........
	43	0.586667	8.17468E-001	5.99488E-003	0.00000E+000	4.90062E-003	3.59960E-001	-1.02750E+000	3.57850E+000	10	...........
	44	0.6	8.23095E-001	5.99723E-003	0.00000E+000	4.93629E-003	3.59960E-001	-1.01874E+000	3.57850E+000	10	...........
	45	0.613333	8.28693E-001	5.99434E-003	0.00000E+000	4.96747E-003	3.59960E-001	-1.02620E+000	3.57850E+000	10	...........
	46	0.626667	8.34304E-001	5.99385E-003	0.00000E+000	5.00070E-003	3.59960E-001	-1.02759E+000	3.57850E+000	10	...........
	47	0.64	8.39877E-001	5.99571E-003	0.00000E+000	5.03566E-003	3.59960E-001	-1.01865E+000	3.57850E+000	10	...........
	48	0.653333	8.45548E-001	5.99447E-003	0.00000E+000	5.06861E-003	3.59960E-001	-1.02589E+000	3.57850E+000	10	...........
	49	0.666667	8.51143E-001	5.99264E-003	0.00000E+000	5.10060E-003	3.59960E-001	-1.02750E+000	3.57850E+000	10	...........
	50	0.68	8.56752E-001	5.99611E-003	0.00000E+000	5.13718E-003	3.59960E-001	-1.01881E+000	3.57850E+000	10	...........
	51	0.693333	8.62342E-001	5.99460E-003	0.00000E+000	5.16940E-003	3.59960E-001	-1.02605E+000	3.57850E+000	10	...........
	52	0.706667	8.67923E-001	5.99430E-003	0.00000E+000	5.20259E-003	3.59960E-001	-1.02751E+000	3.57850E+000	10	...........
	53	0.72	8.73557E-001	5.99526E-003	0.00000E+000	5.23720E-003	3.59960E-001	-1.01856E+000	3.57850E+000	10	...........
	54	0.733333	8.79147E-001	5.99151E-003	0.00000E+000	5.26741E-003	3.59960E-001	-1.02584E+000	3.57850E+000	10	...........
	55	0.746667	8.84735E-001	5.99415E-003	0.00000E+000	5.30323E-003	3.59960E-001	-1.02769E+000	3.57850E+000	10	...........
	56	0.76	8.90315E-001	5.99609E-003	0.00000E+000	5.33840E-003	3.59960E-001	-1.01880E+000	3.57850E+000	10	...........
	57	0.773333	8.95914E-001	5.99612E-003	0.00000E+000	5.37201E-003	3.59960E-001	-1.02591E+000	3.57850E+000	10	...........
	58	0.786667	9.01438E-001	5.99635E-003	0.00000E+000	5.40533E-003	3.59960E-001	-1.02761E+000	3.57850E+000	10	...........
	59	0.8	9.07017E-001	5.99157E-003	0.00000E+000	5.43446E-003	3.59960E-001	-1.01886E+000	3.57850E+000	10	...........
	60	0.813333	9.12585E-001	5.99154E-003	0.00000E+000	5.46779E-003	3.59960E-001	-1.02580E+000	3.57850E+000	10	...........
	61	0.826667	9.18154E-001	5.99435E-003	0.00000E+000	5.50374E-003	3.59960E-001	-1.02797E+000	3.57850E+000	10	...........
	62	0.84	9.23693E-001	5.99802E-003	0.00000E+000	5.54033E-003	3.59960E-001	-1.01887E+000	3.57850E+000	10	...........
	63	0.853333	9.29200E-001	5.99355E-003	0.00000E+000	5.56921E-003	3.59960E-001	-1.02551E+000	3.57850E+000	10	...........
	64	0.866667	9.34685E-001	5.99259E-003	0.00000E+000	5.60118E-003	3.59960E-001	-1.02745E+000	3.57850E+000	10	...........
	65	0.88	9.40156E-001	5.99288E-003	0.00000E+000	5.63424E-003	3.59960E-001	-1.01843E+000	3.57850E+000	10	...........
	66	0.893333	9.45625E-001	5.99615E-003	0.00000E+000	5.67011E-003	3.59960E-001	-1.02512E+000	3.57850E+000	10	...........
	67	0.906667	9.51093E-001	5.99718E-003	0.00000E+000	5.70388E-003	3.59960E-001	-1.02762E+000	3.57850E+000	10	...........
	68	0.92	9.56512E-001	5.99652E-003	0.00000E+000	5.73575E-003	3.59960E-001	-1.01824E+000	3.57850E+000	10	...........
	69	0.933333	9.61905E-001	5.99589E-003	0.00000E+000	5.76747E-003	3.59960E-001	-1.02510E+000	3.57850E+000	10	...........
	70	0.946667	9.67336E-001	5.99079E-003	0.00000E+000	5.79510E-003	3.59960E-001	-1.02791E+000	3.57850E+000	10	...........
	71	0.96	9.72733E-001	5.99467E-003	0.00000E+000	5.83121E-003	3.59960E-001	-1.01844E+000	3.57850E+000	10	...........
	72	0.97333	9.78082E-001	5.98890E-003	0.00000E+000	5.85764E-003	3.59960E-001	-1.02506E+000	3.57850E+000	10	...........
	73	0.98667	9.83365E-001	5.99162E-003	0.00000E+000	5.89195E-003	3.59960E-001	-1.02763E+000	3.57850E+000	10	...........
	74	1	9.88632E-001	5.99240E-003	0.00000E+000	5.92428E-003	3.59960E-001	-1.01839E+000	3.57850E+000	10	...........
	75	1.01333	9.93857E-001	5.99468E-003	0.00000E+000	5.95785E-003	3.59960E-001	-1.02531E+000	3.57850E+000	10	...........
	76	1.02333	9.98432E-001	5.99137E-003	0.00000E+000	5.98198E-003	3.59960E-001	-1.02616E+000	3.57850E+000	10	...........
STARTTIMEOFFSET	QUANT	52.79333	Start Time Offset (s)