File: Data/CV_CRGO300517_1/PWRCCD_CRGO300517_1/CHARGE_DISCHARGE/CHARGE_#145.DTA
EXPLAIN
TAG	PWR800_CHARGE
TITLE	LABEL	PWR Cyclic Charge Discharge (Cell) - Charge Step	Test &Identifier
DATE	LABEL	22-6-2017	Date
TIME	LABEL	15:41:28	Time
NOTES	NOTES	3	&Notes...
	supercap test cell
	0.6mg
	6M KOH
PSTAT	PSTAT	IFC5000-01520	Potentiostat
CAPACITY	QUANT	1.00000E-003	Capacity (A-hr)
CELLTYPE	SELECTOR	1	&Cell Type
WORKINGCONNECTION	SELECTOR	0	&Working Lead
MAXCHARGETIME	VARIABLEANDUNITS	1.00000E+002	s	1.00000E+002	second(s)	Max &Charge Time
CHARGECURRENT	QUANT	6.00000E-003	&Charge Current (A)
VOLTAGEFINISH	TWOPARAM	F	1.00000E-003	3.60000E+003	&Voltage Finish	 I (A) < 	Max Time(s)
SAMPLETIME	QUANT	1.00000E-002	Sa&mple Period (s)
CHARGESTOPAT1	MULTIPARAM	4	1.00000E+000	Charge Stop At &1	Voltage > Limit	V
CHARGESTOPAT2	MULTIPARAM	0	0.00000E+000	Charge Stop At &2	None	N/A
AESBHCSELECTOR	TOGGLE	F	Save Both Half Cells
IRCOMP	TOGGLE	F	IR &Measure
EOC	QUANT	0	Open Circuit (V)
SEQUENCER	TOGGLE	TRUE	Run as Sequence
PSTATMODEL	IQUANT	53	Pstat Model
PSTATSECTION	LABEL	IFC5000-01520	Pstat Section
PSTATSERIALNO	LABEL	01520	Pstat Serial Number
CTRLMODE	IQUANT	0	Control Mode
ELECTROMETER	IQUANT	1	RE=0 or CS=1
IESTAB	IQUANT	0	I/E Stability
CASPEED	IQUANT	4	Control Amp Speed
CONVENTION	IQUANT	1	Current Convention
ICHRANGE	IQUANT	2	Ich Range
ICHRANGEMODE	TOGGLE	T	Ich Auto Range
ICHOFFSETENABLE	TOGGLE	F	Ich Offset Enable
ICHOFFSET	QUANT	0	Ich Offset (V)
ICHFILTER	IQUANT	1	Ich Filter
VCHRANGE	IQUANT	2	Vch Range
VCHRANGEMODE	TOGGLE	T	Vch Auto Range
VCHOFFSETENABLE	TOGGLE	F	Vch Offset Enable
VCHOFFSET	QUANT	0	Vch Offset (V)
VCHFILTER	IQUANT	1	Vch Filter
IERANGELOWERLIMIT	IQUANT	9	I/E Range Lower Limit
IERANGEMODE	TOGGLE	F	I/E AutoRange
IERANGE	IQUANT	10	I/E Range
ACHSELECT	IQUANT	1	Ach Select
ACHRANGE	IQUANT	2	Ach Range
ACHOFFSETENABLE	TOGGLE	F	Ach Offset Enable
ACHOFFSET	QUANT	0	Ach Offset (V)
ACHFILTER	IQUANT	1	Ach Filter
CABLEID	IQUANT	14	Cable ID
DCCALDATE	LABEL	20-10-2016	DC Calibration Date
ACCALDATE	LABEL	12/3/2015	AC Calibration Date
FRAMEWORKVERSION	QUANT	7.01	Framework Version
INSTRUMENTVERSION	LABEL	4.00	Instrument Version
CURVE	TABLE	68
	Pt	T	Vf	Im	Vu	Pwr	Sig	Ach	Temp	IERange	Over
	#	s	V	A	V	W	V	V	deg C	#	bits
	0	0.013333	5.97855E-001	5.99330E-003	0.00000E+000	3.58313E-003	3.59960E-001	-1.08195E+000	3.57830E+000	10	...........
	1	0.026667	6.06200E-001	5.99550E-003	0.00000E+000	3.63447E-003	3.59960E-001	-1.07208E+000	3.57830E+000	10	...........
	2	0.04	6.13915E-001	5.99330E-003	0.00000E+000	3.67938E-003	3.59960E-001	-1.07384E+000	3.57830E+000	10	...........
	3	0.053333	6.21179E-001	5.99479E-003	0.00000E+000	3.72384E-003	3.59960E-001	-1.08219E+000	3.57830E+000	10	...........
	4	0.066667	6.28166E-001	5.99096E-003	0.00000E+000	3.76332E-003	3.59960E-001	-1.07210E+000	3.57830E+000	10	...........
	5	0.08	6.34978E-001	5.99367E-003	0.00000E+000	3.80585E-003	3.59960E-001	-1.07391E+000	3.57830E+000	10	...........
	6	0.093333	6.41641E-001	5.99433E-003	0.00000E+000	3.84621E-003	3.59960E-001	-1.08232E+000	3.57830E+000	10	...........
	7	0.106667	6.48246E-001	5.99925E-003	0.00000E+000	3.88899E-003	3.59960E-001	-1.07224E+000	3.57830E+000	10	...........
	8	0.12	6.54730E-001	5.99082E-003	0.00000E+000	3.92237E-003	3.59960E-001	-1.07413E+000	3.57830E+000	10	...........
	9	0.133333	6.61076E-001	5.98948E-003	0.00000E+000	3.95950E-003	3.59960E-001	-1.08249E+000	3.57830E+000	10	...........
	10	0.146667	6.67429E-001	5.99618E-003	0.00000E+000	4.00202E-003	3.59960E-001	-1.07242E+000	3.57830E+000	10	...........
	11	0.16	6.73685E-001	5.99378E-003	0.00000E+000	4.03792E-003	3.59960E-001	-1.07445E+000	3.57830E+000	10	...........
	12	0.173333	6.79918E-001	5.99378E-003	0.00000E+000	4.07528E-003	3.59960E-001	-1.08285E+000	3.57830E+000	10	...........
	13	0.186667	6.86157E-001	5.99692E-003	0.00000E+000	4.11483E-003	3.59960E-001	-1.07304E+000	3.57830E+000	10	...........
	14	0.2	6.92355E-001	5.99390E-003	0.00000E+000	4.14990E-003	3.59960E-001	-1.07471E+000	3.57830E+000	10	...........
	15	0.213333	6.98486E-001	5.99343E-003	0.00000E+000	4.18633E-003	3.59960E-001	-1.08308E+000	3.57830E+000	10	...........
	16	0.226667	7.04629E-001	5.99122E-003	0.00000E+000	4.22158E-003	3.59960E-001	-1.07288E+000	3.57830E+000	10	...........
	17	0.24	7.10728E-001	5.99456E-003	0.00000E+000	4.26051E-003	3.59960E-001	-1.07507E+000	3.57830E+000	10	...........
	18	0.253333	7.16829E-001	5.99164E-003	0.00000E+000	4.29498E-003	3.59960E-001	-1.08362E+000	3.57830E+000	10	...........
	19	0.266667	7.22935E-001	5.99693E-003	0.00000E+000	4.33539E-003	3.59960E-001	-1.07364E+000	3.57830E+000	10	...........
	20	0.28	7.28965E-001	5.99060E-003	0.00000E+000	4.36694E-003	3.59960E-001	-1.07560E+000	3.57830E+000	10	...........
	21	0.293333	7.35020E-001	5.99245E-003	0.00000E+000	4.40457E-003	3.59960E-001	-1.08421E+000	3.57830E+000	10	...........
	22	0.306667	7.41090E-001	5.99523E-003	0.00000E+000	4.44300E-003	3.59960E-001	-1.07435E+000	3.57830E+000	10	...........
	23	0.32	7.47136E-001	5.99305E-003	0.00000E+000	4.47762E-003	3.59960E-001	-1.07647E+000	3.57830E+000	10	...........
	24	0.333333	7.53185E-001	5.99393E-003	0.00000E+000	4.51454E-003	3.59960E-001	-1.08486E+000	3.57830E+000	10	...........
	25	0.346667	7.59226E-001	5.99243E-003	0.00000E+000	4.54961E-003	3.59960E-001	-1.07447E+000	3.57830E+000	10	...........
	26	0.36	7.65208E-001	5.99296E-003	0.00000E+000	4.58586E-003	3.59960E-001	-1.07617E+000	3.57830E+000	10	...........
	27	0.373333	7.71238E-001	5.99446E-003	0.00000E+000	4.62316E-003	3.59960E-001	-1.08486E+000	3.57830E+000	10	...........
	28	0.386667	7.77242E-001	5.99443E-003	0.00000E+000	4.65912E-003	3.59960E-001	-1.07477E+000	3.57830E+000	10	...........
	29	0.4	7.83250E-001	5.99086E-003	0.00000E+000	4.69234E-003	3.59960E-001	-1.07699E+000	3.57830E+000	10	...........
	30	0.413333	7.89271E-001	5.98946E-003	0.00000E+000	4.72731E-003	3.59960E-001	-1.08537E+000	3.57830E+000	10	...........
	31	0.426667	7.95323E-001	5.99634E-003	0.00000E+000	4.76903E-003	3.59960E-001	-1.07521E+000	3.57830E+000	10	...........
	32	0.44	8.01332E-001	5.99167E-003	0.00000E+000	4.80132E-003	3.59960E-001	-1.07761E+000	3.57830E+000	10	...........
	33	0.453333	8.07288E-001	5.99723E-003	0.00000E+000	4.84149E-003	3.59960E-001	-1.08614E+000	3.57830E+000	10	...........
	34	0.466667	8.13277E-001	5.99103E-003	0.00000E+000	4.87237E-003	3.59960E-001	-1.07583E+000	3.57830E+000	10	...........
	35	0.48	8.19251E-001	6.00084E-003	0.00000E+000	4.91620E-003	3.59960E-001	-1.07783E+000	3.57830E+000	10	...........
	36	0.493333	8.25207E-001	5.99644E-003	0.00000E+000	4.94830E-003	3.59960E-001	-1.08612E+000	3.57830E+000	10	...........
	37	0.506667	8.31168E-001	5.99211E-003	0.00000E+000	4.98045E-003	3.59960E-001	-1.07599E+000	3.57830E+000	10	...........
	38	0.52	8.37084E-001	5.99418E-003	0.00000E+000	5.01763E-003	3.59960E-001	-1.07809E+000	3.57830E+000	10	...........
	39	0.533333	8.43047E-001	5.99752E-003	0.00000E+000	5.05619E-003	3.59960E-001	-1.08642E+000	3.57830E+000	10	...........
	40	0.546667	8.49002E-001	5.99621E-003	0.00000E+000	5.09079E-003	3.59960E-001	-1.07572E+000	3.57830E+000	10	...........
	41	0.56	8.54888E-001	5.99837E-003	0.00000E+000	5.12793E-003	3.59960E-001	-1.07793E+000	3.57805E+000	10	...........
	42	0.573333	8.60863E-001	5.99555E-003	0.00000E+000	5.16135E-003	3.59960E-001	-1.08632E+000	3.57730E+000	10	...........
	43	0.586667	8.66751E-001	5.99415E-003	0.00000E+000	5.19543E-003	3.59960E-001	-1.07625E+000	3.57730E+000	10	...........
	44	0.6	8.72706E-001	5.99317E-003	0.00000E+000	5.23027E-003	3.59960E-001	-1.07832E+000	3.57730E+000	10	...........
	45	0.613333	8.78594E-001	6.00007E-003	0.00000E+000	5.27163E-003	3.59960E-001	-1.08657E+000	3.57730E+000	10	...........
	46	0.626667	8.84450E-001	5.99247E-003	0.00000E+000	5.30004E-003	3.59960E-001	-1.07585E+000	3.57730E+000	10	...........
	47	0.64	8.90311E-001	5.99299E-003	0.00000E+000	5.33562E-003	3.59960E-001	-1.07797E+000	3.57730E+000	10	...........
	48	0.653333	8.96153E-001	5.99477E-003	0.00000E+000	5.37223E-003	3.59960E-001	-1.08645E+000	3.57730E+000	10	...........
	49	0.666667	9.02008E-001	5.99529E-003	0.00000E+000	5.40780E-003	3.59960E-001	-1.07574E+000	3.57730E+000	10	...........
	50	0.68	9.07821E-001	5.99609E-003	0.00000E+000	5.44337E-003	3.59960E-001	-1.07748E+000	3.57730E+000	10	...........
	51	0.693333	9.13620E-001	5.99476E-003	0.00000E+000	5.47693E-003	3.59960E-001	-1.08546E+000	3.57730E+000	10	...........
	52	0.706667	9.19397E-001	5.99214E-003	0.00000E+000	5.50916E-003	3.59960E-001	-1.07510E+000	3.57730E+000	10	...........
	53	0.72	9.25194E-001	5.99669E-003	0.00000E+000	5.54810E-003	3.59960E-001	-1.07735E+000	3.57730E+000	10	...........
	54	0.733333	9.30916E-001	5.99149E-003	0.00000E+000	5.57757E-003	3.59960E-001	-1.08535E+000	3.57730E+000	10	...........
	55	0.746667	9.36574E-001	5.99020E-003	0.00000E+000	5.61027E-003	3.59960E-001	-1.07486E+000	3.57730E+000	10	...........
	56	0.76	9.42284E-001	5.99382E-003	0.00000E+000	5.64788E-003	3.59960E-001	-1.07689E+000	3.57730E+000	10	...........
	57	0.773333	9.47943E-001	5.99245E-003	0.00000E+000	5.68050E-003	3.59960E-001	-1.08522E+000	3.57730E+000	10	...........
	58	0.786667	9.53569E-001	5.99309E-003	0.00000E+000	5.71483E-003	3.59960E-001	-1.07468E+000	3.57730E+000	10	...........
	59	0.8	9.59140E-001	5.99331E-003	0.00000E+000	5.74843E-003	3.59960E-001	-1.07667E+000	3.57730E+000	10	...........
	60	0.813333	9.64702E-001	5.99673E-003	0.00000E+000	5.78506E-003	3.59960E-001	-1.08452E+000	3.57730E+000	10	...........
	61	0.826667	9.70238E-001	5.99380E-003	0.00000E+000	5.81541E-003	3.59960E-001	-1.07424E+000	3.57730E+000	10	...........
	62	0.84	9.75793E-001	5.99726E-003	0.00000E+000	5.85209E-003	3.59960E-001	-1.07639E+000	3.57730E+000	10	...........
	63	0.853333	9.81221E-001	5.99056E-003	0.00000E+000	5.87806E-003	3.59960E-001	-1.08439E+000	3.57730E+000	10	...........
	64	0.866667	9.86665E-001	5.99588E-003	0.00000E+000	5.91592E-003	3.59960E-001	-1.07383E+000	3.57730E+000	10	...........
	65	0.88	9.92042E-001	5.99394E-003	0.00000E+000	5.94624E-003	3.59960E-001	-1.07587E+000	3.57730E+000	10	...........
	66	0.893333	9.97403E-001	5.99522E-003	0.00000E+000	5.97965E-003	3.59960E-001	-1.08387E+000	3.57730E+000	10	...........
	67	0.895	1.00040E+000	5.99705E-003	0.00000E+000	5.99947E-003	3.59960E-001	-1.07545E+000	3.57730E+000	10	...........
STARTTIMEOFFSET	QUANT	276.7151	Start Time Offset (s)