File: Data/CV_CRGO300517_1/PWRCCD_CRGO300517_1/CHARGE_DISCHARGE/CHARGE_#843.DTA
EXPLAIN
TAG	PWR800_CHARGE
TITLE	LABEL	PWR Cyclic Charge Discharge (Cell) - Charge Step	Test &Identifier
DATE	LABEL	22-6-2017	Date
TIME	LABEL	16:08:52	Time
NOTES	NOTES	3	&Notes...
	supercap test cell
	0.6mg
	6M KOH
PSTAT	PSTAT	IFC5000-01520	Potentiostat
CAPACITY	QUANT	1.00000E-003	Capacity (A-hr)
CELLTYPE	SELECTOR	1	&Cell Type
WORKINGCONNECTION	SELECTOR	0	&Working Lead
MAXCHARGETIME	VARIABLEANDUNITS	1.00000E+002	s	1.00000E+002	second(s)	Max &Charge Time
CHARGECURRENT	QUANT	6.00000E-003	&Charge Current (A)
VOLTAGEFINISH	TWOPARAM	F	1.00000E-003	3.60000E+003	&Voltage Finish	 I (A) < 	Max Time(s)
SAMPLETIME	QUANT	1.00000E-002	Sa&mple Period (s)
CHARGESTOPAT1	MULTIPARAM	4	1.00000E+000	Charge Stop At &1	Voltage > Limit	V
CHARGESTOPAT2	MULTIPARAM	0	0.00000E+000	Charge Stop At &2	None	N/A
AESBHCSELECTOR	TOGGLE	F	Save Both Half Cells
IRCOMP	TOGGLE	F	IR &Measure
EOC	QUANT	0	Open Circuit (V)
SEQUENCER	TOGGLE	TRUE	Run as Sequence
PSTATMODEL	IQUANT	53	Pstat Model
PSTATSECTION	LABEL	IFC5000-01520	Pstat Section
PSTATSERIALNO	LABEL	01520	Pstat Serial Number
CTRLMODE	IQUANT	0	Control Mode
ELECTROMETER	IQUANT	1	RE=0 or CS=1
IESTAB	IQUANT	0	I/E Stability
CASPEED	IQUANT	4	Control Amp Speed
CONVENTION	IQUANT	1	Current Convention
ICHRANGE	IQUANT	2	Ich Range
ICHRANGEMODE	TOGGLE	T	Ich Auto Range
ICHOFFSETENABLE	TOGGLE	F	Ich Offset Enable
ICHOFFSET	QUANT	0	Ich Offset (V)
ICHFILTER	IQUANT	1	Ich Filter
VCHRANGE	IQUANT	2	Vch Range
VCHRANGEMODE	TOGGLE	T	Vch Auto Range
VCHOFFSETENABLE	TOGGLE	F	Vch Offset Enable
VCHOFFSET	QUANT	0	Vch Offset (V)
VCHFILTER	IQUANT	1	Vch Filter
IERANGELOWERLIMIT	IQUANT	9	I/E Range Lower Limit
IERANGEMODE	TOGGLE	F	I/E AutoRange
IERANGE	IQUANT	10	I/E Range
ACHSELECT	IQUANT	1	Ach Select
ACHRANGE	IQUANT	2	Ach Range
ACHOFFSETENABLE	TOGGLE	F	Ach Offset Enable
ACHOFFSET	QUANT	0	Ach Offset (V)
ACHFILTER	IQUANT	1	Ach Filter
CABLEID	IQUANT	14	Cable ID
DCCALDATE	LABEL	20-10-2016	DC Calibration Date
ACCALDATE	LABEL	12/3/2015	AC Calibration Date
FRAMEWORKVERSION	QUANT	7.01	Framework Version
INSTRUMENTVERSION	LABEL	4.00	Instrument Version
CURVE	TABLE	54
	Pt	T	Vf	Im	Vu	Pwr	Sig	Ach	Temp	IERange	Over
	#	s	V	A	V	W	V	V	deg C	#	bits
	0	0.013333	6.50744E-001	5.99053E-003	0.00000E+000	3.89830E-003	3.59960E-001	-1.16350E+000	3.57640E+000	10	...........
	1	0.026667	6.59991E-001	5.99087E-003	0.00000E+000	3.95392E-003	3.59960E-001	-1.17455E+000	3.57640E+000	10	...........
	2	0.04	6.68506E-001	5.99617E-003	0.00000E+000	4.00848E-003	3.59960E-001	-1.16558E+000	3.57640E+000	10	...........
	3	0.053333	6.76552E-001	5.99570E-003	0.00000E+000	4.05640E-003	3.59960E-001	-1.16359E+000	3.57640E+000	10	...........
	4	0.066667	6.84306E-001	6.00114E-003	0.00000E+000	4.10662E-003	3.59960E-001	-1.17475E+000	3.57640E+000	10	...........
	5	0.08	6.91886E-001	5.99154E-003	0.00000E+000	4.14546E-003	3.59960E-001	-1.16539E+000	3.57640E+000	10	...........
	6	0.093333	6.99264E-001	5.99693E-003	0.00000E+000	4.19344E-003	3.59960E-001	-1.16349E+000	3.57640E+000	10	...........
	7	0.106667	7.06534E-001	5.99196E-003	0.00000E+000	4.23352E-003	3.59960E-001	-1.17453E+000	3.57640E+000	10	...........
	8	0.12	7.13719E-001	5.99012E-003	0.00000E+000	4.27526E-003	3.59960E-001	-1.16523E+000	3.57640E+000	10	...........
	9	0.133333	7.20925E-001	5.99075E-003	0.00000E+000	4.31888E-003	3.59960E-001	-1.16342E+000	3.57640E+000	10	...........
	10	0.146667	7.27965E-001	5.99641E-003	0.00000E+000	4.36517E-003	3.59960E-001	-1.17432E+000	3.57640E+000	10	...........
	11	0.16	7.34957E-001	5.99575E-003	0.00000E+000	4.40662E-003	3.59960E-001	-1.16521E+000	3.57640E+000	10	...........
	12	0.173333	7.41877E-001	5.99902E-003	0.00000E+000	4.45053E-003	3.59960E-001	-1.16327E+000	3.57640E+000	10	...........
	13	0.186667	7.48806E-001	5.99395E-003	0.00000E+000	4.48830E-003	3.59960E-001	-1.17451E+000	3.57640E+000	10	...........
	14	0.2	7.55697E-001	5.99295E-003	0.00000E+000	4.52885E-003	3.59960E-001	-1.16520E+000	3.57640E+000	10	...........
	15	0.213333	7.62550E-001	5.98996E-003	0.00000E+000	4.56765E-003	3.59960E-001	-1.16374E+000	3.57640E+000	10	...........
	16	0.226667	7.69384E-001	5.99169E-003	0.00000E+000	4.60991E-003	3.59960E-001	-1.17454E+000	3.57640E+000	10	...........
	17	0.24	7.76174E-001	5.99926E-003	0.00000E+000	4.65647E-003	3.59960E-001	-1.16503E+000	3.57640E+000	10	...........
	18	0.253333	7.82952E-001	5.99303E-003	0.00000E+000	4.69226E-003	3.59960E-001	-1.16371E+000	3.57640E+000	10	...........
	19	0.266667	7.89645E-001	5.99287E-003	0.00000E+000	4.73224E-003	3.59960E-001	-1.17445E+000	3.57640E+000	10	...........
	20	0.28	7.96369E-001	5.99059E-003	0.00000E+000	4.77072E-003	3.59960E-001	-1.16502E+000	3.57640E+000	10	...........
	21	0.293333	8.03029E-001	5.99032E-003	0.00000E+000	4.81040E-003	3.59960E-001	-1.16332E+000	3.57647E+000	10	...........
	22	0.306667	8.09682E-001	5.99083E-003	0.00000E+000	4.85067E-003	3.59960E-001	-1.17420E+000	3.57650E+000	10	...........
	23	0.32	8.16335E-001	5.99663E-003	0.00000E+000	4.89526E-003	3.59960E-001	-1.16471E+000	3.57650E+000	10	...........
	24	0.333333	8.22985E-001	5.99071E-003	0.00000E+000	4.93027E-003	3.59960E-001	-1.16331E+000	3.57650E+000	10	...........
	25	0.346667	8.29560E-001	5.99774E-003	0.00000E+000	4.97549E-003	3.59960E-001	-1.17426E+000	3.57650E+000	10	...........
	26	0.36	8.36076E-001	5.99457E-003	0.00000E+000	5.01192E-003	3.59960E-001	-1.16442E+000	3.57650E+000	10	...........
	27	0.373333	8.42625E-001	5.99244E-003	0.00000E+000	5.04937E-003	3.59960E-001	-1.16318E+000	3.57650E+000	10	...........
	28	0.386667	8.49149E-001	5.99608E-003	0.00000E+000	5.09156E-003	3.59960E-001	-1.17442E+000	3.57650E+000	10	...........
	29	0.4	8.55667E-001	5.99324E-003	0.00000E+000	5.12822E-003	3.59960E-001	-1.16462E+000	3.57650E+000	10	...........
	30	0.413333	8.62142E-001	5.99365E-003	0.00000E+000	5.16737E-003	3.59960E-001	-1.16312E+000	3.57650E+000	10	...........
	31	0.426667	8.68587E-001	5.99244E-003	0.00000E+000	5.20495E-003	3.59960E-001	-1.17421E+000	3.57650E+000	10	...........
	32	0.44	8.74993E-001	5.99260E-003	0.00000E+000	5.24348E-003	3.59960E-001	-1.16449E+000	3.57650E+000	10	...........
	33	0.453333	8.81399E-001	5.99184E-003	0.00000E+000	5.28120E-003	3.59960E-001	-1.16336E+000	3.57650E+000	10	...........
	34	0.466667	8.87736E-001	5.99329E-003	0.00000E+000	5.32046E-003	3.59960E-001	-1.17438E+000	3.57650E+000	10	...........
	35	0.48	8.94036E-001	5.98643E-003	0.00000E+000	5.35208E-003	3.59960E-001	-1.16429E+000	3.57650E+000	10	...........
	36	0.493333	9.00305E-001	5.99526E-003	0.00000E+000	5.39756E-003	3.59960E-001	-1.16302E+000	3.57650E+000	10	...........
	37	0.506667	9.06578E-001	5.99665E-003	0.00000E+000	5.43643E-003	3.59960E-001	-1.17403E+000	3.57650E+000	10	...........
	38	0.52	9.12843E-001	5.99422E-003	0.00000E+000	5.47178E-003	3.59960E-001	-1.16452E+000	3.57650E+000	10	...........
	39	0.533333	9.19002E-001	5.99325E-003	0.00000E+000	5.50781E-003	3.59960E-001	-1.16355E+000	3.57650E+000	10	...........
	40	0.546667	9.25199E-001	5.99526E-003	0.00000E+000	5.54681E-003	3.59960E-001	-1.17409E+000	3.57650E+000	10	...........
	41	0.56	9.31322E-001	5.99426E-003	0.00000E+000	5.58259E-003	3.59960E-001	-1.16434E+000	3.57650E+000	10	...........
	42	0.573333	9.37316E-001	5.99036E-003	0.00000E+000	5.61486E-003	3.59960E-001	-1.16338E+000	3.57650E+000	10	...........
	43	0.586667	9.43304E-001	5.99244E-003	0.00000E+000	5.65269E-003	3.59960E-001	-1.17421E+000	3.57650E+000	10	...........
	44	0.6	9.49291E-001	5.98930E-003	0.00000E+000	5.68559E-003	3.59960E-001	-1.16424E+000	3.57650E+000	10	...........
	45	0.613333	9.55186E-001	5.99405E-003	0.00000E+000	5.72544E-003	3.59960E-001	-1.16313E+000	3.57650E+000	10	...........
	46	0.626667	9.61048E-001	5.98961E-003	0.00000E+000	5.75630E-003	3.59960E-001	-1.17372E+000	3.57650E+000	10	...........
	47	0.64	9.66865E-001	5.99616E-003	0.00000E+000	5.79748E-003	3.59960E-001	-1.16392E+000	3.57650E+000	10	...........
	48	0.653333	9.72648E-001	5.99135E-003	0.00000E+000	5.82747E-003	3.59960E-001	-1.16325E+000	3.57650E+000	10	...........
	49	0.666667	9.78367E-001	5.99308E-003	0.00000E+000	5.86344E-003	3.59960E-001	-1.17383E+000	3.57650E+000	10	...........
	50	0.68	9.84042E-001	5.99298E-003	0.00000E+000	5.89734E-003	3.59960E-001	-1.16355E+000	3.57650E+000	10	...........
	51	0.693333	9.89640E-001	5.99014E-003	0.00000E+000	5.92808E-003	3.59960E-001	-1.16286E+000	3.57650E+000	10	...........
	52	0.706667	9.95190E-001	5.99592E-003	0.00000E+000	5.96708E-003	3.59960E-001	-1.17385E+000	3.57650E+000	10	...........
	53	0.713333	9.99361E-001	5.99521E-003	0.00000E+000	5.99138E-003	3.59960E-001	-1.15316E+000	3.57650E+000	10	...........
STARTTIMEOFFSET	QUANT	1365.499	Start Time Offset (s)