File: Data/CV_CRGO300517_1/PWRCCD_CRGO300517_1/CHARGE_DISCHARGE/CHARGE_#564.DTA
EXPLAIN
TAG	PWR800_CHARGE
TITLE	LABEL	PWR Cyclic Charge Discharge (Cell) - Charge Step	Test &Identifier
DATE	LABEL	22-6-2017	Date
TIME	LABEL	15:58:23	Time
NOTES	NOTES	3	&Notes...
	supercap test cell
	0.6mg
	6M KOH
PSTAT	PSTAT	IFC5000-01520	Potentiostat
CAPACITY	QUANT	1.00000E-003	Capacity (A-hr)
CELLTYPE	SELECTOR	1	&Cell Type
WORKINGCONNECTION	SELECTOR	0	&Working Lead
MAXCHARGETIME	VARIABLEANDUNITS	1.00000E+002	s	1.00000E+002	second(s)	Max &Charge Time
CHARGECURRENT	QUANT	6.00000E-003	&Charge Current (A)
VOLTAGEFINISH	TWOPARAM	F	1.00000E-003	3.60000E+003	&Voltage Finish	 I (A) < 	Max Time(s)
SAMPLETIME	QUANT	1.00000E-002	Sa&mple Period (s)
CHARGESTOPAT1	MULTIPARAM	4	1.00000E+000	Charge Stop At &1	Voltage > Limit	V
CHARGESTOPAT2	MULTIPARAM	0	0.00000E+000	Charge Stop At &2	None	N/A
AESBHCSELECTOR	TOGGLE	F	Save Both Half Cells
IRCOMP	TOGGLE	F	IR &Measure
EOC	QUANT	0	Open Circuit (V)
SEQUENCER	TOGGLE	TRUE	Run as Sequence
PSTATMODEL	IQUANT	53	Pstat Model
PSTATSECTION	LABEL	IFC5000-01520	Pstat Section
PSTATSERIALNO	LABEL	01520	Pstat Serial Number
CTRLMODE	IQUANT	0	Control Mode
ELECTROMETER	IQUANT	1	RE=0 or CS=1
IESTAB	IQUANT	0	I/E Stability
CASPEED	IQUANT	4	Control Amp Speed
CONVENTION	IQUANT	1	Current Convention
ICHRANGE	IQUANT	2	Ich Range
ICHRANGEMODE	TOGGLE	T	Ich Auto Range
ICHOFFSETENABLE	TOGGLE	F	Ich Offset Enable
ICHOFFSET	QUANT	0	Ich Offset (V)
ICHFILTER	IQUANT	1	Ich Filter
VCHRANGE	IQUANT	2	Vch Range
VCHRANGEMODE	TOGGLE	T	Vch Auto Range
VCHOFFSETENABLE	TOGGLE	F	Vch Offset Enable
VCHOFFSET	QUANT	0	Vch Offset (V)
VCHFILTER	IQUANT	1	Vch Filter
IERANGELOWERLIMIT	IQUANT	9	I/E Range Lower Limit
IERANGEMODE	TOGGLE	F	I/E AutoRange
IERANGE	IQUANT	10	I/E Range
ACHSELECT	IQUANT	1	Ach Select
ACHRANGE	IQUANT	2	Ach Range
ACHOFFSETENABLE	TOGGLE	F	Ach Offset Enable
ACHOFFSET	QUANT	0	Ach Offset (V)
ACHFILTER	IQUANT	1	Ach Filter
CABLEID	IQUANT	14	Cable ID
DCCALDATE	LABEL	20-10-2016	DC Calibration Date
ACCALDATE	LABEL	12/3/2015	AC Calibration Date
FRAMEWORKVERSION	QUANT	7.01	Framework Version
INSTRUMENTVERSION	LABEL	4.00	Instrument Version
CURVE	TABLE	57
	Pt	T	Vf	Im	Vu	Pwr	Sig	Ach	Temp	IERange	Over
	#	s	V	A	V	W	V	V	deg C	#	bits
	0	0.013333	6.35884E-001	5.99840E-003	0.00000E+000	3.81429E-003	3.59960E-001	-1.15071E+000	3.57790E+000	10	...........
	1	0.026667	6.44866E-001	5.99661E-003	0.00000E+000	3.86701E-003	3.59960E-001	-1.14074E+000	3.57790E+000	10	...........
	2	0.04	6.53087E-001	5.99863E-003	0.00000E+000	3.91763E-003	3.59960E-001	-1.14374E+000	3.57790E+000	10	...........
	3	0.053333	6.60924E-001	5.99309E-003	0.00000E+000	3.96098E-003	3.59960E-001	-1.15058E+000	3.57790E+000	10	...........
	4	0.066667	6.68445E-001	5.99930E-003	0.00000E+000	4.01020E-003	3.59960E-001	-1.14057E+000	3.57790E+000	10	...........
	5	0.08	6.75819E-001	5.99197E-003	0.00000E+000	4.04949E-003	3.59960E-001	-1.14380E+000	3.57790E+000	10	...........
	6	0.093333	6.82950E-001	5.99437E-003	0.00000E+000	4.09385E-003	3.59960E-001	-1.15052E+000	3.57790E+000	10	...........
	7	0.106667	6.90013E-001	5.99605E-003	0.00000E+000	4.13736E-003	3.59960E-001	-1.14050E+000	3.57790E+000	10	...........
	8	0.12	6.97024E-001	5.99343E-003	0.00000E+000	4.17756E-003	3.59960E-001	-1.14374E+000	3.57790E+000	10	...........
	9	0.133333	7.03898E-001	5.99804E-003	0.00000E+000	4.22201E-003	3.59960E-001	-1.15045E+000	3.57790E+000	10	...........
	10	0.146667	7.10742E-001	5.99860E-003	0.00000E+000	4.26346E-003	3.59960E-001	-1.14060E+000	3.57790E+000	10	...........
	11	0.16	7.17522E-001	5.99374E-003	0.00000E+000	4.30064E-003	3.59960E-001	-1.14384E+000	3.57790E+000	10	...........
	12	0.173333	7.24325E-001	5.99840E-003	0.00000E+000	4.34479E-003	3.59960E-001	-1.15064E+000	3.57790E+000	10	...........
	13	0.186667	7.31028E-001	5.99334E-003	0.00000E+000	4.38130E-003	3.59960E-001	-1.14047E+000	3.57790E+000	10	...........
	14	0.2	7.37740E-001	5.99067E-003	0.00000E+000	4.41956E-003	3.59960E-001	-1.14386E+000	3.57790E+000	10	...........
	15	0.213333	7.44388E-001	5.99221E-003	0.00000E+000	4.46053E-003	3.59960E-001	-1.15053E+000	3.57790E+000	10	...........
	16	0.226667	7.51018E-001	6.00161E-003	0.00000E+000	4.50732E-003	3.59960E-001	-1.14061E+000	3.57790E+000	10	...........
	17	0.24	7.57667E-001	5.99470E-003	0.00000E+000	4.54198E-003	3.59960E-001	-1.14402E+000	3.57790E+000	10	...........
	18	0.253333	7.64264E-001	5.99074E-003	0.00000E+000	4.57851E-003	3.59960E-001	-1.15034E+000	3.57790E+000	10	...........
	19	0.266667	7.70843E-001	5.99583E-003	0.00000E+000	4.62184E-003	3.59960E-001	-1.14051E+000	3.57790E+000	10	...........
	20	0.28	7.77413E-001	5.99245E-003	0.00000E+000	4.65860E-003	3.59960E-001	-1.14367E+000	3.57790E+000	10	...........
	21	0.293333	7.83942E-001	5.99541E-003	0.00000E+000	4.70005E-003	3.59960E-001	-1.15035E+000	3.57790E+000	10	...........
	22	0.306667	7.90412E-001	5.99720E-003	0.00000E+000	4.74026E-003	3.59960E-001	-1.14055E+000	3.57790E+000	10	...........
	23	0.32	7.96933E-001	5.99009E-003	0.00000E+000	4.77370E-003	3.59960E-001	-1.14372E+000	3.57790E+000	10	...........
	24	0.333333	8.03419E-001	5.99356E-003	0.00000E+000	4.81534E-003	3.59960E-001	-1.15002E+000	3.57790E+000	10	...........
	25	0.346667	8.09917E-001	5.99308E-003	0.00000E+000	4.85390E-003	3.59960E-001	-1.14027E+000	3.57790E+000	10	...........
	26	0.36	8.16342E-001	5.99499E-003	0.00000E+000	4.89396E-003	3.59960E-001	-1.14389E+000	3.57790E+000	10	...........
	27	0.373333	8.22802E-001	5.99124E-003	0.00000E+000	4.92960E-003	3.59960E-001	-1.14992E+000	3.57790E+000	10	...........
	28	0.386667	8.29197E-001	5.99272E-003	0.00000E+000	4.96914E-003	3.59960E-001	-1.14014E+000	3.57790E+000	10	...........
	29	0.4	8.35568E-001	5.99448E-003	0.00000E+000	5.00880E-003	3.59960E-001	-1.14383E+000	3.57790E+000	10	...........
	30	0.413333	8.41952E-001	5.99057E-003	0.00000E+000	5.04377E-003	3.59960E-001	-1.14997E+000	3.57790E+000	10	...........
	31	0.426667	8.48323E-001	5.99437E-003	0.00000E+000	5.08516E-003	3.59960E-001	-1.14039E+000	3.57790E+000	10	...........
	32	0.44	8.54651E-001	5.99279E-003	0.00000E+000	5.12175E-003	3.59960E-001	-1.14386E+000	3.57790E+000	10	...........
	33	0.453333	8.60956E-001	5.99556E-003	0.00000E+000	5.16192E-003	3.59960E-001	-1.14973E+000	3.57790E+000	10	...........
	34	0.466667	8.67269E-001	5.99413E-003	0.00000E+000	5.19852E-003	3.59960E-001	-1.14009E+000	3.57790E+000	10	...........
	35	0.48	8.73581E-001	5.99367E-003	0.00000E+000	5.23595E-003	3.59960E-001	-1.14403E+000	3.57790E+000	10	...........
	36	0.493333	8.79806E-001	5.99294E-003	0.00000E+000	5.27262E-003	3.59960E-001	-1.15006E+000	3.57790E+000	10	...........
	37	0.506667	8.86058E-001	5.99810E-003	0.00000E+000	5.31466E-003	3.59960E-001	-1.14028E+000	3.57790E+000	10	...........
	38	0.52	8.92224E-001	5.99771E-003	0.00000E+000	5.35131E-003	3.59960E-001	-1.14412E+000	3.57790E+000	10	...........
	39	0.533333	8.98409E-001	5.99758E-003	0.00000E+000	5.38828E-003	3.59960E-001	-1.15006E+000	3.57790E+000	10	...........
	40	0.546667	9.04556E-001	5.99172E-003	0.00000E+000	5.41984E-003	3.59960E-001	-1.14040E+000	3.57790E+000	10	...........
	41	0.56	9.10707E-001	5.99279E-003	0.00000E+000	5.45768E-003	3.59960E-001	-1.14414E+000	3.57790E+000	10	...........
	42	0.573333	9.16776E-001	5.99325E-003	0.00000E+000	5.49447E-003	3.59960E-001	-1.14980E+000	3.57790E+000	10	...........
	43	0.586667	9.22865E-001	5.99503E-003	0.00000E+000	5.53261E-003	3.59960E-001	-1.14024E+000	3.57790E+000	10	...........
	44	0.6	9.28885E-001	5.99179E-003	0.00000E+000	5.56568E-003	3.59960E-001	-1.14361E+000	3.57790E+000	10	...........
	45	0.613333	9.34835E-001	5.99590E-003	0.00000E+000	5.60518E-003	3.59960E-001	-1.14935E+000	3.57790E+000	10	...........
	46	0.626667	9.40736E-001	5.99251E-003	0.00000E+000	5.63737E-003	3.59960E-001	-1.13982E+000	3.57790E+000	10	...........
	47	0.64	9.46643E-001	5.99743E-003	0.00000E+000	5.67743E-003	3.59960E-001	-1.14399E+000	3.57790E+000	10	...........
	48	0.653333	9.52528E-001	5.99269E-003	0.00000E+000	5.70820E-003	3.59960E-001	-1.14929E+000	3.57790E+000	10	...........
	49	0.666667	9.58309E-001	5.99726E-003	0.00000E+000	5.74723E-003	3.59960E-001	-1.13995E+000	3.57790E+000	10	...........
	50	0.68	9.64069E-001	5.99555E-003	0.00000E+000	5.78013E-003	3.59960E-001	-1.14407E+000	3.57790E+000	10	...........
	51	0.693333	9.69807E-001	5.99497E-003	0.00000E+000	5.81396E-003	3.59960E-001	-1.14950E+000	3.57785E+000	10	...........
	52	0.706667	9.75506E-001	5.99241E-003	0.00000E+000	5.84564E-003	3.59960E-001	-1.14001E+000	3.57780E+000	10	...........
	53	0.72	9.81170E-001	5.99392E-003	0.00000E+000	5.88105E-003	3.59960E-001	-1.14403E+000	3.57780E+000	10	...........
	54	0.733333	9.86739E-001	5.99379E-003	0.00000E+000	5.91431E-003	3.59960E-001	-1.14944E+000	3.57780E+000	10	...........
	55	0.746667	9.92271E-001	5.99660E-003	0.00000E+000	5.95025E-003	3.59960E-001	-1.14004E+000	3.57780E+000	10	...........
	56	0.76	9.97788E-001	5.99202E-003	0.00000E+000	5.97876E-003	3.59960E-001	-1.14431E+000	3.57780E+000	10	...........
STARTTIMEOFFSET	QUANT	956.715	Start Time Offset (s)