File: Data/CV_CRGO300517_1/PWRCCD_CRGO300517_1/CHARGE_DISCHARGE/CHARGE_#406.DTA
EXPLAIN
TAG	PWR800_CHARGE
TITLE	LABEL	PWR Cyclic Charge Discharge (Cell) - Charge Step	Test &Identifier
DATE	LABEL	22-6-2017	Date
TIME	LABEL	15:52:12	Time
NOTES	NOTES	3	&Notes...
	supercap test cell
	0.6mg
	6M KOH
PSTAT	PSTAT	IFC5000-01520	Potentiostat
CAPACITY	QUANT	1.00000E-003	Capacity (A-hr)
CELLTYPE	SELECTOR	1	&Cell Type
WORKINGCONNECTION	SELECTOR	0	&Working Lead
MAXCHARGETIME	VARIABLEANDUNITS	1.00000E+002	s	1.00000E+002	second(s)	Max &Charge Time
CHARGECURRENT	QUANT	6.00000E-003	&Charge Current (A)
VOLTAGEFINISH	TWOPARAM	F	1.00000E-003	3.60000E+003	&Voltage Finish	 I (A) < 	Max Time(s)
SAMPLETIME	QUANT	1.00000E-002	Sa&mple Period (s)
CHARGESTOPAT1	MULTIPARAM	4	1.00000E+000	Charge Stop At &1	Voltage > Limit	V
CHARGESTOPAT2	MULTIPARAM	0	0.00000E+000	Charge Stop At &2	None	N/A
AESBHCSELECTOR	TOGGLE	F	Save Both Half Cells
IRCOMP	TOGGLE	F	IR &Measure
EOC	QUANT	0	Open Circuit (V)
SEQUENCER	TOGGLE	TRUE	Run as Sequence
PSTATMODEL	IQUANT	53	Pstat Model
PSTATSECTION	LABEL	IFC5000-01520	Pstat Section
PSTATSERIALNO	LABEL	01520	Pstat Serial Number
CTRLMODE	IQUANT	0	Control Mode
ELECTROMETER	IQUANT	1	RE=0 or CS=1
IESTAB	IQUANT	0	I/E Stability
CASPEED	IQUANT	4	Control Amp Speed
CONVENTION	IQUANT	1	Current Convention
ICHRANGE	IQUANT	2	Ich Range
ICHRANGEMODE	TOGGLE	T	Ich Auto Range
ICHOFFSETENABLE	TOGGLE	F	Ich Offset Enable
ICHOFFSET	QUANT	0	Ich Offset (V)
ICHFILTER	IQUANT	1	Ich Filter
VCHRANGE	IQUANT	2	Vch Range
VCHRANGEMODE	TOGGLE	T	Vch Auto Range
VCHOFFSETENABLE	TOGGLE	F	Vch Offset Enable
VCHOFFSET	QUANT	0	Vch Offset (V)
VCHFILTER	IQUANT	1	Vch Filter
IERANGELOWERLIMIT	IQUANT	9	I/E Range Lower Limit
IERANGEMODE	TOGGLE	F	I/E AutoRange
IERANGE	IQUANT	10	I/E Range
ACHSELECT	IQUANT	1	Ach Select
ACHRANGE	IQUANT	2	Ach Range
ACHOFFSETENABLE	TOGGLE	F	Ach Offset Enable
ACHOFFSET	QUANT	0	Ach Offset (V)
ACHFILTER	IQUANT	1	Ach Filter
CABLEID	IQUANT	14	Cable ID
DCCALDATE	LABEL	20-10-2016	DC Calibration Date
ACCALDATE	LABEL	12/3/2015	AC Calibration Date
FRAMEWORKVERSION	QUANT	7.01	Framework Version
INSTRUMENTVERSION	LABEL	4.00	Instrument Version
CURVE	TABLE	60
	Pt	T	Vf	Im	Vu	Pwr	Sig	Ach	Temp	IERange	Over
	#	s	V	A	V	W	V	V	deg C	#	bits
	0	0.013333	6.26023E-001	5.99539E-003	0.00000E+000	3.75325E-003	3.59960E-001	-1.13549E+000	3.57650E+000	10	...........
	1	0.026667	6.34708E-001	5.99276E-003	0.00000E+000	3.80365E-003	3.59960E-001	-1.12558E+000	3.57650E+000	10	...........
	2	0.04	6.42776E-001	5.99183E-003	0.00000E+000	3.85140E-003	3.59960E-001	-1.12413E+000	3.57650E+000	10	...........
	3	0.053333	6.50398E-001	5.99495E-003	0.00000E+000	3.89911E-003	3.59960E-001	-1.13561E+000	3.57650E+000	10	...........
	4	0.066667	6.57749E-001	5.99593E-003	0.00000E+000	3.94381E-003	3.59960E-001	-1.12545E+000	3.57650E+000	10	...........
	5	0.08	6.64939E-001	5.99320E-003	0.00000E+000	3.98511E-003	3.59960E-001	-1.12401E+000	3.57650E+000	10	...........
	6	0.093333	6.71958E-001	5.99423E-003	0.00000E+000	4.02787E-003	3.59960E-001	-1.13526E+000	3.57650E+000	10	...........
	7	0.106667	6.78885E-001	5.99864E-003	0.00000E+000	4.07239E-003	3.59960E-001	-1.12535E+000	3.57650E+000	10	...........
	8	0.12	6.85699E-001	5.99332E-003	0.00000E+000	4.10961E-003	3.59960E-001	-1.12427E+000	3.57650E+000	10	...........
	9	0.133333	6.92484E-001	5.99639E-003	0.00000E+000	4.15240E-003	3.59960E-001	-1.13551E+000	3.57650E+000	10	...........
	10	0.146667	6.99128E-001	5.99565E-003	0.00000E+000	4.19172E-003	3.59960E-001	-1.12521E+000	3.57650E+000	10	...........
	11	0.16	7.05781E-001	5.99358E-003	0.00000E+000	4.23016E-003	3.59960E-001	-1.12397E+000	3.57650E+000	10	...........
	12	0.173333	7.12381E-001	5.99590E-003	0.00000E+000	4.27137E-003	3.59960E-001	-1.13508E+000	3.57650E+000	10	...........
	13	0.186667	7.18981E-001	5.99544E-003	0.00000E+000	4.31061E-003	3.59960E-001	-1.12496E+000	3.57650E+000	10	...........
	14	0.2	7.25515E-001	5.99034E-003	0.00000E+000	4.34608E-003	3.59960E-001	-1.12409E+000	3.57650E+000	10	...........
	15	0.213333	7.32025E-001	5.99537E-003	0.00000E+000	4.38876E-003	3.59960E-001	-1.13481E+000	3.57650E+000	10	...........
	16	0.226667	7.38501E-001	5.99481E-003	0.00000E+000	4.42718E-003	3.59960E-001	-1.12437E+000	3.57650E+000	10	...........
	17	0.24	7.45028E-001	5.99538E-003	0.00000E+000	4.46673E-003	3.59960E-001	-1.12348E+000	3.57650E+000	10	...........
	18	0.253333	7.51458E-001	5.99721E-003	0.00000E+000	4.50666E-003	3.59960E-001	-1.13475E+000	3.57650E+000	10	...........
	19	0.266667	7.57887E-001	5.99670E-003	0.00000E+000	4.54482E-003	3.59960E-001	-1.12422E+000	3.57650E+000	10	...........
	20	0.28	7.64279E-001	5.99425E-003	0.00000E+000	4.58128E-003	3.59960E-001	-1.12325E+000	3.57652E+000	10	...........
	21	0.293333	7.70675E-001	5.99283E-003	0.00000E+000	4.61853E-003	3.59960E-001	-1.13462E+000	3.57670E+000	10	...........
	22	0.306667	7.77123E-001	5.99527E-003	0.00000E+000	4.65906E-003	3.59960E-001	-1.12428E+000	3.57670E+000	10	...........
	23	0.32	7.83506E-001	5.99926E-003	0.00000E+000	4.70046E-003	3.59960E-001	-1.12360E+000	3.57670E+000	10	...........
	24	0.333333	7.89873E-001	5.99620E-003	0.00000E+000	4.73623E-003	3.59960E-001	-1.13459E+000	3.57670E+000	10	...........
	25	0.346667	7.96240E-001	5.99249E-003	0.00000E+000	4.77146E-003	3.59960E-001	-1.12383E+000	3.57670E+000	10	...........
	26	0.36	8.02553E-001	5.99676E-003	0.00000E+000	4.81272E-003	3.59960E-001	-1.12315E+000	3.57670E+000	10	...........
	27	0.373333	8.08873E-001	5.99096E-003	0.00000E+000	4.84593E-003	3.59960E-001	-1.13427E+000	3.57670E+000	10	...........
	28	0.386667	8.15178E-001	5.99799E-003	0.00000E+000	4.88943E-003	3.59960E-001	-1.12390E+000	3.57670E+000	10	...........
	29	0.4	8.21499E-001	5.99330E-003	0.00000E+000	4.92349E-003	3.59960E-001	-1.12321E+000	3.57670E+000	10	...........
	30	0.413333	8.27749E-001	5.99149E-003	0.00000E+000	4.95945E-003	3.59960E-001	-1.13400E+000	3.57670E+000	10	...........
	31	0.426667	8.34000E-001	5.99244E-003	0.00000E+000	4.99769E-003	3.59960E-001	-1.12367E+000	3.57670E+000	10	...........
	32	0.44	8.40265E-001	5.99950E-003	0.00000E+000	5.04117E-003	3.59960E-001	-1.12332E+000	3.57670E+000	10	...........
	33	0.453333	8.46552E-001	5.99334E-003	0.00000E+000	5.07368E-003	3.59960E-001	-1.13434E+000	3.57670E+000	10	...........
	34	0.466667	8.52738E-001	5.99317E-003	0.00000E+000	5.11060E-003	3.59960E-001	-1.12377E+000	3.57670E+000	10	...........
	35	0.48	8.58958E-001	5.99264E-003	0.00000E+000	5.14743E-003	3.59960E-001	-1.12343E+000	3.57670E+000	10	...........
	36	0.493333	8.65132E-001	5.99283E-003	0.00000E+000	5.18459E-003	3.59960E-001	-1.13418E+000	3.57670E+000	10	...........
	37	0.506667	8.71354E-001	5.99399E-003	0.00000E+000	5.22289E-003	3.59960E-001	-1.12376E+000	3.57670E+000	10	...........
	38	0.52	8.77535E-001	5.99318E-003	0.00000E+000	5.25922E-003	3.59960E-001	-1.12340E+000	3.57670E+000	10	...........
	39	0.533333	8.83651E-001	5.99631E-003	0.00000E+000	5.29864E-003	3.59960E-001	-1.13409E+000	3.57670E+000	10	...........
	40	0.546667	8.89759E-001	5.99490E-003	0.00000E+000	5.33402E-003	3.59960E-001	-1.12337E+000	3.57670E+000	10	...........
	41	0.56	8.95849E-001	5.99504E-003	0.00000E+000	5.37065E-003	3.59960E-001	-1.12293E+000	3.57670E+000	10	...........
	42	0.573333	9.01895E-001	5.99328E-003	0.00000E+000	5.40531E-003	3.59960E-001	-1.13381E+000	3.57670E+000	10	...........
	43	0.586667	9.07919E-001	5.99522E-003	0.00000E+000	5.44317E-003	3.59960E-001	-1.12343E+000	3.57670E+000	10	...........
	44	0.6	9.13943E-001	5.99473E-003	0.00000E+000	5.47884E-003	3.59960E-001	-1.12300E+000	3.57670E+000	10	...........
	45	0.613333	9.19942E-001	5.99183E-003	0.00000E+000	5.51214E-003	3.59960E-001	-1.13390E+000	3.57670E+000	10	...........
	46	0.626667	9.25908E-001	5.99096E-003	0.00000E+000	5.54708E-003	3.59960E-001	-1.12310E+000	3.57670E+000	10	...........
	47	0.64	9.31801E-001	5.99425E-003	0.00000E+000	5.58545E-003	3.59960E-001	-1.12320E+000	3.57670E+000	10	...........
	48	0.653333	9.37700E-001	5.99739E-003	0.00000E+000	5.62375E-003	3.59960E-001	-1.13401E+000	3.57670E+000	10	...........
	49	0.666667	9.43594E-001	5.99524E-003	0.00000E+000	5.65708E-003	3.59960E-001	-1.12339E+000	3.57670E+000	10	...........
	50	0.68	9.49398E-001	5.99320E-003	0.00000E+000	5.68993E-003	3.59960E-001	-1.12306E+000	3.57670E+000	10	...........
	51	0.693333	9.55160E-001	5.99553E-003	0.00000E+000	5.72669E-003	3.59960E-001	-1.13375E+000	3.57670E+000	10	...........
	52	0.706667	9.60864E-001	5.99343E-003	0.00000E+000	5.75887E-003	3.59960E-001	-1.12300E+000	3.57670E+000	10	...........
	53	0.72	9.66590E-001	5.99206E-003	0.00000E+000	5.79187E-003	3.59960E-001	-1.12304E+000	3.57670E+000	10	...........
	54	0.733333	9.72255E-001	5.99207E-003	0.00000E+000	5.82582E-003	3.59960E-001	-1.13376E+000	3.57670E+000	10	...........
	55	0.746667	9.77858E-001	5.99043E-003	0.00000E+000	5.85779E-003	3.59960E-001	-1.12313E+000	3.57670E+000	10	...........
	56	0.76	9.83438E-001	5.99133E-003	0.00000E+000	5.89210E-003	3.59960E-001	-1.12296E+000	3.57670E+000	10	...........
	57	0.773333	9.88985E-001	5.99285E-003	0.00000E+000	5.92684E-003	3.59960E-001	-1.13404E+000	3.57670E+000	10	...........
	58	0.786667	9.94453E-001	5.99612E-003	0.00000E+000	5.96286E-003	3.59960E-001	-1.12338E+000	3.57670E+000	10	...........
	59	0.795	9.98880E-001	5.99599E-003	0.00000E+000	5.98928E-003	3.59960E-001	-1.13083E+000	3.57670E+000	10	...........
STARTTIMEOFFSET	QUANT	712.1868	Start Time Offset (s)