File: Data/CV_CRGO300517_1/PWRCCD_CRGO300517_1/CHARGE_DISCHARGE/CHARGE_#787.DTA
EXPLAIN
TAG	PWR800_CHARGE
TITLE	LABEL	PWR Cyclic Charge Discharge (Cell) - Charge Step	Test &Identifier
DATE	LABEL	22-6-2017	Date
TIME	LABEL	16:06:48	Time
NOTES	NOTES	3	&Notes...
	supercap test cell
	0.6mg
	6M KOH
PSTAT	PSTAT	IFC5000-01520	Potentiostat
CAPACITY	QUANT	1.00000E-003	Capacity (A-hr)
CELLTYPE	SELECTOR	1	&Cell Type
WORKINGCONNECTION	SELECTOR	0	&Working Lead
MAXCHARGETIME	VARIABLEANDUNITS	1.00000E+002	s	1.00000E+002	second(s)	Max &Charge Time
CHARGECURRENT	QUANT	6.00000E-003	&Charge Current (A)
VOLTAGEFINISH	TWOPARAM	F	1.00000E-003	3.60000E+003	&Voltage Finish	 I (A) < 	Max Time(s)
SAMPLETIME	QUANT	1.00000E-002	Sa&mple Period (s)
CHARGESTOPAT1	MULTIPARAM	4	1.00000E+000	Charge Stop At &1	Voltage > Limit	V
CHARGESTOPAT2	MULTIPARAM	0	0.00000E+000	Charge Stop At &2	None	N/A
AESBHCSELECTOR	TOGGLE	F	Save Both Half Cells
IRCOMP	TOGGLE	F	IR &Measure
EOC	QUANT	0	Open Circuit (V)
SEQUENCER	TOGGLE	TRUE	Run as Sequence
PSTATMODEL	IQUANT	53	Pstat Model
PSTATSECTION	LABEL	IFC5000-01520	Pstat Section
PSTATSERIALNO	LABEL	01520	Pstat Serial Number
CTRLMODE	IQUANT	0	Control Mode
ELECTROMETER	IQUANT	1	RE=0 or CS=1
IESTAB	IQUANT	0	I/E Stability
CASPEED	IQUANT	4	Control Amp Speed
CONVENTION	IQUANT	1	Current Convention
ICHRANGE	IQUANT	2	Ich Range
ICHRANGEMODE	TOGGLE	T	Ich Auto Range
ICHOFFSETENABLE	TOGGLE	F	Ich Offset Enable
ICHOFFSET	QUANT	0	Ich Offset (V)
ICHFILTER	IQUANT	1	Ich Filter
VCHRANGE	IQUANT	2	Vch Range
VCHRANGEMODE	TOGGLE	T	Vch Auto Range
VCHOFFSETENABLE	TOGGLE	F	Vch Offset Enable
VCHOFFSET	QUANT	0	Vch Offset (V)
VCHFILTER	IQUANT	1	Vch Filter
IERANGELOWERLIMIT	IQUANT	9	I/E Range Lower Limit
IERANGEMODE	TOGGLE	F	I/E AutoRange
IERANGE	IQUANT	10	I/E Range
ACHSELECT	IQUANT	1	Ach Select
ACHRANGE	IQUANT	2	Ach Range
ACHOFFSETENABLE	TOGGLE	F	Ach Offset Enable
ACHOFFSET	QUANT	0	Ach Offset (V)
ACHFILTER	IQUANT	1	Ach Filter
CABLEID	IQUANT	14	Cable ID
DCCALDATE	LABEL	20-10-2016	DC Calibration Date
ACCALDATE	LABEL	12/3/2015	AC Calibration Date
FRAMEWORKVERSION	QUANT	7.01	Framework Version
INSTRUMENTVERSION	LABEL	4.00	Instrument Version
CURVE	TABLE	55
	Pt	T	Vf	Im	Vu	Pwr	Sig	Ach	Temp	IERange	Over
	#	s	V	A	V	W	V	V	deg C	#	bits
	0	0.013333	6.48366E-001	5.99692E-003	0.00000E+000	3.88820E-003	3.59960E-001	-1.16971E+000	3.57640E+000	10	...........
	1	0.026667	6.57486E-001	5.99636E-003	0.00000E+000	3.94252E-003	3.59960E-001	-1.16231E+000	3.57640E+000	10	...........
	2	0.04	6.65958E-001	5.99102E-003	0.00000E+000	3.98977E-003	3.59960E-001	-1.15899E+000	3.57640E+000	10	...........
	3	0.053333	6.73992E-001	5.99144E-003	0.00000E+000	4.03819E-003	3.59960E-001	-1.16990E+000	3.57640E+000	10	...........
	4	0.066667	6.81690E-001	5.99483E-003	0.00000E+000	4.08662E-003	3.59960E-001	-1.16214E+000	3.57640E+000	10	...........
	5	0.08	6.89227E-001	5.99333E-003	0.00000E+000	4.13076E-003	3.59960E-001	-1.15906E+000	3.57640E+000	10	...........
	6	0.093333	6.96574E-001	5.99087E-003	0.00000E+000	4.17309E-003	3.59960E-001	-1.16993E+000	3.57640E+000	10	...........
	7	0.106667	7.03832E-001	5.99558E-003	0.00000E+000	4.21988E-003	3.59960E-001	-1.16199E+000	3.57640E+000	10	...........
	8	0.12	7.10931E-001	5.99309E-003	0.00000E+000	4.26067E-003	3.59960E-001	-1.15886E+000	3.57640E+000	10	...........
	9	0.133333	7.18005E-001	5.99124E-003	0.00000E+000	4.30174E-003	3.59960E-001	-1.16982E+000	3.57640E+000	10	...........
	10	0.146667	7.25019E-001	5.99391E-003	0.00000E+000	4.34569E-003	3.59960E-001	-1.16114E+000	3.57640E+000	10	...........
	11	0.16	7.31980E-001	5.99277E-003	0.00000E+000	4.38659E-003	3.59960E-001	-1.15836E+000	3.57640E+000	10	...........
	12	0.173333	7.38929E-001	5.99905E-003	0.00000E+000	4.43287E-003	3.59960E-001	-1.16951E+000	3.57640E+000	10	...........
	13	0.186667	7.45815E-001	5.99470E-003	0.00000E+000	4.47094E-003	3.59960E-001	-1.16102E+000	3.57646E+000	10	...........
	14	0.2	7.52655E-001	5.99288E-003	0.00000E+000	4.51057E-003	3.59960E-001	-1.15826E+000	3.57660E+000	10	...........
	15	0.213333	7.59479E-001	5.99111E-003	0.00000E+000	4.55012E-003	3.59960E-001	-1.16959E+000	3.57660E+000	10	...........
	16	0.226667	7.66254E-001	5.99515E-003	0.00000E+000	4.59380E-003	3.59960E-001	-1.16106E+000	3.57660E+000	10	...........
	17	0.24	7.73014E-001	5.99196E-003	0.00000E+000	4.63186E-003	3.59960E-001	-1.15828E+000	3.57660E+000	10	...........
	18	0.253333	7.79718E-001	5.99293E-003	0.00000E+000	4.67279E-003	3.59960E-001	-1.16948E+000	3.57660E+000	10	...........
	19	0.266667	7.86431E-001	5.99340E-003	0.00000E+000	4.71339E-003	3.59960E-001	-1.16091E+000	3.57660E+000	10	...........
	20	0.28	7.93156E-001	5.99478E-003	0.00000E+000	4.75480E-003	3.59960E-001	-1.15843E+000	3.57660E+000	10	...........
	21	0.293333	7.99801E-001	5.99642E-003	0.00000E+000	4.79594E-003	3.59960E-001	-1.16942E+000	3.57660E+000	10	...........
	22	0.306667	8.06434E-001	5.99233E-003	0.00000E+000	4.83242E-003	3.59960E-001	-1.16048E+000	3.57660E+000	10	...........
	23	0.32	8.13026E-001	5.99940E-003	0.00000E+000	4.87767E-003	3.59960E-001	-1.15824E+000	3.57660E+000	10	...........
	24	0.333333	8.19682E-001	5.99716E-003	0.00000E+000	4.91577E-003	3.59960E-001	-1.16955E+000	3.57660E+000	10	...........
	25	0.346667	8.26230E-001	5.99390E-003	0.00000E+000	4.95233E-003	3.59960E-001	-1.16045E+000	3.57660E+000	10	...........
	26	0.36	8.32807E-001	5.99718E-003	0.00000E+000	4.99450E-003	3.59960E-001	-1.15843E+000	3.57660E+000	10	...........
	27	0.373333	8.39311E-001	5.99460E-003	0.00000E+000	5.03134E-003	3.59960E-001	-1.16982E+000	3.57660E+000	10	...........
	28	0.386667	8.45811E-001	5.99230E-003	0.00000E+000	5.06835E-003	3.59960E-001	-1.16012E+000	3.57660E+000	10	...........
	29	0.4	8.52284E-001	5.98970E-003	0.00000E+000	5.10493E-003	3.59960E-001	-1.15841E+000	3.57660E+000	10	...........
	30	0.413333	8.58727E-001	5.99512E-003	0.00000E+000	5.14817E-003	3.59960E-001	-1.16958E+000	3.57660E+000	10	...........
	31	0.426667	8.65147E-001	5.98850E-003	0.00000E+000	5.18093E-003	3.59960E-001	-1.16026E+000	3.57660E+000	10	...........
	32	0.44	8.71603E-001	5.99023E-003	0.00000E+000	5.22111E-003	3.59960E-001	-1.15842E+000	3.57660E+000	10	...........
	33	0.453333	8.77988E-001	5.99939E-003	0.00000E+000	5.26739E-003	3.59960E-001	-1.16970E+000	3.57660E+000	10	...........
	34	0.466667	8.84321E-001	5.99892E-003	0.00000E+000	5.30498E-003	3.59960E-001	-1.15966E+000	3.57660E+000	10	...........
	35	0.48	8.90589E-001	5.99100E-003	0.00000E+000	5.33551E-003	3.59960E-001	-1.15809E+000	3.57660E+000	10	...........
	36	0.493333	8.96840E-001	5.99050E-003	0.00000E+000	5.37251E-003	3.59960E-001	-1.16937E+000	3.57660E+000	10	...........
	37	0.506667	9.03126E-001	5.98902E-003	0.00000E+000	5.40884E-003	3.59960E-001	-1.15970E+000	3.57660E+000	10	...........
	38	0.52	9.09358E-001	5.98969E-003	0.00000E+000	5.44677E-003	3.59960E-001	-1.15808E+000	3.57660E+000	10	...........
	39	0.533333	9.15508E-001	5.99440E-003	0.00000E+000	5.48792E-003	3.59960E-001	-1.16943E+000	3.57660E+000	10	...........
	40	0.546667	9.21701E-001	5.98919E-003	0.00000E+000	5.52025E-003	3.59960E-001	-1.15935E+000	3.57660E+000	10	...........
	41	0.56	9.27801E-001	5.99416E-003	0.00000E+000	5.56138E-003	3.59960E-001	-1.15824E+000	3.57660E+000	10	...........
	42	0.573333	9.33857E-001	5.99568E-003	0.00000E+000	5.59911E-003	3.59960E-001	-1.16944E+000	3.57660E+000	10	...........
	43	0.586667	9.39885E-001	5.99644E-003	0.00000E+000	5.63597E-003	3.59960E-001	-1.15914E+000	3.57660E+000	10	...........
	44	0.6	9.45876E-001	5.99373E-003	0.00000E+000	5.66933E-003	3.59960E-001	-1.15832E+000	3.57660E+000	10	...........
	45	0.613333	9.51802E-001	5.99239E-003	0.00000E+000	5.70357E-003	3.59960E-001	-1.16937E+000	3.57660E+000	10	...........
	46	0.626667	9.57690E-001	5.99661E-003	0.00000E+000	5.74289E-003	3.59960E-001	-1.15915E+000	3.57660E+000	10	...........
	47	0.64	9.63512E-001	5.99357E-003	0.00000E+000	5.77488E-003	3.59960E-001	-1.15814E+000	3.57660E+000	10	...........
	48	0.653333	9.69249E-001	5.99403E-003	0.00000E+000	5.80971E-003	3.59960E-001	-1.16928E+000	3.57660E+000	10	...........
	49	0.666667	9.75036E-001	5.99464E-003	0.00000E+000	5.84499E-003	3.59960E-001	-1.15901E+000	3.57660E+000	10	...........
	50	0.68	9.80703E-001	5.99493E-003	0.00000E+000	5.87924E-003	3.59960E-001	-1.15859E+000	3.57660E+000	10	...........
	51	0.693333	9.86319E-001	5.99329E-003	0.00000E+000	5.91130E-003	3.59960E-001	-1.16960E+000	3.57660E+000	10	...........
	52	0.706667	9.91850E-001	5.99494E-003	0.00000E+000	5.94608E-003	3.59960E-001	-1.15895E+000	3.57660E+000	10	...........
	53	0.72	9.97424E-001	5.99101E-003	0.00000E+000	5.97557E-003	3.59960E-001	-1.15859E+000	3.57660E+000	10	...........
	54	0.721667	1.00051E+000	5.99479E-003	0.00000E+000	5.99788E-003	3.59960E-001	-1.16361E+000	3.57660E+000	10	...........
STARTTIMEOFFSET	QUANT	1285.457	Start Time Offset (s)