File: Data/CV_CRGO300517_1/PWRCCD_CRGO300517_1/CHARGE_DISCHARGE/CHARGE_#478.DTA
EXPLAIN
TAG	PWR800_CHARGE
TITLE	LABEL	PWR Cyclic Charge Discharge (Cell) - Charge Step	Test &Identifier
DATE	LABEL	22-6-2017	Date
TIME	LABEL	15:55:03	Time
NOTES	NOTES	3	&Notes...
	supercap test cell
	0.6mg
	6M KOH
PSTAT	PSTAT	IFC5000-01520	Potentiostat
CAPACITY	QUANT	1.00000E-003	Capacity (A-hr)
CELLTYPE	SELECTOR	1	&Cell Type
WORKINGCONNECTION	SELECTOR	0	&Working Lead
MAXCHARGETIME	VARIABLEANDUNITS	1.00000E+002	s	1.00000E+002	second(s)	Max &Charge Time
CHARGECURRENT	QUANT	6.00000E-003	&Charge Current (A)
VOLTAGEFINISH	TWOPARAM	F	1.00000E-003	3.60000E+003	&Voltage Finish	 I (A) < 	Max Time(s)
SAMPLETIME	QUANT	1.00000E-002	Sa&mple Period (s)
CHARGESTOPAT1	MULTIPARAM	4	1.00000E+000	Charge Stop At &1	Voltage > Limit	V
CHARGESTOPAT2	MULTIPARAM	0	0.00000E+000	Charge Stop At &2	None	N/A
AESBHCSELECTOR	TOGGLE	F	Save Both Half Cells
IRCOMP	TOGGLE	F	IR &Measure
EOC	QUANT	0	Open Circuit (V)
SEQUENCER	TOGGLE	TRUE	Run as Sequence
PSTATMODEL	IQUANT	53	Pstat Model
PSTATSECTION	LABEL	IFC5000-01520	Pstat Section
PSTATSERIALNO	LABEL	01520	Pstat Serial Number
CTRLMODE	IQUANT	0	Control Mode
ELECTROMETER	IQUANT	1	RE=0 or CS=1
IESTAB	IQUANT	0	I/E Stability
CASPEED	IQUANT	4	Control Amp Speed
CONVENTION	IQUANT	1	Current Convention
ICHRANGE	IQUANT	2	Ich Range
ICHRANGEMODE	TOGGLE	T	Ich Auto Range
ICHOFFSETENABLE	TOGGLE	F	Ich Offset Enable
ICHOFFSET	QUANT	0	Ich Offset (V)
ICHFILTER	IQUANT	1	Ich Filter
VCHRANGE	IQUANT	2	Vch Range
VCHRANGEMODE	TOGGLE	T	Vch Auto Range
VCHOFFSETENABLE	TOGGLE	F	Vch Offset Enable
VCHOFFSET	QUANT	0	Vch Offset (V)
VCHFILTER	IQUANT	1	Vch Filter
IERANGELOWERLIMIT	IQUANT	9	I/E Range Lower Limit
IERANGEMODE	TOGGLE	F	I/E AutoRange
IERANGE	IQUANT	10	I/E Range
ACHSELECT	IQUANT	1	Ach Select
ACHRANGE	IQUANT	2	Ach Range
ACHOFFSETENABLE	TOGGLE	F	Ach Offset Enable
ACHOFFSET	QUANT	0	Ach Offset (V)
ACHFILTER	IQUANT	1	Ach Filter
CABLEID	IQUANT	14	Cable ID
DCCALDATE	LABEL	20-10-2016	DC Calibration Date
ACCALDATE	LABEL	12/3/2015	AC Calibration Date
FRAMEWORKVERSION	QUANT	7.01	Framework Version
INSTRUMENTVERSION	LABEL	4.00	Instrument Version
CURVE	TABLE	59
	Pt	T	Vf	Im	Vu	Pwr	Sig	Ach	Temp	IERange	Over
	#	s	V	A	V	W	V	V	deg C	#	bits
	0	0.013333	6.30115E-001	5.99138E-003	0.00000E+000	3.77526E-003	3.59960E-001	-1.14133E+000	3.57790E+000	10	...........
	1	0.026667	6.38997E-001	5.99064E-003	0.00000E+000	3.82800E-003	3.59960E-001	-1.14958E+000	3.57790E+000	10	...........
	2	0.04	6.47141E-001	5.99184E-003	0.00000E+000	3.87757E-003	3.59960E-001	-1.13932E+000	3.57790E+000	10	...........
	3	0.053333	6.54858E-001	5.99248E-003	0.00000E+000	3.92422E-003	3.59960E-001	-1.14137E+000	3.57790E+000	10	...........
	4	0.066667	6.62257E-001	5.99840E-003	0.00000E+000	3.97248E-003	3.59960E-001	-1.14948E+000	3.57790E+000	10	...........
	5	0.08	6.69532E-001	5.99601E-003	0.00000E+000	4.01452E-003	3.59960E-001	-1.13924E+000	3.57790E+000	10	...........
	6	0.093333	6.76648E-001	5.99683E-003	0.00000E+000	4.05774E-003	3.59960E-001	-1.14140E+000	3.57790E+000	10	...........
	7	0.106667	6.83613E-001	5.99661E-003	0.00000E+000	4.09936E-003	3.59960E-001	-1.14914E+000	3.57790E+000	10	...........
	8	0.12	6.90515E-001	5.99329E-003	0.00000E+000	4.13845E-003	3.59960E-001	-1.13912E+000	3.57790E+000	10	...........
	9	0.133333	6.97327E-001	5.98884E-003	0.00000E+000	4.17618E-003	3.59960E-001	-1.14135E+000	3.57790E+000	10	...........
	10	0.146667	7.04115E-001	5.99352E-003	0.00000E+000	4.22013E-003	3.59960E-001	-1.14889E+000	3.57790E+000	10	...........
	11	0.16	7.10825E-001	5.99295E-003	0.00000E+000	4.25993E-003	3.59960E-001	-1.13858E+000	3.57790E+000	10	...........
	12	0.173333	7.17556E-001	5.99795E-003	0.00000E+000	4.30387E-003	3.59960E-001	-1.14084E+000	3.57790E+000	10	...........
	13	0.186667	7.24157E-001	5.99353E-003	0.00000E+000	4.34026E-003	3.59960E-001	-1.14851E+000	3.57790E+000	10	...........
	14	0.2	7.30764E-001	5.99232E-003	0.00000E+000	4.37897E-003	3.59960E-001	-1.13856E+000	3.57790E+000	10	...........
	15	0.213333	7.37354E-001	5.99402E-003	0.00000E+000	4.41972E-003	3.59960E-001	-1.14118E+000	3.57790E+000	10	...........
	16	0.226667	7.43962E-001	5.99514E-003	0.00000E+000	4.46015E-003	3.59960E-001	-1.14846E+000	3.57790E+000	10	...........
	17	0.24	7.50461E-001	5.99413E-003	0.00000E+000	4.49835E-003	3.59960E-001	-1.13831E+000	3.57790E+000	10	...........
	18	0.253333	7.57015E-001	6.00041E-003	0.00000E+000	4.54241E-003	3.59960E-001	-1.14109E+000	3.57790E+000	10	...........
	19	0.266667	7.63512E-001	5.99496E-003	0.00000E+000	4.57722E-003	3.59960E-001	-1.14816E+000	3.57790E+000	10	...........
	20	0.28	7.70004E-001	5.99380E-003	0.00000E+000	4.61525E-003	3.59960E-001	-1.13810E+000	3.57790E+000	10	...........
	21	0.293333	7.76439E-001	5.99354E-003	0.00000E+000	4.65362E-003	3.59960E-001	-1.14116E+000	3.57790E+000	10	...........
	22	0.306667	7.82910E-001	5.99419E-003	0.00000E+000	4.69291E-003	3.59960E-001	-1.14791E+000	3.57790E+000	10	...........
	23	0.32	7.89367E-001	5.99660E-003	0.00000E+000	4.73352E-003	3.59960E-001	-1.13824E+000	3.57790E+000	10	...........
	24	0.333333	7.95808E-001	5.99589E-003	0.00000E+000	4.77158E-003	3.59960E-001	-1.14139E+000	3.57790E+000	10	...........
	25	0.346667	8.02178E-001	5.99517E-003	0.00000E+000	4.80919E-003	3.59960E-001	-1.14796E+000	3.57790E+000	10	...........
	26	0.36	8.08586E-001	5.99565E-003	0.00000E+000	4.84800E-003	3.59960E-001	-1.13801E+000	3.57790E+000	10	...........
	27	0.373333	8.14988E-001	5.99555E-003	0.00000E+000	4.88631E-003	3.59960E-001	-1.14130E+000	3.57790E+000	10	...........
	28	0.386667	8.21380E-001	5.99718E-003	0.00000E+000	4.92597E-003	3.59960E-001	-1.14778E+000	3.57790E+000	10	...........
	29	0.4	8.27744E-001	5.99632E-003	0.00000E+000	4.96341E-003	3.59960E-001	-1.13854E+000	3.57790E+000	10	...........
	30	0.413333	8.34043E-001	5.99006E-003	0.00000E+000	4.99596E-003	3.59960E-001	-1.14196E+000	3.57790E+000	10	...........
	31	0.426667	8.40392E-001	5.99534E-003	0.00000E+000	5.03843E-003	3.59960E-001	-1.14793E+000	3.57790E+000	10	...........
	32	0.44	8.46732E-001	5.99354E-003	0.00000E+000	5.07492E-003	3.59960E-001	-1.13853E+000	3.57790E+000	10	...........
	33	0.453333	8.53016E-001	5.99681E-003	0.00000E+000	5.11537E-003	3.59960E-001	-1.14211E+000	3.57790E+000	10	...........
	34	0.466667	8.59253E-001	5.99144E-003	0.00000E+000	5.14817E-003	3.59960E-001	-1.14799E+000	3.57790E+000	10	...........
	35	0.48	8.65506E-001	5.99597E-003	0.00000E+000	5.18955E-003	3.59960E-001	-1.13829E+000	3.57790E+000	10	...........
	36	0.493333	8.71744E-001	5.99435E-003	0.00000E+000	5.22554E-003	3.59960E-001	-1.14174E+000	3.57790E+000	10	...........
	37	0.506667	8.77945E-001	5.99224E-003	0.00000E+000	5.26086E-003	3.59960E-001	-1.14746E+000	3.57790E+000	10	...........
	38	0.52	8.84127E-001	5.99355E-003	0.00000E+000	5.29906E-003	3.59960E-001	-1.13805E+000	3.57790E+000	10	...........
	39	0.533333	8.90298E-001	5.99251E-003	0.00000E+000	5.33512E-003	3.59960E-001	-1.14191E+000	3.57790E+000	10	...........
	40	0.546667	8.96431E-001	5.99487E-003	0.00000E+000	5.37398E-003	3.59960E-001	-1.14745E+000	3.57790E+000	10	...........
	41	0.56	9.02520E-001	5.99176E-003	0.00000E+000	5.40768E-003	3.59960E-001	-1.13821E+000	3.57790E+000	10	...........
	42	0.573333	9.08623E-001	5.99668E-003	0.00000E+000	5.44872E-003	3.59960E-001	-1.14229E+000	3.57790E+000	10	...........
	43	0.586667	9.14632E-001	5.99603E-003	0.00000E+000	5.48417E-003	3.59960E-001	-1.14758E+000	3.57790E+000	10	...........
	44	0.6	9.20605E-001	5.99292E-003	0.00000E+000	5.51711E-003	3.59960E-001	-1.13841E+000	3.57790E+000	10	...........
	45	0.613333	9.26629E-001	5.99435E-003	0.00000E+000	5.55454E-003	3.59960E-001	-1.14280E+000	3.57790E+000	10	...........
	46	0.626667	9.32613E-001	5.99292E-003	0.00000E+000	5.58907E-003	3.59960E-001	-1.14758E+000	3.57790E+000	10	...........
	47	0.64	9.38506E-001	5.99274E-003	0.00000E+000	5.62422E-003	3.59960E-001	-1.13850E+000	3.57790E+000	10	...........
	48	0.653333	9.44406E-001	5.99740E-003	0.00000E+000	5.66398E-003	3.59960E-001	-1.14311E+000	3.57820E+000	10	...........
	49	0.666667	9.50263E-001	5.99598E-003	0.00000E+000	5.69776E-003	3.59960E-001	-1.14742E+000	3.57820E+000	10	...........
	50	0.68	9.56055E-001	5.99378E-003	0.00000E+000	5.73039E-003	3.59960E-001	-1.13888E+000	3.57820E+000	10	...........
	51	0.693333	9.61822E-001	5.99389E-003	0.00000E+000	5.76505E-003	3.59960E-001	-1.14354E+000	3.57820E+000	10	...........
	52	0.706667	9.67538E-001	5.99764E-003	0.00000E+000	5.80295E-003	3.59960E-001	-1.14772E+000	3.57820E+000	10	...........
	53	0.72	9.73243E-001	5.99449E-003	0.00000E+000	5.83409E-003	3.59960E-001	-1.13925E+000	3.57820E+000	10	...........
	54	0.733333	9.78897E-001	5.99059E-003	0.00000E+000	5.86417E-003	3.59960E-001	-1.14392E+000	3.57820E+000	10	...........
	55	0.746667	9.84491E-001	5.99836E-003	0.00000E+000	5.90533E-003	3.59960E-001	-1.14781E+000	3.57820E+000	10	...........
	56	0.76	9.90004E-001	5.99349E-003	0.00000E+000	5.93358E-003	3.59960E-001	-1.13944E+000	3.57820E+000	10	...........
	57	0.773333	9.95532E-001	5.99662E-003	0.00000E+000	5.96983E-003	3.59960E-001	-1.14426E+000	3.57820E+000	10	...........
	58	0.78	9.99606E-001	5.99632E-003	0.00000E+000	5.99395E-003	3.59960E-001	-1.14344E+000	3.57820E+000	10	...........
STARTTIMEOFFSET	QUANT	825.0402	Start Time Offset (s)