File: Data/CV_CRGO300517_1/PWRCCD_CRGO300517_1/CHARGE_DISCHARGE/CHARGE_#963.DTA
EXPLAIN
TAG	PWR800_CHARGE
TITLE	LABEL	PWR Cyclic Charge Discharge (Cell) - Charge Step	Test &Identifier
DATE	LABEL	22-6-2017	Date
TIME	LABEL	16:13:17	Time
NOTES	NOTES	3	&Notes...
	supercap test cell
	0.6mg
	6M KOH
PSTAT	PSTAT	IFC5000-01520	Potentiostat
CAPACITY	QUANT	1.00000E-003	Capacity (A-hr)
CELLTYPE	SELECTOR	1	&Cell Type
WORKINGCONNECTION	SELECTOR	0	&Working Lead
MAXCHARGETIME	VARIABLEANDUNITS	1.00000E+002	s	1.00000E+002	second(s)	Max &Charge Time
CHARGECURRENT	QUANT	6.00000E-003	&Charge Current (A)
VOLTAGEFINISH	TWOPARAM	F	1.00000E-003	3.60000E+003	&Voltage Finish	 I (A) < 	Max Time(s)
SAMPLETIME	QUANT	1.00000E-002	Sa&mple Period (s)
CHARGESTOPAT1	MULTIPARAM	4	1.00000E+000	Charge Stop At &1	Voltage > Limit	V
CHARGESTOPAT2	MULTIPARAM	0	0.00000E+000	Charge Stop At &2	None	N/A
AESBHCSELECTOR	TOGGLE	F	Save Both Half Cells
IRCOMP	TOGGLE	F	IR &Measure
EOC	QUANT	0	Open Circuit (V)
SEQUENCER	TOGGLE	TRUE	Run as Sequence
PSTATMODEL	IQUANT	53	Pstat Model
PSTATSECTION	LABEL	IFC5000-01520	Pstat Section
PSTATSERIALNO	LABEL	01520	Pstat Serial Number
CTRLMODE	IQUANT	0	Control Mode
ELECTROMETER	IQUANT	1	RE=0 or CS=1
IESTAB	IQUANT	0	I/E Stability
CASPEED	IQUANT	4	Control Amp Speed
CONVENTION	IQUANT	1	Current Convention
ICHRANGE	IQUANT	2	Ich Range
ICHRANGEMODE	TOGGLE	T	Ich Auto Range
ICHOFFSETENABLE	TOGGLE	F	Ich Offset Enable
ICHOFFSET	QUANT	0	Ich Offset (V)
ICHFILTER	IQUANT	1	Ich Filter
VCHRANGE	IQUANT	2	Vch Range
VCHRANGEMODE	TOGGLE	T	Vch Auto Range
VCHOFFSETENABLE	TOGGLE	F	Vch Offset Enable
VCHOFFSET	QUANT	0	Vch Offset (V)
VCHFILTER	IQUANT	1	Vch Filter
IERANGELOWERLIMIT	IQUANT	9	I/E Range Lower Limit
IERANGEMODE	TOGGLE	F	I/E AutoRange
IERANGE	IQUANT	10	I/E Range
ACHSELECT	IQUANT	1	Ach Select
ACHRANGE	IQUANT	2	Ach Range
ACHOFFSETENABLE	TOGGLE	F	Ach Offset Enable
ACHOFFSET	QUANT	0	Ach Offset (V)
ACHFILTER	IQUANT	1	Ach Filter
CABLEID	IQUANT	14	Cable ID
DCCALDATE	LABEL	20-10-2016	DC Calibration Date
ACCALDATE	LABEL	12/3/2015	AC Calibration Date
FRAMEWORKVERSION	QUANT	7.01	Framework Version
INSTRUMENTVERSION	LABEL	4.00	Instrument Version
CURVE	TABLE	53
	Pt	T	Vf	Im	Vu	Pwr	Sig	Ach	Temp	IERange	Over
	#	s	V	A	V	W	V	V	deg C	#	bits
	0	0.013333	6.55684E-001	5.99517E-003	0.00000E+000	3.93094E-003	3.59960E-001	-1.17407E+000	3.57680E+000	10	...........
	1	0.026667	6.64979E-001	5.99119E-003	0.00000E+000	3.98402E-003	3.59960E-001	-1.17824E+000	3.57680E+000	10	...........
	2	0.04	6.73572E-001	5.99059E-003	0.00000E+000	4.03509E-003	3.59960E-001	-1.18336E+000	3.57680E+000	10	...........
	3	0.053333	6.81713E-001	5.99429E-003	0.00000E+000	4.08638E-003	3.59960E-001	-1.17402E+000	3.57680E+000	10	...........
	4	0.066667	6.89555E-001	5.99589E-003	0.00000E+000	4.13450E-003	3.59960E-001	-1.17826E+000	3.57680E+000	10	...........
	5	0.08	6.97208E-001	5.99178E-003	0.00000E+000	4.17752E-003	3.59960E-001	-1.18308E+000	3.57680E+000	10	...........
	6	0.093333	7.04665E-001	5.99119E-003	0.00000E+000	4.22178E-003	3.59960E-001	-1.17370E+000	3.57680E+000	10	...........
	7	0.106667	7.12031E-001	5.99528E-003	0.00000E+000	4.26883E-003	3.59960E-001	-1.17837E+000	3.57680E+000	10	...........
	8	0.12	7.19323E-001	5.99326E-003	0.00000E+000	4.31109E-003	3.59960E-001	-1.18331E+000	3.57680E+000	10	...........
	9	0.133333	7.26534E-001	5.99476E-003	0.00000E+000	4.35540E-003	3.59960E-001	-1.17409E+000	3.57680E+000	10	...........
	10	0.146667	7.33645E-001	5.99357E-003	0.00000E+000	4.39716E-003	3.59960E-001	-1.17816E+000	3.57680E+000	10	...........
	11	0.16	7.40731E-001	5.99518E-003	0.00000E+000	4.44081E-003	3.59960E-001	-1.18308E+000	3.57680E+000	10	...........
	12	0.173333	7.47748E-001	5.99753E-003	0.00000E+000	4.48464E-003	3.59960E-001	-1.17417E+000	3.57680E+000	10	...........
	13	0.186667	7.54783E-001	5.99440E-003	0.00000E+000	4.52447E-003	3.59960E-001	-1.17841E+000	3.57680E+000	10	...........
	14	0.2	7.61712E-001	5.99300E-003	0.00000E+000	4.56494E-003	3.59960E-001	-1.18318E+000	3.57680E+000	10	...........
	15	0.213333	7.68612E-001	5.99749E-003	0.00000E+000	4.60975E-003	3.59960E-001	-1.17373E+000	3.57680E+000	10	...........
	16	0.226667	7.75485E-001	5.99981E-003	0.00000E+000	4.65276E-003	3.59960E-001	-1.17804E+000	3.57680E+000	10	...........
	17	0.24	7.82287E-001	5.99494E-003	0.00000E+000	4.68976E-003	3.59960E-001	-1.18271E+000	3.57680E+000	10	...........
	18	0.253333	7.89130E-001	5.99692E-003	0.00000E+000	4.73235E-003	3.59960E-001	-1.17361E+000	3.57680E+000	10	...........
	19	0.266667	7.95966E-001	5.99473E-003	0.00000E+000	4.77160E-003	3.59960E-001	-1.17809E+000	3.57680E+000	10	...........
	20	0.28	8.02689E-001	5.99134E-003	0.00000E+000	4.80918E-003	3.59960E-001	-1.18258E+000	3.57680E+000	10	...........
	21	0.293333	8.09400E-001	5.99613E-003	0.00000E+000	4.85326E-003	3.59960E-001	-1.17360E+000	3.57680E+000	10	...........
	22	0.306667	8.16096E-001	5.99009E-003	0.00000E+000	4.88849E-003	3.59960E-001	-1.17808E+000	3.57680E+000	10	...........
	23	0.32	8.22797E-001	5.99766E-003	0.00000E+000	4.93486E-003	3.59960E-001	-1.18266E+000	3.57680E+000	10	...........
	24	0.333333	8.29437E-001	5.99422E-003	0.00000E+000	4.97183E-003	3.59960E-001	-1.17355E+000	3.57680E+000	10	...........
	25	0.346667	8.36030E-001	5.99579E-003	0.00000E+000	5.01266E-003	3.59960E-001	-1.17808E+000	3.57680E+000	10	...........
	26	0.36	8.42652E-001	5.99822E-003	0.00000E+000	5.05442E-003	3.59960E-001	-1.18259E+000	3.57662E+000	10	...........
	27	0.373333	8.49254E-001	5.99636E-003	0.00000E+000	5.09243E-003	3.59960E-001	-1.17350E+000	3.57660E+000	10	...........
	28	0.386667	8.55778E-001	5.99315E-003	0.00000E+000	5.12881E-003	3.59960E-001	-1.17813E+000	3.57660E+000	10	...........
	29	0.4	8.62329E-001	5.99369E-003	0.00000E+000	5.16853E-003	3.59960E-001	-1.18239E+000	3.57660E+000	10	...........
	30	0.413333	8.68837E-001	5.99041E-003	0.00000E+000	5.20469E-003	3.59960E-001	-1.17351E+000	3.57660E+000	10	...........
	31	0.426667	8.75275E-001	5.99576E-003	0.00000E+000	5.24794E-003	3.59960E-001	-1.17807E+000	3.57660E+000	10	...........
	32	0.44	8.81690E-001	5.98908E-003	0.00000E+000	5.28051E-003	3.59960E-001	-1.18244E+000	3.57660E+000	10	...........
	33	0.453333	8.88099E-001	5.99939E-003	0.00000E+000	5.32805E-003	3.59960E-001	-1.17365E+000	3.57660E+000	10	...........
	34	0.466667	8.94445E-001	5.99390E-003	0.00000E+000	5.36121E-003	3.59960E-001	-1.17816E+000	3.57660E+000	10	...........
	35	0.48	9.00779E-001	5.99301E-003	0.00000E+000	5.39837E-003	3.59960E-001	-1.18257E+000	3.57660E+000	10	...........
	36	0.493333	9.07108E-001	5.99293E-003	0.00000E+000	5.43623E-003	3.59960E-001	-1.17360E+000	3.57660E+000	10	...........
	37	0.506667	9.13344E-001	5.99179E-003	0.00000E+000	5.47257E-003	3.59960E-001	-1.17823E+000	3.57660E+000	10	...........
	38	0.52	9.19574E-001	5.99638E-003	0.00000E+000	5.51412E-003	3.59960E-001	-1.18251E+000	3.57660E+000	10	...........
	39	0.533333	9.25765E-001	5.99281E-003	0.00000E+000	5.54794E-003	3.59960E-001	-1.17340E+000	3.57660E+000	10	...........
	40	0.546667	9.31875E-001	5.99265E-003	0.00000E+000	5.58440E-003	3.59960E-001	-1.17779E+000	3.57660E+000	10	...........
	41	0.56	9.37930E-001	5.99345E-003	0.00000E+000	5.62143E-003	3.59960E-001	-1.18200E+000	3.57660E+000	10	...........
	42	0.573333	9.43957E-001	5.98851E-003	0.00000E+000	5.65290E-003	3.59960E-001	-1.17332E+000	3.57660E+000	10	...........
	43	0.586667	9.49998E-001	5.99404E-003	0.00000E+000	5.69433E-003	3.59960E-001	-1.17799E+000	3.57660E+000	10	...........
	44	0.6	9.55918E-001	5.99204E-003	0.00000E+000	5.72790E-003	3.59960E-001	-1.18206E+000	3.57660E+000	10	...........
	45	0.613333	9.61766E-001	5.99425E-003	0.00000E+000	5.76507E-003	3.59960E-001	-1.17324E+000	3.57660E+000	10	...........
	46	0.626667	9.67619E-001	5.99413E-003	0.00000E+000	5.80003E-003	3.59960E-001	-1.17778E+000	3.57660E+000	10	...........
	47	0.64	9.73445E-001	5.99397E-003	0.00000E+000	5.83480E-003	3.59960E-001	-1.18210E+000	3.57660E+000	10	...........
	48	0.653333	9.79122E-001	5.99626E-003	0.00000E+000	5.87108E-003	3.59960E-001	-1.17323E+000	3.57660E+000	10	...........
	49	0.666667	9.84765E-001	5.99287E-003	0.00000E+000	5.90157E-003	3.59960E-001	-1.17781E+000	3.57660E+000	10	...........
	50	0.68	9.90424E-001	5.99301E-003	0.00000E+000	5.93562E-003	3.59960E-001	-1.18195E+000	3.57660E+000	10	...........
	51	0.693333	9.95934E-001	5.99164E-003	0.00000E+000	5.96728E-003	3.59960E-001	-1.17286E+000	3.57660E+000	10	...........
	52	0.698333	9.99747E-001	5.99446E-003	0.00000E+000	5.99294E-003	3.59960E-001	-1.18728E+000	3.57660E+000	10	...........
STARTTIMEOFFSET	QUANT	1534.052	Start Time Offset (s)