File: Data/CV_CRGO300517_1/PWRCCD_CRGO300517_1/CHARGE_DISCHARGE/CHARGE_#432.DTA
EXPLAIN
TAG	PWR800_CHARGE
TITLE	LABEL	PWR Cyclic Charge Discharge (Cell) - Charge Step	Test &Identifier
DATE	LABEL	22-6-2017	Date
TIME	LABEL	15:53:14	Time
NOTES	NOTES	3	&Notes...
	supercap test cell
	0.6mg
	6M KOH
PSTAT	PSTAT	IFC5000-01520	Potentiostat
CAPACITY	QUANT	1.00000E-003	Capacity (A-hr)
CELLTYPE	SELECTOR	1	&Cell Type
WORKINGCONNECTION	SELECTOR	0	&Working Lead
MAXCHARGETIME	VARIABLEANDUNITS	1.00000E+002	s	1.00000E+002	second(s)	Max &Charge Time
CHARGECURRENT	QUANT	6.00000E-003	&Charge Current (A)
VOLTAGEFINISH	TWOPARAM	F	1.00000E-003	3.60000E+003	&Voltage Finish	 I (A) < 	Max Time(s)
SAMPLETIME	QUANT	1.00000E-002	Sa&mple Period (s)
CHARGESTOPAT1	MULTIPARAM	4	1.00000E+000	Charge Stop At &1	Voltage > Limit	V
CHARGESTOPAT2	MULTIPARAM	0	0.00000E+000	Charge Stop At &2	None	N/A
AESBHCSELECTOR	TOGGLE	F	Save Both Half Cells
IRCOMP	TOGGLE	F	IR &Measure
EOC	QUANT	0	Open Circuit (V)
SEQUENCER	TOGGLE	TRUE	Run as Sequence
PSTATMODEL	IQUANT	53	Pstat Model
PSTATSECTION	LABEL	IFC5000-01520	Pstat Section
PSTATSERIALNO	LABEL	01520	Pstat Serial Number
CTRLMODE	IQUANT	0	Control Mode
ELECTROMETER	IQUANT	1	RE=0 or CS=1
IESTAB	IQUANT	0	I/E Stability
CASPEED	IQUANT	4	Control Amp Speed
CONVENTION	IQUANT	1	Current Convention
ICHRANGE	IQUANT	2	Ich Range
ICHRANGEMODE	TOGGLE	T	Ich Auto Range
ICHOFFSETENABLE	TOGGLE	F	Ich Offset Enable
ICHOFFSET	QUANT	0	Ich Offset (V)
ICHFILTER	IQUANT	1	Ich Filter
VCHRANGE	IQUANT	2	Vch Range
VCHRANGEMODE	TOGGLE	T	Vch Auto Range
VCHOFFSETENABLE	TOGGLE	F	Vch Offset Enable
VCHOFFSET	QUANT	0	Vch Offset (V)
VCHFILTER	IQUANT	1	Vch Filter
IERANGELOWERLIMIT	IQUANT	9	I/E Range Lower Limit
IERANGEMODE	TOGGLE	F	I/E AutoRange
IERANGE	IQUANT	10	I/E Range
ACHSELECT	IQUANT	1	Ach Select
ACHRANGE	IQUANT	2	Ach Range
ACHOFFSETENABLE	TOGGLE	F	Ach Offset Enable
ACHOFFSET	QUANT	0	Ach Offset (V)
ACHFILTER	IQUANT	1	Ach Filter
CABLEID	IQUANT	14	Cable ID
DCCALDATE	LABEL	20-10-2016	DC Calibration Date
ACCALDATE	LABEL	12/3/2015	AC Calibration Date
FRAMEWORKVERSION	QUANT	7.01	Framework Version
INSTRUMENTVERSION	LABEL	4.00	Instrument Version
CURVE	TABLE	60
	Pt	T	Vf	Im	Vu	Pwr	Sig	Ach	Temp	IERange	Over
	#	s	V	A	V	W	V	V	deg C	#	bits
	0	0.013333	6.26981E-001	5.99757E-003	0.00000E+000	3.76036E-003	3.59960E-001	-1.13206E+000	3.57790E+000	10	...........
	1	0.026667	6.35789E-001	5.99216E-003	0.00000E+000	3.80975E-003	3.59960E-001	-1.14332E+000	3.57790E+000	10	...........
	2	0.04	6.43912E-001	5.99261E-003	0.00000E+000	3.85872E-003	3.59960E-001	-1.13338E+000	3.57790E+000	10	...........
	3	0.053333	6.51551E-001	5.99763E-003	0.00000E+000	3.90776E-003	3.59960E-001	-1.13228E+000	3.57790E+000	10	...........
	4	0.066667	6.58960E-001	5.99493E-003	0.00000E+000	3.95042E-003	3.59960E-001	-1.14327E+000	3.57790E+000	10	...........
	5	0.08	6.66192E-001	5.99751E-003	0.00000E+000	3.99549E-003	3.59960E-001	-1.13326E+000	3.57790E+000	10	...........
	6	0.093333	6.73269E-001	5.99403E-003	0.00000E+000	4.03560E-003	3.59960E-001	-1.13230E+000	3.57790E+000	10	...........
	7	0.106667	6.80211E-001	5.99080E-003	0.00000E+000	4.07501E-003	3.59960E-001	-1.14340E+000	3.57790E+000	10	...........
	8	0.12	6.87028E-001	5.99342E-003	0.00000E+000	4.11765E-003	3.59960E-001	-1.13334E+000	3.57790E+000	10	...........
	9	0.133333	6.93807E-001	5.99589E-003	0.00000E+000	4.15999E-003	3.59960E-001	-1.13237E+000	3.57790E+000	10	...........
	10	0.146667	7.00536E-001	5.99970E-003	0.00000E+000	4.20300E-003	3.59960E-001	-1.14313E+000	3.57790E+000	10	...........
	11	0.16	7.07198E-001	5.99632E-003	0.00000E+000	4.24058E-003	3.59960E-001	-1.13305E+000	3.57790E+000	10	...........
	12	0.173333	7.13817E-001	5.99382E-003	0.00000E+000	4.27849E-003	3.59960E-001	-1.13230E+000	3.57790E+000	10	...........
	13	0.186667	7.20478E-001	5.99091E-003	0.00000E+000	4.31632E-003	3.59960E-001	-1.14318E+000	3.57790E+000	10	...........
	14	0.2	7.27044E-001	5.99176E-003	0.00000E+000	4.35627E-003	3.59960E-001	-1.13275E+000	3.57790E+000	10	...........
	15	0.213333	7.33624E-001	5.99367E-003	0.00000E+000	4.39710E-003	3.59960E-001	-1.13193E+000	3.57790E+000	10	...........
	16	0.226667	7.40105E-001	5.99747E-003	0.00000E+000	4.43876E-003	3.59960E-001	-1.14259E+000	3.57790E+000	10	...........
	17	0.24	7.46612E-001	5.99301E-003	0.00000E+000	4.47445E-003	3.59960E-001	-1.13264E+000	3.57790E+000	10	...........
	18	0.253333	7.53118E-001	5.99037E-003	0.00000E+000	4.51145E-003	3.59960E-001	-1.13195E+000	3.57790E+000	10	...........
	19	0.266667	7.59518E-001	5.99224E-003	0.00000E+000	4.55121E-003	3.59960E-001	-1.14290E+000	3.57790E+000	10	...........
	20	0.28	7.65954E-001	5.99496E-003	0.00000E+000	4.59186E-003	3.59960E-001	-1.13237E+000	3.57790E+000	10	...........
	21	0.293333	7.72414E-001	5.99283E-003	0.00000E+000	4.62894E-003	3.59960E-001	-1.13172E+000	3.57790E+000	10	...........
	22	0.306667	7.78847E-001	5.99821E-003	0.00000E+000	4.67169E-003	3.59960E-001	-1.14274E+000	3.57790E+000	10	...........
	23	0.32	7.85226E-001	5.99213E-003	0.00000E+000	4.70518E-003	3.59960E-001	-1.13228E+000	3.57790E+000	10	...........
	24	0.333333	7.91586E-001	5.99197E-003	0.00000E+000	4.74315E-003	3.59960E-001	-1.13193E+000	3.57790E+000	10	...........
	25	0.346667	7.97987E-001	5.99167E-003	0.00000E+000	4.78128E-003	3.59960E-001	-1.14262E+000	3.57790E+000	10	...........
	26	0.36	8.04353E-001	5.99211E-003	0.00000E+000	4.81977E-003	3.59960E-001	-1.13224E+000	3.57790E+000	10	...........
	27	0.373333	8.10644E-001	5.99334E-003	0.00000E+000	4.85847E-003	3.59960E-001	-1.13210E+000	3.57790E+000	10	...........
	28	0.386667	8.16956E-001	5.99658E-003	0.00000E+000	4.89894E-003	3.59960E-001	-1.14273E+000	3.57790E+000	10	...........
	29	0.4	8.23302E-001	5.99249E-003	0.00000E+000	4.93363E-003	3.59960E-001	-1.13231E+000	3.57790E+000	10	...........
	30	0.413333	8.29586E-001	5.99348E-003	0.00000E+000	4.97211E-003	3.59960E-001	-1.13197E+000	3.57790E+000	10	...........
	31	0.426667	8.35917E-001	5.99787E-003	0.00000E+000	5.01372E-003	3.59960E-001	-1.14272E+000	3.57790E+000	10	...........
	32	0.44	8.42168E-001	5.99591E-003	0.00000E+000	5.04956E-003	3.59960E-001	-1.13222E+000	3.57790E+000	10	...........
	33	0.453333	8.48469E-001	5.99184E-003	0.00000E+000	5.08389E-003	3.59960E-001	-1.13213E+000	3.57790E+000	10	...........
	34	0.466667	8.54724E-001	5.99494E-003	0.00000E+000	5.12402E-003	3.59960E-001	-1.14277E+000	3.57790E+000	10	...........
	35	0.48	8.60953E-001	5.99061E-003	0.00000E+000	5.15763E-003	3.59960E-001	-1.13188E+000	3.57790E+000	10	...........
	36	0.493333	8.67144E-001	5.99342E-003	0.00000E+000	5.19715E-003	3.59960E-001	-1.13170E+000	3.57790E+000	10	...........
	37	0.506667	8.73372E-001	5.99385E-003	0.00000E+000	5.23487E-003	3.59960E-001	-1.14208E+000	3.57790E+000	10	...........
	38	0.52	8.79536E-001	5.99531E-003	0.00000E+000	5.27309E-003	3.59960E-001	-1.13193E+000	3.57790E+000	10	...........
	39	0.533333	8.85697E-001	5.99266E-003	0.00000E+000	5.30768E-003	3.59960E-001	-1.13199E+000	3.57790E+000	10	...........
	40	0.546667	8.91786E-001	5.99396E-003	0.00000E+000	5.34533E-003	3.59960E-001	-1.14203E+000	3.57790E+000	10	...........
	41	0.56	8.97884E-001	5.99482E-003	0.00000E+000	5.38266E-003	3.59960E-001	-1.13146E+000	3.57790E+000	10	...........
	42	0.573333	9.03925E-001	5.99202E-003	0.00000E+000	5.41633E-003	3.59960E-001	-1.13176E+000	3.57790E+000	10	...........
	43	0.586667	9.09964E-001	5.99579E-003	0.00000E+000	5.45596E-003	3.59960E-001	-1.14196E+000	3.57790E+000	10	...........
	44	0.6	9.15964E-001	5.99373E-003	0.00000E+000	5.49004E-003	3.59960E-001	-1.13147E+000	3.57790E+000	10	...........
	45	0.613333	9.22018E-001	5.99658E-003	0.00000E+000	5.52895E-003	3.59960E-001	-1.13178E+000	3.57790E+000	10	...........
	46	0.626667	9.27950E-001	5.99712E-003	0.00000E+000	5.56503E-003	3.59960E-001	-1.14189E+000	3.57790E+000	10	...........
	47	0.64	9.33856E-001	5.99657E-003	0.00000E+000	5.59993E-003	3.59960E-001	-1.13141E+000	3.57790E+000	10	...........
	48	0.653333	9.39723E-001	5.99183E-003	0.00000E+000	5.63066E-003	3.59960E-001	-1.13191E+000	3.57790E+000	10	...........
	49	0.666667	9.45584E-001	5.99252E-003	0.00000E+000	5.66643E-003	3.59960E-001	-1.14202E+000	3.57790E+000	10	...........
	50	0.68	9.51447E-001	5.99523E-003	0.00000E+000	5.70415E-003	3.59960E-001	-1.13118E+000	3.57790E+000	10	...........
	51	0.693333	9.57197E-001	5.99332E-003	0.00000E+000	5.73679E-003	3.59960E-001	-1.13162E+000	3.57790E+000	10	...........
	52	0.706667	9.62967E-001	5.99173E-003	0.00000E+000	5.76983E-003	3.59960E-001	-1.14181E+000	3.57790E+000	10	...........
	53	0.72	9.68641E-001	5.99792E-003	0.00000E+000	5.80983E-003	3.59960E-001	-1.13148E+000	3.57790E+000	10	...........
	54	0.733333	9.74321E-001	5.99886E-003	0.00000E+000	5.84481E-003	3.59960E-001	-1.13212E+000	3.57790E+000	10	...........
	55	0.746667	9.79917E-001	5.99569E-003	0.00000E+000	5.87528E-003	3.59960E-001	-1.14196E+000	3.57790E+000	10	...........
	56	0.76	9.85494E-001	5.99510E-003	0.00000E+000	5.90813E-003	3.59960E-001	-1.13115E+000	3.57790E+000	10	...........
	57	0.773333	9.91028E-001	5.98809E-003	0.00000E+000	5.93436E-003	3.59960E-001	-1.13194E+000	3.57790E+000	10	...........
	58	0.786667	9.96494E-001	5.99254E-003	0.00000E+000	5.97153E-003	3.59960E-001	-1.14208E+000	3.57790E+000	10	...........
	59	0.79	9.99859E-001	5.99417E-003	0.00000E+000	5.99332E-003	3.59960E-001	-1.12336E+000	3.57790E+000	10	...........
STARTTIMEOFFSET	QUANT	753.2333	Start Time Offset (s)