File: Data/CV_CRGO300517_1/PWRCCD_CRGO300517_1/CHARGE_DISCHARGE/CHARGE_#735.DTA
EXPLAIN
TAG	PWR800_CHARGE
TITLE	LABEL	PWR Cyclic Charge Discharge (Cell) - Charge Step	Test &Identifier
DATE	LABEL	22-6-2017	Date
TIME	LABEL	16:04:52	Time
NOTES	NOTES	3	&Notes...
	supercap test cell
	0.6mg
	6M KOH
PSTAT	PSTAT	IFC5000-01520	Potentiostat
CAPACITY	QUANT	1.00000E-003	Capacity (A-hr)
CELLTYPE	SELECTOR	1	&Cell Type
WORKINGCONNECTION	SELECTOR	0	&Working Lead
MAXCHARGETIME	VARIABLEANDUNITS	1.00000E+002	s	1.00000E+002	second(s)	Max &Charge Time
CHARGECURRENT	QUANT	6.00000E-003	&Charge Current (A)
VOLTAGEFINISH	TWOPARAM	F	1.00000E-003	3.60000E+003	&Voltage Finish	 I (A) < 	Max Time(s)
SAMPLETIME	QUANT	1.00000E-002	Sa&mple Period (s)
CHARGESTOPAT1	MULTIPARAM	4	1.00000E+000	Charge Stop At &1	Voltage > Limit	V
CHARGESTOPAT2	MULTIPARAM	0	0.00000E+000	Charge Stop At &2	None	N/A
AESBHCSELECTOR	TOGGLE	F	Save Both Half Cells
IRCOMP	TOGGLE	F	IR &Measure
EOC	QUANT	0	Open Circuit (V)
SEQUENCER	TOGGLE	TRUE	Run as Sequence
PSTATMODEL	IQUANT	53	Pstat Model
PSTATSECTION	LABEL	IFC5000-01520	Pstat Section
PSTATSERIALNO	LABEL	01520	Pstat Serial Number
CTRLMODE	IQUANT	0	Control Mode
ELECTROMETER	IQUANT	1	RE=0 or CS=1
IESTAB	IQUANT	0	I/E Stability
CASPEED	IQUANT	4	Control Amp Speed
CONVENTION	IQUANT	1	Current Convention
ICHRANGE	IQUANT	2	Ich Range
ICHRANGEMODE	TOGGLE	T	Ich Auto Range
ICHOFFSETENABLE	TOGGLE	F	Ich Offset Enable
ICHOFFSET	QUANT	0	Ich Offset (V)
ICHFILTER	IQUANT	1	Ich Filter
VCHRANGE	IQUANT	2	Vch Range
VCHRANGEMODE	TOGGLE	T	Vch Auto Range
VCHOFFSETENABLE	TOGGLE	F	Vch Offset Enable
VCHOFFSET	QUANT	0	Vch Offset (V)
VCHFILTER	IQUANT	1	Vch Filter
IERANGELOWERLIMIT	IQUANT	9	I/E Range Lower Limit
IERANGEMODE	TOGGLE	F	I/E AutoRange
IERANGE	IQUANT	10	I/E Range
ACHSELECT	IQUANT	1	Ach Select
ACHRANGE	IQUANT	2	Ach Range
ACHOFFSETENABLE	TOGGLE	F	Ach Offset Enable
ACHOFFSET	QUANT	0	Ach Offset (V)
ACHFILTER	IQUANT	1	Ach Filter
CABLEID	IQUANT	14	Cable ID
DCCALDATE	LABEL	20-10-2016	DC Calibration Date
ACCALDATE	LABEL	12/3/2015	AC Calibration Date
FRAMEWORKVERSION	QUANT	7.01	Framework Version
INSTRUMENTVERSION	LABEL	4.00	Instrument Version
CURVE	TABLE	55
	Pt	T	Vf	Im	Vu	Pwr	Sig	Ach	Temp	IERange	Over
	#	s	V	A	V	W	V	V	deg C	#	bits
	0	0.013333	6.45517E-001	5.99608E-003	0.00000E+000	3.87057E-003	3.59960E-001	-1.14685E+000	3.57650E+000	10	...........
	1	0.026667	6.54593E-001	6.00188E-003	0.00000E+000	3.92878E-003	3.59960E-001	-1.15694E+000	3.57650E+000	10	...........
	2	0.04	6.63013E-001	5.99257E-003	0.00000E+000	3.97315E-003	3.59960E-001	-1.15111E+000	3.57650E+000	10	...........
	3	0.053333	6.70991E-001	5.99083E-003	0.00000E+000	4.01979E-003	3.59960E-001	-1.14625E+000	3.57650E+000	10	...........
	4	0.066667	6.78676E-001	5.99136E-003	0.00000E+000	4.06620E-003	3.59960E-001	-1.15674E+000	3.57650E+000	10	...........
	5	0.08	6.86160E-001	5.99501E-003	0.00000E+000	4.11354E-003	3.59960E-001	-1.15098E+000	3.57695E+000	10	...........
	6	0.093333	6.93547E-001	5.99012E-003	0.00000E+000	4.15443E-003	3.59960E-001	-1.14627E+000	3.57740E+000	10	...........
	7	0.106667	7.00713E-001	5.98896E-003	0.00000E+000	4.19655E-003	3.59960E-001	-1.15665E+000	3.57740E+000	10	...........
	8	0.12	7.07841E-001	5.99269E-003	0.00000E+000	4.24187E-003	3.59960E-001	-1.15058E+000	3.57740E+000	10	...........
	9	0.133333	7.14921E-001	5.99725E-003	0.00000E+000	4.28756E-003	3.59960E-001	-1.14642E+000	3.57740E+000	10	...........
	10	0.146667	7.21927E-001	5.99391E-003	0.00000E+000	4.32716E-003	3.59960E-001	-1.15689E+000	3.57740E+000	10	...........
	11	0.16	7.28821E-001	5.98748E-003	0.00000E+000	4.36380E-003	3.59960E-001	-1.15060E+000	3.57740E+000	10	...........
	12	0.173333	7.35718E-001	5.99626E-003	0.00000E+000	4.41156E-003	3.59960E-001	-1.14615E+000	3.57740E+000	10	...........
	13	0.186667	7.42559E-001	5.99418E-003	0.00000E+000	4.45103E-003	3.59960E-001	-1.15681E+000	3.57740E+000	10	...........
	14	0.2	7.49363E-001	5.99427E-003	0.00000E+000	4.49188E-003	3.59960E-001	-1.15068E+000	3.57740E+000	10	...........
	15	0.213333	7.56168E-001	5.99785E-003	0.00000E+000	4.53538E-003	3.59960E-001	-1.14652E+000	3.57740E+000	10	...........
	16	0.226667	7.62944E-001	5.98993E-003	0.00000E+000	4.56998E-003	3.59960E-001	-1.15683E+000	3.57740E+000	10	...........
	17	0.24	7.69664E-001	5.99141E-003	0.00000E+000	4.61137E-003	3.59960E-001	-1.15029E+000	3.57740E+000	10	...........
	18	0.253333	7.76389E-001	5.99549E-003	0.00000E+000	4.65483E-003	3.59960E-001	-1.14618E+000	3.57740E+000	10	...........
	19	0.266667	7.83079E-001	5.99956E-003	0.00000E+000	4.69813E-003	3.59960E-001	-1.15686E+000	3.57740E+000	10	...........
	20	0.28	7.89740E-001	5.99633E-003	0.00000E+000	4.73554E-003	3.59960E-001	-1.15021E+000	3.57740E+000	10	...........
	21	0.293333	7.96410E-001	5.98994E-003	0.00000E+000	4.77045E-003	3.59960E-001	-1.14595E+000	3.57740E+000	10	...........
	22	0.306667	8.03032E-001	5.99077E-003	0.00000E+000	4.81078E-003	3.59960E-001	-1.15639E+000	3.57740E+000	10	...........
	23	0.32	8.09641E-001	5.99455E-003	0.00000E+000	4.85344E-003	3.59960E-001	-1.14974E+000	3.57740E+000	10	...........
	24	0.333333	8.16219E-001	5.99572E-003	0.00000E+000	4.89382E-003	3.59960E-001	-1.14588E+000	3.57740E+000	10	...........
	25	0.346667	8.22766E-001	5.99023E-003	0.00000E+000	4.92856E-003	3.59960E-001	-1.15664E+000	3.57740E+000	10	...........
	26	0.36	8.29268E-001	5.99411E-003	0.00000E+000	4.97073E-003	3.59960E-001	-1.14975E+000	3.57740E+000	10	...........
	27	0.373333	8.35802E-001	5.99488E-003	0.00000E+000	5.01053E-003	3.59960E-001	-1.14549E+000	3.57740E+000	10	...........
	28	0.386667	8.42272E-001	5.99637E-003	0.00000E+000	5.05057E-003	3.59960E-001	-1.15655E+000	3.57740E+000	10	...........
	29	0.4	8.48747E-001	5.99143E-003	0.00000E+000	5.08521E-003	3.59960E-001	-1.14944E+000	3.57740E+000	10	...........
	30	0.413333	8.55180E-001	5.99810E-003	0.00000E+000	5.12946E-003	3.59960E-001	-1.14583E+000	3.57740E+000	10	...........
	31	0.426667	8.61604E-001	5.99507E-003	0.00000E+000	5.16538E-003	3.59960E-001	-1.15672E+000	3.57740E+000	10	...........
	32	0.44	8.67999E-001	5.99853E-003	0.00000E+000	5.20671E-003	3.59960E-001	-1.14911E+000	3.57740E+000	10	...........
	33	0.453333	8.74391E-001	5.99413E-003	0.00000E+000	5.24121E-003	3.59960E-001	-1.14574E+000	3.57740E+000	10	...........
	34	0.466667	8.80706E-001	5.98957E-003	0.00000E+000	5.27505E-003	3.59960E-001	-1.15658E+000	3.57740E+000	10	...........
	35	0.48	8.87042E-001	5.99502E-003	0.00000E+000	5.31784E-003	3.59960E-001	-1.14946E+000	3.57740E+000	10	...........
	36	0.493333	8.93315E-001	5.99371E-003	0.00000E+000	5.35427E-003	3.59960E-001	-1.14592E+000	3.57740E+000	10	...........
	37	0.506667	8.99544E-001	5.99257E-003	0.00000E+000	5.39058E-003	3.59960E-001	-1.15661E+000	3.57740E+000	10	...........
	38	0.52	9.05730E-001	5.99440E-003	0.00000E+000	5.42931E-003	3.59960E-001	-1.14910E+000	3.57740E+000	10	...........
	39	0.533333	9.11905E-001	5.99373E-003	0.00000E+000	5.46571E-003	3.59960E-001	-1.14595E+000	3.57740E+000	10	...........
	40	0.546667	9.18040E-001	5.99598E-003	0.00000E+000	5.50455E-003	3.59960E-001	-1.15682E+000	3.57740E+000	10	...........
	41	0.56	9.24188E-001	5.99050E-003	0.00000E+000	5.53635E-003	3.59960E-001	-1.14911E+000	3.57740E+000	10	...........
	42	0.573333	9.30264E-001	5.99491E-003	0.00000E+000	5.57685E-003	3.59960E-001	-1.14563E+000	3.57740E+000	10	...........
	43	0.586667	9.36274E-001	5.99835E-003	0.00000E+000	5.61610E-003	3.59960E-001	-1.15684E+000	3.57740E+000	10	...........
	44	0.6	9.42308E-001	5.99650E-003	0.00000E+000	5.65055E-003	3.59960E-001	-1.14887E+000	3.57740E+000	10	...........
	45	0.613333	9.48249E-001	5.99168E-003	0.00000E+000	5.68161E-003	3.59960E-001	-1.14557E+000	3.57740E+000	10	...........
	46	0.626667	9.54154E-001	5.99589E-003	0.00000E+000	5.72100E-003	3.59960E-001	-1.15650E+000	3.57740E+000	10	...........
	47	0.64	9.59992E-001	5.99087E-003	0.00000E+000	5.75119E-003	3.59960E-001	-1.14849E+000	3.57740E+000	10	...........
	48	0.653333	9.65776E-001	5.99389E-003	0.00000E+000	5.78875E-003	3.59960E-001	-1.14555E+000	3.57740E+000	10	...........
	49	0.666667	9.71527E-001	5.98845E-003	0.00000E+000	5.81794E-003	3.59960E-001	-1.15683E+000	3.57740E+000	10	...........
	50	0.68	9.77298E-001	5.99373E-003	0.00000E+000	5.85766E-003	3.59960E-001	-1.14845E+000	3.57740E+000	10	...........
	51	0.693333	9.82946E-001	5.99831E-003	0.00000E+000	5.89602E-003	3.59960E-001	-1.14559E+000	3.57740E+000	10	...........
	52	0.706667	9.88571E-001	5.99104E-003	0.00000E+000	5.92257E-003	3.59960E-001	-1.15663E+000	3.57740E+000	10	...........
	53	0.72	9.94088E-001	5.99542E-003	0.00000E+000	5.95997E-003	3.59960E-001	-1.14860E+000	3.57740E+000	10	...........
	54	0.73	9.98935E-001	5.99286E-003	0.00000E+000	5.98648E-003	3.59960E-001	-1.14708E+000	3.57740E+000	10	...........
STARTTIMEOFFSET	QUANT	1210.314	Start Time Offset (s)