File: Data/CV_CRGO300517_1/PWRCCD_CRGO300517_1/CHARGE_DISCHARGE/CHARGE_#914.DTA
EXPLAIN
TAG	PWR800_CHARGE
TITLE	LABEL	PWR Cyclic Charge Discharge (Cell) - Charge Step	Test &Identifier
DATE	LABEL	22-6-2017	Date
TIME	LABEL	16:11:30	Time
NOTES	NOTES	3	&Notes...
	supercap test cell
	0.6mg
	6M KOH
PSTAT	PSTAT	IFC5000-01520	Potentiostat
CAPACITY	QUANT	1.00000E-003	Capacity (A-hr)
CELLTYPE	SELECTOR	1	&Cell Type
WORKINGCONNECTION	SELECTOR	0	&Working Lead
MAXCHARGETIME	VARIABLEANDUNITS	1.00000E+002	s	1.00000E+002	second(s)	Max &Charge Time
CHARGECURRENT	QUANT	6.00000E-003	&Charge Current (A)
VOLTAGEFINISH	TWOPARAM	F	1.00000E-003	3.60000E+003	&Voltage Finish	 I (A) < 	Max Time(s)
SAMPLETIME	QUANT	1.00000E-002	Sa&mple Period (s)
CHARGESTOPAT1	MULTIPARAM	4	1.00000E+000	Charge Stop At &1	Voltage > Limit	V
CHARGESTOPAT2	MULTIPARAM	0	0.00000E+000	Charge Stop At &2	None	N/A
AESBHCSELECTOR	TOGGLE	F	Save Both Half Cells
IRCOMP	TOGGLE	F	IR &Measure
EOC	QUANT	0	Open Circuit (V)
SEQUENCER	TOGGLE	TRUE	Run as Sequence
PSTATMODEL	IQUANT	53	Pstat Model
PSTATSECTION	LABEL	IFC5000-01520	Pstat Section
PSTATSERIALNO	LABEL	01520	Pstat Serial Number
CTRLMODE	IQUANT	0	Control Mode
ELECTROMETER	IQUANT	1	RE=0 or CS=1
IESTAB	IQUANT	0	I/E Stability
CASPEED	IQUANT	4	Control Amp Speed
CONVENTION	IQUANT	1	Current Convention
ICHRANGE	IQUANT	2	Ich Range
ICHRANGEMODE	TOGGLE	T	Ich Auto Range
ICHOFFSETENABLE	TOGGLE	F	Ich Offset Enable
ICHOFFSET	QUANT	0	Ich Offset (V)
ICHFILTER	IQUANT	1	Ich Filter
VCHRANGE	IQUANT	2	Vch Range
VCHRANGEMODE	TOGGLE	T	Vch Auto Range
VCHOFFSETENABLE	TOGGLE	F	Vch Offset Enable
VCHOFFSET	QUANT	0	Vch Offset (V)
VCHFILTER	IQUANT	1	Vch Filter
IERANGELOWERLIMIT	IQUANT	9	I/E Range Lower Limit
IERANGEMODE	TOGGLE	F	I/E AutoRange
IERANGE	IQUANT	10	I/E Range
ACHSELECT	IQUANT	1	Ach Select
ACHRANGE	IQUANT	2	Ach Range
ACHOFFSETENABLE	TOGGLE	F	Ach Offset Enable
ACHOFFSET	QUANT	0	Ach Offset (V)
ACHFILTER	IQUANT	1	Ach Filter
CABLEID	IQUANT	14	Cable ID
DCCALDATE	LABEL	20-10-2016	DC Calibration Date
ACCALDATE	LABEL	12/3/2015	AC Calibration Date
FRAMEWORKVERSION	QUANT	7.01	Framework Version
INSTRUMENTVERSION	LABEL	4.00	Instrument Version
CURVE	TABLE	53
	Pt	T	Vf	Im	Vu	Pwr	Sig	Ach	Temp	IERange	Over
	#	s	V	A	V	W	V	V	deg C	#	bits
	0	0.013333	6.53391E-001	5.99691E-003	0.00000E+000	3.91833E-003	3.59960E-001	-1.17569E+000	3.57640E+000	10	...........
	1	0.026667	6.62727E-001	5.99466E-003	0.00000E+000	3.97282E-003	3.59960E-001	-1.17959E+000	3.57648E+000	10	...........
	2	0.04	6.71350E-001	5.99100E-003	0.00000E+000	4.02205E-003	3.59960E-001	-1.17074E+000	3.57660E+000	10	...........
	3	0.053333	6.79401E-001	5.99371E-003	0.00000E+000	4.07213E-003	3.59960E-001	-1.17548E+000	3.57660E+000	10	...........
	4	0.066667	6.87228E-001	5.99640E-003	0.00000E+000	4.12090E-003	3.59960E-001	-1.17971E+000	3.57660E+000	10	...........
	5	0.08	6.94847E-001	5.99550E-003	0.00000E+000	4.16596E-003	3.59960E-001	-1.17078E+000	3.57660E+000	10	...........
	6	0.093333	7.02285E-001	5.99454E-003	0.00000E+000	4.20988E-003	3.59960E-001	-1.17556E+000	3.57660E+000	10	...........
	7	0.106667	7.09653E-001	5.99602E-003	0.00000E+000	4.25510E-003	3.59960E-001	-1.17978E+000	3.57660E+000	10	...........
	8	0.12	7.16883E-001	5.99629E-003	0.00000E+000	4.29864E-003	3.59960E-001	-1.17048E+000	3.57660E+000	10	...........
	9	0.133333	7.24063E-001	5.99385E-003	0.00000E+000	4.33993E-003	3.59960E-001	-1.17480E+000	3.57660E+000	10	...........
	10	0.146667	7.31143E-001	5.99418E-003	0.00000E+000	4.38260E-003	3.59960E-001	-1.17968E+000	3.57660E+000	10	...........
	11	0.16	7.38187E-001	5.99526E-003	0.00000E+000	4.42563E-003	3.59960E-001	-1.17023E+000	3.57660E+000	10	...........
	12	0.173333	7.45215E-001	5.99403E-003	0.00000E+000	4.46684E-003	3.59960E-001	-1.17456E+000	3.57660E+000	10	...........
	13	0.186667	7.52151E-001	5.99446E-003	0.00000E+000	4.50874E-003	3.59960E-001	-1.17920E+000	3.57660E+000	10	...........
	14	0.2	7.59116E-001	5.99623E-003	0.00000E+000	4.55184E-003	3.59960E-001	-1.17002E+000	3.57660E+000	10	...........
	15	0.213333	7.65985E-001	5.99587E-003	0.00000E+000	4.59274E-003	3.59960E-001	-1.17456E+000	3.57660E+000	10	...........
	16	0.226667	7.72842E-001	5.99423E-003	0.00000E+000	4.63259E-003	3.59960E-001	-1.17925E+000	3.57660E+000	10	...........
	17	0.24	7.79679E-001	5.99985E-003	0.00000E+000	4.67796E-003	3.59960E-001	-1.17002E+000	3.57660E+000	10	...........
	18	0.253333	7.86473E-001	5.99359E-003	0.00000E+000	4.71380E-003	3.59960E-001	-1.17399E+000	3.57660E+000	10	...........
	19	0.266667	7.93223E-001	5.99005E-003	0.00000E+000	4.75144E-003	3.59960E-001	-1.17898E+000	3.57660E+000	10	...........
	20	0.28	7.99996E-001	5.99234E-003	0.00000E+000	4.79385E-003	3.59960E-001	-1.16981E+000	3.57660E+000	10	...........
	21	0.293333	8.06704E-001	5.99597E-003	0.00000E+000	4.83697E-003	3.59960E-001	-1.17409E+000	3.57660E+000	10	...........
	22	0.306667	8.13393E-001	5.99083E-003	0.00000E+000	4.87290E-003	3.59960E-001	-1.17908E+000	3.57660E+000	10	...........
	23	0.32	8.20079E-001	5.99115E-003	0.00000E+000	4.91322E-003	3.59960E-001	-1.16953E+000	3.57660E+000	10	...........
	24	0.333333	8.26691E-001	5.99129E-003	0.00000E+000	4.95295E-003	3.59960E-001	-1.17363E+000	3.57660E+000	10	...........
	25	0.346667	8.33315E-001	5.99855E-003	0.00000E+000	4.99868E-003	3.59960E-001	-1.17919E+000	3.57660E+000	10	...........
	26	0.36	8.39899E-001	5.99470E-003	0.00000E+000	5.03494E-003	3.59960E-001	-1.16975E+000	3.57660E+000	10	...........
	27	0.373333	8.46487E-001	5.99782E-003	0.00000E+000	5.07708E-003	3.59960E-001	-1.17377E+000	3.57660E+000	10	...........
	28	0.386667	8.53051E-001	5.99507E-003	0.00000E+000	5.11410E-003	3.59960E-001	-1.17928E+000	3.57660E+000	10	...........
	29	0.4	8.59580E-001	5.99046E-003	0.00000E+000	5.14928E-003	3.59960E-001	-1.16973E+000	3.57660E+000	10	...........
	30	0.413333	8.66061E-001	5.99234E-003	0.00000E+000	5.18973E-003	3.59960E-001	-1.17360E+000	3.57660E+000	10	...........
	31	0.426667	8.72564E-001	5.99877E-003	0.00000E+000	5.23431E-003	3.59960E-001	-1.17926E+000	3.57660E+000	10	...........
	32	0.44	8.78965E-001	5.99104E-003	0.00000E+000	5.26592E-003	3.59960E-001	-1.16942E+000	3.57660E+000	10	...........
	33	0.453333	8.85355E-001	5.99139E-003	0.00000E+000	5.30451E-003	3.59960E-001	-1.17323E+000	3.57660E+000	10	...........
	34	0.466667	8.91734E-001	5.99018E-003	0.00000E+000	5.34165E-003	3.59960E-001	-1.17920E+000	3.57660E+000	10	...........
	35	0.48	8.98061E-001	5.99443E-003	0.00000E+000	5.38336E-003	3.59960E-001	-1.16925E+000	3.57660E+000	10	...........
	36	0.493333	9.04337E-001	5.99856E-003	0.00000E+000	5.42472E-003	3.59960E-001	-1.17270E+000	3.57660E+000	10	...........
	37	0.506667	9.10623E-001	5.99447E-003	0.00000E+000	5.45870E-003	3.59960E-001	-1.17873E+000	3.57660E+000	10	...........
	38	0.52	9.16808E-001	5.99077E-003	0.00000E+000	5.49238E-003	3.59960E-001	-1.16882E+000	3.57660E+000	10	...........
	39	0.533333	9.23041E-001	5.99139E-003	0.00000E+000	5.53030E-003	3.59960E-001	-1.17268E+000	3.57660E+000	10	...........
	40	0.546667	9.29167E-001	5.99502E-003	0.00000E+000	5.57037E-003	3.59960E-001	-1.17905E+000	3.57660E+000	10	...........
	41	0.56	9.35229E-001	5.99342E-003	0.00000E+000	5.60522E-003	3.59960E-001	-1.16910E+000	3.57660E+000	10	...........
	42	0.573333	9.41304E-001	5.99654E-003	0.00000E+000	5.64457E-003	3.59960E-001	-1.17259E+000	3.57660E+000	10	...........
	43	0.586667	9.47278E-001	5.99290E-003	0.00000E+000	5.67695E-003	3.59960E-001	-1.17892E+000	3.57660E+000	10	...........
	44	0.6	9.53255E-001	5.98996E-003	0.00000E+000	5.70996E-003	3.59960E-001	-1.16896E+000	3.57660E+000	10	...........
	45	0.613333	9.59133E-001	5.99405E-003	0.00000E+000	5.74909E-003	3.59960E-001	-1.17258E+000	3.57660E+000	10	...........
	46	0.626667	9.64984E-001	5.99329E-003	0.00000E+000	5.78343E-003	3.59960E-001	-1.17921E+000	3.57660E+000	10	...........
	47	0.64	9.70803E-001	5.99074E-003	0.00000E+000	5.81582E-003	3.59960E-001	-1.16893E+000	3.57660E+000	10	...........
	48	0.653333	9.76565E-001	5.99479E-003	0.00000E+000	5.85431E-003	3.59960E-001	-1.17235E+000	3.57660E+000	10	...........
	49	0.666667	9.82234E-001	5.99243E-003	0.00000E+000	5.88596E-003	3.59960E-001	-1.17903E+000	3.57660E+000	10	...........
	50	0.68	9.87899E-001	5.99769E-003	0.00000E+000	5.92512E-003	3.59960E-001	-1.16922E+000	3.57660E+000	10	...........
	51	0.693333	9.93510E-001	5.99236E-003	0.00000E+000	5.95347E-003	3.59960E-001	-1.17248E+000	3.57660E+000	10	...........
	52	0.703333	9.98385E-001	5.99675E-003	0.00000E+000	5.98707E-003	3.59960E-001	-1.17861E+000	3.57660E+000	10	...........
STARTTIMEOFFSET	QUANT	1465.701	Start Time Offset (s)