File: Data/CV_CRGO300517_1/PWRCCD_CRGO300517_1/CHARGE_DISCHARGE/CHARGE_#462.DTA
EXPLAIN
TAG	PWR800_CHARGE
TITLE	LABEL	PWR Cyclic Charge Discharge (Cell) - Charge Step	Test &Identifier
DATE	LABEL	22-6-2017	Date
TIME	LABEL	15:54:26	Time
NOTES	NOTES	3	&Notes...
	supercap test cell
	0.6mg
	6M KOH
PSTAT	PSTAT	IFC5000-01520	Potentiostat
CAPACITY	QUANT	1.00000E-003	Capacity (A-hr)
CELLTYPE	SELECTOR	1	&Cell Type
WORKINGCONNECTION	SELECTOR	0	&Working Lead
MAXCHARGETIME	VARIABLEANDUNITS	1.00000E+002	s	1.00000E+002	second(s)	Max &Charge Time
CHARGECURRENT	QUANT	6.00000E-003	&Charge Current (A)
VOLTAGEFINISH	TWOPARAM	F	1.00000E-003	3.60000E+003	&Voltage Finish	 I (A) < 	Max Time(s)
SAMPLETIME	QUANT	1.00000E-002	Sa&mple Period (s)
CHARGESTOPAT1	MULTIPARAM	4	1.00000E+000	Charge Stop At &1	Voltage > Limit	V
CHARGESTOPAT2	MULTIPARAM	0	0.00000E+000	Charge Stop At &2	None	N/A
AESBHCSELECTOR	TOGGLE	F	Save Both Half Cells
IRCOMP	TOGGLE	F	IR &Measure
EOC	QUANT	0	Open Circuit (V)
SEQUENCER	TOGGLE	TRUE	Run as Sequence
PSTATMODEL	IQUANT	53	Pstat Model
PSTATSECTION	LABEL	IFC5000-01520	Pstat Section
PSTATSERIALNO	LABEL	01520	Pstat Serial Number
CTRLMODE	IQUANT	0	Control Mode
ELECTROMETER	IQUANT	1	RE=0 or CS=1
IESTAB	IQUANT	0	I/E Stability
CASPEED	IQUANT	4	Control Amp Speed
CONVENTION	IQUANT	1	Current Convention
ICHRANGE	IQUANT	2	Ich Range
ICHRANGEMODE	TOGGLE	T	Ich Auto Range
ICHOFFSETENABLE	TOGGLE	F	Ich Offset Enable
ICHOFFSET	QUANT	0	Ich Offset (V)
ICHFILTER	IQUANT	1	Ich Filter
VCHRANGE	IQUANT	2	Vch Range
VCHRANGEMODE	TOGGLE	T	Vch Auto Range
VCHOFFSETENABLE	TOGGLE	F	Vch Offset Enable
VCHOFFSET	QUANT	0	Vch Offset (V)
VCHFILTER	IQUANT	1	Vch Filter
IERANGELOWERLIMIT	IQUANT	9	I/E Range Lower Limit
IERANGEMODE	TOGGLE	F	I/E AutoRange
IERANGE	IQUANT	10	I/E Range
ACHSELECT	IQUANT	1	Ach Select
ACHRANGE	IQUANT	2	Ach Range
ACHOFFSETENABLE	TOGGLE	F	Ach Offset Enable
ACHOFFSET	QUANT	0	Ach Offset (V)
ACHFILTER	IQUANT	1	Ach Filter
CABLEID	IQUANT	14	Cable ID
DCCALDATE	LABEL	20-10-2016	DC Calibration Date
ACCALDATE	LABEL	12/3/2015	AC Calibration Date
FRAMEWORKVERSION	QUANT	7.01	Framework Version
INSTRUMENTVERSION	LABEL	4.00	Instrument Version
CURVE	TABLE	59
	Pt	T	Vf	Im	Vu	Pwr	Sig	Ach	Temp	IERange	Over
	#	s	V	A	V	W	V	V	deg C	#	bits
	0	0.013333	6.28934E-001	5.98812E-003	0.00000E+000	3.76613E-003	3.59960E-001	-1.13612E+000	3.57640E+000	10	...........
	1	0.026667	6.37823E-001	5.99924E-003	0.00000E+000	3.82645E-003	3.59960E-001	-1.12922E+000	3.57640E+000	10	...........
	2	0.04	6.45907E-001	5.99464E-003	0.00000E+000	3.87198E-003	3.59960E-001	-1.13687E+000	3.57640E+000	10	...........
	3	0.053333	6.53612E-001	5.99234E-003	0.00000E+000	3.91667E-003	3.59960E-001	-1.13638E+000	3.57640E+000	10	...........
	4	0.066667	6.61045E-001	5.99576E-003	0.00000E+000	3.96347E-003	3.59960E-001	-1.12949E+000	3.57640E+000	10	...........
	5	0.08	6.68298E-001	5.99527E-003	0.00000E+000	4.00663E-003	3.59960E-001	-1.13688E+000	3.57640E+000	10	...........
	6	0.093333	6.75366E-001	5.99271E-003	0.00000E+000	4.04727E-003	3.59960E-001	-1.13619E+000	3.57640E+000	10	...........
	7	0.106667	6.82329E-001	5.99837E-003	0.00000E+000	4.09286E-003	3.59960E-001	-1.12928E+000	3.57640E+000	10	...........
	8	0.12	6.89195E-001	5.99443E-003	0.00000E+000	4.13133E-003	3.59960E-001	-1.13679E+000	3.57640E+000	10	...........
	9	0.133333	6.96014E-001	5.99551E-003	0.00000E+000	4.17296E-003	3.59960E-001	-1.13608E+000	3.57640E+000	10	...........
	10	0.146667	7.02779E-001	5.99474E-003	0.00000E+000	4.21298E-003	3.59960E-001	-1.12902E+000	3.57640E+000	10	...........
	11	0.16	7.09452E-001	5.99447E-003	0.00000E+000	4.25279E-003	3.59960E-001	-1.13665E+000	3.57640E+000	10	...........
	12	0.173333	7.16137E-001	5.99344E-003	0.00000E+000	4.29212E-003	3.59960E-001	-1.13608E+000	3.57640E+000	10	...........
	13	0.186667	7.22802E-001	5.99433E-003	0.00000E+000	4.33271E-003	3.59960E-001	-1.12888E+000	3.57655E+000	10	...........
	14	0.2	7.29399E-001	5.99467E-003	0.00000E+000	4.37250E-003	3.59960E-001	-1.13634E+000	3.57670E+000	10	...........
	15	0.213333	7.35913E-001	5.98889E-003	0.00000E+000	4.40730E-003	3.59960E-001	-1.13554E+000	3.57670E+000	10	...........
	16	0.226667	7.42496E-001	5.99593E-003	0.00000E+000	4.45196E-003	3.59960E-001	-1.12859E+000	3.57670E+000	10	...........
	17	0.24	7.49055E-001	5.99535E-003	0.00000E+000	4.49084E-003	3.59960E-001	-1.13613E+000	3.57670E+000	10	...........
	18	0.253333	7.55545E-001	5.99133E-003	0.00000E+000	4.52672E-003	3.59960E-001	-1.13576E+000	3.57670E+000	10	...........
	19	0.266667	7.62026E-001	5.99582E-003	0.00000E+000	4.56897E-003	3.59960E-001	-1.12881E+000	3.57670E+000	10	...........
	20	0.28	7.68458E-001	5.99332E-003	0.00000E+000	4.60562E-003	3.59960E-001	-1.13595E+000	3.57670E+000	10	...........
	21	0.293333	7.74935E-001	5.99296E-003	0.00000E+000	4.64415E-003	3.59960E-001	-1.13544E+000	3.57670E+000	10	...........
	22	0.306667	7.81392E-001	5.99911E-003	0.00000E+000	4.68766E-003	3.59960E-001	-1.12863E+000	3.57670E+000	10	...........
	23	0.32	7.87798E-001	5.99217E-003	0.00000E+000	4.72062E-003	3.59960E-001	-1.13621E+000	3.57670E+000	10	...........
	24	0.333333	7.94249E-001	5.99311E-003	0.00000E+000	4.76003E-003	3.59960E-001	-1.13568E+000	3.57670E+000	10	...........
	25	0.346667	8.00630E-001	5.99056E-003	0.00000E+000	4.79622E-003	3.59960E-001	-1.12840E+000	3.57670E+000	10	...........
	26	0.36	8.06985E-001	5.99479E-003	0.00000E+000	4.83771E-003	3.59960E-001	-1.13584E+000	3.57670E+000	10	...........
	27	0.373333	8.13370E-001	5.99274E-003	0.00000E+000	4.87431E-003	3.59960E-001	-1.13562E+000	3.57670E+000	10	...........
	28	0.386667	8.19727E-001	5.99379E-003	0.00000E+000	4.91327E-003	3.59960E-001	-1.12877E+000	3.57670E+000	10	...........
	29	0.4	8.26076E-001	5.99918E-003	0.00000E+000	4.95578E-003	3.59960E-001	-1.13612E+000	3.57670E+000	10	...........
	30	0.413333	8.32375E-001	5.99281E-003	0.00000E+000	4.98826E-003	3.59960E-001	-1.13565E+000	3.57670E+000	10	...........
	31	0.426667	8.38666E-001	5.99605E-003	0.00000E+000	5.02868E-003	3.59960E-001	-1.12874E+000	3.57670E+000	10	...........
	32	0.44	8.44985E-001	5.99586E-003	0.00000E+000	5.06641E-003	3.59960E-001	-1.13577E+000	3.57670E+000	10	...........
	33	0.453333	8.51272E-001	5.99546E-003	0.00000E+000	5.10376E-003	3.59960E-001	-1.13597E+000	3.57670E+000	10	...........
	34	0.466667	8.57541E-001	5.99337E-003	0.00000E+000	5.13957E-003	3.59960E-001	-1.12885E+000	3.57670E+000	10	...........
	35	0.48	8.63759E-001	5.99773E-003	0.00000E+000	5.18059E-003	3.59960E-001	-1.13570E+000	3.57670E+000	10	...........
	36	0.493333	8.69977E-001	5.99621E-003	0.00000E+000	5.21657E-003	3.59960E-001	-1.13563E+000	3.57670E+000	10	...........
	37	0.506667	8.76184E-001	5.99465E-003	0.00000E+000	5.25242E-003	3.59960E-001	-1.12843E+000	3.57670E+000	10	...........
	38	0.52	8.82364E-001	5.99427E-003	0.00000E+000	5.28913E-003	3.59960E-001	-1.13552E+000	3.57670E+000	10	...........
	39	0.533333	8.88523E-001	5.99231E-003	0.00000E+000	5.32430E-003	3.59960E-001	-1.13552E+000	3.57670E+000	10	...........
	40	0.546667	8.94673E-001	5.99311E-003	0.00000E+000	5.36187E-003	3.59960E-001	-1.12819E+000	3.57670E+000	10	...........
	41	0.56	9.00776E-001	5.99502E-003	0.00000E+000	5.40017E-003	3.59960E-001	-1.13526E+000	3.57670E+000	10	...........
	42	0.573333	9.06857E-001	5.99268E-003	0.00000E+000	5.43450E-003	3.59960E-001	-1.13549E+000	3.57670E+000	10	...........
	43	0.586667	9.12864E-001	5.99822E-003	0.00000E+000	5.47556E-003	3.59960E-001	-1.12833E+000	3.57670E+000	10	...........
	44	0.6	9.18921E-001	5.99571E-003	0.00000E+000	5.50959E-003	3.59960E-001	-1.13539E+000	3.57670E+000	10	...........
	45	0.613333	9.24979E-001	5.99351E-003	0.00000E+000	5.54387E-003	3.59960E-001	-1.13519E+000	3.57670E+000	10	...........
	46	0.626667	9.30911E-001	5.99721E-003	0.00000E+000	5.58287E-003	3.59960E-001	-1.12802E+000	3.57670E+000	10	...........
	47	0.64	9.36808E-001	5.99163E-003	0.00000E+000	5.61301E-003	3.59960E-001	-1.13519E+000	3.57670E+000	10	...........
	48	0.653333	9.42659E-001	5.99108E-003	0.00000E+000	5.64755E-003	3.59960E-001	-1.13561E+000	3.57670E+000	10	...........
	49	0.666667	9.48525E-001	5.99612E-003	0.00000E+000	5.68747E-003	3.59960E-001	-1.12814E+000	3.57670E+000	10	...........
	50	0.68	9.54328E-001	5.99217E-003	0.00000E+000	5.71850E-003	3.59960E-001	-1.13520E+000	3.57670E+000	10	...........
	51	0.693333	9.60080E-001	5.99240E-003	0.00000E+000	5.75319E-003	3.59960E-001	-1.13530E+000	3.57670E+000	10	...........
	52	0.706667	9.65806E-001	5.99645E-003	0.00000E+000	5.79141E-003	3.59960E-001	-1.12833E+000	3.57670E+000	10	...........
	53	0.72	9.71481E-001	5.99381E-003	0.00000E+000	5.82287E-003	3.59960E-001	-1.13538E+000	3.57670E+000	10	...........
	54	0.733333	9.77134E-001	5.99063E-003	0.00000E+000	5.85365E-003	3.59960E-001	-1.13583E+000	3.57670E+000	10	...........
	55	0.746667	9.82739E-001	5.99618E-003	0.00000E+000	5.89268E-003	3.59960E-001	-1.12830E+000	3.57670E+000	10	...........
	56	0.76	9.88287E-001	5.99284E-003	0.00000E+000	5.92265E-003	3.59960E-001	-1.13531E+000	3.57670E+000	10	...........
	57	0.773333	9.93764E-001	5.98898E-003	0.00000E+000	5.95164E-003	3.59960E-001	-1.13574E+000	3.57670E+000	10	...........
	58	0.783333	9.98585E-001	5.99443E-003	0.00000E+000	5.98595E-003	3.59960E-001	-1.12516E+000	3.57670E+000	10	...........
STARTTIMEOFFSET	QUANT	800.1784	Start Time Offset (s)