File: Data/CV_CRGO300517_1/PWRCCD_CRGO300517_1/CHARGE_DISCHARGE/CHARGE_#513.DTA
EXPLAIN
TAG	PWR800_CHARGE
TITLE	LABEL	PWR Cyclic Charge Discharge (Cell) - Charge Step	Test &Identifier
DATE	LABEL	22-6-2017	Date
TIME	LABEL	15:56:25	Time
NOTES	NOTES	3	&Notes...
	supercap test cell
	0.6mg
	6M KOH
PSTAT	PSTAT	IFC5000-01520	Potentiostat
CAPACITY	QUANT	1.00000E-003	Capacity (A-hr)
CELLTYPE	SELECTOR	1	&Cell Type
WORKINGCONNECTION	SELECTOR	0	&Working Lead
MAXCHARGETIME	VARIABLEANDUNITS	1.00000E+002	s	1.00000E+002	second(s)	Max &Charge Time
CHARGECURRENT	QUANT	6.00000E-003	&Charge Current (A)
VOLTAGEFINISH	TWOPARAM	F	1.00000E-003	3.60000E+003	&Voltage Finish	 I (A) < 	Max Time(s)
SAMPLETIME	QUANT	1.00000E-002	Sa&mple Period (s)
CHARGESTOPAT1	MULTIPARAM	4	1.00000E+000	Charge Stop At &1	Voltage > Limit	V
CHARGESTOPAT2	MULTIPARAM	0	0.00000E+000	Charge Stop At &2	None	N/A
AESBHCSELECTOR	TOGGLE	F	Save Both Half Cells
IRCOMP	TOGGLE	F	IR &Measure
EOC	QUANT	0	Open Circuit (V)
SEQUENCER	TOGGLE	TRUE	Run as Sequence
PSTATMODEL	IQUANT	53	Pstat Model
PSTATSECTION	LABEL	IFC5000-01520	Pstat Section
PSTATSERIALNO	LABEL	01520	Pstat Serial Number
CTRLMODE	IQUANT	0	Control Mode
ELECTROMETER	IQUANT	1	RE=0 or CS=1
IESTAB	IQUANT	0	I/E Stability
CASPEED	IQUANT	4	Control Amp Speed
CONVENTION	IQUANT	1	Current Convention
ICHRANGE	IQUANT	2	Ich Range
ICHRANGEMODE	TOGGLE	T	Ich Auto Range
ICHOFFSETENABLE	TOGGLE	F	Ich Offset Enable
ICHOFFSET	QUANT	0	Ich Offset (V)
ICHFILTER	IQUANT	1	Ich Filter
VCHRANGE	IQUANT	2	Vch Range
VCHRANGEMODE	TOGGLE	T	Vch Auto Range
VCHOFFSETENABLE	TOGGLE	F	Vch Offset Enable
VCHOFFSET	QUANT	0	Vch Offset (V)
VCHFILTER	IQUANT	1	Vch Filter
IERANGELOWERLIMIT	IQUANT	9	I/E Range Lower Limit
IERANGEMODE	TOGGLE	F	I/E AutoRange
IERANGE	IQUANT	10	I/E Range
ACHSELECT	IQUANT	1	Ach Select
ACHRANGE	IQUANT	2	Ach Range
ACHOFFSETENABLE	TOGGLE	F	Ach Offset Enable
ACHOFFSET	QUANT	0	Ach Offset (V)
ACHFILTER	IQUANT	1	Ach Filter
CABLEID	IQUANT	14	Cable ID
DCCALDATE	LABEL	20-10-2016	DC Calibration Date
ACCALDATE	LABEL	12/3/2015	AC Calibration Date
FRAMEWORKVERSION	QUANT	7.01	Framework Version
INSTRUMENTVERSION	LABEL	4.00	Instrument Version
CURVE	TABLE	58
	Pt	T	Vf	Im	Vu	Pwr	Sig	Ach	Temp	IERange	Over
	#	s	V	A	V	W	V	V	deg C	#	bits
	0	0.013333	6.32508E-001	5.99394E-003	0.00000E+000	3.79121E-003	3.59960E-001	-1.12345E+000	3.57640E+000	10	...........
	1	0.026667	6.41423E-001	5.99329E-003	0.00000E+000	3.84423E-003	3.59960E-001	-1.13394E+000	3.57640E+000	10	...........
	2	0.04	6.49581E-001	5.99384E-003	0.00000E+000	3.89349E-003	3.59960E-001	-1.12642E+000	3.57640E+000	10	...........
	3	0.053333	6.57312E-001	5.99134E-003	0.00000E+000	3.93818E-003	3.59960E-001	-1.12301E+000	3.57640E+000	10	...........
	4	0.066667	6.64808E-001	5.99425E-003	0.00000E+000	3.98502E-003	3.59960E-001	-1.13350E+000	3.57640E+000	10	...........
	5	0.08	6.72160E-001	5.99483E-003	0.00000E+000	4.02949E-003	3.59960E-001	-1.12621E+000	3.57640E+000	10	...........
	6	0.093333	6.79287E-001	5.99392E-003	0.00000E+000	4.07159E-003	3.59960E-001	-1.12312E+000	3.57640E+000	10	...........
	7	0.106667	6.86268E-001	5.99792E-003	0.00000E+000	4.11618E-003	3.59960E-001	-1.13369E+000	3.57640E+000	10	...........
	8	0.12	6.93207E-001	5.99692E-003	0.00000E+000	4.15711E-003	3.59960E-001	-1.12669E+000	3.57640E+000	10	...........
	9	0.133333	7.00072E-001	5.99584E-003	0.00000E+000	4.19752E-003	3.59960E-001	-1.12316E+000	3.57640E+000	10	...........
	10	0.146667	7.06863E-001	5.99306E-003	0.00000E+000	4.23627E-003	3.59960E-001	-1.13387E+000	3.57640E+000	10	...........
	11	0.16	7.13617E-001	5.99200E-003	0.00000E+000	4.27599E-003	3.59960E-001	-1.12638E+000	3.57640E+000	10	...........
	12	0.173333	7.20372E-001	5.99773E-003	0.00000E+000	4.32060E-003	3.59960E-001	-1.12314E+000	3.57640E+000	10	...........
	13	0.186667	7.27037E-001	5.99451E-003	0.00000E+000	4.35823E-003	3.59960E-001	-1.13351E+000	3.57640E+000	10	...........
	14	0.2	7.33654E-001	5.99328E-003	0.00000E+000	4.39700E-003	3.59960E-001	-1.12556E+000	3.57640E+000	10	...........
	15	0.213333	7.40333E-001	5.98885E-003	0.00000E+000	4.43374E-003	3.59960E-001	-1.12247E+000	3.57640E+000	10	...........
	16	0.226667	7.46913E-001	5.99458E-003	0.00000E+000	4.47743E-003	3.59960E-001	-1.13334E+000	3.57640E+000	10	...........
	17	0.24	7.53497E-001	5.99358E-003	0.00000E+000	4.51614E-003	3.59960E-001	-1.12544E+000	3.57640E+000	10	...........
	18	0.253333	7.60063E-001	5.99092E-003	0.00000E+000	4.55348E-003	3.59960E-001	-1.12292E+000	3.57640E+000	10	...........
	19	0.266667	7.66591E-001	5.99052E-003	0.00000E+000	4.59228E-003	3.59960E-001	-1.13330E+000	3.57640E+000	10	...........
	20	0.28	7.73133E-001	5.99168E-003	0.00000E+000	4.63237E-003	3.59960E-001	-1.12519E+000	3.57640E+000	10	...........
	21	0.293333	7.79659E-001	5.99421E-003	0.00000E+000	4.67344E-003	3.59960E-001	-1.12238E+000	3.57640E+000	10	...........
	22	0.306667	7.86092E-001	5.99499E-003	0.00000E+000	4.71262E-003	3.59960E-001	-1.13310E+000	3.57640E+000	10	...........
	23	0.32	7.92585E-001	5.99078E-003	0.00000E+000	4.74820E-003	3.59960E-001	-1.12489E+000	3.57640E+000	10	...........
	24	0.333333	7.99055E-001	5.99178E-003	0.00000E+000	4.78776E-003	3.59960E-001	-1.12182E+000	3.57640E+000	10	...........
	25	0.346667	8.05501E-001	5.99518E-003	0.00000E+000	4.82912E-003	3.59960E-001	-1.13210E+000	3.57640E+000	10	...........
	26	0.36	8.11892E-001	5.99297E-003	0.00000E+000	4.86564E-003	3.59960E-001	-1.12364E+000	3.57640E+000	10	...........
	27	0.373333	8.18298E-001	5.99497E-003	0.00000E+000	4.90567E-003	3.59960E-001	-1.12115E+000	3.57640E+000	10	...........
	28	0.386667	8.24717E-001	5.99532E-003	0.00000E+000	4.94444E-003	3.59960E-001	-1.13207E+000	3.57640E+000	10	...........
	29	0.4	8.31074E-001	5.99011E-003	0.00000E+000	4.97822E-003	3.59960E-001	-1.12356E+000	3.57640E+000	10	...........
	30	0.413333	8.37384E-001	5.99307E-003	0.00000E+000	5.01850E-003	3.59960E-001	-1.12082E+000	3.57640E+000	10	...........
	31	0.426667	8.43721E-001	5.99524E-003	0.00000E+000	5.05831E-003	3.59960E-001	-1.13130E+000	3.57640E+000	10	...........
	32	0.44	8.50072E-001	5.99390E-003	0.00000E+000	5.09524E-003	3.59960E-001	-1.12301E+000	3.57655E+000	10	...........
	33	0.453333	8.56372E-001	5.99338E-003	0.00000E+000	5.13257E-003	3.59960E-001	-1.12021E+000	3.57660E+000	10	...........
	34	0.466667	8.62689E-001	5.99525E-003	0.00000E+000	5.17204E-003	3.59960E-001	-1.13077E+000	3.57660E+000	10	...........
	35	0.48	8.68966E-001	5.99448E-003	0.00000E+000	5.20900E-003	3.59960E-001	-1.12189E+000	3.57660E+000	10	...........
	36	0.493333	8.75213E-001	6.00100E-003	0.00000E+000	5.25215E-003	3.59960E-001	-1.11934E+000	3.57660E+000	10	...........
	37	0.506667	8.81410E-001	5.99611E-003	0.00000E+000	5.28503E-003	3.59960E-001	-1.13059E+000	3.57660E+000	10	...........
	38	0.52	8.87564E-001	5.99609E-003	0.00000E+000	5.32191E-003	3.59960E-001	-1.12170E+000	3.57660E+000	10	...........
	39	0.533333	8.93712E-001	5.99172E-003	0.00000E+000	5.35487E-003	3.59960E-001	-1.11882E+000	3.57660E+000	10	...........
	40	0.546667	8.99909E-001	5.99500E-003	0.00000E+000	5.39496E-003	3.59960E-001	-1.12933E+000	3.57660E+000	10	...........
	41	0.56	9.05990E-001	5.99399E-003	0.00000E+000	5.43050E-003	3.59960E-001	-1.12097E+000	3.57660E+000	10	...........
	42	0.573333	9.12080E-001	5.99675E-003	0.00000E+000	5.46952E-003	3.59960E-001	-1.11862E+000	3.57660E+000	10	...........
	43	0.586667	9.18135E-001	5.99417E-003	0.00000E+000	5.50345E-003	3.59960E-001	-1.12950E+000	3.57660E+000	10	...........
	44	0.6	9.24211E-001	5.99377E-003	0.00000E+000	5.53951E-003	3.59960E-001	-1.12046E+000	3.57660E+000	10	...........
	45	0.613333	9.30189E-001	5.99539E-003	0.00000E+000	5.57685E-003	3.59960E-001	-1.11775E+000	3.57660E+000	10	...........
	46	0.626667	9.36100E-001	5.99066E-003	0.00000E+000	5.60786E-003	3.59960E-001	-1.12877E+000	3.57660E+000	10	...........
	47	0.64	9.42011E-001	5.99717E-003	0.00000E+000	5.64940E-003	3.59960E-001	-1.11988E+000	3.57660E+000	10	...........
	48	0.653333	9.47892E-001	5.99365E-003	0.00000E+000	5.68133E-003	3.59960E-001	-1.11791E+000	3.57660E+000	10	...........
	49	0.666667	9.53731E-001	5.99561E-003	0.00000E+000	5.71819E-003	3.59960E-001	-1.12867E+000	3.57660E+000	10	...........
	50	0.68	9.59507E-001	5.99148E-003	0.00000E+000	5.74886E-003	3.59960E-001	-1.11901E+000	3.57660E+000	10	...........
	51	0.693333	9.65231E-001	5.99292E-003	0.00000E+000	5.78455E-003	3.59960E-001	-1.11672E+000	3.57660E+000	10	...........
	52	0.706667	9.70916E-001	5.99645E-003	0.00000E+000	5.82205E-003	3.59960E-001	-1.12796E+000	3.57660E+000	10	...........
	53	0.72	9.76597E-001	5.99287E-003	0.00000E+000	5.85262E-003	3.59960E-001	-1.11920E+000	3.57660E+000	10	...........
	54	0.733333	9.82200E-001	5.99164E-003	0.00000E+000	5.88499E-003	3.59960E-001	-1.11695E+000	3.57660E+000	10	...........
	55	0.746667	9.87784E-001	5.99164E-003	0.00000E+000	5.91845E-003	3.59960E-001	-1.12803E+000	3.57660E+000	10	...........
	56	0.76	9.93284E-001	5.99546E-003	0.00000E+000	5.95519E-003	3.59960E-001	-1.11872E+000	3.57660E+000	10	...........
	57	0.771667	9.98426E-001	5.99224E-003	0.00000E+000	5.98281E-003	3.59960E-001	-1.11737E+000	3.57660E+000	10	...........
STARTTIMEOFFSET	QUANT	879.0069	Start Time Offset (s)