File: Data/CV_CRGO300517_1/PWRCCD_CRGO300517_1/CHARGE_DISCHARGE/CHARGE_#578.DTA
EXPLAIN
TAG	PWR800_CHARGE
TITLE	LABEL	PWR Cyclic Charge Discharge (Cell) - Charge Step	Test &Identifier
DATE	LABEL	22-6-2017	Date
TIME	LABEL	15:58:55	Time
NOTES	NOTES	3	&Notes...
	supercap test cell
	0.6mg
	6M KOH
PSTAT	PSTAT	IFC5000-01520	Potentiostat
CAPACITY	QUANT	1.00000E-003	Capacity (A-hr)
CELLTYPE	SELECTOR	1	&Cell Type
WORKINGCONNECTION	SELECTOR	0	&Working Lead
MAXCHARGETIME	VARIABLEANDUNITS	1.00000E+002	s	1.00000E+002	second(s)	Max &Charge Time
CHARGECURRENT	QUANT	6.00000E-003	&Charge Current (A)
VOLTAGEFINISH	TWOPARAM	F	1.00000E-003	3.60000E+003	&Voltage Finish	 I (A) < 	Max Time(s)
SAMPLETIME	QUANT	1.00000E-002	Sa&mple Period (s)
CHARGESTOPAT1	MULTIPARAM	4	1.00000E+000	Charge Stop At &1	Voltage > Limit	V
CHARGESTOPAT2	MULTIPARAM	0	0.00000E+000	Charge Stop At &2	None	N/A
AESBHCSELECTOR	TOGGLE	F	Save Both Half Cells
IRCOMP	TOGGLE	F	IR &Measure
EOC	QUANT	0	Open Circuit (V)
SEQUENCER	TOGGLE	TRUE	Run as Sequence
PSTATMODEL	IQUANT	53	Pstat Model
PSTATSECTION	LABEL	IFC5000-01520	Pstat Section
PSTATSERIALNO	LABEL	01520	Pstat Serial Number
CTRLMODE	IQUANT	0	Control Mode
ELECTROMETER	IQUANT	1	RE=0 or CS=1
IESTAB	IQUANT	0	I/E Stability
CASPEED	IQUANT	4	Control Amp Speed
CONVENTION	IQUANT	1	Current Convention
ICHRANGE	IQUANT	2	Ich Range
ICHRANGEMODE	TOGGLE	T	Ich Auto Range
ICHOFFSETENABLE	TOGGLE	F	Ich Offset Enable
ICHOFFSET	QUANT	0	Ich Offset (V)
ICHFILTER	IQUANT	1	Ich Filter
VCHRANGE	IQUANT	2	Vch Range
VCHRANGEMODE	TOGGLE	T	Vch Auto Range
VCHOFFSETENABLE	TOGGLE	F	Vch Offset Enable
VCHOFFSET	QUANT	0	Vch Offset (V)
VCHFILTER	IQUANT	1	Vch Filter
IERANGELOWERLIMIT	IQUANT	9	I/E Range Lower Limit
IERANGEMODE	TOGGLE	F	I/E AutoRange
IERANGE	IQUANT	10	I/E Range
ACHSELECT	IQUANT	1	Ach Select
ACHRANGE	IQUANT	2	Ach Range
ACHOFFSETENABLE	TOGGLE	F	Ach Offset Enable
ACHOFFSET	QUANT	0	Ach Offset (V)
ACHFILTER	IQUANT	1	Ach Filter
CABLEID	IQUANT	14	Cable ID
DCCALDATE	LABEL	20-10-2016	DC Calibration Date
ACCALDATE	LABEL	12/3/2015	AC Calibration Date
FRAMEWORKVERSION	QUANT	7.01	Framework Version
INSTRUMENTVERSION	LABEL	4.00	Instrument Version
CURVE	TABLE	57
	Pt	T	Vf	Im	Vu	Pwr	Sig	Ach	Temp	IERange	Over
	#	s	V	A	V	W	V	V	deg C	#	bits
	0	0.013333	6.37039E-001	5.99253E-003	0.00000E+000	3.81747E-003	3.59960E-001	-1.14606E+000	3.57680E+000	10	...........
	1	0.026667	6.46012E-001	5.99585E-003	0.00000E+000	3.87339E-003	3.59960E-001	-1.14167E+000	3.57680E+000	10	...........
	2	0.04	6.54267E-001	5.99160E-003	0.00000E+000	3.92011E-003	3.59960E-001	-1.15133E+000	3.57680E+000	10	...........
	3	0.053333	6.62115E-001	5.99189E-003	0.00000E+000	3.96732E-003	3.59960E-001	-1.14539E+000	3.57680E+000	10	...........
	4	0.066667	6.69669E-001	5.98986E-003	0.00000E+000	4.01122E-003	3.59960E-001	-1.14094E+000	3.57680E+000	10	...........
	5	0.08	6.77037E-001	5.99173E-003	0.00000E+000	4.05662E-003	3.59960E-001	-1.15097E+000	3.57680E+000	10	...........
	6	0.093333	6.84231E-001	5.99611E-003	0.00000E+000	4.10272E-003	3.59960E-001	-1.14535E+000	3.57680E+000	10	...........
	7	0.106667	6.91317E-001	5.99421E-003	0.00000E+000	4.14390E-003	3.59960E-001	-1.14100E+000	3.57680E+000	10	...........
	8	0.12	6.98294E-001	5.99149E-003	0.00000E+000	4.18382E-003	3.59960E-001	-1.15092E+000	3.57680E+000	10	...........
	9	0.133333	7.05226E-001	5.99321E-003	0.00000E+000	4.22657E-003	3.59960E-001	-1.14522E+000	3.57680E+000	10	...........
	10	0.146667	7.12076E-001	5.99583E-003	0.00000E+000	4.26949E-003	3.59960E-001	-1.14080E+000	3.57680E+000	10	...........
	11	0.16	7.18935E-001	5.99685E-003	0.00000E+000	4.31134E-003	3.59960E-001	-1.15105E+000	3.57680E+000	10	...........
	12	0.173333	7.25688E-001	5.99642E-003	0.00000E+000	4.35153E-003	3.59960E-001	-1.14540E+000	3.57680E+000	10	...........
	13	0.186667	7.32404E-001	5.99491E-003	0.00000E+000	4.39069E-003	3.59960E-001	-1.14067E+000	3.57680E+000	10	...........
	14	0.2	7.39096E-001	5.99368E-003	0.00000E+000	4.42990E-003	3.59960E-001	-1.15062E+000	3.57680E+000	10	...........
	15	0.213333	7.45784E-001	5.99538E-003	0.00000E+000	4.47125E-003	3.59960E-001	-1.14527E+000	3.57680E+000	10	...........
	16	0.226667	7.52382E-001	5.99451E-003	0.00000E+000	4.51017E-003	3.59960E-001	-1.14080E+000	3.57680E+000	10	...........
	17	0.24	7.59017E-001	5.99516E-003	0.00000E+000	4.55043E-003	3.59960E-001	-1.15066E+000	3.57680E+000	10	...........
	18	0.253333	7.65596E-001	5.99250E-003	0.00000E+000	4.58783E-003	3.59960E-001	-1.14516E+000	3.57680E+000	10	...........
	19	0.266667	7.72204E-001	5.99742E-003	0.00000E+000	4.63123E-003	3.59960E-001	-1.14053E+000	3.57680E+000	10	...........
	20	0.28	7.78738E-001	5.99312E-003	0.00000E+000	4.66708E-003	3.59960E-001	-1.15059E+000	3.57680E+000	10	...........
	21	0.293333	7.85310E-001	6.00082E-003	0.00000E+000	4.71250E-003	3.59960E-001	-1.14549E+000	3.57680E+000	10	...........
	22	0.306667	7.91857E-001	5.99523E-003	0.00000E+000	4.74737E-003	3.59960E-001	-1.14067E+000	3.57680E+000	10	...........
	23	0.32	7.98366E-001	5.99499E-003	0.00000E+000	4.78620E-003	3.59960E-001	-1.15039E+000	3.57680E+000	10	...........
	24	0.333333	8.04846E-001	5.99865E-003	0.00000E+000	4.82799E-003	3.59960E-001	-1.14512E+000	3.57680E+000	10	...........
	25	0.346667	8.11329E-001	5.99566E-003	0.00000E+000	4.86445E-003	3.59960E-001	-1.14051E+000	3.57680E+000	10	...........
	26	0.36	8.17788E-001	5.99080E-003	0.00000E+000	4.89920E-003	3.59960E-001	-1.14999E+000	3.57680E+000	10	...........
	27	0.373333	8.24215E-001	5.99347E-003	0.00000E+000	4.93991E-003	3.59960E-001	-1.14474E+000	3.57680E+000	10	...........
	28	0.386667	8.30669E-001	5.99386E-003	0.00000E+000	4.97892E-003	3.59960E-001	-1.13999E+000	3.57680E+000	10	...........
	29	0.4	8.37065E-001	5.99507E-003	0.00000E+000	5.01827E-003	3.59960E-001	-1.14984E+000	3.57715E+000	10	...........
	30	0.413333	8.43412E-001	5.99037E-003	0.00000E+000	5.05235E-003	3.59960E-001	-1.14483E+000	3.57720E+000	10	...........
	31	0.426667	8.49793E-001	5.99560E-003	0.00000E+000	5.09502E-003	3.59960E-001	-1.14016E+000	3.57720E+000	10	...........
	32	0.44	8.56133E-001	5.99207E-003	0.00000E+000	5.13001E-003	3.59960E-001	-1.14979E+000	3.57720E+000	10	...........
	33	0.453333	8.62449E-001	5.99075E-003	0.00000E+000	5.16672E-003	3.59960E-001	-1.14468E+000	3.57720E+000	10	...........
	34	0.466667	8.68759E-001	5.99379E-003	0.00000E+000	5.20716E-003	3.59960E-001	-1.13999E+000	3.57720E+000	10	...........
	35	0.48	8.75034E-001	5.99471E-003	0.00000E+000	5.24557E-003	3.59960E-001	-1.14965E+000	3.57720E+000	10	...........
	36	0.493333	8.81294E-001	5.99475E-003	0.00000E+000	5.28314E-003	3.59960E-001	-1.14487E+000	3.57720E+000	10	...........
	37	0.506667	8.87544E-001	5.99249E-003	0.00000E+000	5.31859E-003	3.59960E-001	-1.13990E+000	3.57720E+000	10	...........
	38	0.52	8.93710E-001	5.99446E-003	0.00000E+000	5.35731E-003	3.59960E-001	-1.14938E+000	3.57720E+000	10	...........
	39	0.533333	8.99912E-001	5.99755E-003	0.00000E+000	5.39726E-003	3.59960E-001	-1.14465E+000	3.57720E+000	10	...........
	40	0.546667	9.06043E-001	5.99273E-003	0.00000E+000	5.42967E-003	3.59960E-001	-1.13979E+000	3.57720E+000	10	...........
	41	0.56	9.12169E-001	5.99711E-003	0.00000E+000	5.47038E-003	3.59960E-001	-1.14941E+000	3.57720E+000	10	...........
	42	0.573333	9.18191E-001	5.99094E-003	0.00000E+000	5.50083E-003	3.59960E-001	-1.14474E+000	3.57720E+000	10	...........
	43	0.586667	9.24303E-001	5.98821E-003	0.00000E+000	5.53492E-003	3.59960E-001	-1.13953E+000	3.57720E+000	10	...........
	44	0.6	9.30319E-001	5.99255E-003	0.00000E+000	5.57499E-003	3.59960E-001	-1.14918E+000	3.57720E+000	10	...........
	45	0.613333	9.36270E-001	5.99599E-003	0.00000E+000	5.61387E-003	3.59960E-001	-1.14475E+000	3.57720E+000	10	...........
	46	0.626667	9.42215E-001	5.99453E-003	0.00000E+000	5.64814E-003	3.59960E-001	-1.13990E+000	3.57720E+000	10	...........
	47	0.64	9.48107E-001	5.99317E-003	0.00000E+000	5.68216E-003	3.59960E-001	-1.14942E+000	3.57720E+000	10	...........
	48	0.653333	9.53946E-001	5.99307E-003	0.00000E+000	5.71707E-003	3.59960E-001	-1.14471E+000	3.57720E+000	10	...........
	49	0.666667	9.59714E-001	5.99284E-003	0.00000E+000	5.75142E-003	3.59960E-001	-1.13955E+000	3.57720E+000	10	...........
	50	0.68	9.65482E-001	5.99263E-003	0.00000E+000	5.78578E-003	3.59960E-001	-1.14893E+000	3.57720E+000	10	...........
	51	0.693333	9.71217E-001	5.98914E-003	0.00000E+000	5.81675E-003	3.59960E-001	-1.14434E+000	3.57720E+000	10	...........
	52	0.706667	9.76915E-001	5.99323E-003	0.00000E+000	5.85488E-003	3.59960E-001	-1.13932E+000	3.57720E+000	10	...........
	53	0.72	9.82526E-001	5.99542E-003	0.00000E+000	5.89066E-003	3.59960E-001	-1.14861E+000	3.57720E+000	10	...........
	54	0.733333	9.88113E-001	5.99553E-003	0.00000E+000	5.92427E-003	3.59960E-001	-1.14406E+000	3.57720E+000	10	...........
	55	0.746667	9.93638E-001	5.99022E-003	0.00000E+000	5.95211E-003	3.59960E-001	-1.13930E+000	3.57720E+000	10	...........
	56	0.756667	9.98458E-001	5.99130E-003	0.00000E+000	5.98207E-003	3.59960E-001	-1.15304E+000	3.57720E+000	10	...........
STARTTIMEOFFSET	QUANT	977.867	Start Time Offset (s)