File: Data/CV_CRGO300517_1/PWRCCD_CRGO300517_1/CHARGE_DISCHARGE/CHARGE_#330.DTA
EXPLAIN
TAG	PWR800_CHARGE
TITLE	LABEL	PWR Cyclic Charge Discharge (Cell) - Charge Step	Test &Identifier
DATE	LABEL	22-6-2017	Date
TIME	LABEL	15:49:09	Time
NOTES	NOTES	3	&Notes...
	supercap test cell
	0.6mg
	6M KOH
PSTAT	PSTAT	IFC5000-01520	Potentiostat
CAPACITY	QUANT	1.00000E-003	Capacity (A-hr)
CELLTYPE	SELECTOR	1	&Cell Type
WORKINGCONNECTION	SELECTOR	0	&Working Lead
MAXCHARGETIME	VARIABLEANDUNITS	1.00000E+002	s	1.00000E+002	second(s)	Max &Charge Time
CHARGECURRENT	QUANT	6.00000E-003	&Charge Current (A)
VOLTAGEFINISH	TWOPARAM	F	1.00000E-003	3.60000E+003	&Voltage Finish	 I (A) < 	Max Time(s)
SAMPLETIME	QUANT	1.00000E-002	Sa&mple Period (s)
CHARGESTOPAT1	MULTIPARAM	4	1.00000E+000	Charge Stop At &1	Voltage > Limit	V
CHARGESTOPAT2	MULTIPARAM	0	0.00000E+000	Charge Stop At &2	None	N/A
AESBHCSELECTOR	TOGGLE	F	Save Both Half Cells
IRCOMP	TOGGLE	F	IR &Measure
EOC	QUANT	0	Open Circuit (V)
SEQUENCER	TOGGLE	TRUE	Run as Sequence
PSTATMODEL	IQUANT	53	Pstat Model
PSTATSECTION	LABEL	IFC5000-01520	Pstat Section
PSTATSERIALNO	LABEL	01520	Pstat Serial Number
CTRLMODE	IQUANT	0	Control Mode
ELECTROMETER	IQUANT	1	RE=0 or CS=1
IESTAB	IQUANT	0	I/E Stability
CASPEED	IQUANT	4	Control Amp Speed
CONVENTION	IQUANT	1	Current Convention
ICHRANGE	IQUANT	2	Ich Range
ICHRANGEMODE	TOGGLE	T	Ich Auto Range
ICHOFFSETENABLE	TOGGLE	F	Ich Offset Enable
ICHOFFSET	QUANT	0	Ich Offset (V)
ICHFILTER	IQUANT	1	Ich Filter
VCHRANGE	IQUANT	2	Vch Range
VCHRANGEMODE	TOGGLE	T	Vch Auto Range
VCHOFFSETENABLE	TOGGLE	F	Vch Offset Enable
VCHOFFSET	QUANT	0	Vch Offset (V)
VCHFILTER	IQUANT	1	Vch Filter
IERANGELOWERLIMIT	IQUANT	9	I/E Range Lower Limit
IERANGEMODE	TOGGLE	F	I/E AutoRange
IERANGE	IQUANT	10	I/E Range
ACHSELECT	IQUANT	1	Ach Select
ACHRANGE	IQUANT	2	Ach Range
ACHOFFSETENABLE	TOGGLE	F	Ach Offset Enable
ACHOFFSET	QUANT	0	Ach Offset (V)
ACHFILTER	IQUANT	1	Ach Filter
CABLEID	IQUANT	14	Cable ID
DCCALDATE	LABEL	20-10-2016	DC Calibration Date
ACCALDATE	LABEL	12/3/2015	AC Calibration Date
FRAMEWORKVERSION	QUANT	7.01	Framework Version
INSTRUMENTVERSION	LABEL	4.00	Instrument Version
CURVE	TABLE	62
	Pt	T	Vf	Im	Vu	Pwr	Sig	Ach	Temp	IERange	Over
	#	s	V	A	V	W	V	V	deg C	#	bits
	0	0.013333	6.19543E-001	5.99381E-003	0.00000E+000	3.71343E-003	3.59960E-001	-1.11936E+000	3.57660E+000	10	...........
	1	0.026667	6.28188E-001	5.99759E-003	0.00000E+000	3.76761E-003	3.59960E-001	-1.11792E+000	3.57660E+000	10	...........
	2	0.04	6.36122E-001	5.99086E-003	0.00000E+000	3.81092E-003	3.59960E-001	-1.11141E+000	3.57661E+000	10	...........
	3	0.053333	6.43659E-001	5.99074E-003	0.00000E+000	3.85599E-003	3.59960E-001	-1.11878E+000	3.57680E+000	10	...........
	4	0.066667	6.50947E-001	5.99573E-003	0.00000E+000	3.90291E-003	3.59960E-001	-1.11727E+000	3.57680E+000	10	...........
	5	0.08	6.58028E-001	5.99689E-003	0.00000E+000	3.94612E-003	3.59960E-001	-1.11118E+000	3.57680E+000	10	...........
	6	0.093333	6.64959E-001	5.99080E-003	0.00000E+000	3.98363E-003	3.59960E-001	-1.11889E+000	3.57680E+000	10	...........
	7	0.106667	6.71825E-001	5.99467E-003	0.00000E+000	4.02737E-003	3.59960E-001	-1.11717E+000	3.57680E+000	10	...........
	8	0.12	6.78588E-001	5.99530E-003	0.00000E+000	4.06834E-003	3.59960E-001	-1.11068E+000	3.57680E+000	10	...........
	9	0.133333	6.85235E-001	5.99869E-003	0.00000E+000	4.11052E-003	3.59960E-001	-1.11807E+000	3.57680E+000	10	...........
	10	0.146667	6.91813E-001	5.99700E-003	0.00000E+000	4.14880E-003	3.59960E-001	-1.11719E+000	3.57680E+000	10	...........
	11	0.16	6.98391E-001	5.99369E-003	0.00000E+000	4.18594E-003	3.59960E-001	-1.11100E+000	3.57680E+000	10	...........
	12	0.173333	7.04906E-001	5.99219E-003	0.00000E+000	4.22393E-003	3.59960E-001	-1.11836E+000	3.57680E+000	10	...........
	13	0.186667	7.11384E-001	5.99376E-003	0.00000E+000	4.26386E-003	3.59960E-001	-1.11697E+000	3.57680E+000	10	...........
	14	0.2	7.17861E-001	5.99541E-003	0.00000E+000	4.30387E-003	3.59960E-001	-1.11060E+000	3.57680E+000	10	...........
	15	0.213333	7.24323E-001	5.99358E-003	0.00000E+000	4.34129E-003	3.59960E-001	-1.11825E+000	3.57680E+000	10	...........
	16	0.226667	7.30743E-001	5.99184E-003	0.00000E+000	4.37850E-003	3.59960E-001	-1.11727E+000	3.57680E+000	10	...........
	17	0.24	7.37094E-001	5.99488E-003	0.00000E+000	4.41879E-003	3.59960E-001	-1.11067E+000	3.57680E+000	10	...........
	18	0.253333	7.43480E-001	5.99661E-003	0.00000E+000	4.45836E-003	3.59960E-001	-1.11750E+000	3.57680E+000	10	...........
	19	0.266667	7.49813E-001	5.99454E-003	0.00000E+000	4.49478E-003	3.59960E-001	-1.11664E+000	3.57680E+000	10	...........
	20	0.28	7.56158E-001	5.99643E-003	0.00000E+000	4.53425E-003	3.59960E-001	-1.11017E+000	3.57680E+000	10	...........
	21	0.293333	7.62472E-001	5.99141E-003	0.00000E+000	4.56829E-003	3.59960E-001	-1.11771E+000	3.57680E+000	10	...........
	22	0.306667	7.68840E-001	5.99735E-003	0.00000E+000	4.61100E-003	3.59960E-001	-1.11687E+000	3.57680E+000	10	...........
	23	0.32	7.75163E-001	5.99709E-003	0.00000E+000	4.64872E-003	3.59960E-001	-1.11005E+000	3.57680E+000	10	...........
	24	0.333333	7.81426E-001	5.99699E-003	0.00000E+000	4.68620E-003	3.59960E-001	-1.11761E+000	3.57680E+000	10	...........
	25	0.346667	7.87693E-001	5.98931E-003	0.00000E+000	4.71773E-003	3.59960E-001	-1.11708E+000	3.57680E+000	10	...........
	26	0.36	7.93960E-001	5.99056E-003	0.00000E+000	4.75627E-003	3.59960E-001	-1.11048E+000	3.57680E+000	10	...........
	27	0.373333	8.00244E-001	5.99168E-003	0.00000E+000	4.79481E-003	3.59960E-001	-1.11758E+000	3.57680E+000	10	...........
	28	0.386667	8.06472E-001	5.99356E-003	0.00000E+000	4.83364E-003	3.59960E-001	-1.11705E+000	3.57680E+000	10	...........
	29	0.4	8.12727E-001	5.99646E-003	0.00000E+000	4.87349E-003	3.59960E-001	-1.11041E+000	3.57680E+000	10	...........
	30	0.413333	8.18978E-001	5.99070E-003	0.00000E+000	4.90626E-003	3.59960E-001	-1.11758E+000	3.57680E+000	10	...........
	31	0.426667	8.25161E-001	5.99212E-003	0.00000E+000	4.94446E-003	3.59960E-001	-1.11735E+000	3.57680E+000	10	...........
	32	0.44	8.31378E-001	5.99684E-003	0.00000E+000	4.98564E-003	3.59960E-001	-1.11049E+000	3.57680E+000	10	...........
	33	0.453333	8.37583E-001	5.99220E-003	0.00000E+000	5.01896E-003	3.59960E-001	-1.11749E+000	3.57680E+000	10	...........
	34	0.466667	8.43760E-001	5.99526E-003	0.00000E+000	5.05856E-003	3.59960E-001	-1.11730E+000	3.57680E+000	10	...........
	35	0.48	8.49885E-001	5.99150E-003	0.00000E+000	5.09208E-003	3.59960E-001	-1.11071E+000	3.57680E+000	10	...........
	36	0.493333	8.56050E-001	5.99328E-003	0.00000E+000	5.13055E-003	3.59960E-001	-1.11766E+000	3.57680E+000	10	...........
	37	0.506667	8.62216E-001	5.99463E-003	0.00000E+000	5.16866E-003	3.59960E-001	-1.11742E+000	3.57680E+000	10	...........
	38	0.52	8.68350E-001	5.99672E-003	0.00000E+000	5.20726E-003	3.59960E-001	-1.11064E+000	3.57680E+000	10	...........
	39	0.533333	8.74510E-001	5.99782E-003	0.00000E+000	5.24515E-003	3.59960E-001	-1.11762E+000	3.57680E+000	10	...........
	40	0.546667	8.80574E-001	5.98991E-003	0.00000E+000	5.27456E-003	3.59960E-001	-1.11752E+000	3.57680E+000	10	...........
	41	0.56	8.86643E-001	5.99826E-003	0.00000E+000	5.31831E-003	3.59960E-001	-1.11068E+000	3.57680E+000	10	...........
	42	0.573333	8.92658E-001	5.99294E-003	0.00000E+000	5.34964E-003	3.59960E-001	-1.11735E+000	3.57680E+000	10	...........
	43	0.586667	8.98678E-001	5.99428E-003	0.00000E+000	5.38693E-003	3.59960E-001	-1.11737E+000	3.57680E+000	10	...........
	44	0.6	9.04664E-001	5.99472E-003	0.00000E+000	5.42321E-003	3.59960E-001	-1.11025E+000	3.57680E+000	10	...........
	45	0.613333	9.10670E-001	5.99403E-003	0.00000E+000	5.45858E-003	3.59960E-001	-1.11749E+000	3.57680E+000	10	...........
	46	0.626667	9.16623E-001	5.99285E-003	0.00000E+000	5.49319E-003	3.59960E-001	-1.11750E+000	3.57680E+000	10	...........
	47	0.64	9.22602E-001	5.99040E-003	0.00000E+000	5.52675E-003	3.59960E-001	-1.11064E+000	3.57680E+000	10	...........
	48	0.653333	9.28449E-001	5.99514E-003	0.00000E+000	5.56618E-003	3.59960E-001	-1.11742E+000	3.57680E+000	10	...........
	49	0.666667	9.34330E-001	5.98982E-003	0.00000E+000	5.59646E-003	3.59960E-001	-1.11780E+000	3.57680E+000	10	...........
	50	0.68	9.40168E-001	5.99734E-003	0.00000E+000	5.63851E-003	3.59960E-001	-1.11052E+000	3.57680E+000	10	...........
	51	0.693333	9.45974E-001	5.99745E-003	0.00000E+000	5.67343E-003	3.59960E-001	-1.11735E+000	3.57680E+000	10	...........
	52	0.706667	9.51745E-001	5.99181E-003	0.00000E+000	5.70267E-003	3.59960E-001	-1.11774E+000	3.57680E+000	10	...........
	53	0.72	9.57466E-001	5.99358E-003	0.00000E+000	5.73865E-003	3.59960E-001	-1.11045E+000	3.57680E+000	10	...........
	54	0.733333	9.63120E-001	5.99504E-003	0.00000E+000	5.77395E-003	3.59960E-001	-1.11718E+000	3.57680E+000	10	...........
	55	0.746667	9.68752E-001	5.99304E-003	0.00000E+000	5.80577E-003	3.59960E-001	-1.11766E+000	3.57680E+000	10	...........
	56	0.76	9.74432E-001	5.99029E-003	0.00000E+000	5.83713E-003	3.59960E-001	-1.11038E+000	3.57680E+000	10	...........
	57	0.773333	9.79958E-001	5.99308E-003	0.00000E+000	5.87297E-003	3.59960E-001	-1.11736E+000	3.57680E+000	10	...........
	58	0.786667	9.85484E-001	5.99543E-003	0.00000E+000	5.90840E-003	3.59960E-001	-1.11794E+000	3.57680E+000	10	...........
	59	0.8	9.90968E-001	5.99455E-003	0.00000E+000	5.94041E-003	3.59960E-001	-1.11069E+000	3.57680E+000	10	...........
	60	0.813333	9.96419E-001	5.99184E-003	0.00000E+000	5.97038E-003	3.59960E-001	-1.11734E+000	3.57680E+000	10	...........
	61	0.816667	9.99779E-001	5.99584E-003	0.00000E+000	5.99451E-003	3.59960E-001	-1.10234E+000	3.57680E+000	10	...........
STARTTIMEOFFSET	QUANT	590.2398	Start Time Offset (s)