File: Data/CV_CRGO300517_1/PWRCCD_CRGO300517_1/CHARGE_DISCHARGE/CHARGE_#953.DTA
EXPLAIN
TAG	PWR800_CHARGE
TITLE	LABEL	PWR Cyclic Charge Discharge (Cell) - Charge Step	Test &Identifier
DATE	LABEL	22-6-2017	Date
TIME	LABEL	16:12:56	Time
NOTES	NOTES	3	&Notes...
	supercap test cell
	0.6mg
	6M KOH
PSTAT	PSTAT	IFC5000-01520	Potentiostat
CAPACITY	QUANT	1.00000E-003	Capacity (A-hr)
CELLTYPE	SELECTOR	1	&Cell Type
WORKINGCONNECTION	SELECTOR	0	&Working Lead
MAXCHARGETIME	VARIABLEANDUNITS	1.00000E+002	s	1.00000E+002	second(s)	Max &Charge Time
CHARGECURRENT	QUANT	6.00000E-003	&Charge Current (A)
VOLTAGEFINISH	TWOPARAM	F	1.00000E-003	3.60000E+003	&Voltage Finish	 I (A) < 	Max Time(s)
SAMPLETIME	QUANT	1.00000E-002	Sa&mple Period (s)
CHARGESTOPAT1	MULTIPARAM	4	1.00000E+000	Charge Stop At &1	Voltage > Limit	V
CHARGESTOPAT2	MULTIPARAM	0	0.00000E+000	Charge Stop At &2	None	N/A
AESBHCSELECTOR	TOGGLE	F	Save Both Half Cells
IRCOMP	TOGGLE	F	IR &Measure
EOC	QUANT	0	Open Circuit (V)
SEQUENCER	TOGGLE	TRUE	Run as Sequence
PSTATMODEL	IQUANT	53	Pstat Model
PSTATSECTION	LABEL	IFC5000-01520	Pstat Section
PSTATSERIALNO	LABEL	01520	Pstat Serial Number
CTRLMODE	IQUANT	0	Control Mode
ELECTROMETER	IQUANT	1	RE=0 or CS=1
IESTAB	IQUANT	0	I/E Stability
CASPEED	IQUANT	4	Control Amp Speed
CONVENTION	IQUANT	1	Current Convention
ICHRANGE	IQUANT	2	Ich Range
ICHRANGEMODE	TOGGLE	T	Ich Auto Range
ICHOFFSETENABLE	TOGGLE	F	Ich Offset Enable
ICHOFFSET	QUANT	0	Ich Offset (V)
ICHFILTER	IQUANT	1	Ich Filter
VCHRANGE	IQUANT	2	Vch Range
VCHRANGEMODE	TOGGLE	T	Vch Auto Range
VCHOFFSETENABLE	TOGGLE	F	Vch Offset Enable
VCHOFFSET	QUANT	0	Vch Offset (V)
VCHFILTER	IQUANT	1	Vch Filter
IERANGELOWERLIMIT	IQUANT	9	I/E Range Lower Limit
IERANGEMODE	TOGGLE	F	I/E AutoRange
IERANGE	IQUANT	10	I/E Range
ACHSELECT	IQUANT	1	Ach Select
ACHRANGE	IQUANT	2	Ach Range
ACHOFFSETENABLE	TOGGLE	F	Ach Offset Enable
ACHOFFSET	QUANT	0	Ach Offset (V)
ACHFILTER	IQUANT	1	Ach Filter
CABLEID	IQUANT	14	Cable ID
DCCALDATE	LABEL	20-10-2016	DC Calibration Date
ACCALDATE	LABEL	12/3/2015	AC Calibration Date
FRAMEWORKVERSION	QUANT	7.01	Framework Version
INSTRUMENTVERSION	LABEL	4.00	Instrument Version
CURVE	TABLE	53
	Pt	T	Vf	Im	Vu	Pwr	Sig	Ach	Temp	IERange	Over
	#	s	V	A	V	W	V	V	deg C	#	bits
	0	0.013333	6.55675E-001	5.99497E-003	0.00000E+000	3.93075E-003	3.59960E-001	-1.18410E+000	3.57640E+000	10	...........
	1	0.026667	6.64979E-001	5.99835E-003	0.00000E+000	3.98878E-003	3.59960E-001	-1.17328E+000	3.57640E+000	10	...........
	2	0.04	6.73571E-001	5.99161E-003	0.00000E+000	4.03577E-003	3.59960E-001	-1.17571E+000	3.57640E+000	10	...........
	3	0.053333	6.81673E-001	5.99446E-003	0.00000E+000	4.08626E-003	3.59960E-001	-1.18375E+000	3.57640E+000	10	...........
	4	0.066667	6.89482E-001	5.99191E-003	0.00000E+000	4.13131E-003	3.59960E-001	-1.17292E+000	3.57640E+000	10	...........
	5	0.08	6.97134E-001	5.99862E-003	0.00000E+000	4.18185E-003	3.59960E-001	-1.17538E+000	3.57640E+000	10	...........
	6	0.093333	7.04630E-001	5.99344E-003	0.00000E+000	4.22315E-003	3.59960E-001	-1.18328E+000	3.57640E+000	10	...........
	7	0.106667	7.12006E-001	5.99197E-003	0.00000E+000	4.26632E-003	3.59960E-001	-1.17266E+000	3.57640E+000	10	...........
	8	0.12	7.19308E-001	5.99450E-003	0.00000E+000	4.31189E-003	3.59960E-001	-1.17501E+000	3.57640E+000	10	...........
	9	0.133333	7.26492E-001	5.99368E-003	0.00000E+000	4.35436E-003	3.59960E-001	-1.18285E+000	3.57640E+000	10	...........
	10	0.146667	7.33602E-001	5.99189E-003	0.00000E+000	4.39566E-003	3.59960E-001	-1.17251E+000	3.57640E+000	10	...........
	11	0.16	7.40677E-001	5.99084E-003	0.00000E+000	4.43728E-003	3.59960E-001	-1.17501E+000	3.57640E+000	10	...........
	12	0.173333	7.47686E-001	5.99516E-003	0.00000E+000	4.48249E-003	3.59960E-001	-1.18317E+000	3.57655E+000	10	...........
	13	0.186667	7.54656E-001	5.99248E-003	0.00000E+000	4.52226E-003	3.59960E-001	-1.17265E+000	3.57660E+000	10	...........
	14	0.2	7.61615E-001	5.99304E-003	0.00000E+000	4.56439E-003	3.59960E-001	-1.17496E+000	3.57660E+000	10	...........
	15	0.213333	7.68481E-001	5.99372E-003	0.00000E+000	4.60606E-003	3.59960E-001	-1.18277E+000	3.57660E+000	10	...........
	16	0.226667	7.75365E-001	5.99335E-003	0.00000E+000	4.64703E-003	3.59960E-001	-1.17196E+000	3.57660E+000	10	...........
	17	0.24	7.82231E-001	5.99743E-003	0.00000E+000	4.69138E-003	3.59960E-001	-1.17455E+000	3.57660E+000	10	...........
	18	0.253333	7.89047E-001	5.99385E-003	0.00000E+000	4.72943E-003	3.59960E-001	-1.18259E+000	3.57660E+000	10	...........
	19	0.266667	7.95861E-001	5.99737E-003	0.00000E+000	4.77307E-003	3.59960E-001	-1.17214E+000	3.57660E+000	10	...........
	20	0.28	8.02596E-001	5.99342E-003	0.00000E+000	4.81029E-003	3.59960E-001	-1.17441E+000	3.57660E+000	10	...........
	21	0.293333	8.09310E-001	5.98779E-003	0.00000E+000	4.84598E-003	3.59960E-001	-1.18264E+000	3.57660E+000	10	...........
	22	0.306667	8.15993E-001	5.99708E-003	0.00000E+000	4.89358E-003	3.59960E-001	-1.17229E+000	3.57660E+000	10	...........
	23	0.32	8.22752E-001	5.99614E-003	0.00000E+000	4.93334E-003	3.59960E-001	-1.17456E+000	3.57660E+000	10	...........
	24	0.333333	8.29383E-001	5.99442E-003	0.00000E+000	4.97167E-003	3.59960E-001	-1.18273E+000	3.57660E+000	10	...........
	25	0.346667	8.35996E-001	5.98996E-003	0.00000E+000	5.00758E-003	3.59960E-001	-1.17208E+000	3.57660E+000	10	...........
	26	0.36	8.42580E-001	5.99155E-003	0.00000E+000	5.04836E-003	3.59960E-001	-1.17458E+000	3.57660E+000	10	...........
	27	0.373333	8.49197E-001	5.98899E-003	0.00000E+000	5.08583E-003	3.59960E-001	-1.18286E+000	3.57660E+000	10	...........
	28	0.386667	8.55747E-001	5.99206E-003	0.00000E+000	5.12769E-003	3.59960E-001	-1.17207E+000	3.57660E+000	10	...........
	29	0.4	8.62287E-001	5.99658E-003	0.00000E+000	5.17077E-003	3.59960E-001	-1.17449E+000	3.57660E+000	10	...........
	30	0.413333	8.68775E-001	5.99505E-003	0.00000E+000	5.20836E-003	3.59960E-001	-1.18253E+000	3.57660E+000	10	...........
	31	0.426667	8.75204E-001	5.99653E-003	0.00000E+000	5.24819E-003	3.59960E-001	-1.17201E+000	3.57660E+000	10	...........
	32	0.44	8.81665E-001	5.99266E-003	0.00000E+000	5.28352E-003	3.59960E-001	-1.17469E+000	3.57660E+000	10	...........
	33	0.453333	8.88051E-001	5.99225E-003	0.00000E+000	5.32142E-003	3.59960E-001	-1.18283E+000	3.57660E+000	10	...........
	34	0.466667	8.94405E-001	5.99176E-003	0.00000E+000	5.35906E-003	3.59960E-001	-1.17223E+000	3.57660E+000	10	...........
	35	0.48	9.00774E-001	5.99114E-003	0.00000E+000	5.39666E-003	3.59960E-001	-1.17452E+000	3.57660E+000	10	...........
	36	0.493333	9.07051E-001	5.99375E-003	0.00000E+000	5.43664E-003	3.59960E-001	-1.18281E+000	3.57660E+000	10	...........
	37	0.506667	9.13316E-001	5.99358E-003	0.00000E+000	5.47403E-003	3.59960E-001	-1.17255E+000	3.57660E+000	10	...........
	38	0.52	9.19530E-001	5.99565E-003	0.00000E+000	5.51318E-003	3.59960E-001	-1.17439E+000	3.57660E+000	10	...........
	39	0.533333	9.25686E-001	5.99408E-003	0.00000E+000	5.54864E-003	3.59960E-001	-1.18251E+000	3.57660E+000	10	...........
	40	0.546667	9.31799E-001	5.99314E-003	0.00000E+000	5.58440E-003	3.59960E-001	-1.17173E+000	3.57660E+000	10	...........
	41	0.56	9.37853E-001	5.99708E-003	0.00000E+000	5.62438E-003	3.59960E-001	-1.17413E+000	3.57660E+000	10	...........
	42	0.573333	9.43901E-001	5.99608E-003	0.00000E+000	5.65970E-003	3.59960E-001	-1.18255E+000	3.57660E+000	10	...........
	43	0.586667	9.49898E-001	5.99351E-003	0.00000E+000	5.69322E-003	3.59960E-001	-1.17197E+000	3.57660E+000	10	...........
	44	0.6	9.55823E-001	5.99313E-003	0.00000E+000	5.72837E-003	3.59960E-001	-1.17396E+000	3.57660E+000	10	...........
	45	0.613333	9.61702E-001	5.99542E-003	0.00000E+000	5.76581E-003	3.59960E-001	-1.18209E+000	3.57660E+000	10	...........
	46	0.626667	9.67527E-001	5.99275E-003	0.00000E+000	5.79815E-003	3.59960E-001	-1.17170E+000	3.57660E+000	10	...........
	47	0.64	9.73370E-001	5.99552E-003	0.00000E+000	5.83586E-003	3.59960E-001	-1.17403E+000	3.57660E+000	10	...........
	48	0.653333	9.79137E-001	5.99558E-003	0.00000E+000	5.87049E-003	3.59960E-001	-1.18222E+000	3.57660E+000	10	...........
	49	0.666667	9.84806E-001	5.99249E-003	0.00000E+000	5.90144E-003	3.59960E-001	-1.17148E+000	3.57660E+000	10	...........
	50	0.68	9.90384E-001	5.99570E-003	0.00000E+000	5.93805E-003	3.59960E-001	-1.17373E+000	3.57660E+000	10	...........
	51	0.693333	9.95956E-001	5.99806E-003	0.00000E+000	5.97380E-003	3.59960E-001	-1.18201E+000	3.57660E+000	10	...........
	52	0.698333	9.99767E-001	5.98981E-003	0.00000E+000	5.98842E-003	3.59960E-001	-1.16490E+000	3.57660E+000	10	...........
STARTTIMEOFFSET	QUANT	1520.146	Start Time Offset (s)