File: Data/CV_CRGO300517_1/PWRCCD_CRGO300517_1/CHARGE_DISCHARGE/CHARGE_#73.DTA
EXPLAIN
TAG	PWR800_CHARGE
TITLE	LABEL	PWR Cyclic Charge Discharge (Cell) - Charge Step	Test &Identifier
DATE	LABEL	22-6-2017	Date
TIME	LABEL	15:38:18	Time
NOTES	NOTES	3	&Notes...
	supercap test cell
	0.6mg
	6M KOH
PSTAT	PSTAT	IFC5000-01520	Potentiostat
CAPACITY	QUANT	1.00000E-003	Capacity (A-hr)
CELLTYPE	SELECTOR	1	&Cell Type
WORKINGCONNECTION	SELECTOR	0	&Working Lead
MAXCHARGETIME	VARIABLEANDUNITS	1.00000E+002	s	1.00000E+002	second(s)	Max &Charge Time
CHARGECURRENT	QUANT	6.00000E-003	&Charge Current (A)
VOLTAGEFINISH	TWOPARAM	F	1.00000E-003	3.60000E+003	&Voltage Finish	 I (A) < 	Max Time(s)
SAMPLETIME	QUANT	1.00000E-002	Sa&mple Period (s)
CHARGESTOPAT1	MULTIPARAM	4	1.00000E+000	Charge Stop At &1	Voltage > Limit	V
CHARGESTOPAT2	MULTIPARAM	0	0.00000E+000	Charge Stop At &2	None	N/A
AESBHCSELECTOR	TOGGLE	F	Save Both Half Cells
IRCOMP	TOGGLE	F	IR &Measure
EOC	QUANT	0	Open Circuit (V)
SEQUENCER	TOGGLE	TRUE	Run as Sequence
PSTATMODEL	IQUANT	53	Pstat Model
PSTATSECTION	LABEL	IFC5000-01520	Pstat Section
PSTATSERIALNO	LABEL	01520	Pstat Serial Number
CTRLMODE	IQUANT	0	Control Mode
ELECTROMETER	IQUANT	1	RE=0 or CS=1
IESTAB	IQUANT	0	I/E Stability
CASPEED	IQUANT	4	Control Amp Speed
CONVENTION	IQUANT	1	Current Convention
ICHRANGE	IQUANT	2	Ich Range
ICHRANGEMODE	TOGGLE	T	Ich Auto Range
ICHOFFSETENABLE	TOGGLE	F	Ich Offset Enable
ICHOFFSET	QUANT	0	Ich Offset (V)
ICHFILTER	IQUANT	1	Ich Filter
VCHRANGE	IQUANT	2	Vch Range
VCHRANGEMODE	TOGGLE	T	Vch Auto Range
VCHOFFSETENABLE	TOGGLE	F	Vch Offset Enable
VCHOFFSET	QUANT	0	Vch Offset (V)
VCHFILTER	IQUANT	1	Vch Filter
IERANGELOWERLIMIT	IQUANT	9	I/E Range Lower Limit
IERANGEMODE	TOGGLE	F	I/E AutoRange
IERANGE	IQUANT	10	I/E Range
ACHSELECT	IQUANT	1	Ach Select
ACHRANGE	IQUANT	2	Ach Range
ACHOFFSETENABLE	TOGGLE	F	Ach Offset Enable
ACHOFFSET	QUANT	0	Ach Offset (V)
ACHFILTER	IQUANT	1	Ach Filter
CABLEID	IQUANT	14	Cable ID
DCCALDATE	LABEL	20-10-2016	DC Calibration Date
ACCALDATE	LABEL	12/3/2015	AC Calibration Date
FRAMEWORKVERSION	QUANT	7.01	Framework Version
INSTRUMENTVERSION	LABEL	4.00	Instrument Version
CURVE	TABLE	72
	Pt	T	Vf	Im	Vu	Pwr	Sig	Ach	Temp	IERange	Over
	#	s	V	A	V	W	V	V	deg C	#	bits
	0	0.013333	5.81808E-001	5.99495E-003	0.00000E+000	3.48791E-003	3.59960E-001	-1.04986E+000	3.57850E+000	10	...........
	1	0.026667	5.90012E-001	5.99501E-003	0.00000E+000	3.53713E-003	3.59960E-001	-1.06108E+000	3.57850E+000	10	...........
	2	0.04	5.97506E-001	5.99051E-003	0.00000E+000	3.57937E-003	3.59960E-001	-1.05411E+000	3.57850E+000	10	...........
	3	0.053333	6.04593E-001	5.99469E-003	0.00000E+000	3.62435E-003	3.59960E-001	-1.04956E+000	3.57850E+000	10	...........
	4	0.066667	6.11445E-001	5.99190E-003	0.00000E+000	3.66372E-003	3.59960E-001	-1.06069E+000	3.57850E+000	10	...........
	5	0.08	6.18172E-001	5.99116E-003	0.00000E+000	3.70357E-003	3.59960E-001	-1.05384E+000	3.57850E+000	10	...........
	6	0.093333	6.24626E-001	5.99523E-003	0.00000E+000	3.74478E-003	3.59960E-001	-1.04924E+000	3.57850E+000	10	...........
	7	0.106667	6.31023E-001	5.99803E-003	0.00000E+000	3.78489E-003	3.59960E-001	-1.06025E+000	3.57850E+000	10	...........
	8	0.12	6.37337E-001	5.99494E-003	0.00000E+000	3.82080E-003	3.59960E-001	-1.05357E+000	3.57850E+000	10	...........
	9	0.133333	6.43565E-001	5.99137E-003	0.00000E+000	3.85584E-003	3.59960E-001	-1.04921E+000	3.57850E+000	10	...........
	10	0.146667	6.49768E-001	5.99292E-003	0.00000E+000	3.89401E-003	3.59960E-001	-1.06052E+000	3.57850E+000	10	...........
	11	0.16	6.55852E-001	5.99111E-003	0.00000E+000	3.92928E-003	3.59960E-001	-1.05369E+000	3.57850E+000	10	...........
	12	0.173333	6.61955E-001	5.99621E-003	0.00000E+000	3.96922E-003	3.59960E-001	-1.04905E+000	3.57850E+000	10	...........
	13	0.186667	6.67947E-001	5.99404E-003	0.00000E+000	4.00370E-003	3.59960E-001	-1.06030E+000	3.57850E+000	10	...........
	14	0.2	6.73958E-001	5.99251E-003	0.00000E+000	4.03870E-003	3.59960E-001	-1.05374E+000	3.57850E+000	10	...........
	15	0.213333	6.79971E-001	5.99228E-003	0.00000E+000	4.07457E-003	3.59960E-001	-1.04915E+000	3.57850E+000	10	...........
	16	0.226667	6.85899E-001	5.99205E-003	0.00000E+000	4.10994E-003	3.59960E-001	-1.06042E+000	3.57850E+000	10	...........
	17	0.24	6.91853E-001	5.99711E-003	0.00000E+000	4.14911E-003	3.59960E-001	-1.05324E+000	3.57850E+000	10	...........
	18	0.253333	6.97755E-001	5.99304E-003	0.00000E+000	4.18167E-003	3.59960E-001	-1.04885E+000	3.57850E+000	10	...........
	19	0.266667	7.03662E-001	5.99180E-003	0.00000E+000	4.21620E-003	3.59960E-001	-1.06032E+000	3.57850E+000	10	...........
	20	0.28	7.09560E-001	5.99283E-003	0.00000E+000	4.25228E-003	3.59960E-001	-1.05374E+000	3.57850E+000	10	...........
	21	0.293333	7.15429E-001	5.99335E-003	0.00000E+000	4.28782E-003	3.59960E-001	-1.04905E+000	3.57850E+000	10	...........
	22	0.306667	7.21320E-001	5.99243E-003	0.00000E+000	4.32245E-003	3.59960E-001	-1.06009E+000	3.57850E+000	10	...........
	23	0.32	7.27163E-001	5.99536E-003	0.00000E+000	4.35960E-003	3.59960E-001	-1.05348E+000	3.57850E+000	10	...........
	24	0.333333	7.33023E-001	5.99340E-003	0.00000E+000	4.39330E-003	3.59960E-001	-1.04903E+000	3.57850E+000	10	...........
	25	0.346667	7.38857E-001	5.99166E-003	0.00000E+000	4.42699E-003	3.59960E-001	-1.06015E+000	3.57850E+000	10	...........
	26	0.36	7.44705E-001	5.99107E-003	0.00000E+000	4.46158E-003	3.59960E-001	-1.05346E+000	3.57850E+000	10	...........
	27	0.373333	7.50518E-001	5.99548E-003	0.00000E+000	4.49972E-003	3.59960E-001	-1.04865E+000	3.57850E+000	10	...........
	28	0.386667	7.56364E-001	5.99393E-003	0.00000E+000	4.53359E-003	3.59960E-001	-1.05950E+000	3.57850E+000	10	...........
	29	0.4	7.62219E-001	5.99464E-003	0.00000E+000	4.56922E-003	3.59960E-001	-1.05312E+000	3.57850E+000	10	...........
	30	0.413333	7.68058E-001	5.99230E-003	0.00000E+000	4.60244E-003	3.59960E-001	-1.04849E+000	3.57818E+000	10	...........
	31	0.426667	7.73873E-001	5.99085E-003	0.00000E+000	4.63616E-003	3.59960E-001	-1.05950E+000	3.57720E+000	10	...........
	32	0.44	7.79671E-001	5.99092E-003	0.00000E+000	4.67095E-003	3.59960E-001	-1.05306E+000	3.57720E+000	10	...........
	33	0.453333	7.85481E-001	5.99796E-003	0.00000E+000	4.71129E-003	3.59960E-001	-1.04840E+000	3.57720E+000	10	...........
	34	0.466667	7.91307E-001	5.99428E-003	0.00000E+000	4.74332E-003	3.59960E-001	-1.05989E+000	3.57720E+000	10	...........
	35	0.48	7.97158E-001	5.99711E-003	0.00000E+000	4.78064E-003	3.59960E-001	-1.05345E+000	3.57720E+000	10	...........
	36	0.493333	8.03001E-001	5.99254E-003	0.00000E+000	4.81202E-003	3.59960E-001	-1.04843E+000	3.57720E+000	10	...........
	37	0.506667	8.08792E-001	5.99230E-003	0.00000E+000	4.84652E-003	3.59960E-001	-1.05943E+000	3.57720E+000	10	...........
	38	0.52	8.14579E-001	5.99222E-003	0.00000E+000	4.88113E-003	3.59960E-001	-1.05309E+000	3.57720E+000	10	...........
	39	0.533333	8.20409E-001	5.99178E-003	0.00000E+000	4.91571E-003	3.59960E-001	-1.04830E+000	3.57720E+000	10	...........
	40	0.546667	8.26206E-001	5.99486E-003	0.00000E+000	4.95299E-003	3.59960E-001	-1.05961E+000	3.57720E+000	10	...........
	41	0.56	8.32003E-001	5.99199E-003	0.00000E+000	4.98535E-003	3.59960E-001	-1.05301E+000	3.57720E+000	10	...........
	42	0.573333	8.37769E-001	5.99322E-003	0.00000E+000	5.02093E-003	3.59960E-001	-1.04806E+000	3.57720E+000	10	...........
	43	0.586667	8.43572E-001	5.99548E-003	0.00000E+000	5.05762E-003	3.59960E-001	-1.05938E+000	3.57720E+000	10	...........
	44	0.6	8.49396E-001	5.99251E-003	0.00000E+000	5.09001E-003	3.59960E-001	-1.05329E+000	3.57720E+000	10	...........
	45	0.613333	8.55163E-001	5.99177E-003	0.00000E+000	5.12394E-003	3.59960E-001	-1.04846E+000	3.57720E+000	10	...........
	46	0.626667	8.60945E-001	5.99541E-003	0.00000E+000	5.16172E-003	3.59960E-001	-1.05962E+000	3.57720E+000	10	...........
	47	0.64	8.66693E-001	5.99608E-003	0.00000E+000	5.19676E-003	3.59960E-001	-1.05311E+000	3.57720E+000	10	...........
	48	0.653333	8.72508E-001	5.99441E-003	0.00000E+000	5.23017E-003	3.59960E-001	-1.04858E+000	3.57720E+000	10	...........
	49	0.666667	8.78255E-001	5.99065E-003	0.00000E+000	5.26132E-003	3.59960E-001	-1.05953E+000	3.57720E+000	10	...........
	50	0.68	8.84024E-001	5.99203E-003	0.00000E+000	5.29709E-003	3.59960E-001	-1.05319E+000	3.57720E+000	10	...........
	51	0.693333	8.89742E-001	5.99432E-003	0.00000E+000	5.33340E-003	3.59960E-001	-1.04836E+000	3.57720E+000	10	...........
	52	0.706667	8.95432E-001	5.99206E-003	0.00000E+000	5.36548E-003	3.59960E-001	-1.05897E+000	3.57720E+000	10	...........
	53	0.72	9.01147E-001	5.99424E-003	0.00000E+000	5.40169E-003	3.59960E-001	-1.05270E+000	3.57720E+000	10	...........
	54	0.733333	9.06833E-001	5.99601E-003	0.00000E+000	5.43738E-003	3.59960E-001	-1.04787E+000	3.57720E+000	10	...........
	55	0.746667	9.12509E-001	5.99424E-003	0.00000E+000	5.46980E-003	3.59960E-001	-1.05915E+000	3.57720E+000	10	...........
	56	0.76	9.18184E-001	5.99280E-003	0.00000E+000	5.50249E-003	3.59960E-001	-1.05283E+000	3.57720E+000	10	...........
	57	0.773333	9.23872E-001	5.99293E-003	0.00000E+000	5.53670E-003	3.59960E-001	-1.04774E+000	3.57720E+000	10	...........
	58	0.786667	9.29529E-001	5.99243E-003	0.00000E+000	5.57013E-003	3.59960E-001	-1.05872E+000	3.57720E+000	10	...........
	59	0.8	9.35145E-001	5.99626E-003	0.00000E+000	5.60738E-003	3.59960E-001	-1.05289E+000	3.57720E+000	10	...........
	60	0.813333	9.40724E-001	5.99155E-003	0.00000E+000	5.63640E-003	3.59960E-001	-1.04793E+000	3.57720E+000	10	...........
	61	0.826667	9.46305E-001	5.99223E-003	0.00000E+000	5.67048E-003	3.59960E-001	-1.05880E+000	3.57720E+000	10	...........
	62	0.84	9.51901E-001	5.99095E-003	0.00000E+000	5.70280E-003	3.59960E-001	-1.05264E+000	3.57720E+000	10	...........
	63	0.853333	9.57414E-001	5.99530E-003	0.00000E+000	5.73999E-003	3.59960E-001	-1.04777E+000	3.57720E+000	10	...........
	64	0.866667	9.62949E-001	5.99351E-003	0.00000E+000	5.77144E-003	3.59960E-001	-1.05887E+000	3.57720E+000	10	...........
	65	0.88	9.68412E-001	5.99503E-003	0.00000E+000	5.80566E-003	3.59960E-001	-1.05286E+000	3.57720E+000	10	...........
	66	0.893333	9.73879E-001	5.99191E-003	0.00000E+000	5.83540E-003	3.59960E-001	-1.04769E+000	3.57720E+000	10	...........
	67	0.906667	9.79284E-001	5.99341E-003	0.00000E+000	5.86924E-003	3.59960E-001	-1.05884E+000	3.57720E+000	10	...........
	68	0.92	9.84650E-001	5.99244E-003	0.00000E+000	5.90045E-003	3.59960E-001	-1.05264E+000	3.57720E+000	10	...........
	69	0.933333	9.89988E-001	5.99482E-003	0.00000E+000	5.93480E-003	3.59960E-001	-1.04812E+000	3.57720E+000	10	...........
	70	0.946667	9.95307E-001	5.99778E-003	0.00000E+000	5.96963E-003	3.59960E-001	-1.05900E+000	3.57720E+000	10	...........
	71	0.95333	9.99324E-001	5.99675E-003	0.00000E+000	5.99270E-003	3.59960E-001	-1.04216E+000	3.57720E+000	10	...........
STARTTIMEOFFSET	QUANT	144.755	Start Time Offset (s)