File: Data/CV_CRGO300517_1/PWRCCD_CRGO300517_1/CHARGE_DISCHARGE/CHARGE_#991.DTA
EXPLAIN
TAG	PWR800_CHARGE
TITLE	LABEL	PWR Cyclic Charge Discharge (Cell) - Charge Step	Test &Identifier
DATE	LABEL	22-6-2017	Date
TIME	LABEL	16:14:18	Time
NOTES	NOTES	3	&Notes...
	supercap test cell
	0.6mg
	6M KOH
PSTAT	PSTAT	IFC5000-01520	Potentiostat
CAPACITY	QUANT	1.00000E-003	Capacity (A-hr)
CELLTYPE	SELECTOR	1	&Cell Type
WORKINGCONNECTION	SELECTOR	0	&Working Lead
MAXCHARGETIME	VARIABLEANDUNITS	1.00000E+002	s	1.00000E+002	second(s)	Max &Charge Time
CHARGECURRENT	QUANT	6.00000E-003	&Charge Current (A)
VOLTAGEFINISH	TWOPARAM	F	1.00000E-003	3.60000E+003	&Voltage Finish	 I (A) < 	Max Time(s)
SAMPLETIME	QUANT	1.00000E-002	Sa&mple Period (s)
CHARGESTOPAT1	MULTIPARAM	4	1.00000E+000	Charge Stop At &1	Voltage > Limit	V
CHARGESTOPAT2	MULTIPARAM	0	0.00000E+000	Charge Stop At &2	None	N/A
AESBHCSELECTOR	TOGGLE	F	Save Both Half Cells
IRCOMP	TOGGLE	F	IR &Measure
EOC	QUANT	0	Open Circuit (V)
SEQUENCER	TOGGLE	TRUE	Run as Sequence
PSTATMODEL	IQUANT	53	Pstat Model
PSTATSECTION	LABEL	IFC5000-01520	Pstat Section
PSTATSERIALNO	LABEL	01520	Pstat Serial Number
CTRLMODE	IQUANT	0	Control Mode
ELECTROMETER	IQUANT	1	RE=0 or CS=1
IESTAB	IQUANT	0	I/E Stability
CASPEED	IQUANT	4	Control Amp Speed
CONVENTION	IQUANT	1	Current Convention
ICHRANGE	IQUANT	2	Ich Range
ICHRANGEMODE	TOGGLE	T	Ich Auto Range
ICHOFFSETENABLE	TOGGLE	F	Ich Offset Enable
ICHOFFSET	QUANT	0	Ich Offset (V)
ICHFILTER	IQUANT	1	Ich Filter
VCHRANGE	IQUANT	2	Vch Range
VCHRANGEMODE	TOGGLE	T	Vch Auto Range
VCHOFFSETENABLE	TOGGLE	F	Vch Offset Enable
VCHOFFSET	QUANT	0	Vch Offset (V)
VCHFILTER	IQUANT	1	Vch Filter
IERANGELOWERLIMIT	IQUANT	9	I/E Range Lower Limit
IERANGEMODE	TOGGLE	F	I/E AutoRange
IERANGE	IQUANT	10	I/E Range
ACHSELECT	IQUANT	1	Ach Select
ACHRANGE	IQUANT	2	Ach Range
ACHOFFSETENABLE	TOGGLE	F	Ach Offset Enable
ACHOFFSET	QUANT	0	Ach Offset (V)
ACHFILTER	IQUANT	1	Ach Filter
CABLEID	IQUANT	14	Cable ID
DCCALDATE	LABEL	20-10-2016	DC Calibration Date
ACCALDATE	LABEL	12/3/2015	AC Calibration Date
FRAMEWORKVERSION	QUANT	7.01	Framework Version
INSTRUMENTVERSION	LABEL	4.00	Instrument Version
CURVE	TABLE	52
	Pt	T	Vf	Im	Vu	Pwr	Sig	Ach	Temp	IERange	Over
	#	s	V	A	V	W	V	V	deg C	#	bits
	0	0.013333	6.57095E-001	5.99150E-003	0.00000E+000	3.93698E-003	3.59960E-001	-1.18324E+000	3.57630E+000	10	...........
	1	0.026667	6.66411E-001	5.99001E-003	0.00000E+000	3.99180E-003	3.59960E-001	-1.17739E+000	3.57630E+000	10	...........
	2	0.04	6.75054E-001	5.99197E-003	0.00000E+000	4.04490E-003	3.59960E-001	-1.17291E+000	3.57630E+000	10	...........
	3	0.053333	6.83227E-001	5.99333E-003	0.00000E+000	4.09481E-003	3.59960E-001	-1.18343E+000	3.57630E+000	10	...........
	4	0.066667	6.91096E-001	5.99173E-003	0.00000E+000	4.14086E-003	3.59960E-001	-1.17709E+000	3.57630E+000	10	...........
	5	0.08	6.98783E-001	5.99360E-003	0.00000E+000	4.18823E-003	3.59960E-001	-1.17291E+000	3.57630E+000	10	...........
	6	0.093333	7.06277E-001	5.99567E-003	0.00000E+000	4.23460E-003	3.59960E-001	-1.18330E+000	3.57630E+000	10	...........
	7	0.106667	7.13642E-001	5.98764E-003	0.00000E+000	4.27303E-003	3.59960E-001	-1.17713E+000	3.57630E+000	10	...........
	8	0.12	7.20980E-001	5.99694E-003	0.00000E+000	4.32367E-003	3.59960E-001	-1.17269E+000	3.57630E+000	10	...........
	9	0.133333	7.28181E-001	5.98818E-003	0.00000E+000	4.36048E-003	3.59960E-001	-1.18302E+000	3.57630E+000	10	...........
	10	0.146667	7.35331E-001	5.99288E-003	0.00000E+000	4.40675E-003	3.59960E-001	-1.17652E+000	3.57630E+000	10	...........
	11	0.16	7.42394E-001	5.99818E-003	0.00000E+000	4.45301E-003	3.59960E-001	-1.17236E+000	3.57630E+000	10	...........
	12	0.173333	7.49449E-001	5.99884E-003	0.00000E+000	4.49582E-003	3.59960E-001	-1.18278E+000	3.57630E+000	10	...........
	13	0.186667	7.56498E-001	5.99279E-003	0.00000E+000	4.53353E-003	3.59960E-001	-1.17637E+000	3.57630E+000	10	...........
	14	0.2	7.63432E-001	5.99090E-003	0.00000E+000	4.57364E-003	3.59960E-001	-1.17229E+000	3.57630E+000	10	...........
	15	0.213333	7.70354E-001	5.98844E-003	0.00000E+000	4.61322E-003	3.59960E-001	-1.18271E+000	3.57630E+000	10	...........
	16	0.226667	7.77268E-001	5.99633E-003	0.00000E+000	4.66075E-003	3.59960E-001	-1.17618E+000	3.57630E+000	10	...........
	17	0.24	7.84123E-001	5.99042E-003	0.00000E+000	4.69723E-003	3.59960E-001	-1.17222E+000	3.57630E+000	10	...........
	18	0.253333	7.90952E-001	5.99327E-003	0.00000E+000	4.74039E-003	3.59960E-001	-1.18259E+000	3.57630E+000	10	...........
	19	0.266667	7.97784E-001	5.99609E-003	0.00000E+000	4.78358E-003	3.59960E-001	-1.17576E+000	3.57630E+000	10	...........
	20	0.28	8.04553E-001	5.99208E-003	0.00000E+000	4.82095E-003	3.59960E-001	-1.17189E+000	3.57630E+000	10	...........
	21	0.293333	8.11314E-001	5.99508E-003	0.00000E+000	4.86390E-003	3.59960E-001	-1.18252E+000	3.57630E+000	10	...........
	22	0.306667	8.18024E-001	5.99732E-003	0.00000E+000	4.90595E-003	3.59960E-001	-1.17621E+000	3.57630E+000	10	...........
	23	0.32	8.24713E-001	5.99547E-003	0.00000E+000	4.94454E-003	3.59960E-001	-1.17193E+000	3.57630E+000	10	...........
	24	0.333333	8.31377E-001	5.99560E-003	0.00000E+000	4.98460E-003	3.59960E-001	-1.18250E+000	3.57630E+000	10	...........
	25	0.346667	8.37972E-001	5.99522E-003	0.00000E+000	5.02382E-003	3.59960E-001	-1.17577E+000	3.57637E+000	10	...........
	26	0.36	8.44604E-001	5.99398E-003	0.00000E+000	5.06254E-003	3.59960E-001	-1.17216E+000	3.57660E+000	10	...........
	27	0.373333	8.51173E-001	5.99256E-003	0.00000E+000	5.10070E-003	3.59960E-001	-1.18296E+000	3.57660E+000	10	...........
	28	0.386667	8.57759E-001	5.99099E-003	0.00000E+000	5.13882E-003	3.59960E-001	-1.17560E+000	3.57660E+000	10	...........
	29	0.4	8.64258E-001	5.99481E-003	0.00000E+000	5.18106E-003	3.59960E-001	-1.17189E+000	3.57660E+000	10	...........
	30	0.413333	8.70801E-001	5.99430E-003	0.00000E+000	5.21985E-003	3.59960E-001	-1.18277E+000	3.57660E+000	10	...........
	31	0.426667	8.77214E-001	5.99222E-003	0.00000E+000	5.25645E-003	3.59960E-001	-1.17563E+000	3.57660E+000	10	...........
	32	0.44	8.83702E-001	5.99456E-003	0.00000E+000	5.29741E-003	3.59960E-001	-1.17200E+000	3.57660E+000	10	...........
	33	0.453333	8.90087E-001	5.99235E-003	0.00000E+000	5.33372E-003	3.59960E-001	-1.18251E+000	3.57660E+000	10	...........
	34	0.466667	8.96476E-001	5.99596E-003	0.00000E+000	5.37523E-003	3.59960E-001	-1.17499E+000	3.57660E+000	10	...........
	35	0.48	9.02802E-001	5.99090E-003	0.00000E+000	5.40860E-003	3.59960E-001	-1.17164E+000	3.57660E+000	10	...........
	36	0.493333	9.09058E-001	5.99494E-003	0.00000E+000	5.44975E-003	3.59960E-001	-1.18239E+000	3.57660E+000	10	...........
	37	0.506667	9.15298E-001	5.99236E-003	0.00000E+000	5.48480E-003	3.59960E-001	-1.17505E+000	3.57660E+000	10	...........
	38	0.52	9.21560E-001	5.99610E-003	0.00000E+000	5.52576E-003	3.59960E-001	-1.17181E+000	3.57660E+000	10	...........
	39	0.533333	9.27717E-001	5.99415E-003	0.00000E+000	5.56087E-003	3.59960E-001	-1.18258E+000	3.57660E+000	10	...........
	40	0.546667	9.33838E-001	5.99620E-003	0.00000E+000	5.59948E-003	3.59960E-001	-1.17501E+000	3.57660E+000	10	...........
	41	0.56	9.39879E-001	5.99437E-003	0.00000E+000	5.63398E-003	3.59960E-001	-1.17159E+000	3.57660E+000	10	...........
	42	0.573333	9.45921E-001	5.99505E-003	0.00000E+000	5.67085E-003	3.59960E-001	-1.18272E+000	3.57660E+000	10	...........
	43	0.586667	9.51924E-001	5.99320E-003	0.00000E+000	5.70507E-003	3.59960E-001	-1.17469E+000	3.57660E+000	10	...........
	44	0.6	9.57866E-001	5.99210E-003	0.00000E+000	5.73963E-003	3.59960E-001	-1.17162E+000	3.57660E+000	10	...........
	45	0.613333	9.63724E-001	5.99234E-003	0.00000E+000	5.77497E-003	3.59960E-001	-1.18262E+000	3.57660E+000	10	...........
	46	0.626667	9.69560E-001	5.99195E-003	0.00000E+000	5.80955E-003	3.59960E-001	-1.17474E+000	3.57660E+000	10	...........
	47	0.64	9.75347E-001	5.99425E-003	0.00000E+000	5.84648E-003	3.59960E-001	-1.17167E+000	3.57660E+000	10	...........
	48	0.653333	9.81018E-001	5.99052E-003	0.00000E+000	5.87681E-003	3.59960E-001	-1.18270E+000	3.57660E+000	10	...........
	49	0.666667	9.86675E-001	5.99611E-003	0.00000E+000	5.91621E-003	3.59960E-001	-1.17500E+000	3.57660E+000	10	...........
	50	0.68	9.92250E-001	5.99096E-003	0.00000E+000	5.94453E-003	3.59960E-001	-1.17202E+000	3.57660E+000	10	...........
	51	0.693333	9.97824E-001	5.99113E-003	0.00000E+000	5.97810E-003	3.59960E-001	-1.18310E+000	3.57660E+000	10	...........
STARTTIMEOFFSET	QUANT	1572.836	Start Time Offset (s)