File: Data/CV_CRGO300517_1/PWRCCD_CRGO300517_1/CHARGE_DISCHARGE/CHARGE_#856.DTA
EXPLAIN
TAG	PWR800_CHARGE
TITLE	LABEL	PWR Cyclic Charge Discharge (Cell) - Charge Step	Test &Identifier
DATE	LABEL	22-6-2017	Date
TIME	LABEL	16:09:21	Time
NOTES	NOTES	3	&Notes...
	supercap test cell
	0.6mg
	6M KOH
PSTAT	PSTAT	IFC5000-01520	Potentiostat
CAPACITY	QUANT	1.00000E-003	Capacity (A-hr)
CELLTYPE	SELECTOR	1	&Cell Type
WORKINGCONNECTION	SELECTOR	0	&Working Lead
MAXCHARGETIME	VARIABLEANDUNITS	1.00000E+002	s	1.00000E+002	second(s)	Max &Charge Time
CHARGECURRENT	QUANT	6.00000E-003	&Charge Current (A)
VOLTAGEFINISH	TWOPARAM	F	1.00000E-003	3.60000E+003	&Voltage Finish	 I (A) < 	Max Time(s)
SAMPLETIME	QUANT	1.00000E-002	Sa&mple Period (s)
CHARGESTOPAT1	MULTIPARAM	4	1.00000E+000	Charge Stop At &1	Voltage > Limit	V
CHARGESTOPAT2	MULTIPARAM	0	0.00000E+000	Charge Stop At &2	None	N/A
AESBHCSELECTOR	TOGGLE	F	Save Both Half Cells
IRCOMP	TOGGLE	F	IR &Measure
EOC	QUANT	0	Open Circuit (V)
SEQUENCER	TOGGLE	TRUE	Run as Sequence
PSTATMODEL	IQUANT	53	Pstat Model
PSTATSECTION	LABEL	IFC5000-01520	Pstat Section
PSTATSERIALNO	LABEL	01520	Pstat Serial Number
CTRLMODE	IQUANT	0	Control Mode
ELECTROMETER	IQUANT	1	RE=0 or CS=1
IESTAB	IQUANT	0	I/E Stability
CASPEED	IQUANT	4	Control Amp Speed
CONVENTION	IQUANT	1	Current Convention
ICHRANGE	IQUANT	2	Ich Range
ICHRANGEMODE	TOGGLE	T	Ich Auto Range
ICHOFFSETENABLE	TOGGLE	F	Ich Offset Enable
ICHOFFSET	QUANT	0	Ich Offset (V)
ICHFILTER	IQUANT	1	Ich Filter
VCHRANGE	IQUANT	2	Vch Range
VCHRANGEMODE	TOGGLE	T	Vch Auto Range
VCHOFFSETENABLE	TOGGLE	F	Vch Offset Enable
VCHOFFSET	QUANT	0	Vch Offset (V)
VCHFILTER	IQUANT	1	Vch Filter
IERANGELOWERLIMIT	IQUANT	9	I/E Range Lower Limit
IERANGEMODE	TOGGLE	F	I/E AutoRange
IERANGE	IQUANT	10	I/E Range
ACHSELECT	IQUANT	1	Ach Select
ACHRANGE	IQUANT	2	Ach Range
ACHOFFSETENABLE	TOGGLE	F	Ach Offset Enable
ACHOFFSET	QUANT	0	Ach Offset (V)
ACHFILTER	IQUANT	1	Ach Filter
CABLEID	IQUANT	14	Cable ID
DCCALDATE	LABEL	20-10-2016	DC Calibration Date
ACCALDATE	LABEL	12/3/2015	AC Calibration Date
FRAMEWORKVERSION	QUANT	7.01	Framework Version
INSTRUMENTVERSION	LABEL	4.00	Instrument Version
CURVE	TABLE	54
	Pt	T	Vf	Im	Vu	Pwr	Sig	Ach	Temp	IERange	Over
	#	s	V	A	V	W	V	V	deg C	#	bits
	0	0.013333	6.50644E-001	5.99497E-003	0.00000E+000	3.90059E-003	3.59960E-001	-1.16634E+000	3.57780E+000	10	...........
	1	0.026667	6.59877E-001	5.99154E-003	0.00000E+000	3.95368E-003	3.59960E-001	-1.16408E+000	3.57780E+000	10	...........
	2	0.04	6.68400E-001	5.99125E-003	0.00000E+000	4.00455E-003	3.59960E-001	-1.17496E+000	3.57780E+000	10	...........
	3	0.053333	6.76471E-001	5.99279E-003	0.00000E+000	4.05395E-003	3.59960E-001	-1.16581E+000	3.57780E+000	10	...........
	4	0.066667	6.84176E-001	5.99598E-003	0.00000E+000	4.10231E-003	3.59960E-001	-1.16413E+000	3.57780E+000	10	...........
	5	0.08	6.91745E-001	5.99475E-003	0.00000E+000	4.14684E-003	3.59960E-001	-1.17498E+000	3.57780E+000	10	...........
	6	0.093333	6.99175E-001	5.98802E-003	0.00000E+000	4.18668E-003	3.59960E-001	-1.16524E+000	3.57780E+000	10	...........
	7	0.106667	7.06473E-001	5.99228E-003	0.00000E+000	4.23338E-003	3.59960E-001	-1.16352E+000	3.57780E+000	10	...........
	8	0.12	7.13644E-001	5.99458E-003	0.00000E+000	4.27800E-003	3.59960E-001	-1.17463E+000	3.57780E+000	10	...........
	9	0.133333	7.20813E-001	5.98938E-003	0.00000E+000	4.31722E-003	3.59960E-001	-1.16545E+000	3.57780E+000	10	...........
	10	0.146667	7.27846E-001	5.99576E-003	0.00000E+000	4.36399E-003	3.59960E-001	-1.16358E+000	3.57780E+000	10	...........
	11	0.16	7.34858E-001	5.99427E-003	0.00000E+000	4.40494E-003	3.59960E-001	-1.17434E+000	3.57780E+000	10	...........
	12	0.173333	7.41859E-001	5.98641E-003	0.00000E+000	4.44107E-003	3.59960E-001	-1.16489E+000	3.57780E+000	10	...........
	13	0.186667	7.48786E-001	5.99382E-003	0.00000E+000	4.48809E-003	3.59960E-001	-1.16353E+000	3.57780E+000	10	...........
	14	0.2	7.55691E-001	5.99157E-003	0.00000E+000	4.52778E-003	3.59960E-001	-1.17458E+000	3.57780E+000	10	...........
	15	0.213333	7.62550E-001	5.99353E-003	0.00000E+000	4.57037E-003	3.59960E-001	-1.16492E+000	3.57780E+000	10	...........
	16	0.226667	7.69401E-001	5.99464E-003	0.00000E+000	4.61228E-003	3.59960E-001	-1.16331E+000	3.57780E+000	10	...........
	17	0.24	7.76180E-001	5.99147E-003	0.00000E+000	4.65046E-003	3.59960E-001	-1.17419E+000	3.57780E+000	10	...........
	18	0.253333	7.82944E-001	5.99101E-003	0.00000E+000	4.69062E-003	3.59960E-001	-1.16483E+000	3.57780E+000	10	...........
	19	0.266667	7.89661E-001	5.99392E-003	0.00000E+000	4.73316E-003	3.59960E-001	-1.16344E+000	3.57780E+000	10	...........
	20	0.28	7.96432E-001	5.99139E-003	0.00000E+000	4.77174E-003	3.59960E-001	-1.17438E+000	3.57780E+000	10	...........
	21	0.293333	8.03072E-001	5.99280E-003	0.00000E+000	4.81265E-003	3.59960E-001	-1.16471E+000	3.57780E+000	10	...........
	22	0.306667	8.09700E-001	5.99494E-003	0.00000E+000	4.85410E-003	3.59960E-001	-1.16326E+000	3.57780E+000	10	...........
	23	0.32	8.16345E-001	5.99107E-003	0.00000E+000	4.89078E-003	3.59960E-001	-1.17443E+000	3.57780E+000	10	...........
	24	0.333333	8.23005E-001	5.99009E-003	0.00000E+000	4.92987E-003	3.59960E-001	-1.16484E+000	3.57780E+000	10	...........
	25	0.346667	8.29573E-001	5.98946E-003	0.00000E+000	4.96870E-003	3.59960E-001	-1.16343E+000	3.57780E+000	10	...........
	26	0.36	8.36160E-001	5.99565E-003	0.00000E+000	5.01332E-003	3.59960E-001	-1.17426E+000	3.57780E+000	10	...........
	27	0.373333	8.42701E-001	5.98956E-003	0.00000E+000	5.04740E-003	3.59960E-001	-1.16437E+000	3.57780E+000	10	...........
	28	0.386667	8.49218E-001	5.98889E-003	0.00000E+000	5.08587E-003	3.59960E-001	-1.16337E+000	3.57780E+000	10	...........
	29	0.4	8.55706E-001	5.99264E-003	0.00000E+000	5.12794E-003	3.59960E-001	-1.17407E+000	3.57780E+000	10	...........
	30	0.413333	8.62192E-001	5.99325E-003	0.00000E+000	5.16733E-003	3.59960E-001	-1.16399E+000	3.57780E+000	10	...........
	31	0.426667	8.68662E-001	5.99230E-003	0.00000E+000	5.20528E-003	3.59960E-001	-1.16270E+000	3.57780E+000	10	...........
	32	0.44	8.75135E-001	5.99218E-003	0.00000E+000	5.24396E-003	3.59960E-001	-1.17355E+000	3.57780E+000	10	...........
	33	0.453333	8.81524E-001	5.99460E-003	0.00000E+000	5.28439E-003	3.59960E-001	-1.16409E+000	3.57780E+000	10	...........
	34	0.466667	8.87869E-001	5.99526E-003	0.00000E+000	5.32301E-003	3.59960E-001	-1.16278E+000	3.57780E+000	10	...........
	35	0.48	8.94159E-001	5.99460E-003	0.00000E+000	5.36013E-003	3.59960E-001	-1.17350E+000	3.57780E+000	10	...........
	36	0.493333	9.00470E-001	5.99608E-003	0.00000E+000	5.39928E-003	3.59960E-001	-1.16376E+000	3.57780E+000	10	...........
	37	0.506667	9.06708E-001	5.99440E-003	0.00000E+000	5.43517E-003	3.59960E-001	-1.16254E+000	3.57780E+000	10	...........
	38	0.52	9.12930E-001	5.99529E-003	0.00000E+000	5.47329E-003	3.59960E-001	-1.17374E+000	3.57780E+000	10	...........
	39	0.533333	9.19138E-001	5.99265E-003	0.00000E+000	5.50808E-003	3.59960E-001	-1.16388E+000	3.57780E+000	10	...........
	40	0.546667	9.25323E-001	5.99219E-003	0.00000E+000	5.54470E-003	3.59960E-001	-1.16269E+000	3.57670E+000	10	...........
	41	0.56	9.31431E-001	5.99763E-003	0.00000E+000	5.58638E-003	3.59960E-001	-1.17344E+000	3.57670E+000	10	...........
	42	0.573333	9.37473E-001	5.99330E-003	0.00000E+000	5.61856E-003	3.59960E-001	-1.16359E+000	3.57670E+000	10	...........
	43	0.586667	9.43438E-001	5.99111E-003	0.00000E+000	5.65224E-003	3.59960E-001	-1.16266E+000	3.57670E+000	10	...........
	44	0.6	9.49435E-001	5.99561E-003	0.00000E+000	5.69244E-003	3.59960E-001	-1.17361E+000	3.57670E+000	10	...........
	45	0.613333	9.55326E-001	6.00047E-003	0.00000E+000	5.73240E-003	3.59960E-001	-1.16387E+000	3.57670E+000	10	...........
	46	0.626667	9.61205E-001	5.98964E-003	0.00000E+000	5.75727E-003	3.59960E-001	-1.16254E+000	3.57670E+000	10	...........
	47	0.64	9.66999E-001	5.99037E-003	0.00000E+000	5.79268E-003	3.59960E-001	-1.17315E+000	3.57670E+000	10	...........
	48	0.653333	9.72800E-001	5.99521E-003	0.00000E+000	5.83214E-003	3.59960E-001	-1.16329E+000	3.57670E+000	10	...........
	49	0.666667	9.78529E-001	5.99460E-003	0.00000E+000	5.86589E-003	3.59960E-001	-1.16269E+000	3.57670E+000	10	...........
	50	0.68	9.84159E-001	5.99441E-003	0.00000E+000	5.89945E-003	3.59960E-001	-1.17348E+000	3.57670E+000	10	...........
	51	0.693333	9.89840E-001	5.99435E-003	0.00000E+000	5.93345E-003	3.59960E-001	-1.16308E+000	3.57670E+000	10	...........
	52	0.706667	9.95434E-001	5.99044E-003	0.00000E+000	5.96309E-003	3.59960E-001	-1.16206E+000	3.57670E+000	10	...........
	53	0.713333	9.99546E-001	5.99083E-003	0.00000E+000	5.98811E-003	3.59960E-001	-1.17385E+000	3.57670E+000	10	...........
STARTTIMEOFFSET	QUANT	1383.956	Start Time Offset (s)