File: Data/CV_CRGO300517_1/PWRCCD_CRGO300517_1/CHARGE_DISCHARGE/CHARGE_#166.DTA
EXPLAIN
TAG	PWR800_CHARGE
TITLE	LABEL	PWR Cyclic Charge Discharge (Cell) - Charge Step	Test &Identifier
DATE	LABEL	22-6-2017	Date
TIME	LABEL	15:42:22	Time
NOTES	NOTES	3	&Notes...
	supercap test cell
	0.6mg
	6M KOH
PSTAT	PSTAT	IFC5000-01520	Potentiostat
CAPACITY	QUANT	1.00000E-003	Capacity (A-hr)
CELLTYPE	SELECTOR	1	&Cell Type
WORKINGCONNECTION	SELECTOR	0	&Working Lead
MAXCHARGETIME	VARIABLEANDUNITS	1.00000E+002	s	1.00000E+002	second(s)	Max &Charge Time
CHARGECURRENT	QUANT	6.00000E-003	&Charge Current (A)
VOLTAGEFINISH	TWOPARAM	F	1.00000E-003	3.60000E+003	&Voltage Finish	 I (A) < 	Max Time(s)
SAMPLETIME	QUANT	1.00000E-002	Sa&mple Period (s)
CHARGESTOPAT1	MULTIPARAM	4	1.00000E+000	Charge Stop At &1	Voltage > Limit	V
CHARGESTOPAT2	MULTIPARAM	0	0.00000E+000	Charge Stop At &2	None	N/A
AESBHCSELECTOR	TOGGLE	F	Save Both Half Cells
IRCOMP	TOGGLE	F	IR &Measure
EOC	QUANT	0	Open Circuit (V)
SEQUENCER	TOGGLE	TRUE	Run as Sequence
PSTATMODEL	IQUANT	53	Pstat Model
PSTATSECTION	LABEL	IFC5000-01520	Pstat Section
PSTATSERIALNO	LABEL	01520	Pstat Serial Number
CTRLMODE	IQUANT	0	Control Mode
ELECTROMETER	IQUANT	1	RE=0 or CS=1
IESTAB	IQUANT	0	I/E Stability
CASPEED	IQUANT	4	Control Amp Speed
CONVENTION	IQUANT	1	Current Convention
ICHRANGE	IQUANT	2	Ich Range
ICHRANGEMODE	TOGGLE	T	Ich Auto Range
ICHOFFSETENABLE	TOGGLE	F	Ich Offset Enable
ICHOFFSET	QUANT	0	Ich Offset (V)
ICHFILTER	IQUANT	1	Ich Filter
VCHRANGE	IQUANT	2	Vch Range
VCHRANGEMODE	TOGGLE	T	Vch Auto Range
VCHOFFSETENABLE	TOGGLE	F	Vch Offset Enable
VCHOFFSET	QUANT	0	Vch Offset (V)
VCHFILTER	IQUANT	1	Vch Filter
IERANGELOWERLIMIT	IQUANT	9	I/E Range Lower Limit
IERANGEMODE	TOGGLE	F	I/E AutoRange
IERANGE	IQUANT	10	I/E Range
ACHSELECT	IQUANT	1	Ach Select
ACHRANGE	IQUANT	2	Ach Range
ACHOFFSETENABLE	TOGGLE	F	Ach Offset Enable
ACHOFFSET	QUANT	0	Ach Offset (V)
ACHFILTER	IQUANT	1	Ach Filter
CABLEID	IQUANT	14	Cable ID
DCCALDATE	LABEL	20-10-2016	DC Calibration Date
ACCALDATE	LABEL	12/3/2015	AC Calibration Date
FRAMEWORKVERSION	QUANT	7.01	Framework Version
INSTRUMENTVERSION	LABEL	4.00	Instrument Version
CURVE	TABLE	67
	Pt	T	Vf	Im	Vu	Pwr	Sig	Ach	Temp	IERange	Over
	#	s	V	A	V	W	V	V	deg C	#	bits
	0	0.013333	6.01285E-001	5.99380E-003	0.00000E+000	3.60399E-003	3.59960E-001	-1.08771E+000	3.57800E+000	10	...........
	1	0.026667	6.09601E-001	5.99178E-003	0.00000E+000	3.65259E-003	3.59960E-001	-1.08370E+000	3.57800E+000	10	...........
	2	0.04	6.17393E-001	5.99284E-003	0.00000E+000	3.69994E-003	3.59960E-001	-1.07815E+000	3.57800E+000	10	...........
	3	0.053333	6.24715E-001	5.99633E-003	0.00000E+000	3.74600E-003	3.59960E-001	-1.08779E+000	3.57800E+000	10	...........
	4	0.066667	6.31708E-001	5.99473E-003	0.00000E+000	3.78692E-003	3.59960E-001	-1.08366E+000	3.57800E+000	10	...........
	5	0.08	6.38539E-001	5.99333E-003	0.00000E+000	3.82698E-003	3.59960E-001	-1.07784E+000	3.57800E+000	10	...........
	6	0.093333	6.45290E-001	5.99744E-003	0.00000E+000	3.87009E-003	3.59960E-001	-1.08755E+000	3.57800E+000	10	...........
	7	0.106667	6.51894E-001	5.99417E-003	0.00000E+000	3.90756E-003	3.59960E-001	-1.08362E+000	3.57800E+000	10	...........
	8	0.12	6.58399E-001	5.99500E-003	0.00000E+000	3.94710E-003	3.59960E-001	-1.07816E+000	3.57800E+000	10	...........
	9	0.133333	6.64834E-001	5.99212E-003	0.00000E+000	3.98377E-003	3.59960E-001	-1.08738E+000	3.57800E+000	10	...........
	10	0.146667	6.71240E-001	5.99755E-003	0.00000E+000	4.02579E-003	3.59960E-001	-1.08347E+000	3.57800E+000	10	...........
	11	0.16	6.77565E-001	5.99250E-003	0.00000E+000	4.06031E-003	3.59960E-001	-1.07809E+000	3.57800E+000	10	...........
	12	0.173333	6.83856E-001	5.99467E-003	0.00000E+000	4.09949E-003	3.59960E-001	-1.08751E+000	3.57800E+000	10	...........
	13	0.186667	6.90074E-001	5.99771E-003	0.00000E+000	4.13887E-003	3.59960E-001	-1.08393E+000	3.57800E+000	10	...........
	14	0.2	6.96287E-001	5.99077E-003	0.00000E+000	4.17129E-003	3.59960E-001	-1.07798E+000	3.57800E+000	10	...........
	15	0.213333	7.02479E-001	5.98980E-003	0.00000E+000	4.20771E-003	3.59960E-001	-1.08708E+000	3.57800E+000	10	...........
	16	0.226667	7.08663E-001	5.99398E-003	0.00000E+000	4.24771E-003	3.59960E-001	-1.08372E+000	3.57800E+000	10	...........
	17	0.24	7.14821E-001	5.99377E-003	0.00000E+000	4.28447E-003	3.59960E-001	-1.07808E+000	3.57800E+000	10	...........
	18	0.253333	7.20996E-001	5.99039E-003	0.00000E+000	4.31905E-003	3.59960E-001	-1.08718E+000	3.57800E+000	10	...........
	19	0.266667	7.27129E-001	5.99546E-003	0.00000E+000	4.35948E-003	3.59960E-001	-1.08346E+000	3.57800E+000	10	...........
	20	0.28	7.33213E-001	5.99568E-003	0.00000E+000	4.39611E-003	3.59960E-001	-1.07744E+000	3.57800E+000	10	...........
	21	0.293333	7.39301E-001	5.99621E-003	0.00000E+000	4.43301E-003	3.59960E-001	-1.08679E+000	3.57800E+000	10	...........
	22	0.306667	7.45424E-001	5.99526E-003	0.00000E+000	4.46901E-003	3.59960E-001	-1.08343E+000	3.57800E+000	10	...........
	23	0.32	7.51470E-001	5.99699E-003	0.00000E+000	4.50656E-003	3.59960E-001	-1.07739E+000	3.57800E+000	10	...........
	24	0.333333	7.57579E-001	5.99615E-003	0.00000E+000	4.54256E-003	3.59960E-001	-1.08658E+000	3.57800E+000	10	...........
	25	0.346667	7.63622E-001	5.99226E-003	0.00000E+000	4.57582E-003	3.59960E-001	-1.08317E+000	3.57800E+000	10	...........
	26	0.36	7.69674E-001	5.99838E-003	0.00000E+000	4.61680E-003	3.59960E-001	-1.07742E+000	3.57800E+000	10	...........
	27	0.373333	7.75776E-001	5.99457E-003	0.00000E+000	4.65045E-003	3.59960E-001	-1.08663E+000	3.57800E+000	10	...........
	28	0.386667	7.81867E-001	5.99067E-003	0.00000E+000	4.68391E-003	3.59960E-001	-1.08331E+000	3.57800E+000	10	...........
	29	0.4	7.87881E-001	5.99075E-003	0.00000E+000	4.71999E-003	3.59960E-001	-1.07725E+000	3.57800E+000	10	...........
	30	0.413333	7.93913E-001	5.99526E-003	0.00000E+000	4.75971E-003	3.59960E-001	-1.08622E+000	3.57800E+000	10	...........
	31	0.426667	7.99941E-001	5.99269E-003	0.00000E+000	4.79380E-003	3.59960E-001	-1.08332E+000	3.57800E+000	10	...........
	32	0.44	8.05961E-001	5.99168E-003	0.00000E+000	4.82906E-003	3.59960E-001	-1.07735E+000	3.57800E+000	10	...........
	33	0.453333	8.11967E-001	5.99444E-003	0.00000E+000	4.86729E-003	3.59960E-001	-1.08638E+000	3.57800E+000	10	...........
	34	0.466667	8.17998E-001	5.99366E-003	0.00000E+000	4.90280E-003	3.59960E-001	-1.08297E+000	3.57800E+000	10	...........
	35	0.48	8.24025E-001	5.99696E-003	0.00000E+000	4.94165E-003	3.59960E-001	-1.07718E+000	3.57800E+000	10	...........
	36	0.493333	8.29964E-001	5.99491E-003	0.00000E+000	4.97555E-003	3.59960E-001	-1.08638E+000	3.57800E+000	10	...........
	37	0.506667	8.35987E-001	5.99462E-003	0.00000E+000	5.01142E-003	3.59960E-001	-1.08344E+000	3.57800E+000	10	...........
	38	0.52	8.41947E-001	5.99316E-003	0.00000E+000	5.04592E-003	3.59960E-001	-1.07748E+000	3.57800E+000	10	...........
	39	0.533333	8.47944E-001	5.99414E-003	0.00000E+000	5.08269E-003	3.59960E-001	-1.08612E+000	3.57800E+000	10	...........
	40	0.546667	8.53894E-001	5.99419E-003	0.00000E+000	5.11840E-003	3.59960E-001	-1.08338E+000	3.57800E+000	10	...........
	41	0.56	8.59873E-001	5.99706E-003	0.00000E+000	5.15671E-003	3.59960E-001	-1.07715E+000	3.57800E+000	10	...........
	42	0.573333	8.65823E-001	6.00027E-003	0.00000E+000	5.19517E-003	3.59960E-001	-1.08633E+000	3.57800E+000	10	...........
	43	0.586667	8.71729E-001	5.99528E-003	0.00000E+000	5.22626E-003	3.59960E-001	-1.08338E+000	3.57800E+000	10	...........
	44	0.6	8.77663E-001	5.99389E-003	0.00000E+000	5.26061E-003	3.59960E-001	-1.07701E+000	3.57800E+000	10	...........
	45	0.613333	8.83555E-001	5.99372E-003	0.00000E+000	5.29578E-003	3.59960E-001	-1.08561E+000	3.57800E+000	10	...........
	46	0.626667	8.89446E-001	5.99179E-003	0.00000E+000	5.32937E-003	3.59960E-001	-1.08295E+000	3.57800E+000	10	...........
	47	0.64	8.95332E-001	5.99223E-003	0.00000E+000	5.36503E-003	3.59960E-001	-1.07694E+000	3.57800E+000	10	...........
	48	0.653333	9.01184E-001	5.99514E-003	0.00000E+000	5.40272E-003	3.59960E-001	-1.08569E+000	3.57800E+000	10	...........
	49	0.666667	9.07013E-001	5.99346E-003	0.00000E+000	5.43615E-003	3.59960E-001	-1.08296E+000	3.57800E+000	10	...........
	50	0.68	9.12859E-001	5.99083E-003	0.00000E+000	5.46878E-003	3.59960E-001	-1.07683E+000	3.57800E+000	10	...........
	51	0.693333	9.18648E-001	5.99751E-003	0.00000E+000	5.50960E-003	3.59960E-001	-1.08563E+000	3.57800E+000	10	...........
	52	0.706667	9.24452E-001	5.99637E-003	0.00000E+000	5.54336E-003	3.59960E-001	-1.08309E+000	3.57800E+000	10	...........
	53	0.72	9.30231E-001	5.99396E-003	0.00000E+000	5.57576E-003	3.59960E-001	-1.07670E+000	3.57800E+000	10	...........
	54	0.733333	9.35943E-001	5.99130E-003	0.00000E+000	5.60751E-003	3.59960E-001	-1.08539E+000	3.57800E+000	10	...........
	55	0.746667	9.41632E-001	5.99356E-003	0.00000E+000	5.64373E-003	3.59960E-001	-1.08288E+000	3.57800E+000	10	...........
	56	0.76	9.47322E-001	5.99460E-003	0.00000E+000	5.67882E-003	3.59960E-001	-1.07683E+000	3.57800E+000	10	...........
	57	0.773333	9.52953E-001	5.99210E-003	0.00000E+000	5.71019E-003	3.59960E-001	-1.08547E+000	3.57800E+000	10	...........
	58	0.786667	9.58541E-001	5.99312E-003	0.00000E+000	5.74466E-003	3.59960E-001	-1.08304E+000	3.57800E+000	10	...........
	59	0.8	9.64158E-001	5.99675E-003	0.00000E+000	5.78182E-003	3.59960E-001	-1.07668E+000	3.57800E+000	10	...........
	60	0.813333	9.69728E-001	5.99420E-003	0.00000E+000	5.81274E-003	3.59960E-001	-1.08522E+000	3.57800E+000	10	...........
	61	0.826667	9.75234E-001	5.99140E-003	0.00000E+000	5.84302E-003	3.59960E-001	-1.08314E+000	3.57800E+000	10	...........
	62	0.84	9.80761E-001	5.99693E-003	0.00000E+000	5.88155E-003	3.59960E-001	-1.07695E+000	3.57800E+000	10	...........
	63	0.853333	9.86203E-001	5.99425E-003	0.00000E+000	5.91155E-003	3.59960E-001	-1.08548E+000	3.57800E+000	10	...........
	64	0.866667	9.91597E-001	5.99729E-003	0.00000E+000	5.94689E-003	3.59960E-001	-1.08316E+000	3.57800E+000	10	...........
	65	0.88	9.96945E-001	5.99220E-003	0.00000E+000	5.97389E-003	3.59960E-001	-1.07681E+000	3.57800E+000	10	...........
	66	0.883333	1.00029E+000	5.99133E-003	0.00000E+000	5.99309E-003	3.59960E-001	-1.09182E+000	3.57800E+000	10	...........
STARTTIMEOFFSET	QUANT	313.8618	Start Time Offset (s)