File: Data/CV_CRGO300517_1/PWRCCD_CRGO300517_1/CHARGE_DISCHARGE/CHARGE_#525.DTA
EXPLAIN
TAG	PWR800_CHARGE
TITLE	LABEL	PWR Cyclic Charge Discharge (Cell) - Charge Step	Test &Identifier
DATE	LABEL	22-6-2017	Date
TIME	LABEL	15:56:53	Time
NOTES	NOTES	3	&Notes...
	supercap test cell
	0.6mg
	6M KOH
PSTAT	PSTAT	IFC5000-01520	Potentiostat
CAPACITY	QUANT	1.00000E-003	Capacity (A-hr)
CELLTYPE	SELECTOR	1	&Cell Type
WORKINGCONNECTION	SELECTOR	0	&Working Lead
MAXCHARGETIME	VARIABLEANDUNITS	1.00000E+002	s	1.00000E+002	second(s)	Max &Charge Time
CHARGECURRENT	QUANT	6.00000E-003	&Charge Current (A)
VOLTAGEFINISH	TWOPARAM	F	1.00000E-003	3.60000E+003	&Voltage Finish	 I (A) < 	Max Time(s)
SAMPLETIME	QUANT	1.00000E-002	Sa&mple Period (s)
CHARGESTOPAT1	MULTIPARAM	4	1.00000E+000	Charge Stop At &1	Voltage > Limit	V
CHARGESTOPAT2	MULTIPARAM	0	0.00000E+000	Charge Stop At &2	None	N/A
AESBHCSELECTOR	TOGGLE	F	Save Both Half Cells
IRCOMP	TOGGLE	F	IR &Measure
EOC	QUANT	0	Open Circuit (V)
SEQUENCER	TOGGLE	TRUE	Run as Sequence
PSTATMODEL	IQUANT	53	Pstat Model
PSTATSECTION	LABEL	IFC5000-01520	Pstat Section
PSTATSERIALNO	LABEL	01520	Pstat Serial Number
CTRLMODE	IQUANT	0	Control Mode
ELECTROMETER	IQUANT	1	RE=0 or CS=1
IESTAB	IQUANT	0	I/E Stability
CASPEED	IQUANT	4	Control Amp Speed
CONVENTION	IQUANT	1	Current Convention
ICHRANGE	IQUANT	2	Ich Range
ICHRANGEMODE	TOGGLE	T	Ich Auto Range
ICHOFFSETENABLE	TOGGLE	F	Ich Offset Enable
ICHOFFSET	QUANT	0	Ich Offset (V)
ICHFILTER	IQUANT	1	Ich Filter
VCHRANGE	IQUANT	2	Vch Range
VCHRANGEMODE	TOGGLE	T	Vch Auto Range
VCHOFFSETENABLE	TOGGLE	F	Vch Offset Enable
VCHOFFSET	QUANT	0	Vch Offset (V)
VCHFILTER	IQUANT	1	Vch Filter
IERANGELOWERLIMIT	IQUANT	9	I/E Range Lower Limit
IERANGEMODE	TOGGLE	F	I/E AutoRange
IERANGE	IQUANT	10	I/E Range
ACHSELECT	IQUANT	1	Ach Select
ACHRANGE	IQUANT	2	Ach Range
ACHOFFSETENABLE	TOGGLE	F	Ach Offset Enable
ACHOFFSET	QUANT	0	Ach Offset (V)
ACHFILTER	IQUANT	1	Ach Filter
CABLEID	IQUANT	14	Cable ID
DCCALDATE	LABEL	20-10-2016	DC Calibration Date
ACCALDATE	LABEL	12/3/2015	AC Calibration Date
FRAMEWORKVERSION	QUANT	7.01	Framework Version
INSTRUMENTVERSION	LABEL	4.00	Instrument Version
CURVE	TABLE	58
	Pt	T	Vf	Im	Vu	Pwr	Sig	Ach	Temp	IERange	Over
	#	s	V	A	V	W	V	V	deg C	#	bits
	0	0.013333	6.33321E-001	5.99378E-003	0.00000E+000	3.79599E-003	3.59960E-001	-1.13101E+000	3.57790E+000	10	...........
	1	0.026667	6.42279E-001	5.99157E-003	0.00000E+000	3.84826E-003	3.59960E-001	-1.13128E+000	3.57790E+000	10	...........
	2	0.04	6.50455E-001	5.99179E-003	0.00000E+000	3.89739E-003	3.59960E-001	-1.14181E+000	3.57790E+000	10	...........
	3	0.053333	6.58235E-001	5.98998E-003	0.00000E+000	3.94282E-003	3.59960E-001	-1.13111E+000	3.57790E+000	10	...........
	4	0.066667	6.65767E-001	5.99353E-003	0.00000E+000	3.99029E-003	3.59960E-001	-1.13097E+000	3.57790E+000	10	...........
	5	0.08	6.73054E-001	5.99490E-003	0.00000E+000	4.03489E-003	3.59960E-001	-1.14166E+000	3.57790E+000	10	...........
	6	0.093333	6.80217E-001	5.98875E-003	0.00000E+000	4.07365E-003	3.59960E-001	-1.13134E+000	3.57790E+000	10	...........
	7	0.106667	6.87285E-001	5.99804E-003	0.00000E+000	4.12236E-003	3.59960E-001	-1.13107E+000	3.57790E+000	10	...........
	8	0.12	6.94173E-001	5.99634E-003	0.00000E+000	4.16250E-003	3.59960E-001	-1.14123E+000	3.57790E+000	10	...........
	9	0.133333	7.01052E-001	5.99734E-003	0.00000E+000	4.20445E-003	3.59960E-001	-1.13063E+000	3.57790E+000	10	...........
	10	0.146667	7.07888E-001	5.99440E-003	0.00000E+000	4.24336E-003	3.59960E-001	-1.13057E+000	3.57790E+000	10	...........
	11	0.16	7.14628E-001	5.98902E-003	0.00000E+000	4.27993E-003	3.59960E-001	-1.14150E+000	3.57790E+000	10	...........
	12	0.173333	7.21411E-001	5.99626E-003	0.00000E+000	4.32577E-003	3.59960E-001	-1.13095E+000	3.57790E+000	10	...........
	13	0.186667	7.28083E-001	5.99416E-003	0.00000E+000	4.36425E-003	3.59960E-001	-1.13021E+000	3.57790E+000	10	...........
	14	0.2	7.34703E-001	5.99643E-003	0.00000E+000	4.40560E-003	3.59960E-001	-1.14121E+000	3.57790E+000	10	...........
	15	0.213333	7.41377E-001	5.99660E-003	0.00000E+000	4.44574E-003	3.59960E-001	-1.13088E+000	3.57790E+000	10	...........
	16	0.226667	7.47960E-001	5.99357E-003	0.00000E+000	4.48295E-003	3.59960E-001	-1.13033E+000	3.57790E+000	10	...........
	17	0.24	7.54555E-001	5.99514E-003	0.00000E+000	4.52366E-003	3.59960E-001	-1.14111E+000	3.57790E+000	10	...........
	18	0.253333	7.61093E-001	5.99579E-003	0.00000E+000	4.56336E-003	3.59960E-001	-1.13086E+000	3.57790E+000	10	...........
	19	0.266667	7.67676E-001	5.99661E-003	0.00000E+000	4.60345E-003	3.59960E-001	-1.12991E+000	3.57790E+000	10	...........
	20	0.28	7.74199E-001	5.99768E-003	0.00000E+000	4.64340E-003	3.59960E-001	-1.14116E+000	3.57790E+000	10	...........
	21	0.293333	7.80667E-001	5.99345E-003	0.00000E+000	4.67888E-003	3.59960E-001	-1.13106E+000	3.57790E+000	10	...........
	22	0.306667	7.87187E-001	5.99359E-003	0.00000E+000	4.71808E-003	3.59960E-001	-1.13014E+000	3.57790E+000	10	...........
	23	0.32	7.93683E-001	5.99478E-003	0.00000E+000	4.75796E-003	3.59960E-001	-1.14104E+000	3.57790E+000	10	...........
	24	0.333333	8.00148E-001	5.99580E-003	0.00000E+000	4.79753E-003	3.59960E-001	-1.13083E+000	3.57790E+000	10	...........
	25	0.346667	8.06570E-001	5.99088E-003	0.00000E+000	4.83207E-003	3.59960E-001	-1.13001E+000	3.57790E+000	10	...........
	26	0.36	8.12994E-001	5.99506E-003	0.00000E+000	4.87395E-003	3.59960E-001	-1.14129E+000	3.57790E+000	10	...........
	27	0.373333	8.19415E-001	5.99604E-003	0.00000E+000	4.91325E-003	3.59960E-001	-1.13143E+000	3.57790E+000	10	...........
	28	0.386667	8.25816E-001	5.99233E-003	0.00000E+000	4.94856E-003	3.59960E-001	-1.13011E+000	3.57790E+000	10	...........
	29	0.4	8.32231E-001	5.99809E-003	0.00000E+000	4.99179E-003	3.59960E-001	-1.14113E+000	3.57790E+000	10	...........
	30	0.413333	8.38567E-001	5.99230E-003	0.00000E+000	5.02494E-003	3.59960E-001	-1.13120E+000	3.57790E+000	10	...........
	31	0.426667	8.44918E-001	5.99337E-003	0.00000E+000	5.06391E-003	3.59960E-001	-1.12996E+000	3.57790E+000	10	...........
	32	0.44	8.51224E-001	5.99350E-003	0.00000E+000	5.10181E-003	3.59960E-001	-1.14094E+000	3.57790E+000	10	...........
	33	0.453333	8.57530E-001	5.99591E-003	0.00000E+000	5.14167E-003	3.59960E-001	-1.13111E+000	3.57790E+000	10	...........
	34	0.466667	8.63787E-001	5.99538E-003	0.00000E+000	5.17873E-003	3.59960E-001	-1.12966E+000	3.57790E+000	10	...........
	35	0.48	8.70080E-001	5.99405E-003	0.00000E+000	5.21530E-003	3.59960E-001	-1.14106E+000	3.57790E+000	10	...........
	36	0.493333	8.76315E-001	5.99512E-003	0.00000E+000	5.25361E-003	3.59960E-001	-1.13125E+000	3.57790E+000	10	...........
	37	0.506667	8.82528E-001	5.99406E-003	0.00000E+000	5.28993E-003	3.59960E-001	-1.12999E+000	3.57790E+000	10	...........
	38	0.52	8.88698E-001	5.99813E-003	0.00000E+000	5.33053E-003	3.59960E-001	-1.14119E+000	3.57790E+000	10	...........
	39	0.533333	8.94870E-001	5.99147E-003	0.00000E+000	5.36158E-003	3.59960E-001	-1.13130E+000	3.57790E+000	10	...........
	40	0.546667	9.01017E-001	5.99422E-003	0.00000E+000	5.40090E-003	3.59960E-001	-1.12990E+000	3.57790E+000	10	...........
	41	0.56	9.07131E-001	5.99645E-003	0.00000E+000	5.43957E-003	3.59960E-001	-1.14120E+000	3.57790E+000	10	...........
	42	0.573333	9.13197E-001	5.99514E-003	0.00000E+000	5.47474E-003	3.59960E-001	-1.13151E+000	3.57790E+000	10	...........
	43	0.586667	9.19284E-001	5.99193E-003	0.00000E+000	5.50829E-003	3.59960E-001	-1.12974E+000	3.57790E+000	10	...........
	44	0.6	9.25340E-001	6.00133E-003	0.00000E+000	5.55327E-003	3.59960E-001	-1.14107E+000	3.57790E+000	10	...........
	45	0.613333	9.31322E-001	5.99611E-003	0.00000E+000	5.58431E-003	3.59960E-001	-1.13162E+000	3.57790E+000	10	...........
	46	0.626667	9.37214E-001	5.99787E-003	0.00000E+000	5.62129E-003	3.59960E-001	-1.12986E+000	3.57947E+000	10	...........
	47	0.64	9.43058E-001	5.99615E-003	0.00000E+000	5.65472E-003	3.59960E-001	-1.14131E+000	3.58000E+000	10	...........
	48	0.653333	9.48971E-001	5.98833E-003	0.00000E+000	5.68275E-003	3.59960E-001	-1.13195E+000	3.58000E+000	10	...........
	49	0.666667	9.54820E-001	5.99632E-003	0.00000E+000	5.72540E-003	3.59960E-001	-1.13022E+000	3.58000E+000	10	...........
	50	0.68	9.60584E-001	5.99476E-003	0.00000E+000	5.75847E-003	3.59960E-001	-1.14134E+000	3.58000E+000	10	...........
	51	0.693333	9.66309E-001	5.98910E-003	0.00000E+000	5.78732E-003	3.59960E-001	-1.13228E+000	3.58000E+000	10	...........
	52	0.706667	9.72004E-001	5.99390E-003	0.00000E+000	5.82609E-003	3.59960E-001	-1.13025E+000	3.58000E+000	10	...........
	53	0.72	9.77644E-001	5.99076E-003	0.00000E+000	5.85683E-003	3.59960E-001	-1.14152E+000	3.58000E+000	10	...........
	54	0.733333	9.83290E-001	5.99058E-003	0.00000E+000	5.89048E-003	3.59960E-001	-1.13224E+000	3.58000E+000	10	...........
	55	0.746667	9.88877E-001	5.99150E-003	0.00000E+000	5.92486E-003	3.59960E-001	-1.12999E+000	3.58000E+000	10	...........
	56	0.76	9.94412E-001	5.99304E-003	0.00000E+000	5.95955E-003	3.59960E-001	-1.14105E+000	3.58000E+000	10	...........
	57	0.768333	9.98878E-001	5.99486E-003	0.00000E+000	5.98813E-003	3.59960E-001	-1.12501E+000	3.58000E+000	10	...........
STARTTIMEOFFSET	QUANT	897.4001	Start Time Offset (s)