File: Data/CV_CRGO300517_1/PWRCCD_CRGO300517_1/CHARGE_DISCHARGE/CHARGE_#401.DTA
EXPLAIN
TAG	PWR800_CHARGE
TITLE	LABEL	PWR Cyclic Charge Discharge (Cell) - Charge Step	Test &Identifier
DATE	LABEL	22-6-2017	Date
TIME	LABEL	15:52:01	Time
NOTES	NOTES	3	&Notes...
	supercap test cell
	0.6mg
	6M KOH
PSTAT	PSTAT	IFC5000-01520	Potentiostat
CAPACITY	QUANT	1.00000E-003	Capacity (A-hr)
CELLTYPE	SELECTOR	1	&Cell Type
WORKINGCONNECTION	SELECTOR	0	&Working Lead
MAXCHARGETIME	VARIABLEANDUNITS	1.00000E+002	s	1.00000E+002	second(s)	Max &Charge Time
CHARGECURRENT	QUANT	6.00000E-003	&Charge Current (A)
VOLTAGEFINISH	TWOPARAM	F	1.00000E-003	3.60000E+003	&Voltage Finish	 I (A) < 	Max Time(s)
SAMPLETIME	QUANT	1.00000E-002	Sa&mple Period (s)
CHARGESTOPAT1	MULTIPARAM	4	1.00000E+000	Charge Stop At &1	Voltage > Limit	V
CHARGESTOPAT2	MULTIPARAM	0	0.00000E+000	Charge Stop At &2	None	N/A
AESBHCSELECTOR	TOGGLE	F	Save Both Half Cells
IRCOMP	TOGGLE	F	IR &Measure
EOC	QUANT	0	Open Circuit (V)
SEQUENCER	TOGGLE	TRUE	Run as Sequence
PSTATMODEL	IQUANT	53	Pstat Model
PSTATSECTION	LABEL	IFC5000-01520	Pstat Section
PSTATSERIALNO	LABEL	01520	Pstat Serial Number
CTRLMODE	IQUANT	0	Control Mode
ELECTROMETER	IQUANT	1	RE=0 or CS=1
IESTAB	IQUANT	0	I/E Stability
CASPEED	IQUANT	4	Control Amp Speed
CONVENTION	IQUANT	1	Current Convention
ICHRANGE	IQUANT	2	Ich Range
ICHRANGEMODE	TOGGLE	T	Ich Auto Range
ICHOFFSETENABLE	TOGGLE	F	Ich Offset Enable
ICHOFFSET	QUANT	0	Ich Offset (V)
ICHFILTER	IQUANT	1	Ich Filter
VCHRANGE	IQUANT	2	Vch Range
VCHRANGEMODE	TOGGLE	T	Vch Auto Range
VCHOFFSETENABLE	TOGGLE	F	Vch Offset Enable
VCHOFFSET	QUANT	0	Vch Offset (V)
VCHFILTER	IQUANT	1	Vch Filter
IERANGELOWERLIMIT	IQUANT	9	I/E Range Lower Limit
IERANGEMODE	TOGGLE	F	I/E AutoRange
IERANGE	IQUANT	10	I/E Range
ACHSELECT	IQUANT	1	Ach Select
ACHRANGE	IQUANT	2	Ach Range
ACHOFFSETENABLE	TOGGLE	F	Ach Offset Enable
ACHOFFSET	QUANT	0	Ach Offset (V)
ACHFILTER	IQUANT	1	Ach Filter
CABLEID	IQUANT	14	Cable ID
DCCALDATE	LABEL	20-10-2016	DC Calibration Date
ACCALDATE	LABEL	12/3/2015	AC Calibration Date
FRAMEWORKVERSION	QUANT	7.01	Framework Version
INSTRUMENTVERSION	LABEL	4.00	Instrument Version
CURVE	TABLE	60
	Pt	T	Vf	Im	Vu	Pwr	Sig	Ach	Temp	IERange	Over
	#	s	V	A	V	W	V	V	deg C	#	bits
	0	0.013333	6.24987E-001	5.99079E-003	0.00000E+000	3.74416E-003	3.59960E-001	-1.12972E+000	3.57650E+000	10	...........
	1	0.026667	6.33714E-001	5.99409E-003	0.00000E+000	3.79854E-003	3.59960E-001	-1.12996E+000	3.57650E+000	10	...........
	2	0.04	6.41783E-001	5.99679E-003	0.00000E+000	3.84863E-003	3.59960E-001	-1.12262E+000	3.57650E+000	10	...........
	3	0.053333	6.49431E-001	5.99728E-003	0.00000E+000	3.89481E-003	3.59960E-001	-1.12973E+000	3.57650E+000	10	...........
	4	0.066667	6.56801E-001	5.99449E-003	0.00000E+000	3.93719E-003	3.59960E-001	-1.12969E+000	3.57650E+000	10	...........
	5	0.08	6.63950E-001	5.99820E-003	0.00000E+000	3.98251E-003	3.59960E-001	-1.12247E+000	3.57650E+000	10	...........
	6	0.093333	6.70982E-001	5.99575E-003	0.00000E+000	4.02304E-003	3.59960E-001	-1.12982E+000	3.57650E+000	10	...........
	7	0.106667	6.77881E-001	5.99550E-003	0.00000E+000	4.06424E-003	3.59960E-001	-1.12985E+000	3.57650E+000	10	...........
	8	0.12	6.84710E-001	5.99487E-003	0.00000E+000	4.10474E-003	3.59960E-001	-1.12256E+000	3.57650E+000	10	...........
	9	0.133333	6.91446E-001	5.99352E-003	0.00000E+000	4.14420E-003	3.59960E-001	-1.12979E+000	3.57650E+000	10	...........
	10	0.146667	6.98117E-001	5.98736E-003	0.00000E+000	4.17988E-003	3.59960E-001	-1.12993E+000	3.57650E+000	10	...........
	11	0.16	7.04794E-001	5.99491E-003	0.00000E+000	4.22517E-003	3.59960E-001	-1.12270E+000	3.57650E+000	10	...........
	12	0.173333	7.11354E-001	5.99726E-003	0.00000E+000	4.26618E-003	3.59960E-001	-1.12974E+000	3.57670E+000	10	...........
	13	0.186667	7.17966E-001	5.99429E-003	0.00000E+000	4.30370E-003	3.59960E-001	-1.12993E+000	3.57670E+000	10	...........
	14	0.2	7.24536E-001	5.99555E-003	0.00000E+000	4.34399E-003	3.59960E-001	-1.12271E+000	3.57670E+000	10	...........
	15	0.213333	7.31017E-001	5.99623E-003	0.00000E+000	4.38335E-003	3.59960E-001	-1.12997E+000	3.57670E+000	10	...........
	16	0.226667	7.37496E-001	5.99451E-003	0.00000E+000	4.42093E-003	3.59960E-001	-1.12974E+000	3.57670E+000	10	...........
	17	0.24	7.43961E-001	5.99274E-003	0.00000E+000	4.45836E-003	3.59960E-001	-1.12234E+000	3.57670E+000	10	...........
	18	0.253333	7.50442E-001	5.99287E-003	0.00000E+000	4.49730E-003	3.59960E-001	-1.12960E+000	3.57670E+000	10	...........
	19	0.266667	7.56885E-001	5.99715E-003	0.00000E+000	4.53915E-003	3.59960E-001	-1.12979E+000	3.57670E+000	10	...........
	20	0.28	7.63299E-001	5.99545E-003	0.00000E+000	4.57632E-003	3.59960E-001	-1.12228E+000	3.57670E+000	10	...........
	21	0.293333	7.69694E-001	5.99151E-003	0.00000E+000	4.61163E-003	3.59960E-001	-1.12950E+000	3.57670E+000	10	...........
	22	0.306667	7.76097E-001	5.99353E-003	0.00000E+000	4.65156E-003	3.59960E-001	-1.12965E+000	3.57670E+000	10	...........
	23	0.32	7.82480E-001	5.99590E-003	0.00000E+000	4.69167E-003	3.59960E-001	-1.12244E+000	3.57670E+000	10	...........
	24	0.333333	7.88813E-001	5.99333E-003	0.00000E+000	4.72762E-003	3.59960E-001	-1.12943E+000	3.57670E+000	10	...........
	25	0.346667	7.95198E-001	5.98990E-003	0.00000E+000	4.76316E-003	3.59960E-001	-1.12954E+000	3.57670E+000	10	...........
	26	0.36	8.01509E-001	5.99546E-003	0.00000E+000	4.80542E-003	3.59960E-001	-1.12212E+000	3.57670E+000	10	...........
	27	0.373333	8.07847E-001	5.99230E-003	0.00000E+000	4.84086E-003	3.59960E-001	-1.12917E+000	3.57670E+000	10	...........
	28	0.386667	8.14150E-001	5.99642E-003	0.00000E+000	4.88199E-003	3.59960E-001	-1.12949E+000	3.57670E+000	10	...........
	29	0.4	8.20449E-001	5.99470E-003	0.00000E+000	4.91834E-003	3.59960E-001	-1.12226E+000	3.57670E+000	10	...........
	30	0.413333	8.26722E-001	5.99178E-003	0.00000E+000	4.95354E-003	3.59960E-001	-1.12937E+000	3.57670E+000	10	...........
	31	0.426667	8.32999E-001	5.99463E-003	0.00000E+000	4.99351E-003	3.59960E-001	-1.12923E+000	3.57670E+000	10	...........
	32	0.44	8.39236E-001	5.99125E-003	0.00000E+000	5.02807E-003	3.59960E-001	-1.12222E+000	3.57670E+000	10	...........
	33	0.453333	8.45509E-001	5.99226E-003	0.00000E+000	5.06651E-003	3.59960E-001	-1.12941E+000	3.57670E+000	10	...........
	34	0.466667	8.51758E-001	5.99700E-003	0.00000E+000	5.10800E-003	3.59960E-001	-1.12972E+000	3.57670E+000	10	...........
	35	0.48	8.57969E-001	5.99378E-003	0.00000E+000	5.14248E-003	3.59960E-001	-1.12236E+000	3.57670E+000	10	...........
	36	0.493333	8.64175E-001	5.99376E-003	0.00000E+000	5.17966E-003	3.59960E-001	-1.12948E+000	3.57670E+000	10	...........
	37	0.506667	8.70327E-001	5.99036E-003	0.00000E+000	5.21357E-003	3.59960E-001	-1.12942E+000	3.57670E+000	10	...........
	38	0.52	8.76471E-001	5.99081E-003	0.00000E+000	5.25077E-003	3.59960E-001	-1.12215E+000	3.57670E+000	10	...........
	39	0.533333	8.82638E-001	5.99076E-003	0.00000E+000	5.28767E-003	3.59960E-001	-1.12924E+000	3.57670E+000	10	...........
	40	0.546667	8.88809E-001	5.99619E-003	0.00000E+000	5.32947E-003	3.59960E-001	-1.12927E+000	3.57670E+000	10	...........
	41	0.56	8.94844E-001	5.99118E-003	0.00000E+000	5.36117E-003	3.59960E-001	-1.12158E+000	3.57670E+000	10	...........
	42	0.573333	9.00930E-001	5.99397E-003	0.00000E+000	5.40015E-003	3.59960E-001	-1.12869E+000	3.57670E+000	10	...........
	43	0.586667	9.06991E-001	5.99481E-003	0.00000E+000	5.43724E-003	3.59960E-001	-1.12895E+000	3.57670E+000	10	...........
	44	0.6	9.12972E-001	5.99377E-003	0.00000E+000	5.47214E-003	3.59960E-001	-1.12175E+000	3.57670E+000	10	...........
	45	0.613333	9.18952E-001	5.99186E-003	0.00000E+000	5.50623E-003	3.59960E-001	-1.12873E+000	3.57670E+000	10	...........
	46	0.626667	9.24919E-001	5.99507E-003	0.00000E+000	5.54496E-003	3.59960E-001	-1.12857E+000	3.57670E+000	10	...........
	47	0.64	9.30845E-001	5.99390E-003	0.00000E+000	5.57939E-003	3.59960E-001	-1.12133E+000	3.57670E+000	10	...........
	48	0.653333	9.36721E-001	5.99193E-003	0.00000E+000	5.61277E-003	3.59960E-001	-1.12864E+000	3.57670E+000	10	...........
	49	0.666667	9.42543E-001	5.99789E-003	0.00000E+000	5.65327E-003	3.59960E-001	-1.12881E+000	3.57670E+000	10	...........
	50	0.68	9.48420E-001	5.99503E-003	0.00000E+000	5.68581E-003	3.59960E-001	-1.12134E+000	3.57670E+000	10	...........
	51	0.693333	9.54206E-001	5.99369E-003	0.00000E+000	5.71921E-003	3.59960E-001	-1.12839E+000	3.57670E+000	10	...........
	52	0.706667	9.59903E-001	5.99435E-003	0.00000E+000	5.75400E-003	3.59960E-001	-1.12823E+000	3.57670E+000	10	...........
	53	0.72	9.65581E-001	5.99359E-003	0.00000E+000	5.78730E-003	3.59960E-001	-1.12125E+000	3.57670E+000	10	...........
	54	0.733333	9.71256E-001	5.99492E-003	0.00000E+000	5.82260E-003	3.59960E-001	-1.12853E+000	3.57670E+000	10	...........
	55	0.746667	9.76923E-001	5.99197E-003	0.00000E+000	5.85369E-003	3.59960E-001	-1.12841E+000	3.57670E+000	10	...........
	56	0.76	9.82539E-001	5.99632E-003	0.00000E+000	5.89161E-003	3.59960E-001	-1.12098E+000	3.57670E+000	10	...........
	57	0.773333	9.88072E-001	5.99301E-003	0.00000E+000	5.92152E-003	3.59960E-001	-1.12816E+000	3.57670E+000	10	...........
	58	0.786667	9.93533E-001	5.99531E-003	0.00000E+000	5.95654E-003	3.59960E-001	-1.12864E+000	3.57670E+000	10	...........
	59	0.798333	9.98593E-001	5.99272E-003	0.00000E+000	5.98429E-003	3.59960E-001	-1.11945E+000	3.57670E+000	10	...........
STARTTIMEOFFSET	QUANT	704.2584	Start Time Offset (s)