File: Data/CV_CRGO300517_1/PWRCCD_CRGO300517_1/CHARGE_DISCHARGE/CHARGE_#486.DTA
EXPLAIN
TAG	PWR800_CHARGE
TITLE	LABEL	PWR Cyclic Charge Discharge (Cell) - Charge Step	Test &Identifier
DATE	LABEL	22-6-2017	Date
TIME	LABEL	15:55:22	Time
NOTES	NOTES	3	&Notes...
	supercap test cell
	0.6mg
	6M KOH
PSTAT	PSTAT	IFC5000-01520	Potentiostat
CAPACITY	QUANT	1.00000E-003	Capacity (A-hr)
CELLTYPE	SELECTOR	1	&Cell Type
WORKINGCONNECTION	SELECTOR	0	&Working Lead
MAXCHARGETIME	VARIABLEANDUNITS	1.00000E+002	s	1.00000E+002	second(s)	Max &Charge Time
CHARGECURRENT	QUANT	6.00000E-003	&Charge Current (A)
VOLTAGEFINISH	TWOPARAM	F	1.00000E-003	3.60000E+003	&Voltage Finish	 I (A) < 	Max Time(s)
SAMPLETIME	QUANT	1.00000E-002	Sa&mple Period (s)
CHARGESTOPAT1	MULTIPARAM	4	1.00000E+000	Charge Stop At &1	Voltage > Limit	V
CHARGESTOPAT2	MULTIPARAM	0	0.00000E+000	Charge Stop At &2	None	N/A
AESBHCSELECTOR	TOGGLE	F	Save Both Half Cells
IRCOMP	TOGGLE	F	IR &Measure
EOC	QUANT	0	Open Circuit (V)
SEQUENCER	TOGGLE	TRUE	Run as Sequence
PSTATMODEL	IQUANT	53	Pstat Model
PSTATSECTION	LABEL	IFC5000-01520	Pstat Section
PSTATSERIALNO	LABEL	01520	Pstat Serial Number
CTRLMODE	IQUANT	0	Control Mode
ELECTROMETER	IQUANT	1	RE=0 or CS=1
IESTAB	IQUANT	0	I/E Stability
CASPEED	IQUANT	4	Control Amp Speed
CONVENTION	IQUANT	1	Current Convention
ICHRANGE	IQUANT	2	Ich Range
ICHRANGEMODE	TOGGLE	T	Ich Auto Range
ICHOFFSETENABLE	TOGGLE	F	Ich Offset Enable
ICHOFFSET	QUANT	0	Ich Offset (V)
ICHFILTER	IQUANT	1	Ich Filter
VCHRANGE	IQUANT	2	Vch Range
VCHRANGEMODE	TOGGLE	T	Vch Auto Range
VCHOFFSETENABLE	TOGGLE	F	Vch Offset Enable
VCHOFFSET	QUANT	0	Vch Offset (V)
VCHFILTER	IQUANT	1	Vch Filter
IERANGELOWERLIMIT	IQUANT	9	I/E Range Lower Limit
IERANGEMODE	TOGGLE	F	I/E AutoRange
IERANGE	IQUANT	10	I/E Range
ACHSELECT	IQUANT	1	Ach Select
ACHRANGE	IQUANT	2	Ach Range
ACHOFFSETENABLE	TOGGLE	F	Ach Offset Enable
ACHOFFSET	QUANT	0	Ach Offset (V)
ACHFILTER	IQUANT	1	Ach Filter
CABLEID	IQUANT	14	Cable ID
DCCALDATE	LABEL	20-10-2016	DC Calibration Date
ACCALDATE	LABEL	12/3/2015	AC Calibration Date
FRAMEWORKVERSION	QUANT	7.01	Framework Version
INSTRUMENTVERSION	LABEL	4.00	Instrument Version
CURVE	TABLE	59
	Pt	T	Vf	Im	Vu	Pwr	Sig	Ach	Temp	IERange	Over
	#	s	V	A	V	W	V	V	deg C	#	bits
	0	0.013333	6.31019E-001	5.99403E-003	0.00000E+000	3.78235E-003	3.59960E-001	-1.14552E+000	3.57690E+000	10	...........
	1	0.026667	6.39906E-001	5.99459E-003	0.00000E+000	3.83598E-003	3.59960E-001	-1.13730E+000	3.57690E+000	10	...........
	2	0.04	6.48063E-001	5.99297E-003	0.00000E+000	3.88382E-003	3.59960E-001	-1.13428E+000	3.57690E+000	10	...........
	3	0.053333	6.55784E-001	5.99970E-003	0.00000E+000	3.93451E-003	3.59960E-001	-1.14489E+000	3.57690E+000	10	...........
	4	0.066667	6.63232E-001	5.99510E-003	0.00000E+000	3.97614E-003	3.59960E-001	-1.13673E+000	3.57690E+000	10	...........
	5	0.08	6.70521E-001	5.99258E-003	0.00000E+000	4.01815E-003	3.59960E-001	-1.13431E+000	3.57690E+000	10	...........
	6	0.093333	6.77621E-001	5.99151E-003	0.00000E+000	4.05997E-003	3.59960E-001	-1.14494E+000	3.57690E+000	10	...........
	7	0.106667	6.84602E-001	5.99196E-003	0.00000E+000	4.10211E-003	3.59960E-001	-1.13657E+000	3.57690E+000	10	...........
	8	0.12	6.91515E-001	5.99235E-003	0.00000E+000	4.14380E-003	3.59960E-001	-1.13430E+000	3.57690E+000	10	...........
	9	0.133333	6.98342E-001	5.99721E-003	0.00000E+000	4.18811E-003	3.59960E-001	-1.14464E+000	3.57690E+000	10	...........
	10	0.146667	7.05120E-001	5.99330E-003	0.00000E+000	4.22600E-003	3.59960E-001	-1.13623E+000	3.57690E+000	10	...........
	11	0.16	7.11844E-001	5.99488E-003	0.00000E+000	4.26742E-003	3.59960E-001	-1.13372E+000	3.57690E+000	10	...........
	12	0.173333	7.18567E-001	5.99259E-003	0.00000E+000	4.30608E-003	3.59960E-001	-1.14445E+000	3.57690E+000	10	...........
	13	0.186667	7.25186E-001	5.99498E-003	0.00000E+000	4.34748E-003	3.59960E-001	-1.13593E+000	3.57690E+000	10	...........
	14	0.2	7.31782E-001	5.99277E-003	0.00000E+000	4.38540E-003	3.59960E-001	-1.13382E+000	3.57690E+000	10	...........
	15	0.213333	7.38395E-001	5.98832E-003	0.00000E+000	4.42174E-003	3.59960E-001	-1.14456E+000	3.57690E+000	10	...........
	16	0.226667	7.45018E-001	5.99554E-003	0.00000E+000	4.46679E-003	3.59960E-001	-1.13585E+000	3.57690E+000	10	...........
	17	0.24	7.51558E-001	5.99525E-003	0.00000E+000	4.50578E-003	3.59960E-001	-1.13367E+000	3.57690E+000	10	...........
	18	0.253333	7.58087E-001	5.99332E-003	0.00000E+000	4.54346E-003	3.59960E-001	-1.14456E+000	3.57690E+000	10	...........
	19	0.266667	7.64569E-001	5.99311E-003	0.00000E+000	4.58215E-003	3.59960E-001	-1.13602E+000	3.57690E+000	10	...........
	20	0.28	7.71093E-001	5.99478E-003	0.00000E+000	4.62254E-003	3.59960E-001	-1.13382E+000	3.57690E+000	10	...........
	21	0.293333	7.77527E-001	5.99276E-003	0.00000E+000	4.65953E-003	3.59960E-001	-1.14454E+000	3.57690E+000	10	...........
	22	0.306667	7.84000E-001	5.99397E-003	0.00000E+000	4.69927E-003	3.59960E-001	-1.13576E+000	3.57690E+000	10	...........
	23	0.32	7.90414E-001	5.99737E-003	0.00000E+000	4.74040E-003	3.59960E-001	-1.13374E+000	3.57690E+000	10	...........
	24	0.333333	7.96890E-001	5.99210E-003	0.00000E+000	4.77505E-003	3.59960E-001	-1.14464E+000	3.57690E+000	10	...........
	25	0.346667	8.03293E-001	5.99939E-003	0.00000E+000	4.81927E-003	3.59960E-001	-1.13583E+000	3.57690E+000	10	...........
	26	0.36	8.09676E-001	5.99086E-003	0.00000E+000	4.85066E-003	3.59960E-001	-1.13348E+000	3.57690E+000	10	...........
	27	0.373333	8.16072E-001	5.99591E-003	0.00000E+000	4.89309E-003	3.59960E-001	-1.14419E+000	3.57690E+000	10	...........
	28	0.386667	8.22462E-001	5.99138E-003	0.00000E+000	4.92768E-003	3.59960E-001	-1.13519E+000	3.57690E+000	10	...........
	29	0.4	8.28794E-001	5.98834E-003	0.00000E+000	4.96310E-003	3.59960E-001	-1.13355E+000	3.57690E+000	10	...........
	30	0.413333	8.35136E-001	5.99273E-003	0.00000E+000	5.00474E-003	3.59960E-001	-1.14445E+000	3.57690E+000	10	...........
	31	0.426667	8.41434E-001	5.99909E-003	0.00000E+000	5.04784E-003	3.59960E-001	-1.13552E+000	3.57690E+000	10	...........
	32	0.44	8.47759E-001	5.98885E-003	0.00000E+000	5.07710E-003	3.59960E-001	-1.13350E+000	3.57690E+000	10	...........
	33	0.453333	8.54071E-001	5.99376E-003	0.00000E+000	5.11910E-003	3.59960E-001	-1.14448E+000	3.57690E+000	10	...........
	34	0.466667	8.60361E-001	5.99598E-003	0.00000E+000	5.15871E-003	3.59960E-001	-1.13503E+000	3.57690E+000	10	...........
	35	0.48	8.66581E-001	5.99439E-003	0.00000E+000	5.19462E-003	3.59960E-001	-1.13317E+000	3.57690E+000	10	...........
	36	0.493333	8.72817E-001	5.99487E-003	0.00000E+000	5.23242E-003	3.59960E-001	-1.14387E+000	3.57690E+000	10	...........
	37	0.506667	8.79023E-001	5.99334E-003	0.00000E+000	5.26829E-003	3.59960E-001	-1.13477E+000	3.57690E+000	10	...........
	38	0.52	8.85219E-001	5.99401E-003	0.00000E+000	5.30601E-003	3.59960E-001	-1.13272E+000	3.57690E+000	10	...........
	39	0.533333	8.91360E-001	5.99611E-003	0.00000E+000	5.34469E-003	3.59960E-001	-1.14339E+000	3.57690E+000	10	...........
	40	0.546667	8.97484E-001	5.98904E-003	0.00000E+000	5.37506E-003	3.59960E-001	-1.13462E+000	3.57690E+000	10	...........
	41	0.56	9.03567E-001	5.99054E-003	0.00000E+000	5.41285E-003	3.59960E-001	-1.13267E+000	3.57690E+000	10	...........
	42	0.573333	9.09672E-001	5.99548E-003	0.00000E+000	5.45392E-003	3.59960E-001	-1.14320E+000	3.57690E+000	10	...........
	43	0.586667	9.15698E-001	5.99234E-003	0.00000E+000	5.48717E-003	3.59960E-001	-1.13403E+000	3.57690E+000	10	...........
	44	0.6	9.21753E-001	5.99404E-003	0.00000E+000	5.52502E-003	3.59960E-001	-1.13216E+000	3.57690E+000	10	...........
	45	0.613333	9.27746E-001	5.99213E-003	0.00000E+000	5.55918E-003	3.59960E-001	-1.14253E+000	3.57690E+000	10	...........
	46	0.626667	9.33679E-001	5.99472E-003	0.00000E+000	5.59715E-003	3.59960E-001	-1.13288E+000	3.57690E+000	10	...........
	47	0.64	9.39564E-001	5.99313E-003	0.00000E+000	5.63093E-003	3.59960E-001	-1.13118E+000	3.57690E+000	10	...........
	48	0.653333	9.45468E-001	5.99743E-003	0.00000E+000	5.67038E-003	3.59960E-001	-1.14161E+000	3.57690E+000	10	...........
	49	0.666667	9.51325E-001	5.99586E-003	0.00000E+000	5.70401E-003	3.59960E-001	-1.13164E+000	3.57690E+000	10	...........
	50	0.68	9.57112E-001	5.99211E-003	0.00000E+000	5.73512E-003	3.59960E-001	-1.13039E+000	3.57690E+000	10	...........
	51	0.693333	9.62867E-001	5.99259E-003	0.00000E+000	5.77007E-003	3.59960E-001	-1.14107E+000	3.57690E+000	10	...........
	52	0.706667	9.68580E-001	5.99747E-003	0.00000E+000	5.80903E-003	3.59960E-001	-1.13136E+000	3.57690E+000	10	...........
	53	0.72	9.74292E-001	5.99403E-003	0.00000E+000	5.83994E-003	3.59960E-001	-1.12946E+000	3.57690E+000	10	...........
	54	0.733333	9.79925E-001	5.99838E-003	0.00000E+000	5.87797E-003	3.59960E-001	-1.14023E+000	3.57690E+000	10	...........
	55	0.746667	9.85505E-001	5.99418E-003	0.00000E+000	5.90729E-003	3.59960E-001	-1.13095E+000	3.57690E+000	10	...........
	56	0.76	9.91051E-001	5.99205E-003	0.00000E+000	5.93842E-003	3.59960E-001	-1.12932E+000	3.57690E+000	10	...........
	57	0.773333	9.96541E-001	5.99100E-003	0.00000E+000	5.97028E-003	3.59960E-001	-1.13958E+000	3.57690E+000	10	...........
	58	0.776667	9.99979E-001	6.00376E-003	0.00000E+000	6.00364E-003	3.59960E-001	-1.11835E+000	3.57690E+000	10	...........
STARTTIMEOFFSET	QUANT	837.4319	Start Time Offset (s)