File: Data/CV_CRGO300517_1/PWRCCD_CRGO300517_1/CHARGE_DISCHARGE/CHARGE_#682.DTA
EXPLAIN
TAG	PWR800_CHARGE
TITLE	LABEL	PWR Cyclic Charge Discharge (Cell) - Charge Step	Test &Identifier
DATE	LABEL	22-6-2017	Date
TIME	LABEL	16:02:53	Time
NOTES	NOTES	3	&Notes...
	supercap test cell
	0.6mg
	6M KOH
PSTAT	PSTAT	IFC5000-01520	Potentiostat
CAPACITY	QUANT	1.00000E-003	Capacity (A-hr)
CELLTYPE	SELECTOR	1	&Cell Type
WORKINGCONNECTION	SELECTOR	0	&Working Lead
MAXCHARGETIME	VARIABLEANDUNITS	1.00000E+002	s	1.00000E+002	second(s)	Max &Charge Time
CHARGECURRENT	QUANT	6.00000E-003	&Charge Current (A)
VOLTAGEFINISH	TWOPARAM	F	1.00000E-003	3.60000E+003	&Voltage Finish	 I (A) < 	Max Time(s)
SAMPLETIME	QUANT	1.00000E-002	Sa&mple Period (s)
CHARGESTOPAT1	MULTIPARAM	4	1.00000E+000	Charge Stop At &1	Voltage > Limit	V
CHARGESTOPAT2	MULTIPARAM	0	0.00000E+000	Charge Stop At &2	None	N/A
AESBHCSELECTOR	TOGGLE	F	Save Both Half Cells
IRCOMP	TOGGLE	F	IR &Measure
EOC	QUANT	0	Open Circuit (V)
SEQUENCER	TOGGLE	TRUE	Run as Sequence
PSTATMODEL	IQUANT	53	Pstat Model
PSTATSECTION	LABEL	IFC5000-01520	Pstat Section
PSTATSERIALNO	LABEL	01520	Pstat Serial Number
CTRLMODE	IQUANT	0	Control Mode
ELECTROMETER	IQUANT	1	RE=0 or CS=1
IESTAB	IQUANT	0	I/E Stability
CASPEED	IQUANT	4	Control Amp Speed
CONVENTION	IQUANT	1	Current Convention
ICHRANGE	IQUANT	2	Ich Range
ICHRANGEMODE	TOGGLE	T	Ich Auto Range
ICHOFFSETENABLE	TOGGLE	F	Ich Offset Enable
ICHOFFSET	QUANT	0	Ich Offset (V)
ICHFILTER	IQUANT	1	Ich Filter
VCHRANGE	IQUANT	2	Vch Range
VCHRANGEMODE	TOGGLE	T	Vch Auto Range
VCHOFFSETENABLE	TOGGLE	F	Vch Offset Enable
VCHOFFSET	QUANT	0	Vch Offset (V)
VCHFILTER	IQUANT	1	Vch Filter
IERANGELOWERLIMIT	IQUANT	9	I/E Range Lower Limit
IERANGEMODE	TOGGLE	F	I/E AutoRange
IERANGE	IQUANT	10	I/E Range
ACHSELECT	IQUANT	1	Ach Select
ACHRANGE	IQUANT	2	Ach Range
ACHOFFSETENABLE	TOGGLE	F	Ach Offset Enable
ACHOFFSET	QUANT	0	Ach Offset (V)
ACHFILTER	IQUANT	1	Ach Filter
CABLEID	IQUANT	14	Cable ID
DCCALDATE	LABEL	20-10-2016	DC Calibration Date
ACCALDATE	LABEL	12/3/2015	AC Calibration Date
FRAMEWORKVERSION	QUANT	7.01	Framework Version
INSTRUMENTVERSION	LABEL	4.00	Instrument Version
CURVE	TABLE	56
	Pt	T	Vf	Im	Vu	Pwr	Sig	Ach	Temp	IERange	Over
	#	s	V	A	V	W	V	V	deg C	#	bits
	0	0.013333	6.42210E-001	5.99590E-003	0.00000E+000	3.85063E-003	3.59960E-001	-1.15380E+000	3.57640E+000	10	...........
	1	0.026667	6.51293E-001	5.99604E-003	0.00000E+000	3.90518E-003	3.59960E-001	-1.16475E+000	3.57640E+000	10	...........
	2	0.04	6.59609E-001	5.99391E-003	0.00000E+000	3.95364E-003	3.59960E-001	-1.15575E+000	3.57640E+000	10	...........
	3	0.053333	6.67544E-001	5.99551E-003	0.00000E+000	4.00227E-003	3.59960E-001	-1.15351E+000	3.57640E+000	10	...........
	4	0.066667	6.75179E-001	5.98818E-003	0.00000E+000	4.04309E-003	3.59960E-001	-1.16488E+000	3.57640E+000	10	...........
	5	0.08	6.82582E-001	5.99084E-003	0.00000E+000	4.08924E-003	3.59960E-001	-1.15546E+000	3.57640E+000	10	...........
	6	0.093333	6.89866E-001	5.99254E-003	0.00000E+000	4.13405E-003	3.59960E-001	-1.15302E+000	3.57640E+000	10	...........
	7	0.106667	6.97026E-001	5.99273E-003	0.00000E+000	4.17709E-003	3.59960E-001	-1.16407E+000	3.57640E+000	10	...........
	8	0.12	7.04102E-001	5.99765E-003	0.00000E+000	4.22296E-003	3.59960E-001	-1.15482E+000	3.57640E+000	10	...........
	9	0.133333	7.11086E-001	5.99705E-003	0.00000E+000	4.26441E-003	3.59960E-001	-1.15292E+000	3.57640E+000	10	...........
	10	0.146667	7.18038E-001	5.99284E-003	0.00000E+000	4.30309E-003	3.59960E-001	-1.16407E+000	3.57640E+000	10	...........
	11	0.16	7.24932E-001	5.99330E-003	0.00000E+000	4.34474E-003	3.59960E-001	-1.15479E+000	3.57643E+000	10	...........
	12	0.173333	7.31766E-001	5.99073E-003	0.00000E+000	4.38381E-003	3.59960E-001	-1.15255E+000	3.57660E+000	10	...........
	13	0.186667	7.38537E-001	5.99562E-003	0.00000E+000	4.42799E-003	3.59960E-001	-1.16394E+000	3.57660E+000	10	...........
	14	0.2	7.45372E-001	5.99515E-003	0.00000E+000	4.46862E-003	3.59960E-001	-1.15470E+000	3.57660E+000	10	...........
	15	0.213333	7.52157E-001	5.99752E-003	0.00000E+000	4.51108E-003	3.59960E-001	-1.15277E+000	3.57660E+000	10	...........
	16	0.226667	7.58894E-001	5.99216E-003	0.00000E+000	4.54742E-003	3.59960E-001	-1.16370E+000	3.57660E+000	10	...........
	17	0.24	7.65541E-001	5.99137E-003	0.00000E+000	4.58664E-003	3.59960E-001	-1.15427E+000	3.57660E+000	10	...........
	18	0.253333	7.72204E-001	6.00023E-003	0.00000E+000	4.63340E-003	3.59960E-001	-1.15257E+000	3.57660E+000	10	...........
	19	0.266667	7.78874E-001	5.99160E-003	0.00000E+000	4.66670E-003	3.59960E-001	-1.16389E+000	3.57660E+000	10	...........
	20	0.28	7.85513E-001	5.99294E-003	0.00000E+000	4.70753E-003	3.59960E-001	-1.15424E+000	3.57660E+000	10	...........
	21	0.293333	7.92133E-001	5.99331E-003	0.00000E+000	4.74750E-003	3.59960E-001	-1.15266E+000	3.57660E+000	10	...........
	22	0.306667	7.98747E-001	5.99964E-003	0.00000E+000	4.79220E-003	3.59960E-001	-1.16369E+000	3.57660E+000	10	...........
	23	0.32	8.05292E-001	5.99407E-003	0.00000E+000	4.82698E-003	3.59960E-001	-1.15432E+000	3.57660E+000	10	...........
	24	0.333333	8.11821E-001	5.99803E-003	0.00000E+000	4.86932E-003	3.59960E-001	-1.15274E+000	3.57660E+000	10	...........
	25	0.346667	8.18356E-001	5.99583E-003	0.00000E+000	4.90672E-003	3.59960E-001	-1.16392E+000	3.57660E+000	10	...........
	26	0.36	8.24902E-001	5.99446E-003	0.00000E+000	4.94484E-003	3.59960E-001	-1.15413E+000	3.57660E+000	10	...........
	27	0.373333	8.31339E-001	5.99608E-003	0.00000E+000	4.98477E-003	3.59960E-001	-1.15255E+000	3.57660E+000	10	...........
	28	0.386667	8.37765E-001	5.99013E-003	0.00000E+000	5.01832E-003	3.59960E-001	-1.16387E+000	3.57660E+000	10	...........
	29	0.4	8.44264E-001	5.99414E-003	0.00000E+000	5.06063E-003	3.59960E-001	-1.15392E+000	3.57660E+000	10	...........
	30	0.413333	8.50714E-001	5.99105E-003	0.00000E+000	5.09667E-003	3.59960E-001	-1.15222E+000	3.57660E+000	10	...........
	31	0.426667	8.57067E-001	5.98984E-003	0.00000E+000	5.13369E-003	3.59960E-001	-1.16340E+000	3.57660E+000	10	...........
	32	0.44	8.63496E-001	5.99506E-003	0.00000E+000	5.17671E-003	3.59960E-001	-1.15358E+000	3.57660E+000	10	...........
	33	0.453333	8.69835E-001	5.98704E-003	0.00000E+000	5.20774E-003	3.59960E-001	-1.15230E+000	3.57660E+000	10	...........
	34	0.466667	8.76154E-001	5.99355E-003	0.00000E+000	5.25128E-003	3.59960E-001	-1.16346E+000	3.57660E+000	10	...........
	35	0.48	8.82464E-001	5.99642E-003	0.00000E+000	5.29163E-003	3.59960E-001	-1.15361E+000	3.57660E+000	10	...........
	36	0.493333	8.88723E-001	5.99164E-003	0.00000E+000	5.32491E-003	3.59960E-001	-1.15228E+000	3.57660E+000	10	...........
	37	0.506667	8.94944E-001	5.99014E-003	0.00000E+000	5.36084E-003	3.59960E-001	-1.16337E+000	3.57660E+000	10	...........
	38	0.52	9.01157E-001	5.98939E-003	0.00000E+000	5.39738E-003	3.59960E-001	-1.15344E+000	3.57660E+000	10	...........
	39	0.533333	9.07360E-001	5.99363E-003	0.00000E+000	5.43838E-003	3.59960E-001	-1.15207E+000	3.57660E+000	10	...........
	40	0.546667	9.13528E-001	5.99565E-003	0.00000E+000	5.47719E-003	3.59960E-001	-1.16346E+000	3.57660E+000	10	...........
	41	0.56	9.19636E-001	5.99425E-003	0.00000E+000	5.51253E-003	3.59960E-001	-1.15313E+000	3.57660E+000	10	...........
	42	0.573333	9.25750E-001	5.99457E-003	0.00000E+000	5.54948E-003	3.59960E-001	-1.15210E+000	3.57660E+000	10	...........
	43	0.586667	9.31769E-001	5.99643E-003	0.00000E+000	5.58729E-003	3.59960E-001	-1.16330E+000	3.57660E+000	10	...........
	44	0.6	9.37686E-001	5.99347E-003	0.00000E+000	5.61999E-003	3.59960E-001	-1.15313E+000	3.57660E+000	10	...........
	45	0.613333	9.43614E-001	5.99621E-003	0.00000E+000	5.65811E-003	3.59960E-001	-1.15250E+000	3.57660E+000	10	...........
	46	0.626667	9.49589E-001	5.99345E-003	0.00000E+000	5.69131E-003	3.59960E-001	-1.16355E+000	3.57660E+000	10	...........
	47	0.64	9.55439E-001	5.99354E-003	0.00000E+000	5.72646E-003	3.59960E-001	-1.15332E+000	3.57660E+000	10	...........
	48	0.653333	9.61252E-001	5.99021E-003	0.00000E+000	5.75811E-003	3.59960E-001	-1.15232E+000	3.57660E+000	10	...........
	49	0.666667	9.67064E-001	5.99020E-003	0.00000E+000	5.79291E-003	3.59960E-001	-1.16371E+000	3.57660E+000	10	...........
	50	0.68	9.72826E-001	5.99804E-003	0.00000E+000	5.83505E-003	3.59960E-001	-1.15332E+000	3.57660E+000	10	...........
	51	0.693333	9.78542E-001	5.99469E-003	0.00000E+000	5.86606E-003	3.59960E-001	-1.15246E+000	3.57660E+000	10	...........
	52	0.706667	9.84136E-001	5.99308E-003	0.00000E+000	5.89801E-003	3.59960E-001	-1.16354E+000	3.57660E+000	10	...........
	53	0.72	9.89750E-001	5.99622E-003	0.00000E+000	5.93476E-003	3.59960E-001	-1.15296E+000	3.57660E+000	10	...........
	54	0.733333	9.95256E-001	5.99137E-003	0.00000E+000	5.96295E-003	3.59960E-001	-1.15223E+000	3.57660E+000	10	...........
	55	0.74	9.99426E-001	5.99064E-003	0.00000E+000	5.98720E-003	3.59960E-001	-1.16408E+000	3.57660E+000	10	...........
STARTTIMEOFFSET	QUANT	1132.758	Start Time Offset (s)