File: Data/CV_CRGO300517_1/PWRCCD_CRGO300517_1/CHARGE_DISCHARGE/CHARGE_#118.DTA
EXPLAIN
TAG	PWR800_CHARGE
TITLE	LABEL	PWR Cyclic Charge Discharge (Cell) - Charge Step	Test &Identifier
DATE	LABEL	22-6-2017	Date
TIME	LABEL	15:40:18	Time
NOTES	NOTES	3	&Notes...
	supercap test cell
	0.6mg
	6M KOH
PSTAT	PSTAT	IFC5000-01520	Potentiostat
CAPACITY	QUANT	1.00000E-003	Capacity (A-hr)
CELLTYPE	SELECTOR	1	&Cell Type
WORKINGCONNECTION	SELECTOR	0	&Working Lead
MAXCHARGETIME	VARIABLEANDUNITS	1.00000E+002	s	1.00000E+002	second(s)	Max &Charge Time
CHARGECURRENT	QUANT	6.00000E-003	&Charge Current (A)
VOLTAGEFINISH	TWOPARAM	F	1.00000E-003	3.60000E+003	&Voltage Finish	 I (A) < 	Max Time(s)
SAMPLETIME	QUANT	1.00000E-002	Sa&mple Period (s)
CHARGESTOPAT1	MULTIPARAM	4	1.00000E+000	Charge Stop At &1	Voltage > Limit	V
CHARGESTOPAT2	MULTIPARAM	0	0.00000E+000	Charge Stop At &2	None	N/A
AESBHCSELECTOR	TOGGLE	F	Save Both Half Cells
IRCOMP	TOGGLE	F	IR &Measure
EOC	QUANT	0	Open Circuit (V)
SEQUENCER	TOGGLE	TRUE	Run as Sequence
PSTATMODEL	IQUANT	53	Pstat Model
PSTATSECTION	LABEL	IFC5000-01520	Pstat Section
PSTATSERIALNO	LABEL	01520	Pstat Serial Number
CTRLMODE	IQUANT	0	Control Mode
ELECTROMETER	IQUANT	1	RE=0 or CS=1
IESTAB	IQUANT	0	I/E Stability
CASPEED	IQUANT	4	Control Amp Speed
CONVENTION	IQUANT	1	Current Convention
ICHRANGE	IQUANT	2	Ich Range
ICHRANGEMODE	TOGGLE	T	Ich Auto Range
ICHOFFSETENABLE	TOGGLE	F	Ich Offset Enable
ICHOFFSET	QUANT	0	Ich Offset (V)
ICHFILTER	IQUANT	1	Ich Filter
VCHRANGE	IQUANT	2	Vch Range
VCHRANGEMODE	TOGGLE	T	Vch Auto Range
VCHOFFSETENABLE	TOGGLE	F	Vch Offset Enable
VCHOFFSET	QUANT	0	Vch Offset (V)
VCHFILTER	IQUANT	1	Vch Filter
IERANGELOWERLIMIT	IQUANT	9	I/E Range Lower Limit
IERANGEMODE	TOGGLE	F	I/E AutoRange
IERANGE	IQUANT	10	I/E Range
ACHSELECT	IQUANT	1	Ach Select
ACHRANGE	IQUANT	2	Ach Range
ACHOFFSETENABLE	TOGGLE	F	Ach Offset Enable
ACHOFFSET	QUANT	0	Ach Offset (V)
ACHFILTER	IQUANT	1	Ach Filter
CABLEID	IQUANT	14	Cable ID
DCCALDATE	LABEL	20-10-2016	DC Calibration Date
ACCALDATE	LABEL	12/3/2015	AC Calibration Date
FRAMEWORKVERSION	QUANT	7.01	Framework Version
INSTRUMENTVERSION	LABEL	4.00	Instrument Version
CURVE	TABLE	69
	Pt	T	Vf	Im	Vu	Pwr	Sig	Ach	Temp	IERange	Over
	#	s	V	A	V	W	V	V	deg C	#	bits
	0	0.013333	5.92363E-001	5.99336E-003	0.00000E+000	3.55025E-003	3.59960E-001	-1.07677E+000	3.57720E+000	10	...........
	1	0.026667	6.00675E-001	5.99131E-003	0.00000E+000	3.59883E-003	3.59960E-001	-1.06990E+000	3.57720E+000	10	...........
	2	0.04	6.08267E-001	5.99487E-003	0.00000E+000	3.64648E-003	3.59960E-001	-1.06531E+000	3.57720E+000	10	...........
	3	0.053333	6.15528E-001	5.99002E-003	0.00000E+000	3.68702E-003	3.59960E-001	-1.07667E+000	3.57720E+000	10	...........
	4	0.066667	6.22471E-001	5.99638E-003	0.00000E+000	3.73257E-003	3.59960E-001	-1.07003E+000	3.57720E+000	10	...........
	5	0.08	6.29231E-001	5.99446E-003	0.00000E+000	3.77190E-003	3.59960E-001	-1.06508E+000	3.57720E+000	10	...........
	6	0.093333	6.35818E-001	5.99182E-003	0.00000E+000	3.80971E-003	3.59960E-001	-1.07678E+000	3.57720E+000	10	...........
	7	0.106667	6.42383E-001	5.99246E-003	0.00000E+000	3.84945E-003	3.59960E-001	-1.07020E+000	3.57720E+000	10	...........
	8	0.12	6.48744E-001	5.99058E-003	0.00000E+000	3.88635E-003	3.59960E-001	-1.06506E+000	3.57720E+000	10	...........
	9	0.133333	6.55118E-001	5.99481E-003	0.00000E+000	3.92731E-003	3.59960E-001	-1.07601E+000	3.57720E+000	10	...........
	10	0.146667	6.61415E-001	5.99123E-003	0.00000E+000	3.96269E-003	3.59960E-001	-1.07021E+000	3.57720E+000	10	...........
	11	0.16	6.67675E-001	5.99728E-003	0.00000E+000	4.00423E-003	3.59960E-001	-1.06502E+000	3.57720E+000	10	...........
	12	0.173333	6.73838E-001	5.99346E-003	0.00000E+000	4.03862E-003	3.59960E-001	-1.07593E+000	3.57720E+000	10	...........
	13	0.186667	6.80048E-001	5.99275E-003	0.00000E+000	4.07536E-003	3.59960E-001	-1.06990E+000	3.57720E+000	10	...........
	14	0.2	6.86155E-001	5.99906E-003	0.00000E+000	4.11629E-003	3.59960E-001	-1.06464E+000	3.57720E+000	10	...........
	15	0.213333	6.92256E-001	5.99693E-003	0.00000E+000	4.15141E-003	3.59960E-001	-1.07570E+000	3.57720E+000	10	...........
	16	0.226667	6.98315E-001	5.99214E-003	0.00000E+000	4.18440E-003	3.59960E-001	-1.07014E+000	3.57720E+000	10	...........
	17	0.24	7.04363E-001	5.99288E-003	0.00000E+000	4.22117E-003	3.59960E-001	-1.06487E+000	3.57720E+000	10	...........
	18	0.253333	7.10409E-001	5.99521E-003	0.00000E+000	4.25905E-003	3.59960E-001	-1.07544E+000	3.57720E+000	10	...........
	19	0.266667	7.16429E-001	5.99390E-003	0.00000E+000	4.29420E-003	3.59960E-001	-1.06997E+000	3.57720E+000	10	...........
	20	0.28	7.22475E-001	5.99272E-003	0.00000E+000	4.32959E-003	3.59960E-001	-1.06439E+000	3.57720E+000	10	...........
	21	0.293333	7.28484E-001	5.99232E-003	0.00000E+000	4.36531E-003	3.59960E-001	-1.07524E+000	3.57720E+000	10	...........
	22	0.306667	7.34478E-001	5.99375E-003	0.00000E+000	4.40228E-003	3.59960E-001	-1.07024E+000	3.57720E+000	10	...........
	23	0.32	7.40474E-001	5.99483E-003	0.00000E+000	4.43902E-003	3.59960E-001	-1.06454E+000	3.57720E+000	10	...........
	24	0.333333	7.46495E-001	5.99193E-003	0.00000E+000	4.47295E-003	3.59960E-001	-1.07493E+000	3.57720E+000	10	...........
	25	0.346667	7.52487E-001	5.99486E-003	0.00000E+000	4.51105E-003	3.59960E-001	-1.07018E+000	3.57720E+000	10	...........
	26	0.36	7.58458E-001	5.99472E-003	0.00000E+000	4.54675E-003	3.59960E-001	-1.06459E+000	3.57720E+000	10	...........
	27	0.373333	7.64408E-001	5.99287E-003	0.00000E+000	4.58100E-003	3.59960E-001	-1.07530E+000	3.57720E+000	10	...........
	28	0.386667	7.70372E-001	5.99576E-003	0.00000E+000	4.61897E-003	3.59960E-001	-1.07052E+000	3.57720E+000	10	...........
	29	0.4	7.76309E-001	5.99374E-003	0.00000E+000	4.65299E-003	3.59960E-001	-1.06471E+000	3.57720E+000	10	...........
	30	0.413333	7.82257E-001	5.99433E-003	0.00000E+000	4.68911E-003	3.59960E-001	-1.07512E+000	3.57720E+000	10	...........
	31	0.426667	7.88179E-001	5.99095E-003	0.00000E+000	4.72195E-003	3.59960E-001	-1.07089E+000	3.57720E+000	10	...........
	32	0.44	7.94148E-001	5.99707E-003	0.00000E+000	4.76256E-003	3.59960E-001	-1.06487E+000	3.57720E+000	10	...........
	33	0.453333	8.00076E-001	5.99105E-003	0.00000E+000	4.79330E-003	3.59960E-001	-1.07488E+000	3.57720E+000	10	...........
	34	0.466667	8.05997E-001	5.99414E-003	0.00000E+000	4.83126E-003	3.59960E-001	-1.07069E+000	3.57720E+000	10	...........
	35	0.48	8.11911E-001	5.99205E-003	0.00000E+000	4.86501E-003	3.59960E-001	-1.06451E+000	3.57720E+000	10	...........
	36	0.493333	8.17853E-001	5.99635E-003	0.00000E+000	4.90413E-003	3.59960E-001	-1.07430E+000	3.57720E+000	10	...........
	37	0.506667	8.23774E-001	5.99730E-003	0.00000E+000	4.94042E-003	3.59960E-001	-1.07078E+000	3.57720E+000	10	...........
	38	0.52	8.29681E-001	5.99129E-003	0.00000E+000	4.97086E-003	3.59960E-001	-1.06429E+000	3.57720E+000	10	...........
	39	0.533333	8.35571E-001	5.99822E-003	0.00000E+000	5.01194E-003	3.59960E-001	-1.07411E+000	3.57720E+000	10	...........
	40	0.546667	8.41469E-001	5.99655E-003	0.00000E+000	5.04591E-003	3.59960E-001	-1.07069E+000	3.57720E+000	10	...........
	41	0.56	8.47399E-001	5.99129E-003	0.00000E+000	5.07701E-003	3.59960E-001	-1.06464E+000	3.57720E+000	10	...........
	42	0.573333	8.53260E-001	5.99741E-003	0.00000E+000	5.11735E-003	3.59960E-001	-1.07424E+000	3.57720E+000	10	...........
	43	0.586667	8.59141E-001	5.99368E-003	0.00000E+000	5.14941E-003	3.59960E-001	-1.07104E+000	3.57720E+000	10	...........
	44	0.6	8.65023E-001	5.99156E-003	0.00000E+000	5.18284E-003	3.59960E-001	-1.06438E+000	3.57720E+000	10	...........
	45	0.613333	8.70932E-001	5.99481E-003	0.00000E+000	5.22108E-003	3.59960E-001	-1.07390E+000	3.57720E+000	10	...........
	46	0.626667	8.76736E-001	5.99899E-003	0.00000E+000	5.25953E-003	3.59960E-001	-1.07100E+000	3.57720E+000	10	...........
	47	0.64	8.82592E-001	5.99560E-003	0.00000E+000	5.29166E-003	3.59960E-001	-1.06465E+000	3.57720E+000	10	...........
	48	0.653333	8.88426E-001	5.99548E-003	0.00000E+000	5.32654E-003	3.59960E-001	-1.07389E+000	3.57720E+000	10	...........
	49	0.666667	8.94234E-001	5.99266E-003	0.00000E+000	5.35884E-003	3.59960E-001	-1.07082E+000	3.57720E+000	10	...........
	50	0.68	9.00015E-001	5.99319E-003	0.00000E+000	5.39395E-003	3.59960E-001	-1.06424E+000	3.57720E+000	10	...........
	51	0.693333	9.05802E-001	5.99147E-003	0.00000E+000	5.42708E-003	3.59960E-001	-1.07386E+000	3.57720E+000	10	...........
	52	0.706667	9.11589E-001	5.99363E-003	0.00000E+000	5.46373E-003	3.59960E-001	-1.07137E+000	3.57720E+000	10	...........
	53	0.72	9.17316E-001	5.99453E-003	0.00000E+000	5.49888E-003	3.59960E-001	-1.06453E+000	3.57720E+000	10	...........
	54	0.733333	9.23074E-001	5.99294E-003	0.00000E+000	5.53193E-003	3.59960E-001	-1.07341E+000	3.57720E+000	10	...........
	55	0.746667	9.28783E-001	5.99129E-003	0.00000E+000	5.56460E-003	3.59960E-001	-1.07137E+000	3.57720E+000	10	...........
	56	0.76	9.34430E-001	5.99136E-003	0.00000E+000	5.59851E-003	3.59960E-001	-1.06444E+000	3.57720E+000	10	...........
	57	0.773333	9.40101E-001	5.98999E-003	0.00000E+000	5.63120E-003	3.59960E-001	-1.07334E+000	3.57720E+000	10	...........
	58	0.786667	9.45776E-001	5.99605E-003	0.00000E+000	5.67093E-003	3.59960E-001	-1.07141E+000	3.57720E+000	10	...........
	59	0.8	9.51391E-001	5.99390E-003	0.00000E+000	5.70254E-003	3.59960E-001	-1.06398E+000	3.57720E+000	10	...........
	60	0.813333	9.56987E-001	5.99528E-003	0.00000E+000	5.73741E-003	3.59960E-001	-1.07276E+000	3.57720E+000	10	...........
	61	0.826667	9.62573E-001	5.99923E-003	0.00000E+000	5.77469E-003	3.59960E-001	-1.07118E+000	3.57720E+000	10	...........
	62	0.84	9.68043E-001	5.99651E-003	0.00000E+000	5.80489E-003	3.59960E-001	-1.06409E+000	3.57720E+000	10	...........
	63	0.853333	9.73609E-001	5.99588E-003	0.00000E+000	5.83764E-003	3.59960E-001	-1.07260E+000	3.57720E+000	10	...........
	64	0.866667	9.79062E-001	5.99178E-003	0.00000E+000	5.86632E-003	3.59960E-001	-1.07119E+000	3.57720E+000	10	...........
	65	0.88	9.84494E-001	5.99446E-003	0.00000E+000	5.90151E-003	3.59960E-001	-1.06386E+000	3.57720E+000	10	...........
	66	0.893333	9.89848E-001	5.99212E-003	0.00000E+000	5.93129E-003	3.59960E-001	-1.07279E+000	3.57720E+000	10	...........
	67	0.906667	9.95221E-001	5.99380E-003	0.00000E+000	5.96516E-003	3.59960E-001	-1.07143E+000	3.57779E+000	10	...........
	68	0.913333	9.99236E-001	5.99398E-003	0.00000E+000	5.98940E-003	3.59960E-001	-1.06531E+000	3.57840E+000	10	...........
STARTTIMEOFFSET	QUANT	228.165	Start Time Offset (s)