File: Data/CV_CRGO300517_1/PWRCCD_CRGO300517_1/CHARGE_DISCHARGE/CHARGE_#868.DTA
EXPLAIN
TAG	PWR800_CHARGE
TITLE	LABEL	PWR Cyclic Charge Discharge (Cell) - Charge Step	Test &Identifier
DATE	LABEL	22-6-2017	Date
TIME	LABEL	16:09:48	Time
NOTES	NOTES	3	&Notes...
	supercap test cell
	0.6mg
	6M KOH
PSTAT	PSTAT	IFC5000-01520	Potentiostat
CAPACITY	QUANT	1.00000E-003	Capacity (A-hr)
CELLTYPE	SELECTOR	1	&Cell Type
WORKINGCONNECTION	SELECTOR	0	&Working Lead
MAXCHARGETIME	VARIABLEANDUNITS	1.00000E+002	s	1.00000E+002	second(s)	Max &Charge Time
CHARGECURRENT	QUANT	6.00000E-003	&Charge Current (A)
VOLTAGEFINISH	TWOPARAM	F	1.00000E-003	3.60000E+003	&Voltage Finish	 I (A) < 	Max Time(s)
SAMPLETIME	QUANT	1.00000E-002	Sa&mple Period (s)
CHARGESTOPAT1	MULTIPARAM	4	1.00000E+000	Charge Stop At &1	Voltage > Limit	V
CHARGESTOPAT2	MULTIPARAM	0	0.00000E+000	Charge Stop At &2	None	N/A
AESBHCSELECTOR	TOGGLE	F	Save Both Half Cells
IRCOMP	TOGGLE	F	IR &Measure
EOC	QUANT	0	Open Circuit (V)
SEQUENCER	TOGGLE	TRUE	Run as Sequence
PSTATMODEL	IQUANT	53	Pstat Model
PSTATSECTION	LABEL	IFC5000-01520	Pstat Section
PSTATSERIALNO	LABEL	01520	Pstat Serial Number
CTRLMODE	IQUANT	0	Control Mode
ELECTROMETER	IQUANT	1	RE=0 or CS=1
IESTAB	IQUANT	0	I/E Stability
CASPEED	IQUANT	4	Control Amp Speed
CONVENTION	IQUANT	1	Current Convention
ICHRANGE	IQUANT	2	Ich Range
ICHRANGEMODE	TOGGLE	T	Ich Auto Range
ICHOFFSETENABLE	TOGGLE	F	Ich Offset Enable
ICHOFFSET	QUANT	0	Ich Offset (V)
ICHFILTER	IQUANT	1	Ich Filter
VCHRANGE	IQUANT	2	Vch Range
VCHRANGEMODE	TOGGLE	T	Vch Auto Range
VCHOFFSETENABLE	TOGGLE	F	Vch Offset Enable
VCHOFFSET	QUANT	0	Vch Offset (V)
VCHFILTER	IQUANT	1	Vch Filter
IERANGELOWERLIMIT	IQUANT	9	I/E Range Lower Limit
IERANGEMODE	TOGGLE	F	I/E AutoRange
IERANGE	IQUANT	10	I/E Range
ACHSELECT	IQUANT	1	Ach Select
ACHRANGE	IQUANT	2	Ach Range
ACHOFFSETENABLE	TOGGLE	F	Ach Offset Enable
ACHOFFSET	QUANT	0	Ach Offset (V)
ACHFILTER	IQUANT	1	Ach Filter
CABLEID	IQUANT	14	Cable ID
DCCALDATE	LABEL	20-10-2016	DC Calibration Date
ACCALDATE	LABEL	12/3/2015	AC Calibration Date
FRAMEWORKVERSION	QUANT	7.01	Framework Version
INSTRUMENTVERSION	LABEL	4.00	Instrument Version
CURVE	TABLE	54
	Pt	T	Vf	Im	Vu	Pwr	Sig	Ach	Temp	IERange	Over
	#	s	V	A	V	W	V	V	deg C	#	bits
	0	0.013333	6.51748E-001	5.99825E-003	0.00000E+000	3.90934E-003	3.59960E-001	-1.17000E+000	3.57660E+000	10	...........
	1	0.026667	6.60991E-001	5.99084E-003	0.00000E+000	3.95989E-003	3.59960E-001	-1.16338E+000	3.57660E+000	10	...........
	2	0.04	6.69476E-001	5.99270E-003	0.00000E+000	4.01196E-003	3.59960E-001	-1.17160E+000	3.57660E+000	10	...........
	3	0.053333	6.77571E-001	5.99390E-003	0.00000E+000	4.06129E-003	3.59960E-001	-1.17000E+000	3.57660E+000	10	...........
	4	0.066667	6.85309E-001	5.99452E-003	0.00000E+000	4.10810E-003	3.59960E-001	-1.16353E+000	3.57660E+000	10	...........
	5	0.08	6.92909E-001	5.99326E-003	0.00000E+000	4.15278E-003	3.59960E-001	-1.17145E+000	3.57660E+000	10	...........
	6	0.093333	7.00294E-001	5.99584E-003	0.00000E+000	4.19885E-003	3.59960E-001	-1.17004E+000	3.57660E+000	10	...........
	7	0.106667	7.07598E-001	5.99506E-003	0.00000E+000	4.24210E-003	3.59960E-001	-1.16366E+000	3.57660E+000	10	...........
	8	0.12	7.14820E-001	5.99200E-003	0.00000E+000	4.28320E-003	3.59960E-001	-1.17145E+000	3.57660E+000	10	...........
	9	0.133333	7.21987E-001	5.99154E-003	0.00000E+000	4.32582E-003	3.59960E-001	-1.16982E+000	3.57660E+000	10	...........
	10	0.146667	7.29038E-001	5.99391E-003	0.00000E+000	4.36978E-003	3.59960E-001	-1.16356E+000	3.57660E+000	10	...........
	11	0.16	7.36074E-001	5.99500E-003	0.00000E+000	4.41276E-003	3.59960E-001	-1.17121E+000	3.57660E+000	10	...........
	12	0.173333	7.43066E-001	5.99744E-003	0.00000E+000	4.45650E-003	3.59960E-001	-1.16972E+000	3.57660E+000	10	...........
	13	0.186667	7.49987E-001	5.99518E-003	0.00000E+000	4.49630E-003	3.59960E-001	-1.16319E+000	3.57660E+000	10	...........
	14	0.2	7.56859E-001	5.99237E-003	0.00000E+000	4.53538E-003	3.59960E-001	-1.17101E+000	3.57660E+000	10	...........
	15	0.213333	7.63695E-001	5.99637E-003	0.00000E+000	4.57940E-003	3.59960E-001	-1.16948E+000	3.57660E+000	10	...........
	16	0.226667	7.70514E-001	5.99142E-003	0.00000E+000	4.61648E-003	3.59960E-001	-1.16304E+000	3.57660E+000	10	...........
	17	0.24	7.77328E-001	5.99112E-003	0.00000E+000	4.65707E-003	3.59960E-001	-1.17107E+000	3.57660E+000	10	...........
	18	0.253333	7.84098E-001	5.99697E-003	0.00000E+000	4.70221E-003	3.59960E-001	-1.16952E+000	3.57660E+000	10	...........
	19	0.266667	7.90804E-001	5.99066E-003	0.00000E+000	4.73744E-003	3.59960E-001	-1.16296E+000	3.57660E+000	10	...........
	20	0.28	7.97552E-001	5.99465E-003	0.00000E+000	4.78104E-003	3.59960E-001	-1.17093E+000	3.57660E+000	10	...........
	21	0.293333	8.04225E-001	5.99508E-003	0.00000E+000	4.82140E-003	3.59960E-001	-1.16933E+000	3.57660E+000	10	...........
	22	0.306667	8.10930E-001	5.99602E-003	0.00000E+000	4.86236E-003	3.59960E-001	-1.16315E+000	3.57660E+000	10	...........
	23	0.32	8.17615E-001	5.99670E-003	0.00000E+000	4.90299E-003	3.59960E-001	-1.17082E+000	3.57660E+000	10	...........
	24	0.333333	8.24219E-001	5.99050E-003	0.00000E+000	4.93748E-003	3.59960E-001	-1.16918E+000	3.57660E+000	10	...........
	25	0.346667	8.30819E-001	5.99463E-003	0.00000E+000	4.98045E-003	3.59960E-001	-1.16281E+000	3.57660E+000	10	...........
	26	0.36	8.37363E-001	5.99609E-003	0.00000E+000	5.02090E-003	3.59960E-001	-1.17097E+000	3.57660E+000	10	...........
	27	0.373333	8.43920E-001	5.99605E-003	0.00000E+000	5.06019E-003	3.59960E-001	-1.16963E+000	3.57660E+000	10	...........
	28	0.386667	8.50447E-001	5.99562E-003	0.00000E+000	5.09896E-003	3.59960E-001	-1.16310E+000	3.57660E+000	10	...........
	29	0.4	8.56930E-001	5.99409E-003	0.00000E+000	5.13652E-003	3.59960E-001	-1.17117E+000	3.57660E+000	10	...........
	30	0.413333	8.63398E-001	5.99240E-003	0.00000E+000	5.17383E-003	3.59960E-001	-1.16950E+000	3.57660E+000	10	...........
	31	0.426667	8.69882E-001	5.99666E-003	0.00000E+000	5.21639E-003	3.59960E-001	-1.16325E+000	3.57660E+000	10	...........
	32	0.44	8.76279E-001	5.99710E-003	0.00000E+000	5.25513E-003	3.59960E-001	-1.17116E+000	3.57660E+000	10	...........
	33	0.453333	8.82661E-001	5.99578E-003	0.00000E+000	5.29224E-003	3.59960E-001	-1.16975E+000	3.57660E+000	10	...........
	34	0.466667	8.89010E-001	5.99500E-003	0.00000E+000	5.32962E-003	3.59960E-001	-1.16318E+000	3.57660E+000	10	...........
	35	0.48	8.95318E-001	5.99578E-003	0.00000E+000	5.36813E-003	3.59960E-001	-1.17063E+000	3.57660E+000	10	...........
	36	0.493333	9.01659E-001	6.00073E-003	0.00000E+000	5.41061E-003	3.59960E-001	-1.16929E+000	3.57660E+000	10	...........
	37	0.506667	9.07880E-001	5.99252E-003	0.00000E+000	5.44049E-003	3.59960E-001	-1.16254E+000	3.57660E+000	10	...........
	38	0.52	9.14111E-001	5.99023E-003	0.00000E+000	5.47574E-003	3.59960E-001	-1.17076E+000	3.57660E+000	10	...........
	39	0.533333	9.20273E-001	5.99478E-003	0.00000E+000	5.51684E-003	3.59960E-001	-1.16919E+000	3.57660E+000	10	...........
	40	0.546667	9.26407E-001	5.98883E-003	0.00000E+000	5.54809E-003	3.59960E-001	-1.16263E+000	3.57660E+000	10	...........
	41	0.56	9.32498E-001	5.99500E-003	0.00000E+000	5.59033E-003	3.59960E-001	-1.17068E+000	3.57660E+000	10	...........
	42	0.573333	9.38532E-001	5.98969E-003	0.00000E+000	5.62152E-003	3.59960E-001	-1.16937E+000	3.57660E+000	10	...........
	43	0.586667	9.44570E-001	5.98669E-003	0.00000E+000	5.65484E-003	3.59960E-001	-1.16276E+000	3.57660E+000	10	...........
	44	0.6	9.50553E-001	5.99111E-003	0.00000E+000	5.69487E-003	3.59960E-001	-1.17087E+000	3.57660E+000	10	...........
	45	0.613333	9.56475E-001	5.99257E-003	0.00000E+000	5.73175E-003	3.59960E-001	-1.16913E+000	3.57660E+000	10	...........
	46	0.626667	9.62332E-001	5.99356E-003	0.00000E+000	5.76780E-003	3.59960E-001	-1.16283E+000	3.57660E+000	10	...........
	47	0.64	9.68102E-001	5.99564E-003	0.00000E+000	5.80439E-003	3.59960E-001	-1.17085E+000	3.57660E+000	10	...........
	48	0.653333	9.73889E-001	5.98803E-003	0.00000E+000	5.83168E-003	3.59960E-001	-1.16932E+000	3.57660E+000	10	...........
	49	0.666667	9.79603E-001	5.99200E-003	0.00000E+000	5.86978E-003	3.59960E-001	-1.16284E+000	3.57660E+000	10	...........
	50	0.68	9.85262E-001	5.99635E-003	0.00000E+000	5.90797E-003	3.59960E-001	-1.17107E+000	3.57660E+000	10	...........
	51	0.693333	9.90836E-001	5.99233E-003	0.00000E+000	5.93742E-003	3.59960E-001	-1.16931E+000	3.57660E+000	10	...........
	52	0.706667	9.96400E-001	5.99475E-003	0.00000E+000	5.97317E-003	3.59960E-001	-1.16315E+000	3.57660E+000	10	...........
	53	0.71	9.99859E-001	5.98290E-003	0.00000E+000	5.98206E-003	3.59960E-001	-1.17735E+000	3.57660E+000	10	...........
STARTTIMEOFFSET	QUANT	1400.949	Start Time Offset (s)