File: Data/CV_CRGO300517_1/PWRCCD_CRGO300517_1/CHARGE_DISCHARGE/CHARGE_#750.DTA
EXPLAIN
TAG	PWR800_CHARGE
TITLE	LABEL	PWR Cyclic Charge Discharge (Cell) - Charge Step	Test &Identifier
DATE	LABEL	22-6-2017	Date
TIME	LABEL	16:05:25	Time
NOTES	NOTES	3	&Notes...
	supercap test cell
	0.6mg
	6M KOH
PSTAT	PSTAT	IFC5000-01520	Potentiostat
CAPACITY	QUANT	1.00000E-003	Capacity (A-hr)
CELLTYPE	SELECTOR	1	&Cell Type
WORKINGCONNECTION	SELECTOR	0	&Working Lead
MAXCHARGETIME	VARIABLEANDUNITS	1.00000E+002	s	1.00000E+002	second(s)	Max &Charge Time
CHARGECURRENT	QUANT	6.00000E-003	&Charge Current (A)
VOLTAGEFINISH	TWOPARAM	F	1.00000E-003	3.60000E+003	&Voltage Finish	 I (A) < 	Max Time(s)
SAMPLETIME	QUANT	1.00000E-002	Sa&mple Period (s)
CHARGESTOPAT1	MULTIPARAM	4	1.00000E+000	Charge Stop At &1	Voltage > Limit	V
CHARGESTOPAT2	MULTIPARAM	0	0.00000E+000	Charge Stop At &2	None	N/A
AESBHCSELECTOR	TOGGLE	F	Save Both Half Cells
IRCOMP	TOGGLE	F	IR &Measure
EOC	QUANT	0	Open Circuit (V)
SEQUENCER	TOGGLE	TRUE	Run as Sequence
PSTATMODEL	IQUANT	53	Pstat Model
PSTATSECTION	LABEL	IFC5000-01520	Pstat Section
PSTATSERIALNO	LABEL	01520	Pstat Serial Number
CTRLMODE	IQUANT	0	Control Mode
ELECTROMETER	IQUANT	1	RE=0 or CS=1
IESTAB	IQUANT	0	I/E Stability
CASPEED	IQUANT	4	Control Amp Speed
CONVENTION	IQUANT	1	Current Convention
ICHRANGE	IQUANT	2	Ich Range
ICHRANGEMODE	TOGGLE	T	Ich Auto Range
ICHOFFSETENABLE	TOGGLE	F	Ich Offset Enable
ICHOFFSET	QUANT	0	Ich Offset (V)
ICHFILTER	IQUANT	1	Ich Filter
VCHRANGE	IQUANT	2	Vch Range
VCHRANGEMODE	TOGGLE	T	Vch Auto Range
VCHOFFSETENABLE	TOGGLE	F	Vch Offset Enable
VCHOFFSET	QUANT	0	Vch Offset (V)
VCHFILTER	IQUANT	1	Vch Filter
IERANGELOWERLIMIT	IQUANT	9	I/E Range Lower Limit
IERANGEMODE	TOGGLE	F	I/E AutoRange
IERANGE	IQUANT	10	I/E Range
ACHSELECT	IQUANT	1	Ach Select
ACHRANGE	IQUANT	2	Ach Range
ACHOFFSETENABLE	TOGGLE	F	Ach Offset Enable
ACHOFFSET	QUANT	0	Ach Offset (V)
ACHFILTER	IQUANT	1	Ach Filter
CABLEID	IQUANT	14	Cable ID
DCCALDATE	LABEL	20-10-2016	DC Calibration Date
ACCALDATE	LABEL	12/3/2015	AC Calibration Date
FRAMEWORKVERSION	QUANT	7.01	Framework Version
INSTRUMENTVERSION	LABEL	4.00	Instrument Version
CURVE	TABLE	55
	Pt	T	Vf	Im	Vu	Pwr	Sig	Ach	Temp	IERange	Over
	#	s	V	A	V	W	V	V	deg C	#	bits
	0	0.013333	6.46084E-001	5.99859E-003	0.00000E+000	3.87560E-003	3.59960E-001	-1.15832E+000	3.57680E+000	10	...........
	1	0.026667	6.55225E-001	5.99320E-003	0.00000E+000	3.92689E-003	3.59960E-001	-1.16031E+000	3.57680E+000	10	...........
	2	0.04	6.63626E-001	5.99553E-003	0.00000E+000	3.97879E-003	3.59960E-001	-1.16888E+000	3.57680E+000	10	...........
	3	0.053333	6.71620E-001	5.99679E-003	0.00000E+000	4.02756E-003	3.59960E-001	-1.15783E+000	3.57680E+000	10	...........
	4	0.066667	6.79275E-001	5.99111E-003	0.00000E+000	4.06961E-003	3.59960E-001	-1.16005E+000	3.57680E+000	10	...........
	5	0.08	6.86782E-001	5.99663E-003	0.00000E+000	4.11838E-003	3.59960E-001	-1.16852E+000	3.57680E+000	10	...........
	6	0.093333	6.94131E-001	5.99100E-003	0.00000E+000	4.15854E-003	3.59960E-001	-1.15795E+000	3.57680E+000	10	...........
	7	0.106667	7.01349E-001	5.99814E-003	0.00000E+000	4.20679E-003	3.59960E-001	-1.16024E+000	3.57680E+000	10	...........
	8	0.12	7.08479E-001	5.99225E-003	0.00000E+000	4.24538E-003	3.59960E-001	-1.16826E+000	3.57680E+000	10	...........
	9	0.133333	7.15534E-001	5.99380E-003	0.00000E+000	4.28877E-003	3.59960E-001	-1.15766E+000	3.57680E+000	10	...........
	10	0.146667	7.22595E-001	5.99628E-003	0.00000E+000	4.33289E-003	3.59960E-001	-1.16015E+000	3.57680E+000	10	...........
	11	0.16	7.29539E-001	5.99393E-003	0.00000E+000	4.37280E-003	3.59960E-001	-1.16836E+000	3.57680E+000	10	...........
	12	0.173333	7.36398E-001	5.98754E-003	0.00000E+000	4.40921E-003	3.59960E-001	-1.15767E+000	3.57680E+000	10	...........
	13	0.186667	7.43309E-001	5.99619E-003	0.00000E+000	4.45702E-003	3.59960E-001	-1.16036E+000	3.57680E+000	10	...........
	14	0.2	7.50112E-001	5.99261E-003	0.00000E+000	4.49513E-003	3.59960E-001	-1.16793E+000	3.57680E+000	10	...........
	15	0.213333	7.56909E-001	5.99761E-003	0.00000E+000	4.53964E-003	3.59960E-001	-1.15753E+000	3.57680E+000	10	...........
	16	0.226667	7.63667E-001	5.99376E-003	0.00000E+000	4.57723E-003	3.59960E-001	-1.16064E+000	3.57680E+000	10	...........
	17	0.24	7.70413E-001	5.99390E-003	0.00000E+000	4.61777E-003	3.59960E-001	-1.16791E+000	3.57680E+000	10	...........
	18	0.253333	7.77085E-001	5.99146E-003	0.00000E+000	4.65587E-003	3.59960E-001	-1.15756E+000	3.57680E+000	10	...........
	19	0.266667	7.83772E-001	5.99342E-003	0.00000E+000	4.69747E-003	3.59960E-001	-1.16036E+000	3.57680E+000	10	...........
	20	0.28	7.90426E-001	5.99615E-003	0.00000E+000	4.73952E-003	3.59960E-001	-1.16757E+000	3.57680E+000	10	...........
	21	0.293333	7.97089E-001	5.98931E-003	0.00000E+000	4.77401E-003	3.59960E-001	-1.15720E+000	3.57680E+000	10	...........
	22	0.306667	8.03694E-001	5.99595E-003	0.00000E+000	4.81891E-003	3.59960E-001	-1.16032E+000	3.57680E+000	10	...........
	23	0.32	8.10291E-001	5.99327E-003	0.00000E+000	4.85629E-003	3.59960E-001	-1.16698E+000	3.57680E+000	10	...........
	24	0.333333	8.16889E-001	5.99561E-003	0.00000E+000	4.89774E-003	3.59960E-001	-1.15674E+000	3.57680E+000	10	...........
	25	0.346667	8.23442E-001	5.99383E-003	0.00000E+000	4.93558E-003	3.59960E-001	-1.16021E+000	3.57680E+000	10	...........
	26	0.36	8.29954E-001	5.99043E-003	0.00000E+000	4.97178E-003	3.59960E-001	-1.16719E+000	3.57680E+000	10	...........
	27	0.373333	8.36491E-001	5.99335E-003	0.00000E+000	5.01339E-003	3.59960E-001	-1.15696E+000	3.57680E+000	10	...........
	28	0.386667	8.42965E-001	5.99442E-003	0.00000E+000	5.05308E-003	3.59960E-001	-1.16005E+000	3.57680E+000	10	...........
	29	0.4	8.49435E-001	5.99565E-003	0.00000E+000	5.09291E-003	3.59960E-001	-1.16682E+000	3.57680E+000	10	...........
	30	0.413333	8.55874E-001	5.99214E-003	0.00000E+000	5.12852E-003	3.59960E-001	-1.15678E+000	3.57741E+000	10	...........
	31	0.426667	8.62268E-001	5.98878E-003	0.00000E+000	5.16394E-003	3.59960E-001	-1.16059E+000	3.57750E+000	10	...........
	32	0.44	8.68695E-001	5.99735E-003	0.00000E+000	5.20987E-003	3.59960E-001	-1.16667E+000	3.57750E+000	10	...........
	33	0.453333	8.75088E-001	5.99504E-003	0.00000E+000	5.24619E-003	3.59960E-001	-1.15672E+000	3.57750E+000	10	...........
	34	0.466667	8.81434E-001	5.99366E-003	0.00000E+000	5.28301E-003	3.59960E-001	-1.16054E+000	3.57750E+000	10	...........
	35	0.48	8.87759E-001	5.99665E-003	0.00000E+000	5.32358E-003	3.59960E-001	-1.16686E+000	3.57750E+000	10	...........
	36	0.493333	8.94007E-001	5.99344E-003	0.00000E+000	5.35818E-003	3.59960E-001	-1.15695E+000	3.57750E+000	10	...........
	37	0.506667	9.00303E-001	5.99695E-003	0.00000E+000	5.39908E-003	3.59960E-001	-1.16069E+000	3.57750E+000	10	...........
	38	0.52	9.06483E-001	5.99237E-003	0.00000E+000	5.43199E-003	3.59960E-001	-1.16664E+000	3.57750E+000	10	...........
	39	0.533333	9.12689E-001	5.99485E-003	0.00000E+000	5.47143E-003	3.59960E-001	-1.15674E+000	3.57750E+000	10	...........
	40	0.546667	9.18789E-001	5.99084E-003	0.00000E+000	5.50432E-003	3.59960E-001	-1.16079E+000	3.57750E+000	10	...........
	41	0.56	9.24936E-001	5.99689E-003	0.00000E+000	5.54674E-003	3.59960E-001	-1.16654E+000	3.57750E+000	10	...........
	42	0.573333	9.30970E-001	5.99187E-003	0.00000E+000	5.57825E-003	3.59960E-001	-1.15684E+000	3.57750E+000	10	...........
	43	0.586667	9.36967E-001	5.99299E-003	0.00000E+000	5.61523E-003	3.59960E-001	-1.16055E+000	3.57750E+000	10	...........
	44	0.6	9.42933E-001	5.99019E-003	0.00000E+000	5.64835E-003	3.59960E-001	-1.16590E+000	3.57750E+000	10	...........
	45	0.613333	9.48931E-001	5.99754E-003	0.00000E+000	5.69125E-003	3.59960E-001	-1.15640E+000	3.57750E+000	10	...........
	46	0.626667	9.54813E-001	5.99203E-003	0.00000E+000	5.72127E-003	3.59960E-001	-1.16073E+000	3.57750E+000	10	...........
	47	0.64	9.60637E-001	5.99135E-003	0.00000E+000	5.75551E-003	3.59960E-001	-1.16589E+000	3.57750E+000	10	...........
	48	0.653333	9.66439E-001	5.99101E-003	0.00000E+000	5.78994E-003	3.59960E-001	-1.15634E+000	3.57750E+000	10	...........
	49	0.666667	9.72234E-001	5.99109E-003	0.00000E+000	5.82474E-003	3.59960E-001	-1.16056E+000	3.57750E+000	10	...........
	50	0.68	9.77981E-001	5.98939E-003	0.00000E+000	5.85751E-003	3.59960E-001	-1.16571E+000	3.57750E+000	10	...........
	51	0.693333	9.83619E-001	5.99400E-003	0.00000E+000	5.89581E-003	3.59960E-001	-1.15672E+000	3.57750E+000	10	...........
	52	0.706667	9.89242E-001	5.99558E-003	0.00000E+000	5.93108E-003	3.59960E-001	-1.16076E+000	3.57750E+000	10	...........
	53	0.72	9.94758E-001	5.99079E-003	0.00000E+000	5.95939E-003	3.59960E-001	-1.16584E+000	3.57750E+000	10	...........
	54	0.728333	9.99234E-001	5.99584E-003	0.00000E+000	5.99125E-003	3.59960E-001	-1.15091E+000	3.57750E+000	10	...........
STARTTIMEOFFSET	QUANT	1232.081	Start Time Offset (s)