File: Data/CV_CRGO300517_1/PWRCCD_CRGO300517_1/CHARGE_DISCHARGE/CHARGE_#684.DTA
EXPLAIN
TAG	PWR800_CHARGE
TITLE	LABEL	PWR Cyclic Charge Discharge (Cell) - Charge Step	Test &Identifier
DATE	LABEL	22-6-2017	Date
TIME	LABEL	16:02:57	Time
NOTES	NOTES	3	&Notes...
	supercap test cell
	0.6mg
	6M KOH
PSTAT	PSTAT	IFC5000-01520	Potentiostat
CAPACITY	QUANT	1.00000E-003	Capacity (A-hr)
CELLTYPE	SELECTOR	1	&Cell Type
WORKINGCONNECTION	SELECTOR	0	&Working Lead
MAXCHARGETIME	VARIABLEANDUNITS	1.00000E+002	s	1.00000E+002	second(s)	Max &Charge Time
CHARGECURRENT	QUANT	6.00000E-003	&Charge Current (A)
VOLTAGEFINISH	TWOPARAM	F	1.00000E-003	3.60000E+003	&Voltage Finish	 I (A) < 	Max Time(s)
SAMPLETIME	QUANT	1.00000E-002	Sa&mple Period (s)
CHARGESTOPAT1	MULTIPARAM	4	1.00000E+000	Charge Stop At &1	Voltage > Limit	V
CHARGESTOPAT2	MULTIPARAM	0	0.00000E+000	Charge Stop At &2	None	N/A
AESBHCSELECTOR	TOGGLE	F	Save Both Half Cells
IRCOMP	TOGGLE	F	IR &Measure
EOC	QUANT	0	Open Circuit (V)
SEQUENCER	TOGGLE	TRUE	Run as Sequence
PSTATMODEL	IQUANT	53	Pstat Model
PSTATSECTION	LABEL	IFC5000-01520	Pstat Section
PSTATSERIALNO	LABEL	01520	Pstat Serial Number
CTRLMODE	IQUANT	0	Control Mode
ELECTROMETER	IQUANT	1	RE=0 or CS=1
IESTAB	IQUANT	0	I/E Stability
CASPEED	IQUANT	4	Control Amp Speed
CONVENTION	IQUANT	1	Current Convention
ICHRANGE	IQUANT	2	Ich Range
ICHRANGEMODE	TOGGLE	T	Ich Auto Range
ICHOFFSETENABLE	TOGGLE	F	Ich Offset Enable
ICHOFFSET	QUANT	0	Ich Offset (V)
ICHFILTER	IQUANT	1	Ich Filter
VCHRANGE	IQUANT	2	Vch Range
VCHRANGEMODE	TOGGLE	T	Vch Auto Range
VCHOFFSETENABLE	TOGGLE	F	Vch Offset Enable
VCHOFFSET	QUANT	0	Vch Offset (V)
VCHFILTER	IQUANT	1	Vch Filter
IERANGELOWERLIMIT	IQUANT	9	I/E Range Lower Limit
IERANGEMODE	TOGGLE	F	I/E AutoRange
IERANGE	IQUANT	10	I/E Range
ACHSELECT	IQUANT	1	Ach Select
ACHRANGE	IQUANT	2	Ach Range
ACHOFFSETENABLE	TOGGLE	F	Ach Offset Enable
ACHOFFSET	QUANT	0	Ach Offset (V)
ACHFILTER	IQUANT	1	Ach Filter
CABLEID	IQUANT	14	Cable ID
DCCALDATE	LABEL	20-10-2016	DC Calibration Date
ACCALDATE	LABEL	12/3/2015	AC Calibration Date
FRAMEWORKVERSION	QUANT	7.01	Framework Version
INSTRUMENTVERSION	LABEL	4.00	Instrument Version
CURVE	TABLE	56
	Pt	T	Vf	Im	Vu	Pwr	Sig	Ach	Temp	IERange	Over
	#	s	V	A	V	W	V	V	deg C	#	bits
	0	0.013333	6.41975E-001	5.99015E-003	0.00000E+000	3.84553E-003	3.59960E-001	-1.16472E+000	3.57780E+000	10	...........
	1	0.026667	6.51095E-001	5.99046E-003	0.00000E+000	3.90036E-003	3.59960E-001	-1.15606E+000	3.57780E+000	10	...........
	2	0.04	6.59496E-001	5.99294E-003	0.00000E+000	3.95232E-003	3.59960E-001	-1.15368E+000	3.57780E+000	10	...........
	3	0.053333	6.67419E-001	5.99522E-003	0.00000E+000	4.00132E-003	3.59960E-001	-1.16440E+000	3.57780E+000	10	...........
	4	0.066667	6.75060E-001	5.99294E-003	0.00000E+000	4.04559E-003	3.59960E-001	-1.15554E+000	3.57780E+000	10	...........
	5	0.08	6.82523E-001	5.99294E-003	0.00000E+000	4.09032E-003	3.59960E-001	-1.15304E+000	3.57780E+000	10	...........
	6	0.093333	6.89761E-001	5.98753E-003	0.00000E+000	4.12996E-003	3.59960E-001	-1.16426E+000	3.57780E+000	10	...........
	7	0.106667	6.96947E-001	5.99526E-003	0.00000E+000	4.17838E-003	3.59960E-001	-1.15533E+000	3.57780E+000	10	...........
	8	0.12	7.04037E-001	5.99341E-003	0.00000E+000	4.21958E-003	3.59960E-001	-1.15299E+000	3.57780E+000	10	...........
	9	0.133333	7.11016E-001	5.99370E-003	0.00000E+000	4.26161E-003	3.59960E-001	-1.16424E+000	3.57780E+000	10	...........
	10	0.146667	7.17970E-001	5.99105E-003	0.00000E+000	4.30139E-003	3.59960E-001	-1.15519E+000	3.57780E+000	10	...........
	11	0.16	7.24882E-001	5.99551E-003	0.00000E+000	4.34604E-003	3.59960E-001	-1.15309E+000	3.57780E+000	10	...........
	12	0.173333	7.31742E-001	5.99568E-003	0.00000E+000	4.38729E-003	3.59960E-001	-1.16420E+000	3.57780E+000	10	...........
	13	0.186667	7.38575E-001	5.99596E-003	0.00000E+000	4.42847E-003	3.59960E-001	-1.15495E+000	3.57780E+000	10	...........
	14	0.2	7.45354E-001	5.99215E-003	0.00000E+000	4.46627E-003	3.59960E-001	-1.15277E+000	3.57780E+000	10	...........
	15	0.213333	7.52086E-001	5.99466E-003	0.00000E+000	4.50850E-003	3.59960E-001	-1.16401E+000	3.57780E+000	10	...........
	16	0.226667	7.58855E-001	5.99833E-003	0.00000E+000	4.55186E-003	3.59960E-001	-1.15490E+000	3.57780E+000	10	...........
	17	0.24	7.65535E-001	5.99275E-003	0.00000E+000	4.58766E-003	3.59960E-001	-1.15292E+000	3.57780E+000	10	...........
	18	0.253333	7.72230E-001	5.99529E-003	0.00000E+000	4.62974E-003	3.59960E-001	-1.16419E+000	3.57780E+000	10	...........
	19	0.266667	7.78840E-001	5.99419E-003	0.00000E+000	4.66851E-003	3.59960E-001	-1.15468E+000	3.57780E+000	10	...........
	20	0.28	7.85512E-001	5.99103E-003	0.00000E+000	4.70603E-003	3.59960E-001	-1.15299E+000	3.57780E+000	10	...........
	21	0.293333	7.92116E-001	5.98736E-003	0.00000E+000	4.74268E-003	3.59960E-001	-1.16426E+000	3.57780E+000	10	...........
	22	0.306667	7.98717E-001	5.99156E-003	0.00000E+000	4.78556E-003	3.59960E-001	-1.15470E+000	3.57780E+000	10	...........
	23	0.32	8.05222E-001	5.99370E-003	0.00000E+000	4.82626E-003	3.59960E-001	-1.15303E+000	3.57780E+000	10	...........
	24	0.333333	8.11792E-001	5.99130E-003	0.00000E+000	4.86369E-003	3.59960E-001	-1.16405E+000	3.57780E+000	10	...........
	25	0.346667	8.18319E-001	5.99480E-003	0.00000E+000	4.90566E-003	3.59960E-001	-1.15438E+000	3.57780E+000	10	...........
	26	0.36	8.24812E-001	5.99555E-003	0.00000E+000	4.94520E-003	3.59960E-001	-1.15284E+000	3.57780E+000	10	...........
	27	0.373333	8.31334E-001	5.99260E-003	0.00000E+000	4.98185E-003	3.59960E-001	-1.16380E+000	3.57780E+000	10	...........
	28	0.386667	8.37786E-001	5.99313E-003	0.00000E+000	5.02097E-003	3.59960E-001	-1.15407E+000	3.57780E+000	10	...........
	29	0.4	8.44289E-001	6.00074E-003	0.00000E+000	5.06636E-003	3.59960E-001	-1.15261E+000	3.57780E+000	10	...........
	30	0.413333	8.50693E-001	5.99300E-003	0.00000E+000	5.09820E-003	3.59960E-001	-1.16364E+000	3.57780E+000	10	...........
	31	0.426667	8.57117E-001	5.99542E-003	0.00000E+000	5.13878E-003	3.59960E-001	-1.15407E+000	3.57780E+000	10	...........
	32	0.44	8.63435E-001	5.98877E-003	0.00000E+000	5.17092E-003	3.59960E-001	-1.15247E+000	3.57780E+000	10	...........
	33	0.453333	8.69830E-001	5.99104E-003	0.00000E+000	5.21118E-003	3.59960E-001	-1.16377E+000	3.57780E+000	10	...........
	34	0.466667	8.76177E-001	5.99817E-003	0.00000E+000	5.25546E-003	3.59960E-001	-1.15387E+000	3.57780E+000	10	...........
	35	0.48	8.82481E-001	5.99661E-003	0.00000E+000	5.29189E-003	3.59960E-001	-1.15244E+000	3.57780E+000	10	...........
	36	0.493333	8.88762E-001	5.99591E-003	0.00000E+000	5.32893E-003	3.59960E-001	-1.16373E+000	3.57780E+000	10	...........
	37	0.506667	8.95004E-001	5.99504E-003	0.00000E+000	5.36559E-003	3.59960E-001	-1.15391E+000	3.57780E+000	10	...........
	38	0.52	9.01224E-001	5.99225E-003	0.00000E+000	5.40036E-003	3.59960E-001	-1.15255E+000	3.57780E+000	10	...........
	39	0.533333	9.07365E-001	5.99264E-003	0.00000E+000	5.43751E-003	3.59960E-001	-1.16360E+000	3.57780E+000	10	...........
	40	0.546667	9.13561E-001	5.99801E-003	0.00000E+000	5.47954E-003	3.59960E-001	-1.15363E+000	3.57780E+000	10	...........
	41	0.56	9.19685E-001	5.99879E-003	0.00000E+000	5.51700E-003	3.59960E-001	-1.15243E+000	3.57780E+000	10	...........
	42	0.573333	9.25781E-001	5.99419E-003	0.00000E+000	5.54931E-003	3.59960E-001	-1.16377E+000	3.57780E+000	10	...........
	43	0.586667	9.31771E-001	5.99388E-003	0.00000E+000	5.58493E-003	3.59960E-001	-1.15377E+000	3.57780E+000	10	...........
	44	0.6	9.37748E-001	5.99206E-003	0.00000E+000	5.61904E-003	3.59960E-001	-1.15263E+000	3.57780E+000	10	...........
	45	0.613333	9.43691E-001	5.98794E-003	0.00000E+000	5.65076E-003	3.59960E-001	-1.16375E+000	3.57780E+000	10	...........
	46	0.626667	9.49630E-001	5.99448E-003	0.00000E+000	5.69254E-003	3.59960E-001	-1.15388E+000	3.57780E+000	10	...........
	47	0.64	9.55496E-001	5.98912E-003	0.00000E+000	5.72258E-003	3.59960E-001	-1.15282E+000	3.57780E+000	10	...........
	48	0.653333	9.61318E-001	5.99400E-003	0.00000E+000	5.76214E-003	3.59960E-001	-1.16386E+000	3.57860E+000	10	...........
	49	0.666667	9.67072E-001	5.99347E-003	0.00000E+000	5.79611E-003	3.59960E-001	-1.15355E+000	3.57870E+000	10	...........
	50	0.68	9.72840E-001	5.99322E-003	0.00000E+000	5.83044E-003	3.59960E-001	-1.15246E+000	3.57870E+000	10	...........
	51	0.693333	9.78544E-001	5.99404E-003	0.00000E+000	5.86543E-003	3.59960E-001	-1.16356E+000	3.57870E+000	10	...........
	52	0.706667	9.84173E-001	5.99004E-003	0.00000E+000	5.89523E-003	3.59960E-001	-1.15336E+000	3.57870E+000	10	...........
	53	0.72	9.89769E-001	5.99224E-003	0.00000E+000	5.93093E-003	3.59960E-001	-1.15256E+000	3.57870E+000	10	...........
	54	0.733333	9.95290E-001	5.99498E-003	0.00000E+000	5.96674E-003	3.59960E-001	-1.16346E+000	3.57870E+000	10	...........
	55	0.74	9.99444E-001	5.99582E-003	0.00000E+000	5.99248E-003	3.59960E-001	-1.14225E+000	3.57870E+000	10	...........
STARTTIMEOFFSET	QUANT	1135.704	Start Time Offset (s)