File: Data/CV_CRGO300517_1/PWRCCD_CRGO300517_1/CHARGE_DISCHARGE/CHARGE_#442.DTA
EXPLAIN
TAG	PWR800_CHARGE
TITLE	LABEL	PWR Cyclic Charge Discharge (Cell) - Charge Step	Test &Identifier
DATE	LABEL	22-6-2017	Date
TIME	LABEL	15:53:38	Time
NOTES	NOTES	3	&Notes...
	supercap test cell
	0.6mg
	6M KOH
PSTAT	PSTAT	IFC5000-01520	Potentiostat
CAPACITY	QUANT	1.00000E-003	Capacity (A-hr)
CELLTYPE	SELECTOR	1	&Cell Type
WORKINGCONNECTION	SELECTOR	0	&Working Lead
MAXCHARGETIME	VARIABLEANDUNITS	1.00000E+002	s	1.00000E+002	second(s)	Max &Charge Time
CHARGECURRENT	QUANT	6.00000E-003	&Charge Current (A)
VOLTAGEFINISH	TWOPARAM	F	1.00000E-003	3.60000E+003	&Voltage Finish	 I (A) < 	Max Time(s)
SAMPLETIME	QUANT	1.00000E-002	Sa&mple Period (s)
CHARGESTOPAT1	MULTIPARAM	4	1.00000E+000	Charge Stop At &1	Voltage > Limit	V
CHARGESTOPAT2	MULTIPARAM	0	0.00000E+000	Charge Stop At &2	None	N/A
AESBHCSELECTOR	TOGGLE	F	Save Both Half Cells
IRCOMP	TOGGLE	F	IR &Measure
EOC	QUANT	0	Open Circuit (V)
SEQUENCER	TOGGLE	TRUE	Run as Sequence
PSTATMODEL	IQUANT	53	Pstat Model
PSTATSECTION	LABEL	IFC5000-01520	Pstat Section
PSTATSERIALNO	LABEL	01520	Pstat Serial Number
CTRLMODE	IQUANT	0	Control Mode
ELECTROMETER	IQUANT	1	RE=0 or CS=1
IESTAB	IQUANT	0	I/E Stability
CASPEED	IQUANT	4	Control Amp Speed
CONVENTION	IQUANT	1	Current Convention
ICHRANGE	IQUANT	2	Ich Range
ICHRANGEMODE	TOGGLE	T	Ich Auto Range
ICHOFFSETENABLE	TOGGLE	F	Ich Offset Enable
ICHOFFSET	QUANT	0	Ich Offset (V)
ICHFILTER	IQUANT	1	Ich Filter
VCHRANGE	IQUANT	2	Vch Range
VCHRANGEMODE	TOGGLE	T	Vch Auto Range
VCHOFFSETENABLE	TOGGLE	F	Vch Offset Enable
VCHOFFSET	QUANT	0	Vch Offset (V)
VCHFILTER	IQUANT	1	Vch Filter
IERANGELOWERLIMIT	IQUANT	9	I/E Range Lower Limit
IERANGEMODE	TOGGLE	F	I/E AutoRange
IERANGE	IQUANT	10	I/E Range
ACHSELECT	IQUANT	1	Ach Select
ACHRANGE	IQUANT	2	Ach Range
ACHOFFSETENABLE	TOGGLE	F	Ach Offset Enable
ACHOFFSET	QUANT	0	Ach Offset (V)
ACHFILTER	IQUANT	1	Ach Filter
CABLEID	IQUANT	14	Cable ID
DCCALDATE	LABEL	20-10-2016	DC Calibration Date
ACCALDATE	LABEL	12/3/2015	AC Calibration Date
FRAMEWORKVERSION	QUANT	7.01	Framework Version
INSTRUMENTVERSION	LABEL	4.00	Instrument Version
CURVE	TABLE	59
	Pt	T	Vf	Im	Vu	Pwr	Sig	Ach	Temp	IERange	Over
	#	s	V	A	V	W	V	V	deg C	#	bits
	0	0.013333	6.27699E-001	5.99562E-003	0.00000E+000	3.76344E-003	3.59960E-001	-1.14540E+000	3.57720E+000	10	...........
	1	0.026667	6.36537E-001	5.99857E-003	0.00000E+000	3.81831E-003	3.59960E-001	-1.13482E+000	3.57670E+000	10	...........
	2	0.04	6.44675E-001	5.99372E-003	0.00000E+000	3.86400E-003	3.59960E-001	-1.13435E+000	3.57670E+000	10	...........
	3	0.053333	6.52382E-001	5.99686E-003	0.00000E+000	3.91224E-003	3.59960E-001	-1.14536E+000	3.57670E+000	10	...........
	4	0.066667	6.59769E-001	5.98986E-003	0.00000E+000	3.95193E-003	3.59960E-001	-1.13490E+000	3.57670E+000	10	...........
	5	0.08	6.67013E-001	5.98895E-003	0.00000E+000	3.99471E-003	3.59960E-001	-1.13454E+000	3.57670E+000	10	...........
	6	0.093333	6.74090E-001	5.99507E-003	0.00000E+000	4.04122E-003	3.59960E-001	-1.14504E+000	3.57670E+000	10	...........
	7	0.106667	6.81041E-001	5.99651E-003	0.00000E+000	4.08387E-003	3.59960E-001	-1.13447E+000	3.57670E+000	10	...........
	8	0.12	6.87882E-001	5.99307E-003	0.00000E+000	4.12253E-003	3.59960E-001	-1.13443E+000	3.57670E+000	10	...........
	9	0.133333	6.94695E-001	5.99171E-003	0.00000E+000	4.16241E-003	3.59960E-001	-1.14519E+000	3.57670E+000	10	...........
	10	0.146667	7.01411E-001	5.99504E-003	0.00000E+000	4.20499E-003	3.59960E-001	-1.13453E+000	3.57670E+000	10	...........
	11	0.16	7.08089E-001	5.99791E-003	0.00000E+000	4.24705E-003	3.59960E-001	-1.13458E+000	3.57670E+000	10	...........
	12	0.173333	7.14706E-001	5.99181E-003	0.00000E+000	4.28238E-003	3.59960E-001	-1.14496E+000	3.57670E+000	10	...........
	13	0.186667	7.21385E-001	5.99952E-003	0.00000E+000	4.32796E-003	3.59960E-001	-1.13428E+000	3.57670E+000	10	...........
	14	0.2	7.27963E-001	5.99347E-003	0.00000E+000	4.36303E-003	3.59960E-001	-1.13484E+000	3.57670E+000	10	...........
	15	0.213333	7.34476E-001	5.99507E-003	0.00000E+000	4.40324E-003	3.59960E-001	-1.14501E+000	3.57670E+000	10	...........
	16	0.226667	7.41039E-001	5.99335E-003	0.00000E+000	4.44131E-003	3.59960E-001	-1.13422E+000	3.57670E+000	10	...........
	17	0.24	7.47589E-001	5.99806E-003	0.00000E+000	4.48408E-003	3.59960E-001	-1.13458E+000	3.57670E+000	10	...........
	18	0.253333	7.54044E-001	5.99292E-003	0.00000E+000	4.51892E-003	3.59960E-001	-1.14432E+000	3.57670E+000	10	...........
	19	0.266667	7.60523E-001	5.99564E-003	0.00000E+000	4.55982E-003	3.59960E-001	-1.13389E+000	3.57670E+000	10	...........
	20	0.28	7.66990E-001	5.99152E-003	0.00000E+000	4.59544E-003	3.59960E-001	-1.13475E+000	3.57670E+000	10	...........
	21	0.293333	7.73479E-001	5.99591E-003	0.00000E+000	4.63771E-003	3.59960E-001	-1.14443E+000	3.57670E+000	10	...........
	22	0.306667	7.79885E-001	5.99295E-003	0.00000E+000	4.67381E-003	3.59960E-001	-1.13368E+000	3.57670E+000	10	...........
	23	0.32	7.86285E-001	6.00027E-003	0.00000E+000	4.71792E-003	3.59960E-001	-1.13482E+000	3.57670E+000	10	...........
	24	0.333333	7.92727E-001	5.99219E-003	0.00000E+000	4.75017E-003	3.59960E-001	-1.14452E+000	3.57670E+000	10	...........
	25	0.346667	7.99122E-001	5.99590E-003	0.00000E+000	4.79146E-003	3.59960E-001	-1.13366E+000	3.57670E+000	10	...........
	26	0.36	8.05478E-001	5.99389E-003	0.00000E+000	4.82795E-003	3.59960E-001	-1.13476E+000	3.57670E+000	10	...........
	27	0.373333	8.11771E-001	5.98997E-003	0.00000E+000	4.86248E-003	3.59960E-001	-1.14423E+000	3.57670E+000	10	...........
	28	0.386667	8.18147E-001	5.99346E-003	0.00000E+000	4.90353E-003	3.59960E-001	-1.13340E+000	3.57670E+000	10	...........
	29	0.4	8.24477E-001	5.99331E-003	0.00000E+000	4.94135E-003	3.59960E-001	-1.13492E+000	3.57670E+000	10	...........
	30	0.413333	8.30799E-001	5.99092E-003	0.00000E+000	4.97725E-003	3.59960E-001	-1.14421E+000	3.57670E+000	10	...........
	31	0.426667	8.37086E-001	5.99579E-003	0.00000E+000	5.01900E-003	3.59960E-001	-1.13342E+000	3.57670E+000	10	...........
	32	0.44	8.43369E-001	5.99009E-003	0.00000E+000	5.05185E-003	3.59960E-001	-1.13477E+000	3.57670E+000	10	...........
	33	0.453333	8.49662E-001	5.99222E-003	0.00000E+000	5.09136E-003	3.59960E-001	-1.14407E+000	3.57670E+000	10	...........
	34	0.466667	8.55908E-001	5.98944E-003	0.00000E+000	5.12641E-003	3.59960E-001	-1.13361E+000	3.57670E+000	10	...........
	35	0.48	8.62150E-001	5.99692E-003	0.00000E+000	5.17025E-003	3.59960E-001	-1.13528E+000	3.57670E+000	10	...........
	36	0.493333	8.68362E-001	5.99510E-003	0.00000E+000	5.20591E-003	3.59960E-001	-1.14400E+000	3.57670E+000	10	...........
	37	0.506667	8.74594E-001	5.99342E-003	0.00000E+000	5.24180E-003	3.59960E-001	-1.13337E+000	3.57670E+000	10	...........
	38	0.52	8.80746E-001	5.99160E-003	0.00000E+000	5.27708E-003	3.59960E-001	-1.13515E+000	3.57670E+000	10	...........
	39	0.533333	8.86906E-001	5.99175E-003	0.00000E+000	5.31412E-003	3.59960E-001	-1.14388E+000	3.57670E+000	10	...........
	40	0.546667	8.93078E-001	5.99354E-003	0.00000E+000	5.35270E-003	3.59960E-001	-1.13345E+000	3.57670E+000	10	...........
	41	0.56	8.99172E-001	5.99096E-003	0.00000E+000	5.38691E-003	3.59960E-001	-1.13507E+000	3.57670E+000	10	...........
	42	0.573333	9.05219E-001	5.99298E-003	0.00000E+000	5.42496E-003	3.59960E-001	-1.14329E+000	3.57670E+000	10	...........
	43	0.586667	9.11260E-001	5.99474E-003	0.00000E+000	5.46277E-003	3.59960E-001	-1.13270E+000	3.57670E+000	10	...........
	44	0.6	9.17298E-001	5.99336E-003	0.00000E+000	5.49770E-003	3.59960E-001	-1.13498E+000	3.57670E+000	10	...........
	45	0.613333	9.23352E-001	5.99383E-003	0.00000E+000	5.53442E-003	3.59960E-001	-1.14313E+000	3.57670E+000	10	...........
	46	0.626667	9.29294E-001	5.99058E-003	0.00000E+000	5.56701E-003	3.59960E-001	-1.13257E+000	3.57670E+000	10	...........
	47	0.64	9.35212E-001	5.99684E-003	0.00000E+000	5.60832E-003	3.59960E-001	-1.13507E+000	3.57670E+000	10	...........
	48	0.653333	9.41026E-001	5.98689E-003	0.00000E+000	5.63382E-003	3.59960E-001	-1.14296E+000	3.57670E+000	10	...........
	49	0.666667	9.46903E-001	5.99098E-003	0.00000E+000	5.67287E-003	3.59960E-001	-1.13264E+000	3.57670E+000	10	...........
	50	0.68	9.52715E-001	5.99691E-003	0.00000E+000	5.71335E-003	3.59960E-001	-1.13528E+000	3.57670E+000	10	...........
	51	0.693333	9.58497E-001	5.99086E-003	0.00000E+000	5.74222E-003	3.59960E-001	-1.14280E+000	3.57670E+000	10	...........
	52	0.706667	9.64193E-001	5.99597E-003	0.00000E+000	5.78128E-003	3.59960E-001	-1.13241E+000	3.57670E+000	10	...........
	53	0.72	9.69868E-001	5.99372E-003	0.00000E+000	5.81311E-003	3.59960E-001	-1.13525E+000	3.57670E+000	10	...........
	54	0.733333	9.75554E-001	5.99489E-003	0.00000E+000	5.84833E-003	3.59960E-001	-1.14280E+000	3.57670E+000	10	...........
	55	0.746667	9.81168E-001	5.99522E-003	0.00000E+000	5.88232E-003	3.59960E-001	-1.13243E+000	3.57670E+000	10	...........
	56	0.76	9.86737E-001	5.99767E-003	0.00000E+000	5.91812E-003	3.59960E-001	-1.13550E+000	3.57670E+000	10	...........
	57	0.773333	9.92204E-001	5.99413E-003	0.00000E+000	5.94739E-003	3.59960E-001	-1.14274E+000	3.57670E+000	10	...........
	58	0.786667	9.97666E-001	5.99735E-003	0.00000E+000	5.98335E-003	3.59960E-001	-1.13265E+000	3.57670E+000	10	...........
STARTTIMEOFFSET	QUANT	768.9268	Start Time Offset (s)