File: Data/CV_CRGO300517_1/PWRCCD_CRGO300517_1/CHARGE_DISCHARGE/CHARGE_#839.DTA
EXPLAIN
TAG	PWR800_CHARGE
TITLE	LABEL	PWR Cyclic Charge Discharge (Cell) - Charge Step	Test &Identifier
DATE	LABEL	22-6-2017	Date
TIME	LABEL	16:08:44	Time
NOTES	NOTES	3	&Notes...
	supercap test cell
	0.6mg
	6M KOH
PSTAT	PSTAT	IFC5000-01520	Potentiostat
CAPACITY	QUANT	1.00000E-003	Capacity (A-hr)
CELLTYPE	SELECTOR	1	&Cell Type
WORKINGCONNECTION	SELECTOR	0	&Working Lead
MAXCHARGETIME	VARIABLEANDUNITS	1.00000E+002	s	1.00000E+002	second(s)	Max &Charge Time
CHARGECURRENT	QUANT	6.00000E-003	&Charge Current (A)
VOLTAGEFINISH	TWOPARAM	F	1.00000E-003	3.60000E+003	&Voltage Finish	 I (A) < 	Max Time(s)
SAMPLETIME	QUANT	1.00000E-002	Sa&mple Period (s)
CHARGESTOPAT1	MULTIPARAM	4	1.00000E+000	Charge Stop At &1	Voltage > Limit	V
CHARGESTOPAT2	MULTIPARAM	0	0.00000E+000	Charge Stop At &2	None	N/A
AESBHCSELECTOR	TOGGLE	F	Save Both Half Cells
IRCOMP	TOGGLE	F	IR &Measure
EOC	QUANT	0	Open Circuit (V)
SEQUENCER	TOGGLE	TRUE	Run as Sequence
PSTATMODEL	IQUANT	53	Pstat Model
PSTATSECTION	LABEL	IFC5000-01520	Pstat Section
PSTATSERIALNO	LABEL	01520	Pstat Serial Number
CTRLMODE	IQUANT	0	Control Mode
ELECTROMETER	IQUANT	1	RE=0 or CS=1
IESTAB	IQUANT	0	I/E Stability
CASPEED	IQUANT	4	Control Amp Speed
CONVENTION	IQUANT	1	Current Convention
ICHRANGE	IQUANT	2	Ich Range
ICHRANGEMODE	TOGGLE	T	Ich Auto Range
ICHOFFSETENABLE	TOGGLE	F	Ich Offset Enable
ICHOFFSET	QUANT	0	Ich Offset (V)
ICHFILTER	IQUANT	1	Ich Filter
VCHRANGE	IQUANT	2	Vch Range
VCHRANGEMODE	TOGGLE	T	Vch Auto Range
VCHOFFSETENABLE	TOGGLE	F	Vch Offset Enable
VCHOFFSET	QUANT	0	Vch Offset (V)
VCHFILTER	IQUANT	1	Vch Filter
IERANGELOWERLIMIT	IQUANT	9	I/E Range Lower Limit
IERANGEMODE	TOGGLE	F	I/E AutoRange
IERANGE	IQUANT	10	I/E Range
ACHSELECT	IQUANT	1	Ach Select
ACHRANGE	IQUANT	2	Ach Range
ACHOFFSETENABLE	TOGGLE	F	Ach Offset Enable
ACHOFFSET	QUANT	0	Ach Offset (V)
ACHFILTER	IQUANT	1	Ach Filter
CABLEID	IQUANT	14	Cable ID
DCCALDATE	LABEL	20-10-2016	DC Calibration Date
ACCALDATE	LABEL	12/3/2015	AC Calibration Date
FRAMEWORKVERSION	QUANT	7.01	Framework Version
INSTRUMENTVERSION	LABEL	4.00	Instrument Version
CURVE	TABLE	54
	Pt	T	Vf	Im	Vu	Pwr	Sig	Ach	Temp	IERange	Over
	#	s	V	A	V	W	V	V	deg C	#	bits
	0	0.013333	6.50821E-001	5.99365E-003	0.00000E+000	3.90079E-003	3.59960E-001	-1.16091E+000	3.57650E+000	10	...........
	1	0.026667	6.60035E-001	5.99128E-003	0.00000E+000	3.95445E-003	3.59960E-001	-1.17189E+000	3.57650E+000	10	...........
	2	0.04	6.68549E-001	5.99446E-003	0.00000E+000	4.00759E-003	3.59960E-001	-1.16139E+000	3.57650E+000	10	...........
	3	0.053333	6.76557E-001	5.99424E-003	0.00000E+000	4.05544E-003	3.59960E-001	-1.16068E+000	3.57650E+000	10	...........
	4	0.066667	6.84337E-001	5.99094E-003	0.00000E+000	4.09983E-003	3.59960E-001	-1.17160E+000	3.57650E+000	10	...........
	5	0.08	6.91891E-001	5.98925E-003	0.00000E+000	4.14391E-003	3.59960E-001	-1.16114E+000	3.57650E+000	10	...........
	6	0.093333	6.99280E-001	5.99219E-003	0.00000E+000	4.19022E-003	3.59960E-001	-1.16064E+000	3.57650E+000	10	...........
	7	0.106667	7.06538E-001	5.99402E-003	0.00000E+000	4.23500E-003	3.59960E-001	-1.17125E+000	3.57650E+000	10	...........
	8	0.12	7.13717E-001	5.99318E-003	0.00000E+000	4.27743E-003	3.59960E-001	-1.16091E+000	3.57650E+000	10	...........
	9	0.133333	7.20890E-001	5.99091E-003	0.00000E+000	4.31879E-003	3.59960E-001	-1.16043E+000	3.57650E+000	10	...........
	10	0.146667	7.27947E-001	5.99358E-003	0.00000E+000	4.36301E-003	3.59960E-001	-1.17104E+000	3.57680E+000	10	...........
	11	0.16	7.34908E-001	5.99575E-003	0.00000E+000	4.40633E-003	3.59960E-001	-1.16052E+000	3.57690E+000	10	...........
	12	0.173333	7.41874E-001	5.99535E-003	0.00000E+000	4.44779E-003	3.59960E-001	-1.15991E+000	3.57690E+000	10	...........
	13	0.186667	7.48769E-001	5.99800E-003	0.00000E+000	4.49111E-003	3.59960E-001	-1.17044E+000	3.57690E+000	10	...........
	14	0.2	7.55639E-001	5.99298E-003	0.00000E+000	4.52853E-003	3.59960E-001	-1.16028E+000	3.57690E+000	10	...........
	15	0.213333	7.62479E-001	5.99136E-003	0.00000E+000	4.56828E-003	3.59960E-001	-1.16022E+000	3.57690E+000	10	...........
	16	0.226667	7.69332E-001	5.99576E-003	0.00000E+000	4.61274E-003	3.59960E-001	-1.17069E+000	3.57690E+000	10	...........
	17	0.24	7.76121E-001	5.99737E-003	0.00000E+000	4.65469E-003	3.59960E-001	-1.16002E+000	3.57690E+000	10	...........
	18	0.253333	7.82862E-001	5.99686E-003	0.00000E+000	4.69472E-003	3.59960E-001	-1.16013E+000	3.57690E+000	10	...........
	19	0.266667	7.89596E-001	5.99299E-003	0.00000E+000	4.73204E-003	3.59960E-001	-1.17055E+000	3.57690E+000	10	...........
	20	0.28	7.96329E-001	5.99298E-003	0.00000E+000	4.77238E-003	3.59960E-001	-1.16028E+000	3.57690E+000	10	...........
	21	0.293333	8.02980E-001	5.99340E-003	0.00000E+000	4.81258E-003	3.59960E-001	-1.15999E+000	3.57690E+000	10	...........
	22	0.306667	8.09616E-001	5.99625E-003	0.00000E+000	4.85466E-003	3.59960E-001	-1.17021E+000	3.57690E+000	10	...........
	23	0.32	8.16264E-001	5.99318E-003	0.00000E+000	4.89201E-003	3.59960E-001	-1.15975E+000	3.57690E+000	10	...........
	24	0.333333	8.22883E-001	5.99270E-003	0.00000E+000	4.93129E-003	3.59960E-001	-1.15988E+000	3.57690E+000	10	...........
	25	0.346667	8.29490E-001	6.00055E-003	0.00000E+000	4.97739E-003	3.59960E-001	-1.17037E+000	3.57690E+000	10	...........
	26	0.36	8.36040E-001	5.99439E-003	0.00000E+000	5.01154E-003	3.59960E-001	-1.15947E+000	3.57690E+000	10	...........
	27	0.373333	8.42561E-001	5.99462E-003	0.00000E+000	5.05083E-003	3.59960E-001	-1.15973E+000	3.57690E+000	10	...........
	28	0.386667	8.49096E-001	5.99635E-003	0.00000E+000	5.09147E-003	3.59960E-001	-1.17015E+000	3.57690E+000	10	...........
	29	0.4	8.55584E-001	5.99323E-003	0.00000E+000	5.12771E-003	3.59960E-001	-1.15939E+000	3.57690E+000	10	...........
	30	0.413333	8.62039E-001	5.99699E-003	0.00000E+000	5.16964E-003	3.59960E-001	-1.15979E+000	3.57690E+000	10	...........
	31	0.426667	8.68463E-001	5.98981E-003	0.00000E+000	5.20192E-003	3.59960E-001	-1.16995E+000	3.57690E+000	10	...........
	32	0.44	8.74896E-001	5.99294E-003	0.00000E+000	5.24320E-003	3.59960E-001	-1.15942E+000	3.57690E+000	10	...........
	33	0.453333	8.81295E-001	5.99285E-003	0.00000E+000	5.28147E-003	3.59960E-001	-1.15978E+000	3.57690E+000	10	...........
	34	0.466667	8.87650E-001	5.99110E-003	0.00000E+000	5.31800E-003	3.59960E-001	-1.17004E+000	3.57690E+000	10	...........
	35	0.48	8.93962E-001	5.99378E-003	0.00000E+000	5.35821E-003	3.59960E-001	-1.15919E+000	3.57690E+000	10	...........
	36	0.493333	9.00262E-001	5.99209E-003	0.00000E+000	5.39445E-003	3.59960E-001	-1.15957E+000	3.57690E+000	10	...........
	37	0.506667	9.06479E-001	5.99217E-003	0.00000E+000	5.43178E-003	3.59960E-001	-1.16982E+000	3.57690E+000	10	...........
	38	0.52	9.12732E-001	5.99598E-003	0.00000E+000	5.47272E-003	3.59960E-001	-1.15901E+000	3.57690E+000	10	...........
	39	0.533333	9.18901E-001	5.99147E-003	0.00000E+000	5.50557E-003	3.59960E-001	-1.15991E+000	3.57690E+000	10	...........
	40	0.546667	9.25043E-001	5.99209E-003	0.00000E+000	5.54294E-003	3.59960E-001	-1.16975E+000	3.57690E+000	10	...........
	41	0.56	9.31129E-001	5.99537E-003	0.00000E+000	5.58246E-003	3.59960E-001	-1.15912E+000	3.57690E+000	10	...........
	42	0.573333	9.37172E-001	5.99667E-003	0.00000E+000	5.61991E-003	3.59960E-001	-1.16019E+000	3.57690E+000	10	...........
	43	0.586667	9.43194E-001	5.99441E-003	0.00000E+000	5.65389E-003	3.59960E-001	-1.17013E+000	3.57690E+000	10	...........
	44	0.6	9.49194E-001	5.99737E-003	0.00000E+000	5.69267E-003	3.59960E-001	-1.15941E+000	3.57690E+000	10	...........
	45	0.613333	9.55069E-001	5.99779E-003	0.00000E+000	5.72830E-003	3.59960E-001	-1.16031E+000	3.57690E+000	10	...........
	46	0.626667	9.60909E-001	5.99603E-003	0.00000E+000	5.76165E-003	3.59960E-001	-1.17012E+000	3.57690E+000	10	...........
	47	0.64	9.66700E-001	5.99113E-003	0.00000E+000	5.79163E-003	3.59960E-001	-1.15941E+000	3.57690E+000	10	...........
	48	0.653333	9.72524E-001	5.99034E-003	0.00000E+000	5.82575E-003	3.59960E-001	-1.16058E+000	3.57690E+000	10	...........
	49	0.666667	9.78207E-001	5.98957E-003	0.00000E+000	5.85904E-003	3.59960E-001	-1.17007E+000	3.57690E+000	10	...........
	50	0.68	9.83837E-001	5.99264E-003	0.00000E+000	5.89578E-003	3.59960E-001	-1.15946E+000	3.57690E+000	10	...........
	51	0.693333	9.89470E-001	5.99673E-003	0.00000E+000	5.93359E-003	3.59960E-001	-1.16075E+000	3.57690E+000	10	...........
	52	0.706667	9.95033E-001	5.99584E-003	0.00000E+000	5.96606E-003	3.59960E-001	-1.17028E+000	3.57690E+000	10	...........
	53	0.713333	9.99216E-001	5.99198E-003	0.00000E+000	5.98728E-003	3.59960E-001	-1.15017E+000	3.57690E+000	10	...........
STARTTIMEOFFSET	QUANT	1359.814	Start Time Offset (s)