File: Data/CV_CRGO300517_1/PWRCCD_CRGO300517_1/CHARGE_DISCHARGE/CHARGE_#820.DTA
EXPLAIN
TAG	PWR800_CHARGE
TITLE	LABEL	PWR Cyclic Charge Discharge (Cell) - Charge Step	Test &Identifier
DATE	LABEL	22-6-2017	Date
TIME	LABEL	16:08:01	Time
NOTES	NOTES	3	&Notes...
	supercap test cell
	0.6mg
	6M KOH
PSTAT	PSTAT	IFC5000-01520	Potentiostat
CAPACITY	QUANT	1.00000E-003	Capacity (A-hr)
CELLTYPE	SELECTOR	1	&Cell Type
WORKINGCONNECTION	SELECTOR	0	&Working Lead
MAXCHARGETIME	VARIABLEANDUNITS	1.00000E+002	s	1.00000E+002	second(s)	Max &Charge Time
CHARGECURRENT	QUANT	6.00000E-003	&Charge Current (A)
VOLTAGEFINISH	TWOPARAM	F	1.00000E-003	3.60000E+003	&Voltage Finish	 I (A) < 	Max Time(s)
SAMPLETIME	QUANT	1.00000E-002	Sa&mple Period (s)
CHARGESTOPAT1	MULTIPARAM	4	1.00000E+000	Charge Stop At &1	Voltage > Limit	V
CHARGESTOPAT2	MULTIPARAM	0	0.00000E+000	Charge Stop At &2	None	N/A
AESBHCSELECTOR	TOGGLE	F	Save Both Half Cells
IRCOMP	TOGGLE	F	IR &Measure
EOC	QUANT	0	Open Circuit (V)
SEQUENCER	TOGGLE	TRUE	Run as Sequence
PSTATMODEL	IQUANT	53	Pstat Model
PSTATSECTION	LABEL	IFC5000-01520	Pstat Section
PSTATSERIALNO	LABEL	01520	Pstat Serial Number
CTRLMODE	IQUANT	0	Control Mode
ELECTROMETER	IQUANT	1	RE=0 or CS=1
IESTAB	IQUANT	0	I/E Stability
CASPEED	IQUANT	4	Control Amp Speed
CONVENTION	IQUANT	1	Current Convention
ICHRANGE	IQUANT	2	Ich Range
ICHRANGEMODE	TOGGLE	T	Ich Auto Range
ICHOFFSETENABLE	TOGGLE	F	Ich Offset Enable
ICHOFFSET	QUANT	0	Ich Offset (V)
ICHFILTER	IQUANT	1	Ich Filter
VCHRANGE	IQUANT	2	Vch Range
VCHRANGEMODE	TOGGLE	T	Vch Auto Range
VCHOFFSETENABLE	TOGGLE	F	Vch Offset Enable
VCHOFFSET	QUANT	0	Vch Offset (V)
VCHFILTER	IQUANT	1	Vch Filter
IERANGELOWERLIMIT	IQUANT	9	I/E Range Lower Limit
IERANGEMODE	TOGGLE	F	I/E AutoRange
IERANGE	IQUANT	10	I/E Range
ACHSELECT	IQUANT	1	Ach Select
ACHRANGE	IQUANT	2	Ach Range
ACHOFFSETENABLE	TOGGLE	F	Ach Offset Enable
ACHOFFSET	QUANT	0	Ach Offset (V)
ACHFILTER	IQUANT	1	Ach Filter
CABLEID	IQUANT	14	Cable ID
DCCALDATE	LABEL	20-10-2016	DC Calibration Date
ACCALDATE	LABEL	12/3/2015	AC Calibration Date
FRAMEWORKVERSION	QUANT	7.01	Framework Version
INSTRUMENTVERSION	LABEL	4.00	Instrument Version
CURVE	TABLE	54
	Pt	T	Vf	Im	Vu	Pwr	Sig	Ach	Temp	IERange	Over
	#	s	V	A	V	W	V	V	deg C	#	bits
	0	0.013333	6.49347E-001	5.98769E-003	0.00000E+000	3.88809E-003	3.59960E-001	-1.15992E+000	3.57640E+000	10	...........
	1	0.026667	6.58521E-001	5.99262E-003	0.00000E+000	3.94627E-003	3.59960E-001	-1.16936E+000	3.57640E+000	10	...........
	2	0.04	6.66975E-001	5.99314E-003	0.00000E+000	3.99728E-003	3.59960E-001	-1.16487E+000	3.57640E+000	10	...........
	3	0.053333	6.75043E-001	5.99114E-003	0.00000E+000	4.04428E-003	3.59960E-001	-1.15991E+000	3.57640E+000	10	...........
	4	0.066667	6.82787E-001	5.99397E-003	0.00000E+000	4.09260E-003	3.59960E-001	-1.16957E+000	3.57640E+000	10	...........
	5	0.08	6.90347E-001	6.00004E-003	0.00000E+000	4.14211E-003	3.59960E-001	-1.16492E+000	3.57640E+000	10	...........
	6	0.093333	6.97741E-001	5.98957E-003	0.00000E+000	4.17917E-003	3.59960E-001	-1.15991E+000	3.57640E+000	10	...........
	7	0.106667	7.05027E-001	5.99373E-003	0.00000E+000	4.22574E-003	3.59960E-001	-1.16950E+000	3.57640E+000	10	...........
	8	0.12	7.12220E-001	5.99457E-003	0.00000E+000	4.26946E-003	3.59960E-001	-1.16506E+000	3.57640E+000	10	...........
	9	0.133333	7.19324E-001	5.99410E-003	0.00000E+000	4.31170E-003	3.59960E-001	-1.16012E+000	3.57640E+000	10	...........
	10	0.146667	7.26358E-001	5.99003E-003	0.00000E+000	4.35090E-003	3.59960E-001	-1.16957E+000	3.57640E+000	10	...........
	11	0.16	7.33327E-001	5.99858E-003	0.00000E+000	4.39892E-003	3.59960E-001	-1.16491E+000	3.57640E+000	10	...........
	12	0.173333	7.40224E-001	5.99432E-003	0.00000E+000	4.43714E-003	3.59960E-001	-1.15995E+000	3.57640E+000	10	...........
	13	0.186667	7.47117E-001	5.99918E-003	0.00000E+000	4.48209E-003	3.59960E-001	-1.16960E+000	3.57640E+000	10	...........
	14	0.2	7.54024E-001	5.99588E-003	0.00000E+000	4.52104E-003	3.59960E-001	-1.16508E+000	3.57640E+000	10	...........
	15	0.213333	7.60844E-001	5.99420E-003	0.00000E+000	4.56065E-003	3.59960E-001	-1.15997E+000	3.57640E+000	10	...........
	16	0.226667	7.67658E-001	6.00032E-003	0.00000E+000	4.60619E-003	3.59960E-001	-1.16957E+000	3.57640E+000	10	...........
	17	0.24	7.74457E-001	5.99551E-003	0.00000E+000	4.64327E-003	3.59960E-001	-1.16485E+000	3.57640E+000	10	...........
	18	0.253333	7.81221E-001	5.99350E-003	0.00000E+000	4.68225E-003	3.59960E-001	-1.16010E+000	3.57640E+000	10	...........
	19	0.266667	7.87936E-001	6.00120E-003	0.00000E+000	4.72856E-003	3.59960E-001	-1.16956E+000	3.57640E+000	10	...........
	20	0.28	7.94644E-001	5.99026E-003	0.00000E+000	4.76012E-003	3.59960E-001	-1.16517E+000	3.57640E+000	10	...........
	21	0.293333	8.01284E-001	5.99076E-003	0.00000E+000	4.80030E-003	3.59960E-001	-1.16017E+000	3.57641E+000	10	...........
	22	0.306667	8.07939E-001	5.99506E-003	0.00000E+000	4.84365E-003	3.59960E-001	-1.16978E+000	3.57660E+000	10	...........
	23	0.32	8.14529E-001	5.99671E-003	0.00000E+000	4.88450E-003	3.59960E-001	-1.16449E+000	3.57660E+000	10	...........
	24	0.333333	8.21189E-001	5.99550E-003	0.00000E+000	4.92344E-003	3.59960E-001	-1.15976E+000	3.57660E+000	10	...........
	25	0.346667	8.27736E-001	5.99380E-003	0.00000E+000	4.96129E-003	3.59960E-001	-1.16957E+000	3.57660E+000	10	...........
	26	0.36	8.34336E-001	5.99562E-003	0.00000E+000	5.00236E-003	3.59960E-001	-1.16460E+000	3.57660E+000	10	...........
	27	0.373333	8.40848E-001	5.99799E-003	0.00000E+000	5.04340E-003	3.59960E-001	-1.15974E+000	3.57660E+000	10	...........
	28	0.386667	8.47395E-001	5.99537E-003	0.00000E+000	5.08044E-003	3.59960E-001	-1.16947E+000	3.57660E+000	10	...........
	29	0.4	8.53854E-001	5.99238E-003	0.00000E+000	5.11662E-003	3.59960E-001	-1.16459E+000	3.57660E+000	10	...........
	30	0.413333	8.60320E-001	5.99765E-003	0.00000E+000	5.15990E-003	3.59960E-001	-1.15977E+000	3.57660E+000	10	...........
	31	0.426667	8.66768E-001	5.99211E-003	0.00000E+000	5.19377E-003	3.59960E-001	-1.16971E+000	3.57660E+000	10	...........
	32	0.44	8.73217E-001	5.99079E-003	0.00000E+000	5.23126E-003	3.59960E-001	-1.16448E+000	3.57660E+000	10	...........
	33	0.453333	8.79607E-001	5.99662E-003	0.00000E+000	5.27467E-003	3.59960E-001	-1.15976E+000	3.57660E+000	10	...........
	34	0.466667	8.85954E-001	5.98993E-003	0.00000E+000	5.30681E-003	3.59960E-001	-1.16956E+000	3.57660E+000	10	...........
	35	0.48	8.92227E-001	5.98973E-003	0.00000E+000	5.34420E-003	3.59960E-001	-1.16451E+000	3.57660E+000	10	...........
	36	0.493333	8.98545E-001	5.99055E-003	0.00000E+000	5.38278E-003	3.59960E-001	-1.15981E+000	3.57660E+000	10	...........
	37	0.506667	9.04816E-001	5.99213E-003	0.00000E+000	5.42178E-003	3.59960E-001	-1.16946E+000	3.57660E+000	10	...........
	38	0.52	9.11055E-001	5.99335E-003	0.00000E+000	5.46027E-003	3.59960E-001	-1.16442E+000	3.57660E+000	10	...........
	39	0.533333	9.17210E-001	5.99323E-003	0.00000E+000	5.49705E-003	3.59960E-001	-1.15989E+000	3.57660E+000	10	...........
	40	0.546667	9.23397E-001	5.99190E-003	0.00000E+000	5.53290E-003	3.59960E-001	-1.16984E+000	3.57660E+000	10	...........
	41	0.56	9.29489E-001	5.98972E-003	0.00000E+000	5.56738E-003	3.59960E-001	-1.16474E+000	3.57660E+000	10	...........
	42	0.573333	9.35544E-001	5.99620E-003	0.00000E+000	5.60971E-003	3.59960E-001	-1.15983E+000	3.57660E+000	10	...........
	43	0.586667	9.41549E-001	5.99061E-003	0.00000E+000	5.64045E-003	3.59960E-001	-1.16976E+000	3.57660E+000	10	...........
	44	0.6	9.47521E-001	5.99106E-003	0.00000E+000	5.67665E-003	3.59960E-001	-1.16447E+000	3.57660E+000	10	...........
	45	0.613333	9.53427E-001	5.99568E-003	0.00000E+000	5.71644E-003	3.59960E-001	-1.16009E+000	3.57660E+000	10	...........
	46	0.626667	9.59254E-001	5.99259E-003	0.00000E+000	5.74842E-003	3.59960E-001	-1.16973E+000	3.57660E+000	10	...........
	47	0.64	9.65061E-001	5.99350E-003	0.00000E+000	5.78409E-003	3.59960E-001	-1.16421E+000	3.57660E+000	10	...........
	48	0.653333	9.70852E-001	5.99029E-003	0.00000E+000	5.81568E-003	3.59960E-001	-1.15950E+000	3.57660E+000	10	...........
	49	0.666667	9.76604E-001	5.99435E-003	0.00000E+000	5.85411E-003	3.59960E-001	-1.16940E+000	3.57660E+000	10	...........
	50	0.68	9.82284E-001	5.99486E-003	0.00000E+000	5.88865E-003	3.59960E-001	-1.16434E+000	3.57660E+000	10	...........
	51	0.693333	9.87912E-001	5.99085E-003	0.00000E+000	5.91843E-003	3.59960E-001	-1.15962E+000	3.57660E+000	10	...........
	52	0.706667	9.93484E-001	5.99138E-003	0.00000E+000	5.95234E-003	3.59960E-001	-1.16960E+000	3.57660E+000	10	...........
	53	0.716667	9.98365E-001	5.99899E-003	0.00000E+000	5.98918E-003	3.59960E-001	-1.16074E+000	3.57660E+000	10	...........
STARTTIMEOFFSET	QUANT	1332.737	Start Time Offset (s)