File: Data/CV_CRGO300517_1/PWRCCD_CRGO300517_1/CHARGE_DISCHARGE/CHARGE_#849.DTA
EXPLAIN
TAG	PWR800_CHARGE
TITLE	LABEL	PWR Cyclic Charge Discharge (Cell) - Charge Step	Test &Identifier
DATE	LABEL	22-6-2017	Date
TIME	LABEL	16:09:06	Time
NOTES	NOTES	3	&Notes...
	supercap test cell
	0.6mg
	6M KOH
PSTAT	PSTAT	IFC5000-01520	Potentiostat
CAPACITY	QUANT	1.00000E-003	Capacity (A-hr)
CELLTYPE	SELECTOR	1	&Cell Type
WORKINGCONNECTION	SELECTOR	0	&Working Lead
MAXCHARGETIME	VARIABLEANDUNITS	1.00000E+002	s	1.00000E+002	second(s)	Max &Charge Time
CHARGECURRENT	QUANT	6.00000E-003	&Charge Current (A)
VOLTAGEFINISH	TWOPARAM	F	1.00000E-003	3.60000E+003	&Voltage Finish	 I (A) < 	Max Time(s)
SAMPLETIME	QUANT	1.00000E-002	Sa&mple Period (s)
CHARGESTOPAT1	MULTIPARAM	4	1.00000E+000	Charge Stop At &1	Voltage > Limit	V
CHARGESTOPAT2	MULTIPARAM	0	0.00000E+000	Charge Stop At &2	None	N/A
AESBHCSELECTOR	TOGGLE	F	Save Both Half Cells
IRCOMP	TOGGLE	F	IR &Measure
EOC	QUANT	0	Open Circuit (V)
SEQUENCER	TOGGLE	TRUE	Run as Sequence
PSTATMODEL	IQUANT	53	Pstat Model
PSTATSECTION	LABEL	IFC5000-01520	Pstat Section
PSTATSERIALNO	LABEL	01520	Pstat Serial Number
CTRLMODE	IQUANT	0	Control Mode
ELECTROMETER	IQUANT	1	RE=0 or CS=1
IESTAB	IQUANT	0	I/E Stability
CASPEED	IQUANT	4	Control Amp Speed
CONVENTION	IQUANT	1	Current Convention
ICHRANGE	IQUANT	2	Ich Range
ICHRANGEMODE	TOGGLE	T	Ich Auto Range
ICHOFFSETENABLE	TOGGLE	F	Ich Offset Enable
ICHOFFSET	QUANT	0	Ich Offset (V)
ICHFILTER	IQUANT	1	Ich Filter
VCHRANGE	IQUANT	2	Vch Range
VCHRANGEMODE	TOGGLE	T	Vch Auto Range
VCHOFFSETENABLE	TOGGLE	F	Vch Offset Enable
VCHOFFSET	QUANT	0	Vch Offset (V)
VCHFILTER	IQUANT	1	Vch Filter
IERANGELOWERLIMIT	IQUANT	9	I/E Range Lower Limit
IERANGEMODE	TOGGLE	F	I/E AutoRange
IERANGE	IQUANT	10	I/E Range
ACHSELECT	IQUANT	1	Ach Select
ACHRANGE	IQUANT	2	Ach Range
ACHOFFSETENABLE	TOGGLE	F	Ach Offset Enable
ACHOFFSET	QUANT	0	Ach Offset (V)
ACHFILTER	IQUANT	1	Ach Filter
CABLEID	IQUANT	14	Cable ID
DCCALDATE	LABEL	20-10-2016	DC Calibration Date
ACCALDATE	LABEL	12/3/2015	AC Calibration Date
FRAMEWORKVERSION	QUANT	7.01	Framework Version
INSTRUMENTVERSION	LABEL	4.00	Instrument Version
CURVE	TABLE	54
	Pt	T	Vf	Im	Vu	Pwr	Sig	Ach	Temp	IERange	Over
	#	s	V	A	V	W	V	V	deg C	#	bits
	0	0.013333	6.50862E-001	5.99290E-003	0.00000E+000	3.90056E-003	3.59960E-001	-1.16249E+000	3.57662E+000	10	...........
	1	0.026667	6.60055E-001	5.99379E-003	0.00000E+000	3.95623E-003	3.59960E-001	-1.17275E+000	3.57730E+000	10	...........
	2	0.04	6.68560E-001	5.99469E-003	0.00000E+000	4.00781E-003	3.59960E-001	-1.16642E+000	3.57730E+000	10	...........
	3	0.053333	6.76576E-001	5.98996E-003	0.00000E+000	4.05266E-003	3.59960E-001	-1.16239E+000	3.57730E+000	10	...........
	4	0.066667	6.84342E-001	5.99609E-003	0.00000E+000	4.10338E-003	3.59960E-001	-1.17275E+000	3.57730E+000	10	...........
	5	0.08	6.91905E-001	5.99610E-003	0.00000E+000	4.14873E-003	3.59960E-001	-1.16666E+000	3.57730E+000	10	...........
	6	0.093333	6.99305E-001	5.99916E-003	0.00000E+000	4.19525E-003	3.59960E-001	-1.16207E+000	3.57730E+000	10	...........
	7	0.106667	7.06582E-001	5.99395E-003	0.00000E+000	4.23521E-003	3.59960E-001	-1.17238E+000	3.57730E+000	10	...........
	8	0.12	7.13758E-001	5.99397E-003	0.00000E+000	4.27824E-003	3.59960E-001	-1.16668E+000	3.57730E+000	10	...........
	9	0.133333	7.20931E-001	5.99229E-003	0.00000E+000	4.32003E-003	3.59960E-001	-1.16232E+000	3.57730E+000	10	...........
	10	0.146667	7.28006E-001	5.99551E-003	0.00000E+000	4.36477E-003	3.59960E-001	-1.17232E+000	3.57730E+000	10	...........
	11	0.16	7.34984E-001	5.99062E-003	0.00000E+000	4.40301E-003	3.59960E-001	-1.16645E+000	3.57730E+000	10	...........
	12	0.173333	7.41969E-001	5.99380E-003	0.00000E+000	4.44721E-003	3.59960E-001	-1.16166E+000	3.57730E+000	10	...........
	13	0.186667	7.48887E-001	5.99666E-003	0.00000E+000	4.49082E-003	3.59960E-001	-1.17166E+000	3.57730E+000	10	...........
	14	0.2	7.55779E-001	5.99495E-003	0.00000E+000	4.53085E-003	3.59960E-001	-1.16630E+000	3.57730E+000	10	...........
	15	0.213333	7.62594E-001	5.99941E-003	0.00000E+000	4.57512E-003	3.59960E-001	-1.16187E+000	3.57730E+000	10	...........
	16	0.226667	7.69425E-001	5.99077E-003	0.00000E+000	4.60945E-003	3.59960E-001	-1.17147E+000	3.57730E+000	10	...........
	17	0.24	7.76231E-001	5.99544E-003	0.00000E+000	4.65385E-003	3.59960E-001	-1.16605E+000	3.57730E+000	10	...........
	18	0.253333	7.83011E-001	5.99452E-003	0.00000E+000	4.69378E-003	3.59960E-001	-1.16175E+000	3.57730E+000	10	...........
	19	0.266667	7.89762E-001	5.99941E-003	0.00000E+000	4.73811E-003	3.59960E-001	-1.17148E+000	3.57730E+000	10	...........
	20	0.28	7.96501E-001	5.99496E-003	0.00000E+000	4.77499E-003	3.59960E-001	-1.16630E+000	3.57730E+000	10	...........
	21	0.293333	8.03149E-001	5.99177E-003	0.00000E+000	4.81228E-003	3.59960E-001	-1.16135E+000	3.57730E+000	10	...........
	22	0.306667	8.09822E-001	5.98979E-003	0.00000E+000	4.85066E-003	3.59960E-001	-1.17113E+000	3.57730E+000	10	...........
	23	0.32	8.16455E-001	5.99378E-003	0.00000E+000	4.89365E-003	3.59960E-001	-1.16641E+000	3.57730E+000	10	...........
	24	0.333333	8.23095E-001	5.99383E-003	0.00000E+000	4.93349E-003	3.59960E-001	-1.16150E+000	3.57730E+000	10	...........
	25	0.346667	8.29670E-001	5.99585E-003	0.00000E+000	4.97457E-003	3.59960E-001	-1.17087E+000	3.57730E+000	10	...........
	26	0.36	8.36232E-001	5.99607E-003	0.00000E+000	5.01410E-003	3.59960E-001	-1.16640E+000	3.57730E+000	10	...........
	27	0.373333	8.42773E-001	5.99085E-003	0.00000E+000	5.04893E-003	3.59960E-001	-1.16125E+000	3.57730E+000	10	...........
	28	0.386667	8.49353E-001	5.98924E-003	0.00000E+000	5.08698E-003	3.59960E-001	-1.17089E+000	3.57730E+000	10	...........
	29	0.4	8.55784E-001	5.98624E-003	0.00000E+000	5.12293E-003	3.59960E-001	-1.16675E+000	3.57730E+000	10	...........
	30	0.413333	8.62279E-001	5.99273E-003	0.00000E+000	5.16740E-003	3.59960E-001	-1.16146E+000	3.57730E+000	10	...........
	31	0.426667	8.68747E-001	5.99174E-003	0.00000E+000	5.20530E-003	3.59960E-001	-1.17089E+000	3.57730E+000	10	...........
	32	0.44	8.75194E-001	5.99947E-003	0.00000E+000	5.25070E-003	3.59960E-001	-1.16664E+000	3.57730E+000	10	...........
	33	0.453333	8.81516E-001	5.99419E-003	0.00000E+000	5.28398E-003	3.59960E-001	-1.16137E+000	3.57730E+000	10	...........
	34	0.466667	8.87924E-001	5.99306E-003	0.00000E+000	5.32138E-003	3.59960E-001	-1.17071E+000	3.57730E+000	10	...........
	35	0.48	8.94200E-001	6.00010E-003	0.00000E+000	5.36529E-003	3.59960E-001	-1.16671E+000	3.57730E+000	10	...........
	36	0.493333	9.00500E-001	5.99418E-003	0.00000E+000	5.39776E-003	3.59960E-001	-1.16106E+000	3.57730E+000	10	...........
	37	0.506667	9.06770E-001	5.99313E-003	0.00000E+000	5.43439E-003	3.59960E-001	-1.16995E+000	3.57730E+000	10	...........
	38	0.52	9.12968E-001	5.98796E-003	0.00000E+000	5.46682E-003	3.59960E-001	-1.16625E+000	3.57730E+000	10	...........
	39	0.533333	9.19142E-001	5.99429E-003	0.00000E+000	5.50960E-003	3.59960E-001	-1.16129E+000	3.57730E+000	10	...........
	40	0.546667	9.25319E-001	5.99549E-003	0.00000E+000	5.54774E-003	3.59960E-001	-1.16986E+000	3.57730E+000	10	...........
	41	0.56	9.31379E-001	5.99144E-003	0.00000E+000	5.58030E-003	3.59960E-001	-1.16640E+000	3.57730E+000	10	...........
	42	0.573333	9.37425E-001	5.99983E-003	0.00000E+000	5.62439E-003	3.59960E-001	-1.16105E+000	3.57730E+000	10	...........
	43	0.586667	9.43451E-001	5.99520E-003	0.00000E+000	5.65617E-003	3.59960E-001	-1.16999E+000	3.57730E+000	10	...........
	44	0.6	9.49436E-001	5.99347E-003	0.00000E+000	5.69042E-003	3.59960E-001	-1.16664E+000	3.57730E+000	10	...........
	45	0.613333	9.55327E-001	5.99263E-003	0.00000E+000	5.72493E-003	3.59960E-001	-1.16105E+000	3.57730E+000	10	...........
	46	0.626667	9.61166E-001	5.99621E-003	0.00000E+000	5.76335E-003	3.59960E-001	-1.16965E+000	3.57730E+000	10	...........
	47	0.64	9.66993E-001	5.99615E-003	0.00000E+000	5.79823E-003	3.59960E-001	-1.16673E+000	3.57730E+000	10	...........
	48	0.653333	9.72759E-001	5.99240E-003	0.00000E+000	5.82916E-003	3.59960E-001	-1.16101E+000	3.57730E+000	10	...........
	49	0.666667	9.78476E-001	5.99192E-003	0.00000E+000	5.86295E-003	3.59960E-001	-1.16961E+000	3.57730E+000	10	...........
	50	0.68	9.84104E-001	5.99163E-003	0.00000E+000	5.89639E-003	3.59960E-001	-1.16680E+000	3.57730E+000	10	...........
	51	0.693333	9.89748E-001	5.98972E-003	0.00000E+000	5.92832E-003	3.59960E-001	-1.16088E+000	3.57730E+000	10	...........
	52	0.706667	9.95277E-001	5.99202E-003	0.00000E+000	5.96372E-003	3.59960E-001	-1.16956E+000	3.57730E+000	10	...........
	53	0.713333	9.99386E-001	5.99344E-003	0.00000E+000	5.98976E-003	3.59960E-001	-1.15847E+000	3.57730E+000	10	...........
STARTTIMEOFFSET	QUANT	1374.023	Start Time Offset (s)