File: Data/CV_CRGO300517_1/PWRCCD_CRGO300517_1/CHARGE_DISCHARGE/CHARGE_#321.DTA
EXPLAIN
TAG	PWR800_CHARGE
TITLE	LABEL	PWR Cyclic Charge Discharge (Cell) - Charge Step	Test &Identifier
DATE	LABEL	22-6-2017	Date
TIME	LABEL	15:48:47	Time
NOTES	NOTES	3	&Notes...
	supercap test cell
	0.6mg
	6M KOH
PSTAT	PSTAT	IFC5000-01520	Potentiostat
CAPACITY	QUANT	1.00000E-003	Capacity (A-hr)
CELLTYPE	SELECTOR	1	&Cell Type
WORKINGCONNECTION	SELECTOR	0	&Working Lead
MAXCHARGETIME	VARIABLEANDUNITS	1.00000E+002	s	1.00000E+002	second(s)	Max &Charge Time
CHARGECURRENT	QUANT	6.00000E-003	&Charge Current (A)
VOLTAGEFINISH	TWOPARAM	F	1.00000E-003	3.60000E+003	&Voltage Finish	 I (A) < 	Max Time(s)
SAMPLETIME	QUANT	1.00000E-002	Sa&mple Period (s)
CHARGESTOPAT1	MULTIPARAM	4	1.00000E+000	Charge Stop At &1	Voltage > Limit	V
CHARGESTOPAT2	MULTIPARAM	0	0.00000E+000	Charge Stop At &2	None	N/A
AESBHCSELECTOR	TOGGLE	F	Save Both Half Cells
IRCOMP	TOGGLE	F	IR &Measure
EOC	QUANT	0	Open Circuit (V)
SEQUENCER	TOGGLE	TRUE	Run as Sequence
PSTATMODEL	IQUANT	53	Pstat Model
PSTATSECTION	LABEL	IFC5000-01520	Pstat Section
PSTATSERIALNO	LABEL	01520	Pstat Serial Number
CTRLMODE	IQUANT	0	Control Mode
ELECTROMETER	IQUANT	1	RE=0 or CS=1
IESTAB	IQUANT	0	I/E Stability
CASPEED	IQUANT	4	Control Amp Speed
CONVENTION	IQUANT	1	Current Convention
ICHRANGE	IQUANT	2	Ich Range
ICHRANGEMODE	TOGGLE	T	Ich Auto Range
ICHOFFSETENABLE	TOGGLE	F	Ich Offset Enable
ICHOFFSET	QUANT	0	Ich Offset (V)
ICHFILTER	IQUANT	1	Ich Filter
VCHRANGE	IQUANT	2	Vch Range
VCHRANGEMODE	TOGGLE	T	Vch Auto Range
VCHOFFSETENABLE	TOGGLE	F	Vch Offset Enable
VCHOFFSET	QUANT	0	Vch Offset (V)
VCHFILTER	IQUANT	1	Vch Filter
IERANGELOWERLIMIT	IQUANT	9	I/E Range Lower Limit
IERANGEMODE	TOGGLE	F	I/E AutoRange
IERANGE	IQUANT	10	I/E Range
ACHSELECT	IQUANT	1	Ach Select
ACHRANGE	IQUANT	2	Ach Range
ACHOFFSETENABLE	TOGGLE	F	Ach Offset Enable
ACHOFFSET	QUANT	0	Ach Offset (V)
ACHFILTER	IQUANT	1	Ach Filter
CABLEID	IQUANT	14	Cable ID
DCCALDATE	LABEL	20-10-2016	DC Calibration Date
ACCALDATE	LABEL	12/3/2015	AC Calibration Date
FRAMEWORKVERSION	QUANT	7.01	Framework Version
INSTRUMENTVERSION	LABEL	4.00	Instrument Version
CURVE	TABLE	62
	Pt	T	Vf	Im	Vu	Pwr	Sig	Ach	Temp	IERange	Over
	#	s	V	A	V	W	V	V	deg C	#	bits
	0	0.013333	6.18522E-001	5.99477E-003	0.00000E+000	3.70790E-003	3.59960E-001	-1.11068E+000	3.57720E+000	10	...........
	1	0.026667	6.27146E-001	5.99293E-003	0.00000E+000	3.75844E-003	3.59960E-001	-1.11882E+000	3.57720E+000	10	...........
	2	0.04	6.35059E-001	5.99668E-003	0.00000E+000	3.80825E-003	3.59960E-001	-1.11620E+000	3.57720E+000	10	...........
	3	0.053333	6.42632E-001	5.99465E-003	0.00000E+000	3.85235E-003	3.59960E-001	-1.11065E+000	3.57720E+000	10	...........
	4	0.066667	6.49838E-001	5.99257E-003	0.00000E+000	3.89420E-003	3.59960E-001	-1.11835E+000	3.57720E+000	10	...........
	5	0.08	6.56885E-001	5.99162E-003	0.00000E+000	3.93580E-003	3.59960E-001	-1.11641E+000	3.57720E+000	10	...........
	6	0.093333	6.63782E-001	5.99559E-003	0.00000E+000	3.97976E-003	3.59960E-001	-1.11033E+000	3.57720E+000	10	...........
	7	0.106667	6.70628E-001	5.99155E-003	0.00000E+000	4.01810E-003	3.59960E-001	-1.11814E+000	3.57720E+000	10	...........
	8	0.12	6.77346E-001	5.99496E-003	0.00000E+000	4.06066E-003	3.59960E-001	-1.11644E+000	3.57720E+000	10	...........
	9	0.133333	6.83956E-001	5.98807E-003	0.00000E+000	4.09557E-003	3.59960E-001	-1.11027E+000	3.57720E+000	10	...........
	10	0.146667	6.90616E-001	5.99496E-003	0.00000E+000	4.14021E-003	3.59960E-001	-1.11782E+000	3.57720E+000	10	...........
	11	0.16	6.97175E-001	5.99349E-003	0.00000E+000	4.17851E-003	3.59960E-001	-1.11637E+000	3.57720E+000	10	...........
	12	0.173333	7.03672E-001	5.99144E-003	0.00000E+000	4.21601E-003	3.59960E-001	-1.11013E+000	3.57720E+000	10	...........
	13	0.186667	7.10157E-001	5.99135E-003	0.00000E+000	4.25480E-003	3.59960E-001	-1.11769E+000	3.57720E+000	10	...........
	14	0.2	7.16637E-001	5.99363E-003	0.00000E+000	4.29526E-003	3.59960E-001	-1.11652E+000	3.57720E+000	10	...........
	15	0.213333	7.23089E-001	5.99484E-003	0.00000E+000	4.33481E-003	3.59960E-001	-1.11030E+000	3.57720E+000	10	...........
	16	0.226667	7.29473E-001	5.99400E-003	0.00000E+000	4.37246E-003	3.59960E-001	-1.11753E+000	3.57720E+000	10	...........
	17	0.24	7.35829E-001	5.99298E-003	0.00000E+000	4.40981E-003	3.59960E-001	-1.11686E+000	3.57720E+000	10	...........
	18	0.253333	7.42174E-001	5.99717E-003	0.00000E+000	4.45094E-003	3.59960E-001	-1.11039E+000	3.57720E+000	10	...........
	19	0.266667	7.48510E-001	5.99359E-003	0.00000E+000	4.48626E-003	3.59960E-001	-1.11774E+000	3.57720E+000	10	...........
	20	0.28	7.54866E-001	5.99445E-003	0.00000E+000	4.52500E-003	3.59960E-001	-1.11690E+000	3.57720E+000	10	...........
	21	0.293333	7.61218E-001	5.99010E-003	0.00000E+000	4.55977E-003	3.59960E-001	-1.11020E+000	3.57720E+000	10	...........
	22	0.306667	7.67527E-001	5.99419E-003	0.00000E+000	4.60070E-003	3.59960E-001	-1.11738E+000	3.57720E+000	10	...........
	23	0.32	7.73784E-001	5.99713E-003	0.00000E+000	4.64048E-003	3.59960E-001	-1.11678E+000	3.57720E+000	10	...........
	24	0.333333	7.80086E-001	5.99226E-003	0.00000E+000	4.67448E-003	3.59960E-001	-1.11001E+000	3.57720E+000	10	...........
	25	0.346667	7.86377E-001	5.99516E-003	0.00000E+000	4.71446E-003	3.59960E-001	-1.11697E+000	3.57720E+000	10	...........
	26	0.36	7.92657E-001	5.99288E-003	0.00000E+000	4.75030E-003	3.59960E-001	-1.11653E+000	3.57720E+000	10	...........
	27	0.373333	7.98897E-001	5.99651E-003	0.00000E+000	4.79060E-003	3.59960E-001	-1.10971E+000	3.57720E+000	10	...........
	28	0.386667	8.05139E-001	5.99564E-003	0.00000E+000	4.82732E-003	3.59960E-001	-1.11683E+000	3.57720E+000	10	...........
	29	0.4	8.11360E-001	5.99638E-003	0.00000E+000	4.86522E-003	3.59960E-001	-1.11669E+000	3.57720E+000	10	...........
	30	0.413333	8.17599E-001	5.99831E-003	0.00000E+000	4.90421E-003	3.59960E-001	-1.10954E+000	3.57720E+000	10	...........
	31	0.426667	8.23854E-001	5.99351E-003	0.00000E+000	4.93778E-003	3.59960E-001	-1.11635E+000	3.57720E+000	10	...........
	32	0.44	8.30026E-001	5.99280E-003	0.00000E+000	4.97418E-003	3.59960E-001	-1.11670E+000	3.57720E+000	10	...........
	33	0.453333	8.36196E-001	5.99433E-003	0.00000E+000	5.01244E-003	3.59960E-001	-1.10960E+000	3.57720E+000	10	...........
	34	0.466667	8.42371E-001	5.99340E-003	0.00000E+000	5.04866E-003	3.59960E-001	-1.11650E+000	3.57720E+000	10	...........
	35	0.48	8.48550E-001	6.00073E-003	0.00000E+000	5.09192E-003	3.59960E-001	-1.11669E+000	3.57720E+000	10	...........
	36	0.493333	8.54679E-001	5.99233E-003	0.00000E+000	5.12152E-003	3.59960E-001	-1.10954E+000	3.57720E+000	10	...........
	37	0.506667	8.60820E-001	5.99797E-003	0.00000E+000	5.16318E-003	3.59960E-001	-1.11629E+000	3.57720E+000	10	...........
	38	0.52	8.66947E-001	5.99239E-003	0.00000E+000	5.19509E-003	3.59960E-001	-1.11705E+000	3.57720E+000	10	...........
	39	0.533333	8.73028E-001	5.99456E-003	0.00000E+000	5.23342E-003	3.59960E-001	-1.10977E+000	3.57720E+000	10	...........
	40	0.546667	8.79146E-001	5.99246E-003	0.00000E+000	5.26824E-003	3.59960E-001	-1.11625E+000	3.57720E+000	10	...........
	41	0.56	8.85243E-001	5.99130E-003	0.00000E+000	5.30375E-003	3.59960E-001	-1.11734E+000	3.57720E+000	10	...........
	42	0.573333	8.91251E-001	5.99747E-003	0.00000E+000	5.34526E-003	3.59960E-001	-1.10967E+000	3.57720E+000	10	...........
	43	0.586667	8.97283E-001	5.99435E-003	0.00000E+000	5.37864E-003	3.59960E-001	-1.11613E+000	3.57720E+000	10	...........
	44	0.6	9.03266E-001	5.99858E-003	0.00000E+000	5.41831E-003	3.59960E-001	-1.11732E+000	3.57720E+000	10	...........
	45	0.613333	9.09265E-001	5.98891E-003	0.00000E+000	5.44551E-003	3.59960E-001	-1.10975E+000	3.57720E+000	10	...........
	46	0.626667	9.15198E-001	5.99766E-003	0.00000E+000	5.48904E-003	3.59960E-001	-1.11591E+000	3.57720E+000	10	...........
	47	0.64	9.21155E-001	5.99265E-003	0.00000E+000	5.52016E-003	3.59960E-001	-1.11690E+000	3.57720E+000	10	...........
	48	0.653333	9.27095E-001	5.99816E-003	0.00000E+000	5.56086E-003	3.59960E-001	-1.10959E+000	3.57720E+000	10	...........
	49	0.666667	9.32897E-001	5.99431E-003	0.00000E+000	5.59207E-003	3.59960E-001	-1.11557E+000	3.57720E+000	10	...........
	50	0.68	9.38685E-001	5.99465E-003	0.00000E+000	5.62709E-003	3.59960E-001	-1.11716E+000	3.57720E+000	10	...........
	51	0.693333	9.44500E-001	5.98922E-003	0.00000E+000	5.65682E-003	3.59960E-001	-1.10930E+000	3.57720E+000	10	...........
	52	0.706667	9.50298E-001	5.99239E-003	0.00000E+000	5.69456E-003	3.59960E-001	-1.11541E+000	3.57720E+000	10	...........
	53	0.72	9.56034E-001	5.99585E-003	0.00000E+000	5.73223E-003	3.59960E-001	-1.11715E+000	3.57720E+000	10	...........
	54	0.733333	9.61691E-001	5.99275E-003	0.00000E+000	5.76317E-003	3.59960E-001	-1.10943E+000	3.57720E+000	10	...........
	55	0.746667	9.67356E-001	5.99895E-003	0.00000E+000	5.80312E-003	3.59960E-001	-1.11529E+000	3.57720E+000	10	...........
	56	0.76	9.72994E-001	5.99345E-003	0.00000E+000	5.83159E-003	3.59960E-001	-1.11703E+000	3.57720E+000	10	...........
	57	0.773333	9.78602E-001	5.99552E-003	0.00000E+000	5.86723E-003	3.59960E-001	-1.10917E+000	3.57720E+000	10	...........
	58	0.786667	9.84134E-001	5.99306E-003	0.00000E+000	5.89798E-003	3.59960E-001	-1.11506E+000	3.57720E+000	10	...........
	59	0.8	9.89615E-001	5.99850E-003	0.00000E+000	5.93620E-003	3.59960E-001	-1.11724E+000	3.57720E+000	10	...........
	60	0.813333	9.95068E-001	5.99738E-003	0.00000E+000	5.96780E-003	3.59960E-001	-1.10922E+000	3.57720E+000	10	...........
	61	0.82	9.99156E-001	5.99377E-003	0.00000E+000	5.98871E-003	3.59960E-001	-1.12266E+000	3.57720E+000	10	...........
STARTTIMEOFFSET	QUANT	575.5698	Start Time Offset (s)