File: Data/CV_CRGO300517_1/PWRCCD_CRGO300517_1/CHARGE_DISCHARGE/CHARGE_#718.DTA
EXPLAIN
TAG	PWR800_CHARGE
TITLE	LABEL	PWR Cyclic Charge Discharge (Cell) - Charge Step	Test &Identifier
DATE	LABEL	22-6-2017	Date
TIME	LABEL	16:04:14	Time
NOTES	NOTES	3	&Notes...
	supercap test cell
	0.6mg
	6M KOH
PSTAT	PSTAT	IFC5000-01520	Potentiostat
CAPACITY	QUANT	1.00000E-003	Capacity (A-hr)
CELLTYPE	SELECTOR	1	&Cell Type
WORKINGCONNECTION	SELECTOR	0	&Working Lead
MAXCHARGETIME	VARIABLEANDUNITS	1.00000E+002	s	1.00000E+002	second(s)	Max &Charge Time
CHARGECURRENT	QUANT	6.00000E-003	&Charge Current (A)
VOLTAGEFINISH	TWOPARAM	F	1.00000E-003	3.60000E+003	&Voltage Finish	 I (A) < 	Max Time(s)
SAMPLETIME	QUANT	1.00000E-002	Sa&mple Period (s)
CHARGESTOPAT1	MULTIPARAM	4	1.00000E+000	Charge Stop At &1	Voltage > Limit	V
CHARGESTOPAT2	MULTIPARAM	0	0.00000E+000	Charge Stop At &2	None	N/A
AESBHCSELECTOR	TOGGLE	F	Save Both Half Cells
IRCOMP	TOGGLE	F	IR &Measure
EOC	QUANT	0	Open Circuit (V)
SEQUENCER	TOGGLE	TRUE	Run as Sequence
PSTATMODEL	IQUANT	53	Pstat Model
PSTATSECTION	LABEL	IFC5000-01520	Pstat Section
PSTATSERIALNO	LABEL	01520	Pstat Serial Number
CTRLMODE	IQUANT	0	Control Mode
ELECTROMETER	IQUANT	1	RE=0 or CS=1
IESTAB	IQUANT	0	I/E Stability
CASPEED	IQUANT	4	Control Amp Speed
CONVENTION	IQUANT	1	Current Convention
ICHRANGE	IQUANT	2	Ich Range
ICHRANGEMODE	TOGGLE	T	Ich Auto Range
ICHOFFSETENABLE	TOGGLE	F	Ich Offset Enable
ICHOFFSET	QUANT	0	Ich Offset (V)
ICHFILTER	IQUANT	1	Ich Filter
VCHRANGE	IQUANT	2	Vch Range
VCHRANGEMODE	TOGGLE	T	Vch Auto Range
VCHOFFSETENABLE	TOGGLE	F	Vch Offset Enable
VCHOFFSET	QUANT	0	Vch Offset (V)
VCHFILTER	IQUANT	1	Vch Filter
IERANGELOWERLIMIT	IQUANT	9	I/E Range Lower Limit
IERANGEMODE	TOGGLE	F	I/E AutoRange
IERANGE	IQUANT	10	I/E Range
ACHSELECT	IQUANT	1	Ach Select
ACHRANGE	IQUANT	2	Ach Range
ACHOFFSETENABLE	TOGGLE	F	Ach Offset Enable
ACHOFFSET	QUANT	0	Ach Offset (V)
ACHFILTER	IQUANT	1	Ach Filter
CABLEID	IQUANT	14	Cable ID
DCCALDATE	LABEL	20-10-2016	DC Calibration Date
ACCALDATE	LABEL	12/3/2015	AC Calibration Date
FRAMEWORKVERSION	QUANT	7.01	Framework Version
INSTRUMENTVERSION	LABEL	4.00	Instrument Version
CURVE	TABLE	55
	Pt	T	Vf	Im	Vu	Pwr	Sig	Ach	Temp	IERange	Over
	#	s	V	A	V	W	V	V	deg C	#	bits
	0	0.013333	6.44062E-001	5.99691E-003	0.00000E+000	3.86238E-003	3.59960E-001	-1.15442E+000	3.57716E+000	10	...........
	1	0.026667	6.53149E-001	5.99379E-003	0.00000E+000	3.91484E-003	3.59960E-001	-1.15733E+000	3.57750E+000	10	...........
	2	0.04	6.61545E-001	5.99185E-003	0.00000E+000	3.96388E-003	3.59960E-001	-1.16413E+000	3.57750E+000	10	...........
	3	0.053333	6.69513E-001	5.99105E-003	0.00000E+000	4.01108E-003	3.59960E-001	-1.15383E+000	3.57750E+000	10	...........
	4	0.066667	6.77192E-001	5.99263E-003	0.00000E+000	4.05816E-003	3.59960E-001	-1.15686E+000	3.57750E+000	10	...........
	5	0.08	6.84656E-001	5.99106E-003	0.00000E+000	4.10182E-003	3.59960E-001	-1.16389E+000	3.57750E+000	10	...........
	6	0.093333	6.91985E-001	5.99722E-003	0.00000E+000	4.14999E-003	3.59960E-001	-1.15352E+000	3.57750E+000	10	...........
	7	0.106667	6.99178E-001	5.99501E-003	0.00000E+000	4.19158E-003	3.59960E-001	-1.15675E+000	3.57750E+000	10	...........
	8	0.12	7.06285E-001	5.99547E-003	0.00000E+000	4.23451E-003	3.59960E-001	-1.16367E+000	3.57750E+000	10	...........
	9	0.133333	7.13338E-001	5.99462E-003	0.00000E+000	4.27619E-003	3.59960E-001	-1.15354E+000	3.57750E+000	10	...........
	10	0.146667	7.20339E-001	5.99147E-003	0.00000E+000	4.31589E-003	3.59960E-001	-1.15679E+000	3.57750E+000	10	...........
	11	0.16	7.27267E-001	5.99701E-003	0.00000E+000	4.36143E-003	3.59960E-001	-1.16353E+000	3.57750E+000	10	...........
	12	0.173333	7.34118E-001	5.99126E-003	0.00000E+000	4.39829E-003	3.59960E-001	-1.15320E+000	3.57750E+000	10	...........
	13	0.186667	7.40943E-001	5.99179E-003	0.00000E+000	4.43958E-003	3.59960E-001	-1.15681E+000	3.57750E+000	10	...........
	14	0.2	7.47766E-001	5.99183E-003	0.00000E+000	4.48049E-003	3.59960E-001	-1.16344E+000	3.57750E+000	10	...........
	15	0.213333	7.54552E-001	5.99685E-003	0.00000E+000	4.52493E-003	3.59960E-001	-1.15327E+000	3.57750E+000	10	...........
	16	0.226667	7.61304E-001	5.99134E-003	0.00000E+000	4.56123E-003	3.59960E-001	-1.15679E+000	3.57750E+000	10	...........
	17	0.24	7.68017E-001	5.99353E-003	0.00000E+000	4.60313E-003	3.59960E-001	-1.16318E+000	3.57750E+000	10	...........
	18	0.253333	7.74697E-001	5.99499E-003	0.00000E+000	4.64430E-003	3.59960E-001	-1.15325E+000	3.57750E+000	10	...........
	19	0.266667	7.81378E-001	5.99187E-003	0.00000E+000	4.68192E-003	3.59960E-001	-1.15676E+000	3.57750E+000	10	...........
	20	0.28	7.88004E-001	5.99782E-003	0.00000E+000	4.72631E-003	3.59960E-001	-1.16347E+000	3.57750E+000	10	...........
	21	0.293333	7.94641E-001	5.99604E-003	0.00000E+000	4.76470E-003	3.59960E-001	-1.15327E+000	3.57750E+000	10	...........
	22	0.306667	8.01229E-001	5.98756E-003	0.00000E+000	4.79741E-003	3.59960E-001	-1.15675E+000	3.57750E+000	10	...........
	23	0.32	8.07823E-001	5.99899E-003	0.00000E+000	4.84612E-003	3.59960E-001	-1.16318E+000	3.57750E+000	10	...........
	24	0.333333	8.14370E-001	5.99585E-003	0.00000E+000	4.88284E-003	3.59960E-001	-1.15343E+000	3.57750E+000	10	...........
	25	0.346667	8.20942E-001	5.99534E-003	0.00000E+000	4.92182E-003	3.59960E-001	-1.15694E+000	3.57750E+000	10	...........
	26	0.36	8.27413E-001	5.99020E-003	0.00000E+000	4.95637E-003	3.59960E-001	-1.16299E+000	3.57750E+000	10	...........
	27	0.373333	8.33935E-001	5.99512E-003	0.00000E+000	4.99954E-003	3.59960E-001	-1.15293E+000	3.57750E+000	10	...........
	28	0.386667	8.40392E-001	5.99105E-003	0.00000E+000	5.03483E-003	3.59960E-001	-1.15647E+000	3.57750E+000	10	...........
	29	0.4	8.46897E-001	5.99809E-003	0.00000E+000	5.07977E-003	3.59960E-001	-1.16285E+000	3.57750E+000	10	...........
	30	0.413333	8.53361E-001	5.99483E-003	0.00000E+000	5.11576E-003	3.59960E-001	-1.15278E+000	3.57750E+000	10	...........
	31	0.426667	8.59788E-001	5.99623E-003	0.00000E+000	5.15549E-003	3.59960E-001	-1.15659E+000	3.57750E+000	10	...........
	32	0.44	8.66172E-001	5.99366E-003	0.00000E+000	5.19154E-003	3.59960E-001	-1.16271E+000	3.57750E+000	10	...........
	33	0.453333	8.72566E-001	5.99550E-003	0.00000E+000	5.23147E-003	3.59960E-001	-1.15298E+000	3.57750E+000	10	...........
	34	0.466667	8.78890E-001	5.99491E-003	0.00000E+000	5.26887E-003	3.59960E-001	-1.15675E+000	3.57750E+000	10	...........
	35	0.48	8.85183E-001	5.99235E-003	0.00000E+000	5.30433E-003	3.59960E-001	-1.16265E+000	3.57750E+000	10	...........
	36	0.493333	8.91451E-001	5.98873E-003	0.00000E+000	5.33866E-003	3.59960E-001	-1.15285E+000	3.57750E+000	10	...........
	37	0.506667	8.97716E-001	5.99389E-003	0.00000E+000	5.38081E-003	3.59960E-001	-1.15663E+000	3.57750E+000	10	...........
	38	0.52	9.03965E-001	5.98998E-003	0.00000E+000	5.41473E-003	3.59960E-001	-1.16253E+000	3.57750E+000	10	...........
	39	0.533333	9.10134E-001	5.99489E-003	0.00000E+000	5.45615E-003	3.59960E-001	-1.15294E+000	3.57750E+000	10	...........
	40	0.546667	9.16272E-001	5.99464E-003	0.00000E+000	5.49272E-003	3.59960E-001	-1.15670E+000	3.57750E+000	10	...........
	41	0.56	9.22405E-001	5.99346E-003	0.00000E+000	5.52840E-003	3.59960E-001	-1.16261E+000	3.57750E+000	10	...........
	42	0.573333	9.28481E-001	5.99554E-003	0.00000E+000	5.56675E-003	3.59960E-001	-1.15287E+000	3.57750E+000	10	...........
	43	0.586667	9.34503E-001	5.99435E-003	0.00000E+000	5.60175E-003	3.59960E-001	-1.15693E+000	3.57750E+000	10	...........
	44	0.6	9.40470E-001	5.99262E-003	0.00000E+000	5.63588E-003	3.59960E-001	-1.16280E+000	3.57750E+000	10	...........
	45	0.613333	9.46418E-001	5.99269E-003	0.00000E+000	5.67159E-003	3.59960E-001	-1.15308E+000	3.57750E+000	10	...........
	46	0.626667	9.52381E-001	5.99698E-003	0.00000E+000	5.71141E-003	3.59960E-001	-1.15670E+000	3.57750E+000	10	...........
	47	0.64	9.58237E-001	5.99381E-003	0.00000E+000	5.74349E-003	3.59960E-001	-1.16284E+000	3.57750E+000	10	...........
	48	0.653333	9.64044E-001	5.99657E-003	0.00000E+000	5.78096E-003	3.59960E-001	-1.15307E+000	3.57750E+000	10	...........
	49	0.666667	9.69809E-001	5.99627E-003	0.00000E+000	5.81524E-003	3.59960E-001	-1.15717E+000	3.57750E+000	10	...........
	50	0.68	9.75552E-001	5.99752E-003	0.00000E+000	5.85089E-003	3.59960E-001	-1.16267E+000	3.57750E+000	10	...........
	51	0.693333	9.81260E-001	5.99575E-003	0.00000E+000	5.88339E-003	3.59960E-001	-1.15289E+000	3.57750E+000	10	...........
	52	0.706667	9.86860E-001	5.99041E-003	0.00000E+000	5.91170E-003	3.59960E-001	-1.15648E+000	3.57750E+000	10	...........
	53	0.72	9.92436E-001	5.99589E-003	0.00000E+000	5.95054E-003	3.59960E-001	-1.16243E+000	3.57750E+000	10	...........
	54	0.733333	9.97966E-001	5.99457E-003	0.00000E+000	5.98238E-003	3.59960E-001	-1.15288E+000	3.57750E+000	10	...........
STARTTIMEOFFSET	QUANT	1185.551	Start Time Offset (s)