File: Data/CV_CRGO300517_1/PWRCCD_CRGO300517_1/CHARGE_DISCHARGE/CHARGE_#550.DTA
EXPLAIN
TAG	PWR800_CHARGE
TITLE	LABEL	PWR Cyclic Charge Discharge (Cell) - Charge Step	Test &Identifier
DATE	LABEL	22-6-2017	Date
TIME	LABEL	15:57:51	Time
NOTES	NOTES	3	&Notes...
	supercap test cell
	0.6mg
	6M KOH
PSTAT	PSTAT	IFC5000-01520	Potentiostat
CAPACITY	QUANT	1.00000E-003	Capacity (A-hr)
CELLTYPE	SELECTOR	1	&Cell Type
WORKINGCONNECTION	SELECTOR	0	&Working Lead
MAXCHARGETIME	VARIABLEANDUNITS	1.00000E+002	s	1.00000E+002	second(s)	Max &Charge Time
CHARGECURRENT	QUANT	6.00000E-003	&Charge Current (A)
VOLTAGEFINISH	TWOPARAM	F	1.00000E-003	3.60000E+003	&Voltage Finish	 I (A) < 	Max Time(s)
SAMPLETIME	QUANT	1.00000E-002	Sa&mple Period (s)
CHARGESTOPAT1	MULTIPARAM	4	1.00000E+000	Charge Stop At &1	Voltage > Limit	V
CHARGESTOPAT2	MULTIPARAM	0	0.00000E+000	Charge Stop At &2	None	N/A
AESBHCSELECTOR	TOGGLE	F	Save Both Half Cells
IRCOMP	TOGGLE	F	IR &Measure
EOC	QUANT	0	Open Circuit (V)
SEQUENCER	TOGGLE	TRUE	Run as Sequence
PSTATMODEL	IQUANT	53	Pstat Model
PSTATSECTION	LABEL	IFC5000-01520	Pstat Section
PSTATSERIALNO	LABEL	01520	Pstat Serial Number
CTRLMODE	IQUANT	0	Control Mode
ELECTROMETER	IQUANT	1	RE=0 or CS=1
IESTAB	IQUANT	0	I/E Stability
CASPEED	IQUANT	4	Control Amp Speed
CONVENTION	IQUANT	1	Current Convention
ICHRANGE	IQUANT	2	Ich Range
ICHRANGEMODE	TOGGLE	T	Ich Auto Range
ICHOFFSETENABLE	TOGGLE	F	Ich Offset Enable
ICHOFFSET	QUANT	0	Ich Offset (V)
ICHFILTER	IQUANT	1	Ich Filter
VCHRANGE	IQUANT	2	Vch Range
VCHRANGEMODE	TOGGLE	T	Vch Auto Range
VCHOFFSETENABLE	TOGGLE	F	Vch Offset Enable
VCHOFFSET	QUANT	0	Vch Offset (V)
VCHFILTER	IQUANT	1	Vch Filter
IERANGELOWERLIMIT	IQUANT	9	I/E Range Lower Limit
IERANGEMODE	TOGGLE	F	I/E AutoRange
IERANGE	IQUANT	10	I/E Range
ACHSELECT	IQUANT	1	Ach Select
ACHRANGE	IQUANT	2	Ach Range
ACHOFFSETENABLE	TOGGLE	F	Ach Offset Enable
ACHOFFSET	QUANT	0	Ach Offset (V)
ACHFILTER	IQUANT	1	Ach Filter
CABLEID	IQUANT	14	Cable ID
DCCALDATE	LABEL	20-10-2016	DC Calibration Date
ACCALDATE	LABEL	12/3/2015	AC Calibration Date
FRAMEWORKVERSION	QUANT	7.01	Framework Version
INSTRUMENTVERSION	LABEL	4.00	Instrument Version
CURVE	TABLE	58
	Pt	T	Vf	Im	Vu	Pwr	Sig	Ach	Temp	IERange	Over
	#	s	V	A	V	W	V	V	deg C	#	bits
	0	0.013333	6.35511E-001	5.99631E-003	0.00000E+000	3.81071E-003	3.59960E-001	-1.14197E+000	3.57670E+000	10	...........
	1	0.026667	6.44494E-001	5.99295E-003	0.00000E+000	3.86242E-003	3.59960E-001	-1.14231E+000	3.57670E+000	10	...........
	2	0.04	6.52704E-001	5.99065E-003	0.00000E+000	3.91012E-003	3.59960E-001	-1.13485E+000	3.57670E+000	10	...........
	3	0.053333	6.60506E-001	5.99007E-003	0.00000E+000	3.95648E-003	3.59960E-001	-1.14206E+000	3.57670E+000	10	...........
	4	0.066667	6.68029E-001	5.99247E-003	0.00000E+000	4.00314E-003	3.59960E-001	-1.14238E+000	3.57670E+000	10	...........
	5	0.08	6.75385E-001	5.99107E-003	0.00000E+000	4.04628E-003	3.59960E-001	-1.13507E+000	3.57670E+000	10	...........
	6	0.093333	6.82543E-001	5.99199E-003	0.00000E+000	4.08979E-003	3.59960E-001	-1.14221E+000	3.57670E+000	10	...........
	7	0.106667	6.89637E-001	6.00035E-003	0.00000E+000	4.13806E-003	3.59960E-001	-1.14172E+000	3.57670E+000	10	...........
	8	0.12	6.96593E-001	5.98982E-003	0.00000E+000	4.17247E-003	3.59960E-001	-1.13468E+000	3.57670E+000	10	...........
	9	0.133333	7.03487E-001	5.99296E-003	0.00000E+000	4.21597E-003	3.59960E-001	-1.14222E+000	3.57670E+000	10	...........
	10	0.146667	7.10322E-001	5.99283E-003	0.00000E+000	4.25684E-003	3.59960E-001	-1.14177E+000	3.57670E+000	10	...........
	11	0.16	7.17126E-001	5.99537E-003	0.00000E+000	4.29943E-003	3.59960E-001	-1.13470E+000	3.57670E+000	10	...........
	12	0.173333	7.23867E-001	5.99851E-003	0.00000E+000	4.34212E-003	3.59960E-001	-1.14239E+000	3.57670E+000	10	...........
	13	0.186667	7.30561E-001	5.99178E-003	0.00000E+000	4.37736E-003	3.59960E-001	-1.14149E+000	3.57670E+000	10	...........
	14	0.2	7.37223E-001	5.99242E-003	0.00000E+000	4.41775E-003	3.59960E-001	-1.13473E+000	3.57670E+000	10	...........
	15	0.213333	7.43861E-001	5.99073E-003	0.00000E+000	4.45626E-003	3.59960E-001	-1.14238E+000	3.57670E+000	10	...........
	16	0.226667	7.50515E-001	5.99712E-003	0.00000E+000	4.50093E-003	3.59960E-001	-1.14158E+000	3.57670E+000	10	...........
	17	0.24	7.57143E-001	5.99502E-003	0.00000E+000	4.53909E-003	3.59960E-001	-1.13477E+000	3.57670E+000	10	...........
	18	0.253333	7.63685E-001	5.99322E-003	0.00000E+000	4.57693E-003	3.59960E-001	-1.14246E+000	3.57670E+000	10	...........
	19	0.266667	7.70248E-001	5.99380E-003	0.00000E+000	4.61671E-003	3.59960E-001	-1.14143E+000	3.57670E+000	10	...........
	20	0.28	7.76813E-001	5.99392E-003	0.00000E+000	4.65615E-003	3.59960E-001	-1.13501E+000	3.57670E+000	10	...........
	21	0.293333	7.83315E-001	5.99013E-003	0.00000E+000	4.69216E-003	3.59960E-001	-1.14294E+000	3.57670E+000	10	...........
	22	0.306667	7.89826E-001	5.99108E-003	0.00000E+000	4.73191E-003	3.59960E-001	-1.14140E+000	3.57670E+000	10	...........
	23	0.32	7.96374E-001	5.99507E-003	0.00000E+000	4.77432E-003	3.59960E-001	-1.13508E+000	3.57670E+000	10	...........
	24	0.333333	8.02840E-001	5.99494E-003	0.00000E+000	4.81298E-003	3.59960E-001	-1.14314E+000	3.57670E+000	10	...........
	25	0.346667	8.09225E-001	5.99254E-003	0.00000E+000	4.84931E-003	3.59960E-001	-1.14148E+000	3.57670E+000	10	...........
	26	0.36	8.15671E-001	5.99085E-003	0.00000E+000	4.88656E-003	3.59960E-001	-1.13499E+000	3.57670E+000	10	...........
	27	0.373333	8.22089E-001	5.99468E-003	0.00000E+000	4.92816E-003	3.59960E-001	-1.14323E+000	3.57670E+000	10	...........
	28	0.386667	8.28487E-001	5.99304E-003	0.00000E+000	4.96515E-003	3.59960E-001	-1.14108E+000	3.57670E+000	10	...........
	29	0.4	8.34853E-001	5.99566E-003	0.00000E+000	5.00549E-003	3.59960E-001	-1.13512E+000	3.57670E+000	10	...........
	30	0.413333	8.41213E-001	5.99475E-003	0.00000E+000	5.04286E-003	3.59960E-001	-1.14334E+000	3.57670E+000	10	...........
	31	0.426667	8.47594E-001	5.99809E-003	0.00000E+000	5.08394E-003	3.59960E-001	-1.14071E+000	3.57670E+000	10	...........
	32	0.44	8.53902E-001	5.98984E-003	0.00000E+000	5.11474E-003	3.59960E-001	-1.13455E+000	3.57670E+000	10	...........
	33	0.453333	8.60215E-001	5.99257E-003	0.00000E+000	5.15490E-003	3.59960E-001	-1.14324E+000	3.57670E+000	10	...........
	34	0.466667	8.66513E-001	5.99242E-003	0.00000E+000	5.19252E-003	3.59960E-001	-1.14067E+000	3.57670E+000	10	...........
	35	0.48	8.72818E-001	5.98778E-003	0.00000E+000	5.22625E-003	3.59960E-001	-1.13482E+000	3.57670E+000	10	...........
	36	0.493333	8.79066E-001	5.99309E-003	0.00000E+000	5.26832E-003	3.59960E-001	-1.14322E+000	3.57670E+000	10	...........
	37	0.506667	8.85302E-001	5.99102E-003	0.00000E+000	5.30386E-003	3.59960E-001	-1.14050E+000	3.57670E+000	10	...........
	38	0.52	8.91475E-001	5.98997E-003	0.00000E+000	5.33991E-003	3.59960E-001	-1.13461E+000	3.57670E+000	10	...........
	39	0.533333	8.97601E-001	5.99718E-003	0.00000E+000	5.38308E-003	3.59960E-001	-1.14349E+000	3.57670E+000	10	...........
	40	0.546667	9.03712E-001	5.99701E-003	0.00000E+000	5.41957E-003	3.59960E-001	-1.14045E+000	3.57670E+000	10	...........
	41	0.56	9.09846E-001	5.99409E-003	0.00000E+000	5.45370E-003	3.59960E-001	-1.13469E+000	3.57670E+000	10	...........
	42	0.573333	9.15918E-001	5.99401E-003	0.00000E+000	5.49002E-003	3.59960E-001	-1.14340E+000	3.57670E+000	10	...........
	43	0.586667	9.22055E-001	5.99480E-003	0.00000E+000	5.52754E-003	3.59960E-001	-1.14027E+000	3.57670E+000	10	...........
	44	0.6	9.28074E-001	5.99172E-003	0.00000E+000	5.56075E-003	3.59960E-001	-1.13467E+000	3.57670E+000	10	...........
	45	0.613333	9.34071E-001	5.99540E-003	0.00000E+000	5.60013E-003	3.59960E-001	-1.14367E+000	3.57670E+000	10	...........
	46	0.626667	9.39976E-001	5.99268E-003	0.00000E+000	5.63297E-003	3.59960E-001	-1.14014E+000	3.57670E+000	10	...........
	47	0.64	9.45894E-001	5.99100E-003	0.00000E+000	5.66685E-003	3.59960E-001	-1.13476E+000	3.57670E+000	10	...........
	48	0.653333	9.51757E-001	5.99407E-003	0.00000E+000	5.70490E-003	3.59960E-001	-1.14392E+000	3.57670E+000	10	...........
	49	0.666667	9.57550E-001	5.99293E-003	0.00000E+000	5.73852E-003	3.59960E-001	-1.14013E+000	3.57670E+000	10	...........
	50	0.68	9.63315E-001	5.99551E-003	0.00000E+000	5.77557E-003	3.59960E-001	-1.13510E+000	3.57670E+000	10	...........
	51	0.693333	9.69014E-001	5.99442E-003	0.00000E+000	5.80867E-003	3.59960E-001	-1.14422E+000	3.57670E+000	10	...........
	52	0.706667	9.74763E-001	5.99410E-003	0.00000E+000	5.84283E-003	3.59960E-001	-1.13966E+000	3.57670E+000	10	...........
	53	0.72	9.80364E-001	5.99475E-003	0.00000E+000	5.87704E-003	3.59960E-001	-1.13472E+000	3.57670E+000	10	...........
	54	0.733333	9.85973E-001	5.99409E-003	0.00000E+000	5.91001E-003	3.59960E-001	-1.14415E+000	3.57670E+000	10	...........
	55	0.746667	9.91495E-001	5.99406E-003	0.00000E+000	5.94308E-003	3.59960E-001	-1.13946E+000	3.57670E+000	10	...........
	56	0.76	9.97020E-001	5.99986E-003	0.00000E+000	5.98199E-003	3.59960E-001	-1.13434E+000	3.57670E+000	10	...........
	57	0.761667	1.00009E+000	5.99838E-003	0.00000E+000	5.99895E-003	3.59960E-001	-1.14823E+000	3.57670E+000	10	...........
STARTTIMEOFFSET	QUANT	935.5084	Start Time Offset (s)