File: Data/CV_CRGO300517_1/PWRCCD_CRGO300517_1/CHARGE_DISCHARGE/CHARGE_#22.DTA
EXPLAIN
TAG	PWR800_CHARGE
TITLE	LABEL	PWR Cyclic Charge Discharge (Cell) - Charge Step	Test &Identifier
DATE	LABEL	22-6-2017	Date
TIME	LABEL	15:35:57	Time
NOTES	NOTES	3	&Notes...
	supercap test cell
	0.6mg
	6M KOH
PSTAT	PSTAT	IFC5000-01520	Potentiostat
CAPACITY	QUANT	1.00000E-003	Capacity (A-hr)
CELLTYPE	SELECTOR	1	&Cell Type
WORKINGCONNECTION	SELECTOR	0	&Working Lead
MAXCHARGETIME	VARIABLEANDUNITS	1.00000E+002	s	1.00000E+002	second(s)	Max &Charge Time
CHARGECURRENT	QUANT	6.00000E-003	&Charge Current (A)
VOLTAGEFINISH	TWOPARAM	F	1.00000E-003	3.60000E+003	&Voltage Finish	 I (A) < 	Max Time(s)
SAMPLETIME	QUANT	1.00000E-002	Sa&mple Period (s)
CHARGESTOPAT1	MULTIPARAM	4	1.00000E+000	Charge Stop At &1	Voltage > Limit	V
CHARGESTOPAT2	MULTIPARAM	0	0.00000E+000	Charge Stop At &2	None	N/A
AESBHCSELECTOR	TOGGLE	F	Save Both Half Cells
IRCOMP	TOGGLE	F	IR &Measure
EOC	QUANT	0	Open Circuit (V)
SEQUENCER	TOGGLE	TRUE	Run as Sequence
PSTATMODEL	IQUANT	53	Pstat Model
PSTATSECTION	LABEL	IFC5000-01520	Pstat Section
PSTATSERIALNO	LABEL	01520	Pstat Serial Number
CTRLMODE	IQUANT	0	Control Mode
ELECTROMETER	IQUANT	1	RE=0 or CS=1
IESTAB	IQUANT	0	I/E Stability
CASPEED	IQUANT	4	Control Amp Speed
CONVENTION	IQUANT	1	Current Convention
ICHRANGE	IQUANT	2	Ich Range
ICHRANGEMODE	TOGGLE	T	Ich Auto Range
ICHOFFSETENABLE	TOGGLE	F	Ich Offset Enable
ICHOFFSET	QUANT	0	Ich Offset (V)
ICHFILTER	IQUANT	1	Ich Filter
VCHRANGE	IQUANT	2	Vch Range
VCHRANGEMODE	TOGGLE	T	Vch Auto Range
VCHOFFSETENABLE	TOGGLE	F	Vch Offset Enable
VCHOFFSET	QUANT	0	Vch Offset (V)
VCHFILTER	IQUANT	1	Vch Filter
IERANGELOWERLIMIT	IQUANT	9	I/E Range Lower Limit
IERANGEMODE	TOGGLE	F	I/E AutoRange
IERANGE	IQUANT	10	I/E Range
ACHSELECT	IQUANT	1	Ach Select
ACHRANGE	IQUANT	2	Ach Range
ACHOFFSETENABLE	TOGGLE	F	Ach Offset Enable
ACHOFFSET	QUANT	0	Ach Offset (V)
ACHFILTER	IQUANT	1	Ach Filter
CABLEID	IQUANT	14	Cable ID
DCCALDATE	LABEL	20-10-2016	DC Calibration Date
ACCALDATE	LABEL	12/3/2015	AC Calibration Date
FRAMEWORKVERSION	QUANT	7.01	Framework Version
INSTRUMENTVERSION	LABEL	4.00	Instrument Version
CURVE	TABLE	78
	Pt	T	Vf	Im	Vu	Pwr	Sig	Ach	Temp	IERange	Over
	#	s	V	A	V	W	V	V	deg C	#	bits
	0	0.013333	5.62108E-001	5.99474E-003	0.00000E+000	3.36969E-003	3.59960E-001	-1.02213E+000	3.57870E+000	10	...........
	1	0.026667	5.70100E-001	5.99303E-003	0.00000E+000	3.41663E-003	3.59960E-001	-1.01697E+000	3.57870E+000	10	...........
	2	0.04	5.77385E-001	5.99441E-003	0.00000E+000	3.46108E-003	3.59960E-001	-1.02819E+000	3.57870E+000	10	...........
	3	0.053333	5.84199E-001	5.98856E-003	0.00000E+000	3.49851E-003	3.59960E-001	-1.02172E+000	3.57870E+000	10	...........
	4	0.066667	5.90912E-001	5.99275E-003	0.00000E+000	3.54118E-003	3.59960E-001	-1.01655E+000	3.57870E+000	10	...........
	5	0.08	5.97355E-001	5.99175E-003	0.00000E+000	3.57920E-003	3.59960E-001	-1.02755E+000	3.57870E+000	10	...........
	6	0.093333	6.03634E-001	5.99406E-003	0.00000E+000	3.61822E-003	3.59960E-001	-1.02148E+000	3.57870E+000	10	...........
	7	0.106667	6.09798E-001	5.99507E-003	0.00000E+000	3.65579E-003	3.59960E-001	-1.01665E+000	3.57870E+000	10	...........
	8	0.12	6.15988E-001	5.99479E-003	0.00000E+000	3.69272E-003	3.59960E-001	-1.02767E+000	3.57870E+000	10	...........
	9	0.133333	6.22044E-001	5.99504E-003	0.00000E+000	3.72918E-003	3.59960E-001	-1.02135E+000	3.57870E+000	10	...........
	10	0.146667	6.28023E-001	5.99347E-003	0.00000E+000	3.76403E-003	3.59960E-001	-1.01637E+000	3.57870E+000	10	...........
	11	0.16	6.33889E-001	5.99513E-003	0.00000E+000	3.80024E-003	3.59960E-001	-1.02756E+000	3.57870E+000	10	...........
	12	0.173333	6.39756E-001	5.99610E-003	0.00000E+000	3.83604E-003	3.59960E-001	-1.02137E+000	3.57870E+000	10	...........
	13	0.186667	6.45625E-001	5.99575E-003	0.00000E+000	3.87101E-003	3.59960E-001	-1.01646E+000	3.57870E+000	10	...........
	14	0.2	6.51434E-001	5.99416E-003	0.00000E+000	3.90480E-003	3.59960E-001	-1.02747E+000	3.57870E+000	10	...........
	15	0.213333	6.57181E-001	5.99627E-003	0.00000E+000	3.94064E-003	3.59960E-001	-1.02102E+000	3.57870E+000	10	...........
	16	0.226667	6.62922E-001	5.99820E-003	0.00000E+000	3.97634E-003	3.59960E-001	-1.01626E+000	3.57870E+000	10	...........
	17	0.24	6.68638E-001	5.99314E-003	0.00000E+000	4.00724E-003	3.59960E-001	-1.02765E+000	3.57870E+000	10	...........
	18	0.253333	6.74330E-001	5.99247E-003	0.00000E+000	4.04090E-003	3.59960E-001	-1.02112E+000	3.57870E+000	10	...........
	19	0.266667	6.80019E-001	5.99100E-003	0.00000E+000	4.07399E-003	3.59960E-001	-1.01639E+000	3.57870E+000	10	...........
	20	0.28	6.85658E-001	5.99141E-003	0.00000E+000	4.10806E-003	3.59960E-001	-1.02744E+000	3.57870E+000	10	...........
	21	0.293333	6.91339E-001	5.99390E-003	0.00000E+000	4.14381E-003	3.59960E-001	-1.02112E+000	3.57870E+000	10	...........
	22	0.306667	6.96939E-001	5.99100E-003	0.00000E+000	4.17536E-003	3.59960E-001	-1.01653E+000	3.57870E+000	10	...........
	23	0.32	7.02610E-001	5.99696E-003	0.00000E+000	4.21353E-003	3.59960E-001	-1.02784E+000	3.57870E+000	10	...........
	24	0.333333	7.08185E-001	5.99265E-003	0.00000E+000	4.24391E-003	3.59960E-001	-1.02131E+000	3.57870E+000	10	...........
	25	0.346667	7.13813E-001	5.99448E-003	0.00000E+000	4.27894E-003	3.59960E-001	-1.01648E+000	3.57870E+000	10	...........
	26	0.36	7.19482E-001	6.00052E-003	0.00000E+000	4.31726E-003	3.59960E-001	-1.02783E+000	3.57870E+000	10	...........
	27	0.373333	7.25034E-001	5.99297E-003	0.00000E+000	4.34510E-003	3.59960E-001	-1.02115E+000	3.57870E+000	10	...........
	28	0.386667	7.30626E-001	5.99174E-003	0.00000E+000	4.37772E-003	3.59960E-001	-1.01612E+000	3.57870E+000	10	...........
	29	0.4	7.36231E-001	5.99420E-003	0.00000E+000	4.41312E-003	3.59960E-001	-1.02732E+000	3.57870E+000	10	...........
	30	0.413333	7.41867E-001	5.99396E-003	0.00000E+000	4.44672E-003	3.59960E-001	-1.02081E+000	3.57870E+000	10	...........
	31	0.426667	7.47468E-001	5.99732E-003	0.00000E+000	4.48280E-003	3.59960E-001	-1.01592E+000	3.57870E+000	10	...........
	32	0.44	7.53011E-001	5.99115E-003	0.00000E+000	4.51141E-003	3.59960E-001	-1.02745E+000	3.57870E+000	10	...........
	33	0.453333	7.58618E-001	5.99334E-003	0.00000E+000	4.54666E-003	3.59960E-001	-1.02088E+000	3.57870E+000	10	...........
	34	0.466667	7.64226E-001	5.99457E-003	0.00000E+000	4.58121E-003	3.59960E-001	-1.01596E+000	3.57870E+000	10	...........
	35	0.48	7.69785E-001	5.99299E-003	0.00000E+000	4.61331E-003	3.59960E-001	-1.02721E+000	3.57870E+000	10	...........
	36	0.493333	7.75372E-001	5.99476E-003	0.00000E+000	4.64817E-003	3.59960E-001	-1.02049E+000	3.57870E+000	10	...........
	37	0.506667	7.80992E-001	5.99544E-003	0.00000E+000	4.68239E-003	3.59960E-001	-1.01609E+000	3.57788E+000	10	...........
	38	0.52	7.86556E-001	5.99425E-003	0.00000E+000	4.71482E-003	3.59960E-001	-1.02750E+000	3.57760E+000	10	...........
	39	0.533333	7.92142E-001	5.99279E-003	0.00000E+000	4.74714E-003	3.59960E-001	-1.02044E+000	3.57760E+000	10	...........
	40	0.546667	7.97729E-001	5.99555E-003	0.00000E+000	4.78283E-003	3.59960E-001	-1.01577E+000	3.57760E+000	10	...........
	41	0.56	8.03320E-001	5.99676E-003	0.00000E+000	4.81732E-003	3.59960E-001	-1.02718E+000	3.57760E+000	10	...........
	42	0.573333	8.08896E-001	5.99515E-003	0.00000E+000	4.84945E-003	3.59960E-001	-1.02026E+000	3.57760E+000	10	...........
	43	0.586667	8.14505E-001	5.99393E-003	0.00000E+000	4.88209E-003	3.59960E-001	-1.01599E+000	3.57760E+000	10	...........
	44	0.6	8.20040E-001	5.99314E-003	0.00000E+000	4.91462E-003	3.59960E-001	-1.02739E+000	3.57760E+000	10	...........
	45	0.613333	8.25637E-001	5.99207E-003	0.00000E+000	4.94727E-003	3.59960E-001	-1.02019E+000	3.57760E+000	10	...........
	46	0.626667	8.31184E-001	5.99538E-003	0.00000E+000	4.98326E-003	3.59960E-001	-1.01595E+000	3.57760E+000	10	...........
	47	0.64	8.36784E-001	5.99451E-003	0.00000E+000	5.01611E-003	3.59960E-001	-1.02761E+000	3.57760E+000	10	...........
	48	0.653333	8.42372E-001	5.99390E-003	0.00000E+000	5.04909E-003	3.59960E-001	-1.02014E+000	3.57760E+000	10	...........
	49	0.666667	8.47955E-001	5.99304E-003	0.00000E+000	5.08183E-003	3.59960E-001	-1.01592E+000	3.57760E+000	10	...........
	50	0.68	8.53577E-001	5.99150E-003	0.00000E+000	5.11421E-003	3.59960E-001	-1.02748E+000	3.57760E+000	10	...........
	51	0.693333	8.59173E-001	5.99430E-003	0.00000E+000	5.15014E-003	3.59960E-001	-1.01976E+000	3.57760E+000	10	...........
	52	0.706667	8.64751E-001	5.99572E-003	0.00000E+000	5.18481E-003	3.59960E-001	-1.01549E+000	3.57760E+000	10	...........
	53	0.72	8.70330E-001	5.99441E-003	0.00000E+000	5.21711E-003	3.59960E-001	-1.02721E+000	3.57760E+000	10	...........
	54	0.733333	8.75909E-001	5.99498E-003	0.00000E+000	5.25106E-003	3.59960E-001	-1.01951E+000	3.57760E+000	10	...........
	55	0.746667	8.81455E-001	5.99260E-003	0.00000E+000	5.28221E-003	3.59960E-001	-1.01538E+000	3.57760E+000	10	...........
	56	0.76	8.86987E-001	5.99144E-003	0.00000E+000	5.31433E-003	3.59960E-001	-1.02691E+000	3.57760E+000	10	...........
	57	0.773333	8.92542E-001	5.99511E-003	0.00000E+000	5.35088E-003	3.59960E-001	-1.01965E+000	3.57760E+000	10	...........
	58	0.786667	8.98099E-001	5.99345E-003	0.00000E+000	5.38271E-003	3.59960E-001	-1.01547E+000	3.57760E+000	10	...........
	59	0.8	9.03656E-001	5.99480E-003	0.00000E+000	5.41724E-003	3.59960E-001	-1.02713E+000	3.57760E+000	10	...........
	60	0.813333	9.09203E-001	5.99801E-003	0.00000E+000	5.45340E-003	3.59960E-001	-1.01946E+000	3.57760E+000	10	...........
	61	0.826667	9.14691E-001	5.99196E-003	0.00000E+000	5.48079E-003	3.59960E-001	-1.01532E+000	3.57760E+000	10	...........
	62	0.84	9.20241E-001	5.99309E-003	0.00000E+000	5.51509E-003	3.59960E-001	-1.02711E+000	3.57760E+000	10	...........
	63	0.853333	9.25747E-001	5.99733E-003	0.00000E+000	5.55200E-003	3.59960E-001	-1.01949E+000	3.57760E+000	10	...........
	64	0.866667	9.31210E-001	5.99683E-003	0.00000E+000	5.58430E-003	3.59960E-001	-1.01544E+000	3.57760E+000	10	...........
	65	0.88	9.36679E-001	5.99446E-003	0.00000E+000	5.61489E-003	3.59960E-001	-1.02711E+000	3.57760E+000	10	...........
	66	0.893333	9.42126E-001	5.99282E-003	0.00000E+000	5.64600E-003	3.59960E-001	-1.01934E+000	3.57760E+000	10	...........
	67	0.906667	9.47575E-001	5.99381E-003	0.00000E+000	5.67958E-003	3.59960E-001	-1.01565E+000	3.57760E+000	10	...........
	68	0.92	9.53008E-001	5.99546E-003	0.00000E+000	5.71372E-003	3.59960E-001	-1.02754E+000	3.57760E+000	10	...........
	69	0.933333	9.58382E-001	5.99064E-003	0.00000E+000	5.74132E-003	3.59960E-001	-1.01957E+000	3.57760E+000	10	...........
	70	0.946667	9.63754E-001	5.99494E-003	0.00000E+000	5.77765E-003	3.59960E-001	-1.01543E+000	3.57760E+000	10	...........
	71	0.96	9.69086E-001	5.99590E-003	0.00000E+000	5.81054E-003	3.59960E-001	-1.02760E+000	3.57760E+000	10	...........
	72	0.97333	9.74442E-001	5.99271E-003	0.00000E+000	5.83955E-003	3.59960E-001	-1.01968E+000	3.57760E+000	10	...........
	73	0.98667	9.79740E-001	5.99260E-003	0.00000E+000	5.87119E-003	3.59960E-001	-1.01580E+000	3.57760E+000	10	...........
	74	1	9.85030E-001	5.99475E-003	0.00000E+000	5.90501E-003	3.59960E-001	-1.02762E+000	3.57760E+000	10	...........
	75	1.01333	9.90299E-001	5.99446E-003	0.00000E+000	5.93631E-003	3.59960E-001	-1.01917E+000	3.57760E+000	10	...........
	76	1.02667	9.95480E-001	5.99419E-003	0.00000E+000	5.96709E-003	3.59960E-001	-1.01518E+000	3.57760E+000	10	...........
	77	1.03333	9.99406E-001	5.99594E-003	0.00000E+000	5.99238E-003	3.59960E-001	-1.03095E+000	3.57760E+000	10	...........
STARTTIMEOFFSET	QUANT	44.62	Start Time Offset (s)