File: Data/CV_CRGO300517_1/PWRCCD_CRGO300517_1/CHARGE_DISCHARGE/CHARGE_#645.DTA
EXPLAIN
TAG	PWR800_CHARGE
TITLE	LABEL	PWR Cyclic Charge Discharge (Cell) - Charge Step	Test &Identifier
DATE	LABEL	22-6-2017	Date
TIME	LABEL	16:01:28	Time
NOTES	NOTES	3	&Notes...
	supercap test cell
	0.6mg
	6M KOH
PSTAT	PSTAT	IFC5000-01520	Potentiostat
CAPACITY	QUANT	1.00000E-003	Capacity (A-hr)
CELLTYPE	SELECTOR	1	&Cell Type
WORKINGCONNECTION	SELECTOR	0	&Working Lead
MAXCHARGETIME	VARIABLEANDUNITS	1.00000E+002	s	1.00000E+002	second(s)	Max &Charge Time
CHARGECURRENT	QUANT	6.00000E-003	&Charge Current (A)
VOLTAGEFINISH	TWOPARAM	F	1.00000E-003	3.60000E+003	&Voltage Finish	 I (A) < 	Max Time(s)
SAMPLETIME	QUANT	1.00000E-002	Sa&mple Period (s)
CHARGESTOPAT1	MULTIPARAM	4	1.00000E+000	Charge Stop At &1	Voltage > Limit	V
CHARGESTOPAT2	MULTIPARAM	0	0.00000E+000	Charge Stop At &2	None	N/A
AESBHCSELECTOR	TOGGLE	F	Save Both Half Cells
IRCOMP	TOGGLE	F	IR &Measure
EOC	QUANT	0	Open Circuit (V)
SEQUENCER	TOGGLE	TRUE	Run as Sequence
PSTATMODEL	IQUANT	53	Pstat Model
PSTATSECTION	LABEL	IFC5000-01520	Pstat Section
PSTATSERIALNO	LABEL	01520	Pstat Serial Number
CTRLMODE	IQUANT	0	Control Mode
ELECTROMETER	IQUANT	1	RE=0 or CS=1
IESTAB	IQUANT	0	I/E Stability
CASPEED	IQUANT	4	Control Amp Speed
CONVENTION	IQUANT	1	Current Convention
ICHRANGE	IQUANT	2	Ich Range
ICHRANGEMODE	TOGGLE	T	Ich Auto Range
ICHOFFSETENABLE	TOGGLE	F	Ich Offset Enable
ICHOFFSET	QUANT	0	Ich Offset (V)
ICHFILTER	IQUANT	1	Ich Filter
VCHRANGE	IQUANT	2	Vch Range
VCHRANGEMODE	TOGGLE	T	Vch Auto Range
VCHOFFSETENABLE	TOGGLE	F	Vch Offset Enable
VCHOFFSET	QUANT	0	Vch Offset (V)
VCHFILTER	IQUANT	1	Vch Filter
IERANGELOWERLIMIT	IQUANT	9	I/E Range Lower Limit
IERANGEMODE	TOGGLE	F	I/E AutoRange
IERANGE	IQUANT	10	I/E Range
ACHSELECT	IQUANT	1	Ach Select
ACHRANGE	IQUANT	2	Ach Range
ACHOFFSETENABLE	TOGGLE	F	Ach Offset Enable
ACHOFFSET	QUANT	0	Ach Offset (V)
ACHFILTER	IQUANT	1	Ach Filter
CABLEID	IQUANT	14	Cable ID
DCCALDATE	LABEL	20-10-2016	DC Calibration Date
ACCALDATE	LABEL	12/3/2015	AC Calibration Date
FRAMEWORKVERSION	QUANT	7.01	Framework Version
INSTRUMENTVERSION	LABEL	4.00	Instrument Version
CURVE	TABLE	57
	Pt	T	Vf	Im	Vu	Pwr	Sig	Ach	Temp	IERange	Over
	#	s	V	A	V	W	V	V	deg C	#	bits
	0	0.013333	6.39608E-001	5.99605E-003	0.00000E+000	3.83513E-003	3.59960E-001	-1.15057E+000	3.57730E+000	10	...........
	1	0.026667	6.48637E-001	5.98996E-003	0.00000E+000	3.88531E-003	3.59960E-001	-1.15152E+000	3.57730E+000	10	...........
	2	0.04	6.56983E-001	5.99329E-003	0.00000E+000	3.93749E-003	3.59960E-001	-1.16095E+000	3.57730E+000	10	...........
	3	0.053333	6.64876E-001	5.99495E-003	0.00000E+000	3.98590E-003	3.59960E-001	-1.15022E+000	3.57730E+000	10	...........
	4	0.066667	6.72522E-001	5.99015E-003	0.00000E+000	4.02851E-003	3.59960E-001	-1.15171E+000	3.57730E+000	10	...........
	5	0.08	6.79909E-001	5.99465E-003	0.00000E+000	4.07582E-003	3.59960E-001	-1.16122E+000	3.57730E+000	10	...........
	6	0.093333	6.87155E-001	5.99288E-003	0.00000E+000	4.11804E-003	3.59960E-001	-1.15039E+000	3.57730E+000	10	...........
	7	0.106667	6.94292E-001	5.99240E-003	0.00000E+000	4.16048E-003	3.59960E-001	-1.15164E+000	3.57730E+000	10	...........
	8	0.12	7.01311E-001	5.99065E-003	0.00000E+000	4.20131E-003	3.59960E-001	-1.16094E+000	3.57730E+000	10	...........
	9	0.133333	7.08277E-001	5.99240E-003	0.00000E+000	4.24428E-003	3.59960E-001	-1.15042E+000	3.57730E+000	10	...........
	10	0.146667	7.15199E-001	5.99334E-003	0.00000E+000	4.28643E-003	3.59960E-001	-1.15178E+000	3.57730E+000	10	...........
	11	0.16	7.22113E-001	5.99359E-003	0.00000E+000	4.32805E-003	3.59960E-001	-1.16073E+000	3.57730E+000	10	...........
	12	0.173333	7.28938E-001	5.99005E-003	0.00000E+000	4.36637E-003	3.59960E-001	-1.14969E+000	3.57730E+000	10	...........
	13	0.186667	7.35673E-001	5.99026E-003	0.00000E+000	4.40687E-003	3.59960E-001	-1.15107E+000	3.57730E+000	10	...........
	14	0.2	7.42453E-001	5.99330E-003	0.00000E+000	4.44974E-003	3.59960E-001	-1.16055E+000	3.57730E+000	10	...........
	15	0.213333	7.49139E-001	5.99146E-003	0.00000E+000	4.48843E-003	3.59960E-001	-1.14994E+000	3.57730E+000	10	...........
	16	0.226667	7.55840E-001	5.98866E-003	0.00000E+000	4.52647E-003	3.59960E-001	-1.15106E+000	3.57730E+000	10	...........
	17	0.24	7.62537E-001	5.99381E-003	0.00000E+000	4.57051E-003	3.59960E-001	-1.16028E+000	3.57730E+000	10	...........
	18	0.253333	7.69186E-001	5.99588E-003	0.00000E+000	4.61195E-003	3.59960E-001	-1.14971E+000	3.57735E+000	10	...........
	19	0.266667	7.75789E-001	5.99048E-003	0.00000E+000	4.64735E-003	3.59960E-001	-1.15095E+000	3.57750E+000	10	...........
	20	0.28	7.82380E-001	5.99412E-003	0.00000E+000	4.68967E-003	3.59960E-001	-1.16052E+000	3.57750E+000	10	...........
	21	0.293333	7.88975E-001	5.99312E-003	0.00000E+000	4.72842E-003	3.59960E-001	-1.14976E+000	3.57750E+000	10	...........
	22	0.306667	7.95563E-001	5.99444E-003	0.00000E+000	4.76896E-003	3.59960E-001	-1.15086E+000	3.57750E+000	10	...........
	23	0.32	8.02128E-001	5.99500E-003	0.00000E+000	4.80876E-003	3.59960E-001	-1.16037E+000	3.57750E+000	10	...........
	24	0.333333	8.08618E-001	5.99908E-003	0.00000E+000	4.85096E-003	3.59960E-001	-1.14964E+000	3.57750E+000	10	...........
	25	0.346667	8.15109E-001	5.99396E-003	0.00000E+000	4.88573E-003	3.59960E-001	-1.15096E+000	3.57750E+000	10	...........
	26	0.36	8.21583E-001	5.98976E-003	0.00000E+000	4.92108E-003	3.59960E-001	-1.16029E+000	3.57750E+000	10	...........
	27	0.373333	8.28064E-001	5.99607E-003	0.00000E+000	4.96513E-003	3.59960E-001	-1.14966E+000	3.57750E+000	10	...........
	28	0.386667	8.34503E-001	5.99709E-003	0.00000E+000	5.00459E-003	3.59960E-001	-1.15080E+000	3.57750E+000	10	...........
	29	0.4	8.40961E-001	5.99112E-003	0.00000E+000	5.03830E-003	3.59960E-001	-1.16034E+000	3.57750E+000	10	...........
	30	0.413333	8.47401E-001	5.99616E-003	0.00000E+000	5.08115E-003	3.59960E-001	-1.14974E+000	3.57750E+000	10	...........
	31	0.426667	8.53757E-001	5.99088E-003	0.00000E+000	5.11476E-003	3.59960E-001	-1.15072E+000	3.57750E+000	10	...........
	32	0.44	8.60111E-001	5.99033E-003	0.00000E+000	5.15235E-003	3.59960E-001	-1.16016E+000	3.57750E+000	10	...........
	33	0.453333	8.66468E-001	5.99554E-003	0.00000E+000	5.19495E-003	3.59960E-001	-1.14967E+000	3.57750E+000	10	...........
	34	0.466667	8.72822E-001	5.99408E-003	0.00000E+000	5.23177E-003	3.59960E-001	-1.15083E+000	3.57750E+000	10	...........
	35	0.48	8.79123E-001	5.99480E-003	0.00000E+000	5.27017E-003	3.59960E-001	-1.15995E+000	3.57750E+000	10	...........
	36	0.493333	8.85380E-001	5.99367E-003	0.00000E+000	5.30667E-003	3.59960E-001	-1.14926E+000	3.57750E+000	10	...........
	37	0.506667	8.91590E-001	5.99306E-003	0.00000E+000	5.34335E-003	3.59960E-001	-1.15021E+000	3.57750E+000	10	...........
	38	0.52	8.97794E-001	5.99245E-003	0.00000E+000	5.37998E-003	3.59960E-001	-1.15944E+000	3.57750E+000	10	...........
	39	0.533333	9.03942E-001	5.99778E-003	0.00000E+000	5.42164E-003	3.59960E-001	-1.14918E+000	3.57750E+000	10	...........
	40	0.546667	9.10106E-001	5.99440E-003	0.00000E+000	5.45553E-003	3.59960E-001	-1.15033E+000	3.57750E+000	10	...........
	41	0.56	9.16224E-001	5.99254E-003	0.00000E+000	5.49051E-003	3.59960E-001	-1.15961E+000	3.57750E+000	10	...........
	42	0.573333	9.22374E-001	5.98996E-003	0.00000E+000	5.52499E-003	3.59960E-001	-1.14904E+000	3.57750E+000	10	...........
	43	0.586667	9.28400E-001	5.99561E-003	0.00000E+000	5.56632E-003	3.59960E-001	-1.15027E+000	3.57750E+000	10	...........
	44	0.6	9.34366E-001	5.99181E-003	0.00000E+000	5.59854E-003	3.59960E-001	-1.15965E+000	3.57750E+000	10	...........
	45	0.613333	9.40298E-001	5.99710E-003	0.00000E+000	5.63906E-003	3.59960E-001	-1.14926E+000	3.57750E+000	10	...........
	46	0.626667	9.46220E-001	5.99273E-003	0.00000E+000	5.67044E-003	3.59960E-001	-1.15029E+000	3.57750E+000	10	...........
	47	0.64	9.52118E-001	5.99475E-003	0.00000E+000	5.70771E-003	3.59960E-001	-1.15952E+000	3.57750E+000	10	...........
	48	0.653333	9.57937E-001	5.99811E-003	0.00000E+000	5.74581E-003	3.59960E-001	-1.14909E+000	3.57750E+000	10	...........
	49	0.666667	9.63751E-001	5.99537E-003	0.00000E+000	5.77804E-003	3.59960E-001	-1.15012E+000	3.57750E+000	10	...........
	50	0.68	9.69475E-001	5.99625E-003	0.00000E+000	5.81322E-003	3.59960E-001	-1.15975E+000	3.57750E+000	10	...........
	51	0.693333	9.75251E-001	6.00049E-003	0.00000E+000	5.85198E-003	3.59960E-001	-1.14900E+000	3.57750E+000	10	...........
	52	0.706667	9.80851E-001	5.99175E-003	0.00000E+000	5.87701E-003	3.59960E-001	-1.15025E+000	3.57750E+000	10	...........
	53	0.72	9.86470E-001	5.99149E-003	0.00000E+000	5.91042E-003	3.59960E-001	-1.15963E+000	3.57750E+000	10	...........
	54	0.733333	9.92011E-001	5.99356E-003	0.00000E+000	5.94568E-003	3.59960E-001	-1.14920E+000	3.57750E+000	10	...........
	55	0.746667	9.97558E-001	5.98910E-003	0.00000E+000	5.97447E-003	3.59960E-001	-1.15048E+000	3.57750E+000	10	...........
	56	0.748333	1.00066E+000	6.00347E-003	0.00000E+000	6.00746E-003	3.59960E-001	-1.14903E+000	3.57750E+000	10	...........
STARTTIMEOFFSET	QUANT	1078.063	Start Time Offset (s)