File: Data/CV_CRGO300517_1/PWRCCD_CRGO300517_1/CHARGE_DISCHARGE/CHARGE_#694.DTA
EXPLAIN
TAG	PWR800_CHARGE
TITLE	LABEL	PWR Cyclic Charge Discharge (Cell) - Charge Step	Test &Identifier
DATE	LABEL	22-6-2017	Date
TIME	LABEL	16:03:20	Time
NOTES	NOTES	3	&Notes...
	supercap test cell
	0.6mg
	6M KOH
PSTAT	PSTAT	IFC5000-01520	Potentiostat
CAPACITY	QUANT	1.00000E-003	Capacity (A-hr)
CELLTYPE	SELECTOR	1	&Cell Type
WORKINGCONNECTION	SELECTOR	0	&Working Lead
MAXCHARGETIME	VARIABLEANDUNITS	1.00000E+002	s	1.00000E+002	second(s)	Max &Charge Time
CHARGECURRENT	QUANT	6.00000E-003	&Charge Current (A)
VOLTAGEFINISH	TWOPARAM	F	1.00000E-003	3.60000E+003	&Voltage Finish	 I (A) < 	Max Time(s)
SAMPLETIME	QUANT	1.00000E-002	Sa&mple Period (s)
CHARGESTOPAT1	MULTIPARAM	4	1.00000E+000	Charge Stop At &1	Voltage > Limit	V
CHARGESTOPAT2	MULTIPARAM	0	0.00000E+000	Charge Stop At &2	None	N/A
AESBHCSELECTOR	TOGGLE	F	Save Both Half Cells
IRCOMP	TOGGLE	F	IR &Measure
EOC	QUANT	0	Open Circuit (V)
SEQUENCER	TOGGLE	TRUE	Run as Sequence
PSTATMODEL	IQUANT	53	Pstat Model
PSTATSECTION	LABEL	IFC5000-01520	Pstat Section
PSTATSERIALNO	LABEL	01520	Pstat Serial Number
CTRLMODE	IQUANT	0	Control Mode
ELECTROMETER	IQUANT	1	RE=0 or CS=1
IESTAB	IQUANT	0	I/E Stability
CASPEED	IQUANT	4	Control Amp Speed
CONVENTION	IQUANT	1	Current Convention
ICHRANGE	IQUANT	2	Ich Range
ICHRANGEMODE	TOGGLE	T	Ich Auto Range
ICHOFFSETENABLE	TOGGLE	F	Ich Offset Enable
ICHOFFSET	QUANT	0	Ich Offset (V)
ICHFILTER	IQUANT	1	Ich Filter
VCHRANGE	IQUANT	2	Vch Range
VCHRANGEMODE	TOGGLE	T	Vch Auto Range
VCHOFFSETENABLE	TOGGLE	F	Vch Offset Enable
VCHOFFSET	QUANT	0	Vch Offset (V)
VCHFILTER	IQUANT	1	Vch Filter
IERANGELOWERLIMIT	IQUANT	9	I/E Range Lower Limit
IERANGEMODE	TOGGLE	F	I/E AutoRange
IERANGE	IQUANT	10	I/E Range
ACHSELECT	IQUANT	1	Ach Select
ACHRANGE	IQUANT	2	Ach Range
ACHOFFSETENABLE	TOGGLE	F	Ach Offset Enable
ACHOFFSET	QUANT	0	Ach Offset (V)
ACHFILTER	IQUANT	1	Ach Filter
CABLEID	IQUANT	14	Cable ID
DCCALDATE	LABEL	20-10-2016	DC Calibration Date
ACCALDATE	LABEL	12/3/2015	AC Calibration Date
FRAMEWORKVERSION	QUANT	7.01	Framework Version
INSTRUMENTVERSION	LABEL	4.00	Instrument Version
CURVE	TABLE	56
	Pt	T	Vf	Im	Vu	Pwr	Sig	Ach	Temp	IERange	Over
	#	s	V	A	V	W	V	V	deg C	#	bits
	0	0.013333	6.43058E-001	5.99184E-003	0.00000E+000	3.85310E-003	3.59960E-001	-1.16331E+000	3.57640E+000	10	...........
	1	0.026667	6.52110E-001	5.99699E-003	0.00000E+000	3.91070E-003	3.59960E-001	-1.15230E+000	3.57640E+000	10	...........
	2	0.04	6.60455E-001	5.99399E-003	0.00000E+000	3.95876E-003	3.59960E-001	-1.15457E+000	3.57640E+000	10	...........
	3	0.053333	6.68393E-001	5.99333E-003	0.00000E+000	4.00590E-003	3.59960E-001	-1.16316E+000	3.57640E+000	10	...........
	4	0.066667	6.76008E-001	5.99102E-003	0.00000E+000	4.04998E-003	3.59960E-001	-1.15229E+000	3.57640E+000	10	...........
	5	0.08	6.83459E-001	5.99272E-003	0.00000E+000	4.09578E-003	3.59960E-001	-1.15464E+000	3.57640E+000	10	...........
	6	0.093333	6.90721E-001	5.99568E-003	0.00000E+000	4.14134E-003	3.59960E-001	-1.16296E+000	3.57640E+000	10	...........
	7	0.106667	6.97890E-001	5.99766E-003	0.00000E+000	4.18571E-003	3.59960E-001	-1.15243E+000	3.57640E+000	10	...........
	8	0.12	7.04949E-001	5.99832E-003	0.00000E+000	4.22851E-003	3.59960E-001	-1.15475E+000	3.57640E+000	10	...........
	9	0.133333	7.11948E-001	5.99472E-003	0.00000E+000	4.26793E-003	3.59960E-001	-1.16295E+000	3.57640E+000	10	...........
	10	0.146667	7.18936E-001	5.99090E-003	0.00000E+000	4.30708E-003	3.59960E-001	-1.15229E+000	3.57640E+000	10	...........
	11	0.16	7.25848E-001	5.99318E-003	0.00000E+000	4.35013E-003	3.59960E-001	-1.15478E+000	3.57640E+000	10	...........
	12	0.173333	7.32689E-001	5.99407E-003	0.00000E+000	4.39179E-003	3.59960E-001	-1.16290E+000	3.57652E+000	10	...........
	13	0.186667	7.39510E-001	5.99542E-003	0.00000E+000	4.43367E-003	3.59960E-001	-1.15229E+000	3.57660E+000	10	...........
	14	0.2	7.46334E-001	5.99220E-003	0.00000E+000	4.47218E-003	3.59960E-001	-1.15437E+000	3.57660E+000	10	...........
	15	0.213333	7.53075E-001	5.99144E-003	0.00000E+000	4.51201E-003	3.59960E-001	-1.16284E+000	3.57660E+000	10	...........
	16	0.226667	7.59766E-001	5.99494E-003	0.00000E+000	4.55475E-003	3.59960E-001	-1.15228E+000	3.57660E+000	10	...........
	17	0.24	7.66471E-001	5.99202E-003	0.00000E+000	4.59271E-003	3.59960E-001	-1.15455E+000	3.57660E+000	10	...........
	18	0.253333	7.73191E-001	5.99410E-003	0.00000E+000	4.63459E-003	3.59960E-001	-1.16287E+000	3.57660E+000	10	...........
	19	0.266667	7.79855E-001	5.99228E-003	0.00000E+000	4.67311E-003	3.59960E-001	-1.15231E+000	3.57660E+000	10	...........
	20	0.28	7.86485E-001	5.99467E-003	0.00000E+000	4.71472E-003	3.59960E-001	-1.15452E+000	3.57660E+000	10	...........
	21	0.293333	7.93137E-001	5.98991E-003	0.00000E+000	4.75082E-003	3.59960E-001	-1.16302E+000	3.57660E+000	10	...........
	22	0.306667	7.99757E-001	5.99730E-003	0.00000E+000	4.79638E-003	3.59960E-001	-1.15224E+000	3.57660E+000	10	...........
	23	0.32	8.06267E-001	5.98957E-003	0.00000E+000	4.82919E-003	3.59960E-001	-1.15444E+000	3.57660E+000	10	...........
	24	0.333333	8.12807E-001	5.99663E-003	0.00000E+000	4.87410E-003	3.59960E-001	-1.16266E+000	3.57660E+000	10	...........
	25	0.346667	8.19340E-001	5.99111E-003	0.00000E+000	4.90875E-003	3.59960E-001	-1.15200E+000	3.57660E+000	10	...........
	26	0.36	8.25876E-001	5.99887E-003	0.00000E+000	4.95432E-003	3.59960E-001	-1.15414E+000	3.57660E+000	10	...........
	27	0.373333	8.32325E-001	5.99323E-003	0.00000E+000	4.98831E-003	3.59960E-001	-1.16266E+000	3.57660E+000	10	...........
	28	0.386667	8.38807E-001	5.99779E-003	0.00000E+000	5.03098E-003	3.59960E-001	-1.15191E+000	3.57660E+000	10	...........
	29	0.4	8.45299E-001	5.99166E-003	0.00000E+000	5.06475E-003	3.59960E-001	-1.15403E+000	3.57660E+000	10	...........
	30	0.413333	8.51729E-001	5.99203E-003	0.00000E+000	5.10359E-003	3.59960E-001	-1.16244E+000	3.57660E+000	10	...........
	31	0.426667	8.58112E-001	5.99684E-003	0.00000E+000	5.14595E-003	3.59960E-001	-1.15177E+000	3.57660E+000	10	...........
	32	0.44	8.64470E-001	5.99743E-003	0.00000E+000	5.18460E-003	3.59960E-001	-1.15437E+000	3.57660E+000	10	...........
	33	0.453333	8.70876E-001	5.99506E-003	0.00000E+000	5.22096E-003	3.59960E-001	-1.16261E+000	3.57660E+000	10	...........
	34	0.466667	8.77185E-001	5.99222E-003	0.00000E+000	5.25628E-003	3.59960E-001	-1.15171E+000	3.57660E+000	10	...........
	35	0.48	8.83498E-001	5.99108E-003	0.00000E+000	5.29311E-003	3.59960E-001	-1.15417E+000	3.57660E+000	10	...........
	36	0.493333	8.89759E-001	5.98979E-003	0.00000E+000	5.32947E-003	3.59960E-001	-1.16253E+000	3.57660E+000	10	...........
	37	0.506667	8.96003E-001	5.98662E-003	0.00000E+000	5.36403E-003	3.59960E-001	-1.15166E+000	3.57660E+000	10	...........
	38	0.52	9.02262E-001	5.99508E-003	0.00000E+000	5.40913E-003	3.59960E-001	-1.15384E+000	3.57660E+000	10	...........
	39	0.533333	9.08424E-001	5.99080E-003	0.00000E+000	5.44218E-003	3.59960E-001	-1.16249E+000	3.57660E+000	10	...........
	40	0.546667	9.14552E-001	5.99089E-003	0.00000E+000	5.47898E-003	3.59960E-001	-1.15189E+000	3.57660E+000	10	...........
	41	0.56	9.20711E-001	5.99555E-003	0.00000E+000	5.52017E-003	3.59960E-001	-1.15430E+000	3.57660E+000	10	...........
	42	0.573333	9.26801E-001	5.99356E-003	0.00000E+000	5.55484E-003	3.59960E-001	-1.16265E+000	3.57660E+000	10	...........
	43	0.586667	9.32798E-001	5.99245E-003	0.00000E+000	5.58974E-003	3.59960E-001	-1.15198E+000	3.57660E+000	10	...........
	44	0.6	9.38761E-001	5.99300E-003	0.00000E+000	5.62600E-003	3.59960E-001	-1.15396E+000	3.57660E+000	10	...........
	45	0.613333	9.44720E-001	5.99530E-003	0.00000E+000	5.66388E-003	3.59960E-001	-1.16238E+000	3.57660E+000	10	...........
	46	0.626667	9.50673E-001	5.99827E-003	0.00000E+000	5.70239E-003	3.59960E-001	-1.15192E+000	3.57660E+000	10	...........
	47	0.64	9.56480E-001	5.99331E-003	0.00000E+000	5.73249E-003	3.59960E-001	-1.15414E+000	3.57660E+000	10	...........
	48	0.653333	9.62338E-001	5.99520E-003	0.00000E+000	5.76941E-003	3.59960E-001	-1.16246E+000	3.57660E+000	10	...........
	49	0.666667	9.68053E-001	5.99675E-003	0.00000E+000	5.80518E-003	3.59960E-001	-1.15133E+000	3.57660E+000	10	...........
	50	0.68	9.73806E-001	5.99521E-003	0.00000E+000	5.83817E-003	3.59960E-001	-1.15367E+000	3.57660E+000	10	...........
	51	0.693333	9.79500E-001	5.99375E-003	0.00000E+000	5.87088E-003	3.59960E-001	-1.16220E+000	3.57660E+000	10	...........
	52	0.706667	9.85096E-001	5.99570E-003	0.00000E+000	5.90634E-003	3.59960E-001	-1.15161E+000	3.57660E+000	10	...........
	53	0.72	9.90688E-001	5.98925E-003	0.00000E+000	5.93348E-003	3.59960E-001	-1.15367E+000	3.57660E+000	10	...........
	54	0.733333	9.96209E-001	5.99604E-003	0.00000E+000	5.97331E-003	3.59960E-001	-1.16224E+000	3.57660E+000	10	...........
	55	0.736667	9.99649E-001	5.99884E-003	0.00000E+000	5.99673E-003	3.59960E-001	-1.14767E+000	3.57660E+000	10	...........
STARTTIMEOFFSET	QUANT	1150.412	Start Time Offset (s)