File: Data/CV_CRGO300517_1/PWRCCD_CRGO300517_1/CHARGE_DISCHARGE/CHARGE_#717.DTA
EXPLAIN
TAG	PWR800_CHARGE
TITLE	LABEL	PWR Cyclic Charge Discharge (Cell) - Charge Step	Test &Identifier
DATE	LABEL	22-6-2017	Date
TIME	LABEL	16:04:11	Time
NOTES	NOTES	3	&Notes...
	supercap test cell
	0.6mg
	6M KOH
PSTAT	PSTAT	IFC5000-01520	Potentiostat
CAPACITY	QUANT	1.00000E-003	Capacity (A-hr)
CELLTYPE	SELECTOR	1	&Cell Type
WORKINGCONNECTION	SELECTOR	0	&Working Lead
MAXCHARGETIME	VARIABLEANDUNITS	1.00000E+002	s	1.00000E+002	second(s)	Max &Charge Time
CHARGECURRENT	QUANT	6.00000E-003	&Charge Current (A)
VOLTAGEFINISH	TWOPARAM	F	1.00000E-003	3.60000E+003	&Voltage Finish	 I (A) < 	Max Time(s)
SAMPLETIME	QUANT	1.00000E-002	Sa&mple Period (s)
CHARGESTOPAT1	MULTIPARAM	4	1.00000E+000	Charge Stop At &1	Voltage > Limit	V
CHARGESTOPAT2	MULTIPARAM	0	0.00000E+000	Charge Stop At &2	None	N/A
AESBHCSELECTOR	TOGGLE	F	Save Both Half Cells
IRCOMP	TOGGLE	F	IR &Measure
EOC	QUANT	0	Open Circuit (V)
SEQUENCER	TOGGLE	TRUE	Run as Sequence
PSTATMODEL	IQUANT	53	Pstat Model
PSTATSECTION	LABEL	IFC5000-01520	Pstat Section
PSTATSERIALNO	LABEL	01520	Pstat Serial Number
CTRLMODE	IQUANT	0	Control Mode
ELECTROMETER	IQUANT	1	RE=0 or CS=1
IESTAB	IQUANT	0	I/E Stability
CASPEED	IQUANT	4	Control Amp Speed
CONVENTION	IQUANT	1	Current Convention
ICHRANGE	IQUANT	2	Ich Range
ICHRANGEMODE	TOGGLE	T	Ich Auto Range
ICHOFFSETENABLE	TOGGLE	F	Ich Offset Enable
ICHOFFSET	QUANT	0	Ich Offset (V)
ICHFILTER	IQUANT	1	Ich Filter
VCHRANGE	IQUANT	2	Vch Range
VCHRANGEMODE	TOGGLE	T	Vch Auto Range
VCHOFFSETENABLE	TOGGLE	F	Vch Offset Enable
VCHOFFSET	QUANT	0	Vch Offset (V)
VCHFILTER	IQUANT	1	Vch Filter
IERANGELOWERLIMIT	IQUANT	9	I/E Range Lower Limit
IERANGEMODE	TOGGLE	F	I/E AutoRange
IERANGE	IQUANT	10	I/E Range
ACHSELECT	IQUANT	1	Ach Select
ACHRANGE	IQUANT	2	Ach Range
ACHOFFSETENABLE	TOGGLE	F	Ach Offset Enable
ACHOFFSET	QUANT	0	Ach Offset (V)
ACHFILTER	IQUANT	1	Ach Filter
CABLEID	IQUANT	14	Cable ID
DCCALDATE	LABEL	20-10-2016	DC Calibration Date
ACCALDATE	LABEL	12/3/2015	AC Calibration Date
FRAMEWORKVERSION	QUANT	7.01	Framework Version
INSTRUMENTVERSION	LABEL	4.00	Instrument Version
CURVE	TABLE	55
	Pt	T	Vf	Im	Vu	Pwr	Sig	Ach	Temp	IERange	Over
	#	s	V	A	V	W	V	V	deg C	#	bits
	0	0.013333	6.44042E-001	5.99665E-003	0.00000E+000	3.86210E-003	3.59960E-001	-1.16153E+000	3.57670E+000	10	...........
	1	0.026667	6.53168E-001	5.99333E-003	0.00000E+000	3.91465E-003	3.59960E-001	-1.16058E+000	3.57670E+000	10	...........
	2	0.04	6.61589E-001	5.98941E-003	0.00000E+000	3.96253E-003	3.59960E-001	-1.15374E+000	3.57670E+000	10	...........
	3	0.053333	6.69566E-001	5.99475E-003	0.00000E+000	4.01388E-003	3.59960E-001	-1.16119E+000	3.57670E+000	10	...........
	4	0.066667	6.77252E-001	5.99299E-003	0.00000E+000	4.05876E-003	3.59960E-001	-1.15975E+000	3.57670E+000	10	...........
	5	0.08	6.84684E-001	5.99240E-003	0.00000E+000	4.10290E-003	3.59960E-001	-1.15313E+000	3.57670E+000	10	...........
	6	0.093333	6.92041E-001	5.99797E-003	0.00000E+000	4.15085E-003	3.59960E-001	-1.16143E+000	3.57670E+000	10	...........
	7	0.106667	6.99223E-001	5.99200E-003	0.00000E+000	4.18974E-003	3.59960E-001	-1.15988E+000	3.57670E+000	10	...........
	8	0.12	7.06312E-001	5.99352E-003	0.00000E+000	4.23329E-003	3.59960E-001	-1.15305E+000	3.57670E+000	10	...........
	9	0.133333	7.13362E-001	5.99456E-003	0.00000E+000	4.27629E-003	3.59960E-001	-1.16110E+000	3.57670E+000	10	...........
	10	0.146667	7.20408E-001	5.99562E-003	0.00000E+000	4.31929E-003	3.59960E-001	-1.15958E+000	3.57670E+000	10	...........
	11	0.16	7.27281E-001	5.99295E-003	0.00000E+000	4.35855E-003	3.59960E-001	-1.15326E+000	3.57670E+000	10	...........
	12	0.173333	7.34181E-001	5.99167E-003	0.00000E+000	4.39897E-003	3.59960E-001	-1.16123E+000	3.57670E+000	10	...........
	13	0.186667	7.41041E-001	5.99227E-003	0.00000E+000	4.44052E-003	3.59960E-001	-1.15936E+000	3.57670E+000	10	...........
	14	0.2	7.47841E-001	5.99422E-003	0.00000E+000	4.48272E-003	3.59960E-001	-1.15284E+000	3.57670E+000	10	...........
	15	0.213333	7.54622E-001	5.99064E-003	0.00000E+000	4.52067E-003	3.59960E-001	-1.16094E+000	3.57670E+000	10	...........
	16	0.226667	7.61381E-001	5.98738E-003	0.00000E+000	4.55867E-003	3.59960E-001	-1.15926E+000	3.57670E+000	10	...........
	17	0.24	7.68127E-001	5.99770E-003	0.00000E+000	4.60700E-003	3.59960E-001	-1.15303E+000	3.57670E+000	10	...........
	18	0.253333	7.74812E-001	5.99217E-003	0.00000E+000	4.64281E-003	3.59960E-001	-1.16111E+000	3.57670E+000	10	...........
	19	0.266667	7.81474E-001	6.00085E-003	0.00000E+000	4.68951E-003	3.59960E-001	-1.15889E+000	3.57670E+000	10	...........
	20	0.28	7.88104E-001	5.99317E-003	0.00000E+000	4.72324E-003	3.59960E-001	-1.15286E+000	3.57670E+000	10	...........
	21	0.293333	7.94754E-001	5.99501E-003	0.00000E+000	4.76456E-003	3.59960E-001	-1.16126E+000	3.57670E+000	10	...........
	22	0.306667	8.01373E-001	5.99477E-003	0.00000E+000	4.80405E-003	3.59960E-001	-1.15910E+000	3.57670E+000	10	...........
	23	0.32	8.07962E-001	5.98959E-003	0.00000E+000	4.83936E-003	3.59960E-001	-1.15273E+000	3.57670E+000	10	...........
	24	0.333333	8.14497E-001	5.99158E-003	0.00000E+000	4.88012E-003	3.59960E-001	-1.16094E+000	3.57670E+000	10	...........
	25	0.346667	8.21030E-001	5.99440E-003	0.00000E+000	4.92158E-003	3.59960E-001	-1.15880E+000	3.57670E+000	10	...........
	26	0.36	8.27569E-001	5.99116E-003	0.00000E+000	4.95810E-003	3.59960E-001	-1.15256E+000	3.57670E+000	10	...........
	27	0.373333	8.34069E-001	5.98976E-003	0.00000E+000	4.99588E-003	3.59960E-001	-1.16076E+000	3.57670E+000	10	...........
	28	0.386667	8.40565E-001	5.99007E-003	0.00000E+000	5.03504E-003	3.59960E-001	-1.15819E+000	3.57670E+000	10	...........
	29	0.4	8.47074E-001	5.99186E-003	0.00000E+000	5.07555E-003	3.59960E-001	-1.15203E+000	3.57670E+000	10	...........
	30	0.413333	8.53496E-001	5.98941E-003	0.00000E+000	5.11194E-003	3.59960E-001	-1.16073E+000	3.57670E+000	10	...........
	31	0.426667	8.59898E-001	5.99192E-003	0.00000E+000	5.15245E-003	3.59960E-001	-1.15821E+000	3.57670E+000	10	...........
	32	0.44	8.66321E-001	5.99326E-003	0.00000E+000	5.19209E-003	3.59960E-001	-1.15239E+000	3.57670E+000	10	...........
	33	0.453333	8.72704E-001	5.99306E-003	0.00000E+000	5.23017E-003	3.59960E-001	-1.16080E+000	3.57670E+000	10	...........
	34	0.466667	8.79018E-001	5.99149E-003	0.00000E+000	5.26662E-003	3.59960E-001	-1.15792E+000	3.57670E+000	10	...........
	35	0.48	8.85328E-001	5.99784E-003	0.00000E+000	5.31005E-003	3.59960E-001	-1.15227E+000	3.57670E+000	10	...........
	36	0.493333	8.91638E-001	5.99609E-003	0.00000E+000	5.34634E-003	3.59960E-001	-1.16086E+000	3.57670E+000	10	...........
	37	0.506667	8.97918E-001	5.99565E-003	0.00000E+000	5.38360E-003	3.59960E-001	-1.15809E+000	3.57670E+000	10	...........
	38	0.52	9.04121E-001	5.99512E-003	0.00000E+000	5.42031E-003	3.59960E-001	-1.15204E+000	3.57670E+000	10	...........
	39	0.533333	9.10340E-001	5.99211E-003	0.00000E+000	5.45486E-003	3.59960E-001	-1.16075E+000	3.57670E+000	10	...........
	40	0.546667	9.16446E-001	5.99187E-003	0.00000E+000	5.49122E-003	3.59960E-001	-1.15766E+000	3.57670E+000	10	...........
	41	0.56	9.22652E-001	5.99141E-003	0.00000E+000	5.52799E-003	3.59960E-001	-1.15205E+000	3.57670E+000	10	...........
	42	0.573333	9.28680E-001	5.99087E-003	0.00000E+000	5.56360E-003	3.59960E-001	-1.16093E+000	3.57670E+000	10	...........
	43	0.586667	9.34679E-001	5.99456E-003	0.00000E+000	5.60299E-003	3.59960E-001	-1.15758E+000	3.57670E+000	10	...........
	44	0.6	9.40660E-001	5.99444E-003	0.00000E+000	5.63873E-003	3.59960E-001	-1.15196E+000	3.57670E+000	10	...........
	45	0.613333	9.46605E-001	5.98852E-003	0.00000E+000	5.66877E-003	3.59960E-001	-1.16090E+000	3.57670E+000	10	...........
	46	0.626667	9.52536E-001	5.99544E-003	0.00000E+000	5.71087E-003	3.59960E-001	-1.15782E+000	3.57670E+000	10	...........
	47	0.64	9.58382E-001	5.99207E-003	0.00000E+000	5.74269E-003	3.59960E-001	-1.15215E+000	3.57670E+000	10	...........
	48	0.653333	9.64208E-001	5.99629E-003	0.00000E+000	5.78168E-003	3.59960E-001	-1.16099E+000	3.57670E+000	10	...........
	49	0.666667	9.70010E-001	5.99354E-003	0.00000E+000	5.81380E-003	3.59960E-001	-1.15753E+000	3.57670E+000	10	...........
	50	0.68	9.75789E-001	5.98728E-003	0.00000E+000	5.84232E-003	3.59960E-001	-1.15190E+000	3.57670E+000	10	...........
	51	0.693333	9.81425E-001	5.99755E-003	0.00000E+000	5.88614E-003	3.59960E-001	-1.16061E+000	3.57670E+000	10	...........
	52	0.706667	9.87035E-001	5.99373E-003	0.00000E+000	5.91602E-003	3.59960E-001	-1.15724E+000	3.57670E+000	10	...........
	53	0.72	9.92605E-001	5.99588E-003	0.00000E+000	5.95154E-003	3.59960E-001	-1.15151E+000	3.57670E+000	10	...........
	54	0.733333	9.98111E-001	5.99360E-003	0.00000E+000	5.98228E-003	3.59960E-001	-1.16042E+000	3.57670E+000	10	...........
STARTTIMEOFFSET	QUANT	1184.091	Start Time Offset (s)