File: Data/CV_CRGO300517_1/PWRCCD_CRGO300517_1/CHARGE_DISCHARGE/CHARGE_#521.DTA
EXPLAIN
TAG	PWR800_CHARGE
TITLE	LABEL	PWR Cyclic Charge Discharge (Cell) - Charge Step	Test &Identifier
DATE	LABEL	22-6-2017	Date
TIME	LABEL	15:56:44	Time
NOTES	NOTES	3	&Notes...
	supercap test cell
	0.6mg
	6M KOH
PSTAT	PSTAT	IFC5000-01520	Potentiostat
CAPACITY	QUANT	1.00000E-003	Capacity (A-hr)
CELLTYPE	SELECTOR	1	&Cell Type
WORKINGCONNECTION	SELECTOR	0	&Working Lead
MAXCHARGETIME	VARIABLEANDUNITS	1.00000E+002	s	1.00000E+002	second(s)	Max &Charge Time
CHARGECURRENT	QUANT	6.00000E-003	&Charge Current (A)
VOLTAGEFINISH	TWOPARAM	F	1.00000E-003	3.60000E+003	&Voltage Finish	 I (A) < 	Max Time(s)
SAMPLETIME	QUANT	1.00000E-002	Sa&mple Period (s)
CHARGESTOPAT1	MULTIPARAM	4	1.00000E+000	Charge Stop At &1	Voltage > Limit	V
CHARGESTOPAT2	MULTIPARAM	0	0.00000E+000	Charge Stop At &2	None	N/A
AESBHCSELECTOR	TOGGLE	F	Save Both Half Cells
IRCOMP	TOGGLE	F	IR &Measure
EOC	QUANT	0	Open Circuit (V)
SEQUENCER	TOGGLE	TRUE	Run as Sequence
PSTATMODEL	IQUANT	53	Pstat Model
PSTATSECTION	LABEL	IFC5000-01520	Pstat Section
PSTATSERIALNO	LABEL	01520	Pstat Serial Number
CTRLMODE	IQUANT	0	Control Mode
ELECTROMETER	IQUANT	1	RE=0 or CS=1
IESTAB	IQUANT	0	I/E Stability
CASPEED	IQUANT	4	Control Amp Speed
CONVENTION	IQUANT	1	Current Convention
ICHRANGE	IQUANT	2	Ich Range
ICHRANGEMODE	TOGGLE	T	Ich Auto Range
ICHOFFSETENABLE	TOGGLE	F	Ich Offset Enable
ICHOFFSET	QUANT	0	Ich Offset (V)
ICHFILTER	IQUANT	1	Ich Filter
VCHRANGE	IQUANT	2	Vch Range
VCHRANGEMODE	TOGGLE	T	Vch Auto Range
VCHOFFSETENABLE	TOGGLE	F	Vch Offset Enable
VCHOFFSET	QUANT	0	Vch Offset (V)
VCHFILTER	IQUANT	1	Vch Filter
IERANGELOWERLIMIT	IQUANT	9	I/E Range Lower Limit
IERANGEMODE	TOGGLE	F	I/E AutoRange
IERANGE	IQUANT	10	I/E Range
ACHSELECT	IQUANT	1	Ach Select
ACHRANGE	IQUANT	2	Ach Range
ACHOFFSETENABLE	TOGGLE	F	Ach Offset Enable
ACHOFFSET	QUANT	0	Ach Offset (V)
ACHFILTER	IQUANT	1	Ach Filter
CABLEID	IQUANT	14	Cable ID
DCCALDATE	LABEL	20-10-2016	DC Calibration Date
ACCALDATE	LABEL	12/3/2015	AC Calibration Date
FRAMEWORKVERSION	QUANT	7.01	Framework Version
INSTRUMENTVERSION	LABEL	4.00	Instrument Version
CURVE	TABLE	58
	Pt	T	Vf	Im	Vu	Pwr	Sig	Ach	Temp	IERange	Over
	#	s	V	A	V	W	V	V	deg C	#	bits
	0	0.013333	6.32878E-001	5.99417E-003	0.00000E+000	3.79358E-003	3.59960E-001	-1.10776E+000	3.57740E+000	10	...........
	1	0.026667	6.41820E-001	5.99473E-003	0.00000E+000	3.84754E-003	3.59960E-001	-1.11615E+000	3.57740E+000	10	...........
	2	0.04	6.50027E-001	5.99519E-003	0.00000E+000	3.89704E-003	3.59960E-001	-1.11246E+000	3.57740E+000	10	...........
	3	0.053333	6.57757E-001	5.99415E-003	0.00000E+000	3.94269E-003	3.59960E-001	-1.10643E+000	3.57740E+000	10	...........
	4	0.066667	6.65257E-001	5.98877E-003	0.00000E+000	3.98407E-003	3.59960E-001	-1.11445E+000	3.57740E+000	10	...........
	5	0.08	6.72543E-001	5.99331E-003	0.00000E+000	4.03076E-003	3.59960E-001	-1.11105E+000	3.57740E+000	10	...........
	6	0.093333	6.79667E-001	5.99929E-003	0.00000E+000	4.07752E-003	3.59960E-001	-1.10571E+000	3.57740E+000	10	...........
	7	0.106667	6.86698E-001	5.99328E-003	0.00000E+000	4.11557E-003	3.59960E-001	-1.11421E+000	3.57740E+000	10	...........
	8	0.12	6.93682E-001	5.98955E-003	0.00000E+000	4.15484E-003	3.59960E-001	-1.10999E+000	3.57740E+000	10	...........
	9	0.133333	7.00557E-001	5.99175E-003	0.00000E+000	4.19756E-003	3.59960E-001	-1.10374E+000	3.57740E+000	10	...........
	10	0.146667	7.07342E-001	5.99174E-003	0.00000E+000	4.23821E-003	3.59960E-001	-1.11220E+000	3.57740E+000	10	...........
	11	0.16	7.14115E-001	5.99035E-003	0.00000E+000	4.27780E-003	3.59960E-001	-1.10883E+000	3.57740E+000	10	...........
	12	0.173333	7.20882E-001	5.99573E-003	0.00000E+000	4.32222E-003	3.59960E-001	-1.10275E+000	3.57740E+000	10	...........
	13	0.186667	7.27547E-001	5.99108E-003	0.00000E+000	4.35879E-003	3.59960E-001	-1.11040E+000	3.57740E+000	10	...........
	14	0.2	7.34199E-001	5.99075E-003	0.00000E+000	4.39840E-003	3.59960E-001	-1.10673E+000	3.57740E+000	10	...........
	15	0.213333	7.40811E-001	5.99476E-003	0.00000E+000	4.44098E-003	3.59960E-001	-1.10112E+000	3.57740E+000	10	...........
	16	0.226667	7.47387E-001	5.99588E-003	0.00000E+000	4.48124E-003	3.59960E-001	-1.10999E+000	3.57740E+000	10	...........
	17	0.24	7.53941E-001	5.99650E-003	0.00000E+000	4.52101E-003	3.59960E-001	-1.10705E+000	3.57740E+000	10	...........
	18	0.253333	7.60517E-001	5.99292E-003	0.00000E+000	4.55771E-003	3.59960E-001	-1.10150E+000	3.57740E+000	10	...........
	19	0.266667	7.67052E-001	5.99500E-003	0.00000E+000	4.59848E-003	3.59960E-001	-1.10987E+000	3.57740E+000	10	...........
	20	0.28	7.73627E-001	5.99664E-003	0.00000E+000	4.63916E-003	3.59960E-001	-1.10635E+000	3.57740E+000	10	...........
	21	0.293333	7.80114E-001	5.99459E-003	0.00000E+000	4.67647E-003	3.59960E-001	-1.10126E+000	3.57740E+000	10	...........
	22	0.306667	7.86613E-001	5.99368E-003	0.00000E+000	4.71470E-003	3.59960E-001	-1.11046E+000	3.57740E+000	10	...........
	23	0.32	7.93092E-001	5.98998E-003	0.00000E+000	4.75061E-003	3.59960E-001	-1.10655E+000	3.57740E+000	10	...........
	24	0.333333	7.99529E-001	5.99914E-003	0.00000E+000	4.79649E-003	3.59960E-001	-1.10071E+000	3.57740E+000	10	...........
	25	0.346667	8.05945E-001	5.99243E-003	0.00000E+000	4.82956E-003	3.59960E-001	-1.10954E+000	3.57740E+000	10	...........
	26	0.36	8.12407E-001	5.99215E-003	0.00000E+000	4.86807E-003	3.59960E-001	-1.10624E+000	3.57740E+000	10	...........
	27	0.373333	8.18786E-001	5.99327E-003	0.00000E+000	4.90720E-003	3.59960E-001	-1.10118E+000	3.57740E+000	10	...........
	28	0.386667	8.25151E-001	5.98946E-003	0.00000E+000	4.94221E-003	3.59960E-001	-1.11004E+000	3.57740E+000	10	...........
	29	0.4	8.31517E-001	5.99384E-003	0.00000E+000	4.98398E-003	3.59960E-001	-1.10643E+000	3.57740E+000	10	...........
	30	0.413333	8.37873E-001	5.99612E-003	0.00000E+000	5.02398E-003	3.59960E-001	-1.10101E+000	3.57740E+000	10	...........
	31	0.426667	8.44221E-001	5.99370E-003	0.00000E+000	5.06001E-003	3.59960E-001	-1.10963E+000	3.57740E+000	10	...........
	32	0.44	8.50521E-001	5.99018E-003	0.00000E+000	5.09478E-003	3.59960E-001	-1.10624E+000	3.57740E+000	10	...........
	33	0.453333	8.56821E-001	5.99667E-003	0.00000E+000	5.13807E-003	3.59960E-001	-1.10105E+000	3.57740E+000	10	...........
	34	0.466667	8.63147E-001	5.99403E-003	0.00000E+000	5.17373E-003	3.59960E-001	-1.11003E+000	3.57740E+000	10	...........
	35	0.48	8.69423E-001	5.99435E-003	0.00000E+000	5.21163E-003	3.59960E-001	-1.10637E+000	3.57740E+000	10	...........
	36	0.493333	8.75622E-001	5.99147E-003	0.00000E+000	5.24626E-003	3.59960E-001	-1.10149E+000	3.57740E+000	10	...........
	37	0.506667	8.81854E-001	5.99323E-003	0.00000E+000	5.28515E-003	3.59960E-001	-1.11075E+000	3.57740E+000	10	...........
	38	0.52	8.88079E-001	5.99426E-003	0.00000E+000	5.32338E-003	3.59960E-001	-1.10696E+000	3.57740E+000	10	...........
	39	0.533333	8.94245E-001	5.99526E-003	0.00000E+000	5.36123E-003	3.59960E-001	-1.10179E+000	3.57740E+000	10	...........
	40	0.546667	9.00370E-001	5.98478E-003	0.00000E+000	5.38851E-003	3.59960E-001	-1.11078E+000	3.57740E+000	10	...........
	41	0.56	9.06512E-001	5.99624E-003	0.00000E+000	5.43567E-003	3.59960E-001	-1.10696E+000	3.57740E+000	10	...........
	42	0.573333	9.12600E-001	5.99060E-003	0.00000E+000	5.46702E-003	3.59960E-001	-1.10201E+000	3.57740E+000	10	...........
	43	0.586667	9.18621E-001	5.99740E-003	0.00000E+000	5.50934E-003	3.59960E-001	-1.11155E+000	3.57740E+000	10	...........
	44	0.6	9.24657E-001	5.99333E-003	0.00000E+000	5.54178E-003	3.59960E-001	-1.10751E+000	3.57740E+000	10	...........
	45	0.613333	9.30646E-001	5.99121E-003	0.00000E+000	5.57570E-003	3.59960E-001	-1.10259E+000	3.57740E+000	10	...........
	46	0.626667	9.36583E-001	5.99709E-003	0.00000E+000	5.61677E-003	3.59960E-001	-1.11225E+000	3.57740E+000	10	...........
	47	0.64	9.42433E-001	5.99119E-003	0.00000E+000	5.64630E-003	3.59960E-001	-1.10876E+000	3.57740E+000	10	...........
	48	0.653333	9.48339E-001	5.99310E-003	0.00000E+000	5.68349E-003	3.59960E-001	-1.10374E+000	3.57740E+000	10	...........
	49	0.666667	9.54137E-001	5.99262E-003	0.00000E+000	5.71778E-003	3.59960E-001	-1.11329E+000	3.57740E+000	10	...........
	50	0.68	9.59922E-001	5.99226E-003	0.00000E+000	5.75210E-003	3.59960E-001	-1.10919E+000	3.57740E+000	10	...........
	51	0.693333	9.65638E-001	5.99605E-003	0.00000E+000	5.79002E-003	3.59960E-001	-1.10456E+000	3.57740E+000	10	...........
	52	0.706667	9.71310E-001	5.99175E-003	0.00000E+000	5.81984E-003	3.59960E-001	-1.11416E+000	3.57740E+000	10	...........
	53	0.72	9.77020E-001	5.99390E-003	0.00000E+000	5.85616E-003	3.59960E-001	-1.11011E+000	3.57740E+000	10	...........
	54	0.733333	9.82611E-001	5.99302E-003	0.00000E+000	5.88881E-003	3.59960E-001	-1.10522E+000	3.57740E+000	10	...........
	55	0.746667	9.88163E-001	5.99746E-003	0.00000E+000	5.92647E-003	3.59960E-001	-1.11430E+000	3.57740E+000	10	...........
	56	0.76	9.93695E-001	5.99087E-003	0.00000E+000	5.95310E-003	3.59960E-001	-1.11002E+000	3.57740E+000	10	...........
	57	0.77	9.98478E-001	5.99290E-003	0.00000E+000	5.98378E-003	3.59960E-001	-1.10432E+000	3.57740E+000	10	...........
STARTTIMEOFFSET	QUANT	891.2768	Start Time Offset (s)