File: Data/CV_CRGO300517_1/PWRCCD_CRGO300517_1/CHARGE_DISCHARGE/CHARGE_#768.DTA
EXPLAIN
TAG	PWR800_CHARGE
TITLE	LABEL	PWR Cyclic Charge Discharge (Cell) - Charge Step	Test &Identifier
DATE	LABEL	22-6-2017	Date
TIME	LABEL	16:06:05	Time
NOTES	NOTES	3	&Notes...
	supercap test cell
	0.6mg
	6M KOH
PSTAT	PSTAT	IFC5000-01520	Potentiostat
CAPACITY	QUANT	1.00000E-003	Capacity (A-hr)
CELLTYPE	SELECTOR	1	&Cell Type
WORKINGCONNECTION	SELECTOR	0	&Working Lead
MAXCHARGETIME	VARIABLEANDUNITS	1.00000E+002	s	1.00000E+002	second(s)	Max &Charge Time
CHARGECURRENT	QUANT	6.00000E-003	&Charge Current (A)
VOLTAGEFINISH	TWOPARAM	F	1.00000E-003	3.60000E+003	&Voltage Finish	 I (A) < 	Max Time(s)
SAMPLETIME	QUANT	1.00000E-002	Sa&mple Period (s)
CHARGESTOPAT1	MULTIPARAM	4	1.00000E+000	Charge Stop At &1	Voltage > Limit	V
CHARGESTOPAT2	MULTIPARAM	0	0.00000E+000	Charge Stop At &2	None	N/A
AESBHCSELECTOR	TOGGLE	F	Save Both Half Cells
IRCOMP	TOGGLE	F	IR &Measure
EOC	QUANT	0	Open Circuit (V)
SEQUENCER	TOGGLE	TRUE	Run as Sequence
PSTATMODEL	IQUANT	53	Pstat Model
PSTATSECTION	LABEL	IFC5000-01520	Pstat Section
PSTATSERIALNO	LABEL	01520	Pstat Serial Number
CTRLMODE	IQUANT	0	Control Mode
ELECTROMETER	IQUANT	1	RE=0 or CS=1
IESTAB	IQUANT	0	I/E Stability
CASPEED	IQUANT	4	Control Amp Speed
CONVENTION	IQUANT	1	Current Convention
ICHRANGE	IQUANT	2	Ich Range
ICHRANGEMODE	TOGGLE	T	Ich Auto Range
ICHOFFSETENABLE	TOGGLE	F	Ich Offset Enable
ICHOFFSET	QUANT	0	Ich Offset (V)
ICHFILTER	IQUANT	1	Ich Filter
VCHRANGE	IQUANT	2	Vch Range
VCHRANGEMODE	TOGGLE	T	Vch Auto Range
VCHOFFSETENABLE	TOGGLE	F	Vch Offset Enable
VCHOFFSET	QUANT	0	Vch Offset (V)
VCHFILTER	IQUANT	1	Vch Filter
IERANGELOWERLIMIT	IQUANT	9	I/E Range Lower Limit
IERANGEMODE	TOGGLE	F	I/E AutoRange
IERANGE	IQUANT	10	I/E Range
ACHSELECT	IQUANT	1	Ach Select
ACHRANGE	IQUANT	2	Ach Range
ACHOFFSETENABLE	TOGGLE	F	Ach Offset Enable
ACHOFFSET	QUANT	0	Ach Offset (V)
ACHFILTER	IQUANT	1	Ach Filter
CABLEID	IQUANT	14	Cable ID
DCCALDATE	LABEL	20-10-2016	DC Calibration Date
ACCALDATE	LABEL	12/3/2015	AC Calibration Date
FRAMEWORKVERSION	QUANT	7.01	Framework Version
INSTRUMENTVERSION	LABEL	4.00	Instrument Version
CURVE	TABLE	55
	Pt	T	Vf	Im	Vu	Pwr	Sig	Ach	Temp	IERange	Over
	#	s	V	A	V	W	V	V	deg C	#	bits
	0	0.013333	6.46786E-001	5.99342E-003	0.00000E+000	3.87646E-003	3.59960E-001	-1.16425E+000	3.57680E+000	10	...........
	1	0.026667	6.55931E-001	5.99221E-003	0.00000E+000	3.93047E-003	3.59960E-001	-1.16319E+000	3.57680E+000	10	...........
	2	0.04	6.64326E-001	5.99680E-003	0.00000E+000	3.98383E-003	3.59960E-001	-1.17451E+000	3.57680E+000	10	...........
	3	0.053333	6.72337E-001	5.99564E-003	0.00000E+000	4.03109E-003	3.59960E-001	-1.16432E+000	3.57680E+000	10	...........
	4	0.066667	6.80004E-001	5.99189E-003	0.00000E+000	4.07451E-003	3.59960E-001	-1.16320E+000	3.57680E+000	10	...........
	5	0.08	6.87540E-001	5.99202E-003	0.00000E+000	4.11975E-003	3.59960E-001	-1.17407E+000	3.57680E+000	10	...........
	6	0.093333	6.94910E-001	5.99334E-003	0.00000E+000	4.16483E-003	3.59960E-001	-1.16387E+000	3.57680E+000	10	...........
	7	0.106667	7.02149E-001	5.99073E-003	0.00000E+000	4.20638E-003	3.59960E-001	-1.16302E+000	3.57680E+000	10	...........
	8	0.12	7.09294E-001	5.99298E-003	0.00000E+000	4.25078E-003	3.59960E-001	-1.17429E+000	3.57680E+000	10	...........
	9	0.133333	7.16373E-001	5.99599E-003	0.00000E+000	4.29537E-003	3.59960E-001	-1.16386E+000	3.57680E+000	10	...........
	10	0.146667	7.23429E-001	5.99356E-003	0.00000E+000	4.33592E-003	3.59960E-001	-1.16306E+000	3.57680E+000	10	...........
	11	0.16	7.30356E-001	5.99875E-003	0.00000E+000	4.38122E-003	3.59960E-001	-1.17407E+000	3.57680E+000	10	...........
	12	0.173333	7.37212E-001	5.99421E-003	0.00000E+000	4.41900E-003	3.59960E-001	-1.16412E+000	3.57680E+000	10	...........
	13	0.186667	7.44108E-001	5.99658E-003	0.00000E+000	4.46210E-003	3.59960E-001	-1.16322E+000	3.57680E+000	10	...........
	14	0.2	7.50894E-001	5.99330E-003	0.00000E+000	4.50034E-003	3.59960E-001	-1.17404E+000	3.57680E+000	10	...........
	15	0.213333	7.57723E-001	5.99115E-003	0.00000E+000	4.53964E-003	3.59960E-001	-1.16372E+000	3.57680E+000	10	...........
	16	0.226667	7.64481E-001	5.99303E-003	0.00000E+000	4.58156E-003	3.59960E-001	-1.16311E+000	3.57680E+000	10	...........
	17	0.24	7.71272E-001	5.98997E-003	0.00000E+000	4.61990E-003	3.59960E-001	-1.17404E+000	3.57680E+000	10	...........
	18	0.253333	7.77993E-001	5.99176E-003	0.00000E+000	4.66155E-003	3.59960E-001	-1.16392E+000	3.57680E+000	10	...........
	19	0.266667	7.84671E-001	5.99528E-003	0.00000E+000	4.70432E-003	3.59960E-001	-1.16316E+000	3.57680E+000	10	...........
	20	0.28	7.91322E-001	5.99926E-003	0.00000E+000	4.74734E-003	3.59960E-001	-1.17393E+000	3.57680E+000	10	...........
	21	0.293333	7.97979E-001	5.99129E-003	0.00000E+000	4.78092E-003	3.59960E-001	-1.16359E+000	3.57680E+000	10	...........
	22	0.306667	8.04637E-001	5.99966E-003	0.00000E+000	4.82755E-003	3.59960E-001	-1.16305E+000	3.57680E+000	10	...........
	23	0.32	8.11252E-001	5.98870E-003	0.00000E+000	4.85834E-003	3.59960E-001	-1.17394E+000	3.57680E+000	10	...........
	24	0.333333	8.17844E-001	5.99044E-003	0.00000E+000	4.89925E-003	3.59960E-001	-1.16319E+000	3.57680E+000	10	...........
	25	0.346667	8.24438E-001	5.99442E-003	0.00000E+000	4.94202E-003	3.59960E-001	-1.16261E+000	3.57680E+000	10	...........
	26	0.36	8.30915E-001	5.99232E-003	0.00000E+000	4.97911E-003	3.59960E-001	-1.17345E+000	3.57680E+000	10	...........
	27	0.373333	8.37458E-001	5.99531E-003	0.00000E+000	5.02082E-003	3.59960E-001	-1.16316E+000	3.57690E+000	10	...........
	28	0.386667	8.43955E-001	6.00176E-003	0.00000E+000	5.06522E-003	3.59960E-001	-1.16270E+000	3.57720E+000	10	...........
	29	0.4	8.50467E-001	5.99696E-003	0.00000E+000	5.10022E-003	3.59960E-001	-1.17380E+000	3.57720E+000	10	...........
	30	0.413333	8.56881E-001	5.98436E-003	0.00000E+000	5.12789E-003	3.59960E-001	-1.16291E+000	3.57720E+000	10	...........
	31	0.426667	8.63312E-001	5.98862E-003	0.00000E+000	5.17005E-003	3.59960E-001	-1.16240E+000	3.57720E+000	10	...........
	32	0.44	8.69741E-001	5.99250E-003	0.00000E+000	5.21192E-003	3.59960E-001	-1.17349E+000	3.57720E+000	10	...........
	33	0.453333	8.76099E-001	5.98752E-003	0.00000E+000	5.24567E-003	3.59960E-001	-1.16312E+000	3.57720E+000	10	...........
	34	0.466667	8.82484E-001	5.99819E-003	0.00000E+000	5.29331E-003	3.59960E-001	-1.16274E+000	3.57720E+000	10	...........
	35	0.48	8.88808E-001	5.99570E-003	0.00000E+000	5.32903E-003	3.59960E-001	-1.17346E+000	3.57720E+000	10	...........
	36	0.493333	8.95069E-001	5.99229E-003	0.00000E+000	5.36351E-003	3.59960E-001	-1.16303E+000	3.57720E+000	10	...........
	37	0.506667	9.01345E-001	5.99536E-003	0.00000E+000	5.40388E-003	3.59960E-001	-1.16270E+000	3.57720E+000	10	...........
	38	0.52	9.07595E-001	5.99735E-003	0.00000E+000	5.44316E-003	3.59960E-001	-1.17343E+000	3.57720E+000	10	...........
	39	0.533333	9.13748E-001	5.99684E-003	0.00000E+000	5.47960E-003	3.59960E-001	-1.16295E+000	3.57720E+000	10	...........
	40	0.546667	9.19907E-001	5.99278E-003	0.00000E+000	5.51280E-003	3.59960E-001	-1.16257E+000	3.57720E+000	10	...........
	41	0.56	9.26039E-001	5.99320E-003	0.00000E+000	5.54993E-003	3.59960E-001	-1.17353E+000	3.57720E+000	10	...........
	42	0.573333	9.32120E-001	5.99369E-003	0.00000E+000	5.58684E-003	3.59960E-001	-1.16303E+000	3.57720E+000	10	...........
	43	0.586667	9.38150E-001	5.99035E-003	0.00000E+000	5.61984E-003	3.59960E-001	-1.16280E+000	3.57720E+000	10	...........
	44	0.6	9.44113E-001	5.99409E-003	0.00000E+000	5.65910E-003	3.59960E-001	-1.17342E+000	3.57720E+000	10	...........
	45	0.613333	9.50123E-001	5.99336E-003	0.00000E+000	5.69443E-003	3.59960E-001	-1.16298E+000	3.57720E+000	10	...........
	46	0.626667	9.55983E-001	5.99243E-003	0.00000E+000	5.72866E-003	3.59960E-001	-1.16299E+000	3.57720E+000	10	...........
	47	0.64	9.61811E-001	5.99573E-003	0.00000E+000	5.76676E-003	3.59960E-001	-1.17339E+000	3.57720E+000	10	...........
	48	0.653333	9.67602E-001	5.99124E-003	0.00000E+000	5.79713E-003	3.59960E-001	-1.16264E+000	3.57720E+000	10	...........
	49	0.666667	9.73372E-001	5.98962E-003	0.00000E+000	5.83013E-003	3.59960E-001	-1.16261E+000	3.57720E+000	10	...........
	50	0.68	9.79077E-001	5.99164E-003	0.00000E+000	5.86628E-003	3.59960E-001	-1.17318E+000	3.57720E+000	10	...........
	51	0.693333	9.84713E-001	5.99804E-003	0.00000E+000	5.90635E-003	3.59960E-001	-1.16248E+000	3.57720E+000	10	...........
	52	0.706667	9.90317E-001	5.99515E-003	0.00000E+000	5.93709E-003	3.59960E-001	-1.16277E+000	3.57720E+000	10	...........
	53	0.72	9.95872E-001	5.99176E-003	0.00000E+000	5.96703E-003	3.59960E-001	-1.17311E+000	3.57720E+000	10	...........
	54	0.725	9.99644E-001	5.99808E-003	0.00000E+000	5.99594E-003	3.59960E-001	-1.15151E+000	3.57720E+000	10	...........
STARTTIMEOFFSET	QUANT	1258.093	Start Time Offset (s)