File: Data/CV_CRGO300517_1/PWRCCD_CRGO300517_1/CHARGE_DISCHARGE/CHARGE_#372.DTA
EXPLAIN
TAG	PWR800_CHARGE
TITLE	LABEL	PWR Cyclic Charge Discharge (Cell) - Charge Step	Test &Identifier
DATE	LABEL	22-6-2017	Date
TIME	LABEL	15:50:51	Time
NOTES	NOTES	3	&Notes...
	supercap test cell
	0.6mg
	6M KOH
PSTAT	PSTAT	IFC5000-01520	Potentiostat
CAPACITY	QUANT	1.00000E-003	Capacity (A-hr)
CELLTYPE	SELECTOR	1	&Cell Type
WORKINGCONNECTION	SELECTOR	0	&Working Lead
MAXCHARGETIME	VARIABLEANDUNITS	1.00000E+002	s	1.00000E+002	second(s)	Max &Charge Time
CHARGECURRENT	QUANT	6.00000E-003	&Charge Current (A)
VOLTAGEFINISH	TWOPARAM	F	1.00000E-003	3.60000E+003	&Voltage Finish	 I (A) < 	Max Time(s)
SAMPLETIME	QUANT	1.00000E-002	Sa&mple Period (s)
CHARGESTOPAT1	MULTIPARAM	4	1.00000E+000	Charge Stop At &1	Voltage > Limit	V
CHARGESTOPAT2	MULTIPARAM	0	0.00000E+000	Charge Stop At &2	None	N/A
AESBHCSELECTOR	TOGGLE	F	Save Both Half Cells
IRCOMP	TOGGLE	F	IR &Measure
EOC	QUANT	0	Open Circuit (V)
SEQUENCER	TOGGLE	TRUE	Run as Sequence
PSTATMODEL	IQUANT	53	Pstat Model
PSTATSECTION	LABEL	IFC5000-01520	Pstat Section
PSTATSERIALNO	LABEL	01520	Pstat Serial Number
CTRLMODE	IQUANT	0	Control Mode
ELECTROMETER	IQUANT	1	RE=0 or CS=1
IESTAB	IQUANT	0	I/E Stability
CASPEED	IQUANT	4	Control Amp Speed
CONVENTION	IQUANT	1	Current Convention
ICHRANGE	IQUANT	2	Ich Range
ICHRANGEMODE	TOGGLE	T	Ich Auto Range
ICHOFFSETENABLE	TOGGLE	F	Ich Offset Enable
ICHOFFSET	QUANT	0	Ich Offset (V)
ICHFILTER	IQUANT	1	Ich Filter
VCHRANGE	IQUANT	2	Vch Range
VCHRANGEMODE	TOGGLE	T	Vch Auto Range
VCHOFFSETENABLE	TOGGLE	F	Vch Offset Enable
VCHOFFSET	QUANT	0	Vch Offset (V)
VCHFILTER	IQUANT	1	Vch Filter
IERANGELOWERLIMIT	IQUANT	9	I/E Range Lower Limit
IERANGEMODE	TOGGLE	F	I/E AutoRange
IERANGE	IQUANT	10	I/E Range
ACHSELECT	IQUANT	1	Ach Select
ACHRANGE	IQUANT	2	Ach Range
ACHOFFSETENABLE	TOGGLE	F	Ach Offset Enable
ACHOFFSET	QUANT	0	Ach Offset (V)
ACHFILTER	IQUANT	1	Ach Filter
CABLEID	IQUANT	14	Cable ID
DCCALDATE	LABEL	20-10-2016	DC Calibration Date
ACCALDATE	LABEL	12/3/2015	AC Calibration Date
FRAMEWORKVERSION	QUANT	7.01	Framework Version
INSTRUMENTVERSION	LABEL	4.00	Instrument Version
CURVE	TABLE	61
	Pt	T	Vf	Im	Vu	Pwr	Sig	Ach	Temp	IERange	Over
	#	s	V	A	V	W	V	V	deg C	#	bits
	0	0.013333	6.22337E-001	5.99570E-003	0.00000E+000	3.73135E-003	3.59960E-001	-1.12746E+000	3.57950E+000	10	...........
	1	0.026667	6.31051E-001	5.99475E-003	0.00000E+000	3.78300E-003	3.59960E-001	-1.11789E+000	3.57950E+000	10	...........
	2	0.04	6.39061E-001	5.99712E-003	0.00000E+000	3.83252E-003	3.59960E-001	-1.12233E+000	3.57950E+000	10	...........
	3	0.053333	6.46692E-001	5.99528E-003	0.00000E+000	3.87710E-003	3.59960E-001	-1.12731E+000	3.57950E+000	10	...........
	4	0.066667	6.54010E-001	5.99455E-003	0.00000E+000	3.92050E-003	3.59960E-001	-1.11798E+000	3.57950E+000	10	...........
	5	0.08	6.61144E-001	5.99355E-003	0.00000E+000	3.96260E-003	3.59960E-001	-1.12244E+000	3.57950E+000	10	...........
	6	0.093333	6.68181E-001	5.99480E-003	0.00000E+000	4.00562E-003	3.59960E-001	-1.12757E+000	3.57950E+000	10	...........
	7	0.106667	6.75048E-001	5.99208E-003	0.00000E+000	4.04494E-003	3.59960E-001	-1.11787E+000	3.57950E+000	10	...........
	8	0.12	6.81853E-001	5.99646E-003	0.00000E+000	4.08870E-003	3.59960E-001	-1.12244E+000	3.57950E+000	10	...........
	9	0.133333	6.88540E-001	5.99655E-003	0.00000E+000	4.12886E-003	3.59960E-001	-1.12757E+000	3.57950E+000	10	...........
	10	0.146667	6.95230E-001	5.98962E-003	0.00000E+000	4.16416E-003	3.59960E-001	-1.11816E+000	3.57950E+000	10	...........
	11	0.16	7.01816E-001	5.99066E-003	0.00000E+000	4.20434E-003	3.59960E-001	-1.12273E+000	3.57950E+000	10	...........
	12	0.173333	7.08375E-001	5.99384E-003	0.00000E+000	4.24589E-003	3.59960E-001	-1.12755E+000	3.57950E+000	10	...........
	13	0.186667	7.14911E-001	5.99671E-003	0.00000E+000	4.28712E-003	3.59960E-001	-1.11808E+000	3.57950E+000	10	...........
	14	0.2	7.21472E-001	5.99403E-003	0.00000E+000	4.32453E-003	3.59960E-001	-1.12269E+000	3.57950E+000	10	...........
	15	0.213333	7.27902E-001	5.99490E-003	0.00000E+000	4.36370E-003	3.59960E-001	-1.12763E+000	3.57950E+000	10	...........
	16	0.226667	7.34347E-001	5.99016E-003	0.00000E+000	4.39886E-003	3.59960E-001	-1.11787E+000	3.57950E+000	10	...........
	17	0.24	7.40828E-001	5.99215E-003	0.00000E+000	4.43916E-003	3.59960E-001	-1.12215E+000	3.57950E+000	10	...........
	18	0.253333	7.47243E-001	5.99482E-003	0.00000E+000	4.47959E-003	3.59960E-001	-1.12717E+000	3.57950E+000	10	...........
	19	0.266667	7.53654E-001	6.00026E-003	0.00000E+000	4.52212E-003	3.59960E-001	-1.11796E+000	3.57950E+000	10	...........
	20	0.28	7.60023E-001	5.99322E-003	0.00000E+000	4.55498E-003	3.59960E-001	-1.12249E+000	3.57950E+000	10	...........
	21	0.293333	7.66389E-001	5.99244E-003	0.00000E+000	4.59254E-003	3.59960E-001	-1.12731E+000	3.57950E+000	10	...........
	22	0.306667	7.72780E-001	5.99661E-003	0.00000E+000	4.63406E-003	3.59960E-001	-1.11785E+000	3.57950E+000	10	...........
	23	0.32	7.79150E-001	5.99811E-003	0.00000E+000	4.67343E-003	3.59960E-001	-1.12257E+000	3.57950E+000	10	...........
	24	0.333333	7.85526E-001	5.99427E-003	0.00000E+000	4.70866E-003	3.59960E-001	-1.12734E+000	3.57950E+000	10	...........
	25	0.346667	7.91830E-001	5.98925E-003	0.00000E+000	4.74247E-003	3.59960E-001	-1.11808E+000	3.57950E+000	10	...........
	26	0.36	7.98144E-001	5.99266E-003	0.00000E+000	4.78301E-003	3.59960E-001	-1.12267E+000	3.57950E+000	10	...........
	27	0.373333	8.04452E-001	5.99324E-003	0.00000E+000	4.82127E-003	3.59960E-001	-1.12761E+000	3.57950E+000	10	...........
	28	0.386667	8.10710E-001	5.99394E-003	0.00000E+000	4.85935E-003	3.59960E-001	-1.11796E+000	3.57950E+000	10	...........
	29	0.4	8.17013E-001	5.99757E-003	0.00000E+000	4.90009E-003	3.59960E-001	-1.12259E+000	3.57950E+000	10	...........
	30	0.413333	8.23291E-001	5.99446E-003	0.00000E+000	4.93519E-003	3.59960E-001	-1.12749E+000	3.57892E+000	10	...........
	31	0.426667	8.29521E-001	5.99345E-003	0.00000E+000	4.97169E-003	3.59960E-001	-1.11809E+000	3.57720E+000	10	...........
	32	0.44	8.35750E-001	5.99423E-003	0.00000E+000	5.00967E-003	3.59960E-001	-1.12272E+000	3.57720E+000	10	...........
	33	0.453333	8.41939E-001	5.99280E-003	0.00000E+000	5.04557E-003	3.59960E-001	-1.12748E+000	3.57720E+000	10	...........
	34	0.466667	8.48198E-001	5.99070E-003	0.00000E+000	5.08130E-003	3.59960E-001	-1.11820E+000	3.57720E+000	10	...........
	35	0.48	8.54403E-001	5.99963E-003	0.00000E+000	5.12610E-003	3.59960E-001	-1.12319E+000	3.57720E+000	10	...........
	36	0.493333	8.60554E-001	5.99528E-003	0.00000E+000	5.15926E-003	3.59960E-001	-1.12752E+000	3.57720E+000	10	...........
	37	0.506667	8.66683E-001	5.99289E-003	0.00000E+000	5.19394E-003	3.59960E-001	-1.11817E+000	3.57720E+000	10	...........
	38	0.52	8.72903E-001	5.99482E-003	0.00000E+000	5.23290E-003	3.59960E-001	-1.12306E+000	3.57720E+000	10	...........
	39	0.533333	8.78963E-001	5.99538E-003	0.00000E+000	5.26971E-003	3.59960E-001	-1.12753E+000	3.57720E+000	10	...........
	40	0.546667	8.85100E-001	5.99419E-003	0.00000E+000	5.30546E-003	3.59960E-001	-1.11794E+000	3.57720E+000	10	...........
	41	0.56	8.91184E-001	5.99907E-003	0.00000E+000	5.34627E-003	3.59960E-001	-1.12271E+000	3.57720E+000	10	...........
	42	0.573333	8.97236E-001	5.99596E-003	0.00000E+000	5.37979E-003	3.59960E-001	-1.12718E+000	3.57720E+000	10	...........
	43	0.586667	9.03294E-001	5.99557E-003	0.00000E+000	5.41577E-003	3.59960E-001	-1.11776E+000	3.57720E+000	10	...........
	44	0.6	9.09354E-001	5.99369E-003	0.00000E+000	5.45039E-003	3.59960E-001	-1.12268E+000	3.57720E+000	10	...........
	45	0.613333	9.15308E-001	5.99344E-003	0.00000E+000	5.48584E-003	3.59960E-001	-1.12713E+000	3.57720E+000	10	...........
	46	0.626667	9.21306E-001	5.99418E-003	0.00000E+000	5.52247E-003	3.59960E-001	-1.11767E+000	3.57720E+000	10	...........
	47	0.64	9.27246E-001	5.99482E-003	0.00000E+000	5.55868E-003	3.59960E-001	-1.12261E+000	3.57720E+000	10	...........
	48	0.653333	9.33125E-001	5.99192E-003	0.00000E+000	5.59122E-003	3.59960E-001	-1.12692E+000	3.57720E+000	10	...........
	49	0.666667	9.39008E-001	5.99521E-003	0.00000E+000	5.62955E-003	3.59960E-001	-1.11752E+000	3.57720E+000	10	...........
	50	0.68	9.44815E-001	5.99492E-003	0.00000E+000	5.66409E-003	3.59960E-001	-1.12248E+000	3.57720E+000	10	...........
	51	0.693333	9.50642E-001	5.99513E-003	0.00000E+000	5.69922E-003	3.59960E-001	-1.12681E+000	3.57720E+000	10	...........
	52	0.706667	9.56428E-001	5.98822E-003	0.00000E+000	5.72730E-003	3.59960E-001	-1.11740E+000	3.57720E+000	10	...........
	53	0.72	9.62131E-001	5.99368E-003	0.00000E+000	5.76670E-003	3.59960E-001	-1.12223E+000	3.57720E+000	10	...........
	54	0.733333	9.67797E-001	5.99294E-003	0.00000E+000	5.79995E-003	3.59960E-001	-1.12670E+000	3.57720E+000	10	...........
	55	0.746667	9.73459E-001	5.99286E-003	0.00000E+000	5.83381E-003	3.59960E-001	-1.11748E+000	3.57720E+000	10	...........
	56	0.76	9.79064E-001	5.99888E-003	0.00000E+000	5.87329E-003	3.59960E-001	-1.12254E+000	3.57720E+000	10	...........
	57	0.773333	9.84603E-001	5.99500E-003	0.00000E+000	5.90270E-003	3.59960E-001	-1.12678E+000	3.57720E+000	10	...........
	58	0.786667	9.90108E-001	5.99714E-003	0.00000E+000	5.93781E-003	3.59960E-001	-1.11742E+000	3.57720E+000	10	...........
	59	0.8	9.95619E-001	5.99325E-003	0.00000E+000	5.96699E-003	3.59960E-001	-1.12254E+000	3.57720E+000	10	...........
	60	0.805	9.99357E-001	5.98261E-003	0.00000E+000	5.97876E-003	3.59960E-001	-1.11813E+000	3.57720E+000	10	...........
STARTTIMEOFFSET	QUANT	658.0381	Start Time Offset (s)