File: Data/CV_CRGO300517_1/PWRCCD_CRGO300517_1/CHARGE_DISCHARGE/CHARGE_#591.DTA
EXPLAIN
TAG	PWR800_CHARGE
TITLE	LABEL	PWR Cyclic Charge Discharge (Cell) - Charge Step	Test &Identifier
DATE	LABEL	22-6-2017	Date
TIME	LABEL	15:59:25	Time
NOTES	NOTES	3	&Notes...
	supercap test cell
	0.6mg
	6M KOH
PSTAT	PSTAT	IFC5000-01520	Potentiostat
CAPACITY	QUANT	1.00000E-003	Capacity (A-hr)
CELLTYPE	SELECTOR	1	&Cell Type
WORKINGCONNECTION	SELECTOR	0	&Working Lead
MAXCHARGETIME	VARIABLEANDUNITS	1.00000E+002	s	1.00000E+002	second(s)	Max &Charge Time
CHARGECURRENT	QUANT	6.00000E-003	&Charge Current (A)
VOLTAGEFINISH	TWOPARAM	F	1.00000E-003	3.60000E+003	&Voltage Finish	 I (A) < 	Max Time(s)
SAMPLETIME	QUANT	1.00000E-002	Sa&mple Period (s)
CHARGESTOPAT1	MULTIPARAM	4	1.00000E+000	Charge Stop At &1	Voltage > Limit	V
CHARGESTOPAT2	MULTIPARAM	0	0.00000E+000	Charge Stop At &2	None	N/A
AESBHCSELECTOR	TOGGLE	F	Save Both Half Cells
IRCOMP	TOGGLE	F	IR &Measure
EOC	QUANT	0	Open Circuit (V)
SEQUENCER	TOGGLE	TRUE	Run as Sequence
PSTATMODEL	IQUANT	53	Pstat Model
PSTATSECTION	LABEL	IFC5000-01520	Pstat Section
PSTATSERIALNO	LABEL	01520	Pstat Serial Number
CTRLMODE	IQUANT	0	Control Mode
ELECTROMETER	IQUANT	1	RE=0 or CS=1
IESTAB	IQUANT	0	I/E Stability
CASPEED	IQUANT	4	Control Amp Speed
CONVENTION	IQUANT	1	Current Convention
ICHRANGE	IQUANT	2	Ich Range
ICHRANGEMODE	TOGGLE	T	Ich Auto Range
ICHOFFSETENABLE	TOGGLE	F	Ich Offset Enable
ICHOFFSET	QUANT	0	Ich Offset (V)
ICHFILTER	IQUANT	1	Ich Filter
VCHRANGE	IQUANT	2	Vch Range
VCHRANGEMODE	TOGGLE	T	Vch Auto Range
VCHOFFSETENABLE	TOGGLE	F	Vch Offset Enable
VCHOFFSET	QUANT	0	Vch Offset (V)
VCHFILTER	IQUANT	1	Vch Filter
IERANGELOWERLIMIT	IQUANT	9	I/E Range Lower Limit
IERANGEMODE	TOGGLE	F	I/E AutoRange
IERANGE	IQUANT	10	I/E Range
ACHSELECT	IQUANT	1	Ach Select
ACHRANGE	IQUANT	2	Ach Range
ACHOFFSETENABLE	TOGGLE	F	Ach Offset Enable
ACHOFFSET	QUANT	0	Ach Offset (V)
ACHFILTER	IQUANT	1	Ach Filter
CABLEID	IQUANT	14	Cable ID
DCCALDATE	LABEL	20-10-2016	DC Calibration Date
ACCALDATE	LABEL	12/3/2015	AC Calibration Date
FRAMEWORKVERSION	QUANT	7.01	Framework Version
INSTRUMENTVERSION	LABEL	4.00	Instrument Version
CURVE	TABLE	57
	Pt	T	Vf	Im	Vu	Pwr	Sig	Ach	Temp	IERange	Over
	#	s	V	A	V	W	V	V	deg C	#	bits
	0	0.013333	6.37975E-001	5.99534E-003	0.00000E+000	3.82487E-003	3.59960E-001	-1.15312E+000	3.57790E+000	10	...........
	1	0.026667	6.46962E-001	5.98930E-003	0.00000E+000	3.87485E-003	3.59960E-001	-1.14856E+000	3.57790E+000	10	...........
	2	0.04	6.55254E-001	5.99318E-003	0.00000E+000	3.92705E-003	3.59960E-001	-1.14378E+000	3.57790E+000	10	...........
	3	0.053333	6.63062E-001	6.00010E-003	0.00000E+000	3.97844E-003	3.59960E-001	-1.15312E+000	3.57790E+000	10	...........
	4	0.066667	6.70600E-001	5.99311E-003	0.00000E+000	4.01898E-003	3.59960E-001	-1.14882E+000	3.57790E+000	10	...........
	5	0.08	6.77929E-001	5.98638E-003	0.00000E+000	4.05834E-003	3.59960E-001	-1.14365E+000	3.57790E+000	10	...........
	6	0.093333	6.85154E-001	5.99601E-003	0.00000E+000	4.10819E-003	3.59960E-001	-1.15281E+000	3.57790E+000	10	...........
	7	0.106667	6.92324E-001	5.99635E-003	0.00000E+000	4.15141E-003	3.59960E-001	-1.14857E+000	3.57790E+000	10	...........
	8	0.12	6.99292E-001	5.99205E-003	0.00000E+000	4.19019E-003	3.59960E-001	-1.14361E+000	3.57790E+000	10	...........
	9	0.133333	7.06212E-001	5.99114E-003	0.00000E+000	4.23101E-003	3.59960E-001	-1.15294E+000	3.57790E+000	10	...........
	10	0.146667	7.13083E-001	5.99776E-003	0.00000E+000	4.27690E-003	3.59960E-001	-1.14852E+000	3.57790E+000	10	...........
	11	0.16	7.19948E-001	5.99186E-003	0.00000E+000	4.31383E-003	3.59960E-001	-1.14326E+000	3.57790E+000	10	...........
	12	0.173333	7.26727E-001	5.99808E-003	0.00000E+000	4.35896E-003	3.59960E-001	-1.15281E+000	3.57790E+000	10	...........
	13	0.186667	7.33445E-001	5.99314E-003	0.00000E+000	4.39564E-003	3.59960E-001	-1.14855E+000	3.57790E+000	10	...........
	14	0.2	7.40127E-001	5.99503E-003	0.00000E+000	4.43708E-003	3.59960E-001	-1.14349E+000	3.57790E+000	10	...........
	15	0.213333	7.46839E-001	5.98876E-003	0.00000E+000	4.47264E-003	3.59960E-001	-1.15275E+000	3.57790E+000	10	...........
	16	0.226667	7.53465E-001	5.99742E-003	0.00000E+000	4.51885E-003	3.59960E-001	-1.14832E+000	3.57790E+000	10	...........
	17	0.24	7.60102E-001	5.99986E-003	0.00000E+000	4.56050E-003	3.59960E-001	-1.14338E+000	3.57790E+000	10	...........
	18	0.253333	7.66674E-001	5.99549E-003	0.00000E+000	4.59659E-003	3.59960E-001	-1.15293E+000	3.57790E+000	10	...........
	19	0.266667	7.73286E-001	5.98937E-003	0.00000E+000	4.63150E-003	3.59960E-001	-1.14864E+000	3.57790E+000	10	...........
	20	0.28	7.79859E-001	5.98830E-003	0.00000E+000	4.67003E-003	3.59960E-001	-1.14352E+000	3.57790E+000	10	...........
	21	0.293333	7.86395E-001	6.00028E-003	0.00000E+000	4.71859E-003	3.59960E-001	-1.15266E+000	3.57790E+000	10	...........
	22	0.306667	7.92947E-001	5.99134E-003	0.00000E+000	4.75082E-003	3.59960E-001	-1.14830E+000	3.57790E+000	10	...........
	23	0.32	7.99500E-001	5.99459E-003	0.00000E+000	4.79268E-003	3.59960E-001	-1.14305E+000	3.57790E+000	10	...........
	24	0.333333	8.05971E-001	5.99858E-003	0.00000E+000	4.83468E-003	3.59960E-001	-1.15224E+000	3.57790E+000	10	...........
	25	0.346667	8.12445E-001	5.99096E-003	0.00000E+000	4.86733E-003	3.59960E-001	-1.14782E+000	3.57790E+000	10	...........
	26	0.36	8.18927E-001	5.99486E-003	0.00000E+000	4.90935E-003	3.59960E-001	-1.14265E+000	3.57790E+000	10	...........
	27	0.373333	8.25372E-001	5.99518E-003	0.00000E+000	4.94825E-003	3.59960E-001	-1.15214E+000	3.57790E+000	10	...........
	28	0.386667	8.31769E-001	5.99252E-003	0.00000E+000	4.98439E-003	3.59960E-001	-1.14801E+000	3.57790E+000	10	...........
	29	0.4	8.38158E-001	5.99441E-003	0.00000E+000	5.02426E-003	3.59960E-001	-1.14294E+000	3.57790E+000	10	...........
	30	0.413333	8.44552E-001	5.99344E-003	0.00000E+000	5.06177E-003	3.59960E-001	-1.15208E+000	3.57790E+000	10	...........
	31	0.426667	8.50973E-001	5.99405E-003	0.00000E+000	5.10077E-003	3.59960E-001	-1.14771E+000	3.57790E+000	10	...........
	32	0.44	8.57340E-001	5.99475E-003	0.00000E+000	5.13954E-003	3.59960E-001	-1.14280E+000	3.57790E+000	10	...........
	33	0.453333	8.63660E-001	5.99836E-003	0.00000E+000	5.18054E-003	3.59960E-001	-1.15210E+000	3.57790E+000	10	...........
	34	0.466667	8.69993E-001	5.98797E-003	0.00000E+000	5.20950E-003	3.59960E-001	-1.14785E+000	3.57790E+000	10	...........
	35	0.48	8.76291E-001	5.99383E-003	0.00000E+000	5.25234E-003	3.59960E-001	-1.14259E+000	3.57790E+000	10	...........
	36	0.493333	8.82531E-001	5.99557E-003	0.00000E+000	5.29128E-003	3.59960E-001	-1.15176E+000	3.57790E+000	10	...........
	37	0.506667	8.88770E-001	5.99527E-003	0.00000E+000	5.32842E-003	3.59960E-001	-1.14763E+000	3.57790E+000	10	...........
	38	0.52	8.94956E-001	5.98920E-003	0.00000E+000	5.36007E-003	3.59960E-001	-1.14266E+000	3.57790E+000	10	...........
	39	0.533333	9.01159E-001	5.99458E-003	0.00000E+000	5.40207E-003	3.59960E-001	-1.15208E+000	3.57700E+000	10	...........
	40	0.546667	9.07280E-001	5.99231E-003	0.00000E+000	5.43670E-003	3.59960E-001	-1.14772E+000	3.57680E+000	10	...........
	41	0.56	9.13416E-001	5.99868E-003	0.00000E+000	5.47929E-003	3.59960E-001	-1.14262E+000	3.57680E+000	10	...........
	42	0.573333	9.19509E-001	5.99854E-003	0.00000E+000	5.51571E-003	3.59960E-001	-1.15200E+000	3.57680E+000	10	...........
	43	0.586667	9.25551E-001	5.99307E-003	0.00000E+000	5.54690E-003	3.59960E-001	-1.14798E+000	3.57680E+000	10	...........
	44	0.6	9.31572E-001	5.99142E-003	0.00000E+000	5.58145E-003	3.59960E-001	-1.14274E+000	3.57680E+000	10	...........
	45	0.613333	9.37550E-001	5.99495E-003	0.00000E+000	5.62056E-003	3.59960E-001	-1.15206E+000	3.57680E+000	10	...........
	46	0.626667	9.43458E-001	5.99096E-003	0.00000E+000	5.65222E-003	3.59960E-001	-1.14781E+000	3.57680E+000	10	...........
	47	0.64	9.49412E-001	5.99732E-003	0.00000E+000	5.69392E-003	3.59960E-001	-1.14240E+000	3.57680E+000	10	...........
	48	0.653333	9.55237E-001	5.99142E-003	0.00000E+000	5.72323E-003	3.59960E-001	-1.15166E+000	3.57680E+000	10	...........
	49	0.666667	9.60990E-001	5.99125E-003	0.00000E+000	5.75753E-003	3.59960E-001	-1.14750E+000	3.57680E+000	10	...........
	50	0.68	9.66742E-001	5.99183E-003	0.00000E+000	5.79255E-003	3.59960E-001	-1.14240E+000	3.57680E+000	10	...........
	51	0.693333	9.72499E-001	5.99472E-003	0.00000E+000	5.82986E-003	3.59960E-001	-1.15150E+000	3.57680E+000	10	...........
	52	0.706667	9.78183E-001	5.99658E-003	0.00000E+000	5.86575E-003	3.59960E-001	-1.14751E+000	3.57680E+000	10	...........
	53	0.72	9.83757E-001	5.99108E-003	0.00000E+000	5.89376E-003	3.59960E-001	-1.14261E+000	3.57680E+000	10	...........
	54	0.733333	9.89331E-001	5.99238E-003	0.00000E+000	5.92845E-003	3.59960E-001	-1.15161E+000	3.57680E+000	10	...........
	55	0.746667	9.94837E-001	5.99345E-003	0.00000E+000	5.96250E-003	3.59960E-001	-1.14758E+000	3.57680E+000	10	...........
	56	0.755	9.99284E-001	5.99401E-003	0.00000E+000	5.98971E-003	3.59960E-001	-1.14322E+000	3.57680E+000	10	...........
STARTTIMEOFFSET	QUANT	997.427	Start Time Offset (s)