File: Data/CV_CRGO300517_1/PWRCCD_CRGO300517_1/CHARGE_DISCHARGE/CHARGE_#237.DTA
EXPLAIN
TAG	PWR800_CHARGE
TITLE	LABEL	PWR Cyclic Charge Discharge (Cell) - Charge Step	Test &Identifier
DATE	LABEL	22-6-2017	Date
TIME	LABEL	15:45:20	Time
NOTES	NOTES	3	&Notes...
	supercap test cell
	0.6mg
	6M KOH
PSTAT	PSTAT	IFC5000-01520	Potentiostat
CAPACITY	QUANT	1.00000E-003	Capacity (A-hr)
CELLTYPE	SELECTOR	1	&Cell Type
WORKINGCONNECTION	SELECTOR	0	&Working Lead
MAXCHARGETIME	VARIABLEANDUNITS	1.00000E+002	s	1.00000E+002	second(s)	Max &Charge Time
CHARGECURRENT	QUANT	6.00000E-003	&Charge Current (A)
VOLTAGEFINISH	TWOPARAM	F	1.00000E-003	3.60000E+003	&Voltage Finish	 I (A) < 	Max Time(s)
SAMPLETIME	QUANT	1.00000E-002	Sa&mple Period (s)
CHARGESTOPAT1	MULTIPARAM	4	1.00000E+000	Charge Stop At &1	Voltage > Limit	V
CHARGESTOPAT2	MULTIPARAM	0	0.00000E+000	Charge Stop At &2	None	N/A
AESBHCSELECTOR	TOGGLE	F	Save Both Half Cells
IRCOMP	TOGGLE	F	IR &Measure
EOC	QUANT	0	Open Circuit (V)
SEQUENCER	TOGGLE	TRUE	Run as Sequence
PSTATMODEL	IQUANT	53	Pstat Model
PSTATSECTION	LABEL	IFC5000-01520	Pstat Section
PSTATSERIALNO	LABEL	01520	Pstat Serial Number
CTRLMODE	IQUANT	0	Control Mode
ELECTROMETER	IQUANT	1	RE=0 or CS=1
IESTAB	IQUANT	0	I/E Stability
CASPEED	IQUANT	4	Control Amp Speed
CONVENTION	IQUANT	1	Current Convention
ICHRANGE	IQUANT	2	Ich Range
ICHRANGEMODE	TOGGLE	T	Ich Auto Range
ICHOFFSETENABLE	TOGGLE	F	Ich Offset Enable
ICHOFFSET	QUANT	0	Ich Offset (V)
ICHFILTER	IQUANT	1	Ich Filter
VCHRANGE	IQUANT	2	Vch Range
VCHRANGEMODE	TOGGLE	T	Vch Auto Range
VCHOFFSETENABLE	TOGGLE	F	Vch Offset Enable
VCHOFFSET	QUANT	0	Vch Offset (V)
VCHFILTER	IQUANT	1	Vch Filter
IERANGELOWERLIMIT	IQUANT	9	I/E Range Lower Limit
IERANGEMODE	TOGGLE	F	I/E AutoRange
IERANGE	IQUANT	10	I/E Range
ACHSELECT	IQUANT	1	Ach Select
ACHRANGE	IQUANT	2	Ach Range
ACHOFFSETENABLE	TOGGLE	F	Ach Offset Enable
ACHOFFSET	QUANT	0	Ach Offset (V)
ACHFILTER	IQUANT	1	Ach Filter
CABLEID	IQUANT	14	Cable ID
DCCALDATE	LABEL	20-10-2016	DC Calibration Date
ACCALDATE	LABEL	12/3/2015	AC Calibration Date
FRAMEWORKVERSION	QUANT	7.01	Framework Version
INSTRUMENTVERSION	LABEL	4.00	Instrument Version
CURVE	TABLE	64
	Pt	T	Vf	Im	Vu	Pwr	Sig	Ach	Temp	IERange	Over
	#	s	V	A	V	W	V	V	deg C	#	bits
	0	0.013333	6.10161E-001	5.99306E-003	0.00000E+000	3.65673E-003	3.59960E-001	-1.09191E+000	3.57690E+000	10	...........
	1	0.026667	6.18759E-001	5.99756E-003	0.00000E+000	3.71104E-003	3.59960E-001	-1.09943E+000	3.57690E+000	10	...........
	2	0.04	6.26550E-001	5.99501E-003	0.00000E+000	3.75617E-003	3.59960E-001	-1.09708E+000	3.57690E+000	10	...........
	3	0.053333	6.33916E-001	5.99067E-003	0.00000E+000	3.79758E-003	3.59960E-001	-1.09155E+000	3.57690E+000	10	...........
	4	0.066667	6.41095E-001	5.99285E-003	0.00000E+000	3.84199E-003	3.59960E-001	-1.09931E+000	3.57690E+000	10	...........
	5	0.08	6.48076E-001	5.99884E-003	0.00000E+000	3.88771E-003	3.59960E-001	-1.09680E+000	3.57690E+000	10	...........
	6	0.093333	6.54900E-001	5.99573E-003	0.00000E+000	3.92661E-003	3.59960E-001	-1.09132E+000	3.57690E+000	10	...........
	7	0.106667	6.61561E-001	5.99142E-003	0.00000E+000	3.96369E-003	3.59960E-001	-1.09874E+000	3.57690E+000	10	...........
	8	0.12	6.68233E-001	5.99347E-003	0.00000E+000	4.00503E-003	3.59960E-001	-1.09658E+000	3.57690E+000	10	...........
	9	0.133333	6.74776E-001	5.98986E-003	0.00000E+000	4.04181E-003	3.59960E-001	-1.09121E+000	3.57690E+000	10	...........
	10	0.146667	6.81291E-001	5.99429E-003	0.00000E+000	4.08386E-003	3.59960E-001	-1.09887E+000	3.57690E+000	10	...........
	11	0.16	6.87675E-001	5.99323E-003	0.00000E+000	4.12139E-003	3.59960E-001	-1.09625E+000	3.57690E+000	10	...........
	12	0.173333	6.94112E-001	5.99220E-003	0.00000E+000	4.15926E-003	3.59960E-001	-1.09077E+000	3.57690E+000	10	...........
	13	0.186667	7.00516E-001	5.99469E-003	0.00000E+000	4.19937E-003	3.59960E-001	-1.09849E+000	3.57690E+000	10	...........
	14	0.2	7.06832E-001	5.98972E-003	0.00000E+000	4.23373E-003	3.59960E-001	-1.09612E+000	3.57690E+000	10	...........
	15	0.213333	7.13140E-001	5.99311E-003	0.00000E+000	4.27393E-003	3.59960E-001	-1.09072E+000	3.57690E+000	10	...........
	16	0.226667	7.19479E-001	5.99453E-003	0.00000E+000	4.31294E-003	3.59960E-001	-1.09796E+000	3.57690E+000	10	...........
	17	0.24	7.25736E-001	5.99569E-003	0.00000E+000	4.35129E-003	3.59960E-001	-1.09538E+000	3.57690E+000	10	...........
	18	0.253333	7.31996E-001	5.99431E-003	0.00000E+000	4.38781E-003	3.59960E-001	-1.08983E+000	3.57690E+000	10	...........
	19	0.266667	7.38198E-001	5.99626E-003	0.00000E+000	4.42643E-003	3.59960E-001	-1.09726E+000	3.57690E+000	10	...........
	20	0.28	7.44463E-001	5.99791E-003	0.00000E+000	4.46522E-003	3.59960E-001	-1.09497E+000	3.57690E+000	10	...........
	21	0.293333	7.50663E-001	5.99263E-003	0.00000E+000	4.49845E-003	3.59960E-001	-1.08946E+000	3.57690E+000	10	...........
	22	0.306667	7.56855E-001	5.99454E-003	0.00000E+000	4.53700E-003	3.59960E-001	-1.09670E+000	3.57701E+000	10	...........
	23	0.32	7.63074E-001	5.99338E-003	0.00000E+000	4.57340E-003	3.59960E-001	-1.09465E+000	3.57720E+000	10	...........
	24	0.333333	7.69245E-001	5.99468E-003	0.00000E+000	4.61138E-003	3.59960E-001	-1.08899E+000	3.57720E+000	10	...........
	25	0.346667	7.75431E-001	5.99258E-003	0.00000E+000	4.64683E-003	3.59960E-001	-1.09634E+000	3.57720E+000	10	...........
	26	0.36	7.81608E-001	5.99721E-003	0.00000E+000	4.68747E-003	3.59960E-001	-1.09409E+000	3.57720E+000	10	...........
	27	0.373333	7.87737E-001	5.99262E-003	0.00000E+000	4.72061E-003	3.59960E-001	-1.08860E+000	3.57720E+000	10	...........
	28	0.386667	7.93888E-001	5.99498E-003	0.00000E+000	4.75934E-003	3.59960E-001	-1.09586E+000	3.57720E+000	10	...........
	29	0.4	8.00046E-001	5.99399E-003	0.00000E+000	4.79547E-003	3.59960E-001	-1.09383E+000	3.57720E+000	10	...........
	30	0.413333	8.06165E-001	5.99627E-003	0.00000E+000	4.83399E-003	3.59960E-001	-1.08811E+000	3.57720E+000	10	...........
	31	0.426667	8.12292E-001	5.99453E-003	0.00000E+000	4.86931E-003	3.59960E-001	-1.09543E+000	3.57720E+000	10	...........
	32	0.44	8.18404E-001	5.99093E-003	0.00000E+000	4.90301E-003	3.59960E-001	-1.09330E+000	3.57720E+000	10	...........
	33	0.453333	8.24540E-001	5.99704E-003	0.00000E+000	4.94480E-003	3.59960E-001	-1.08774E+000	3.57720E+000	10	...........
	34	0.466667	8.30654E-001	5.99689E-003	0.00000E+000	4.98134E-003	3.59960E-001	-1.09513E+000	3.57720E+000	10	...........
	35	0.48	8.36717E-001	5.99273E-003	0.00000E+000	5.01422E-003	3.59960E-001	-1.09312E+000	3.57720E+000	10	...........
	36	0.493333	8.42771E-001	5.99317E-003	0.00000E+000	5.05087E-003	3.59960E-001	-1.08744E+000	3.57720E+000	10	...........
	37	0.506667	8.48879E-001	5.99836E-003	0.00000E+000	5.09188E-003	3.59960E-001	-1.09459E+000	3.57720E+000	10	...........
	38	0.52	8.54915E-001	5.99596E-003	0.00000E+000	5.12604E-003	3.59960E-001	-1.09267E+000	3.57720E+000	10	...........
	39	0.533333	8.60930E-001	5.99573E-003	0.00000E+000	5.16191E-003	3.59960E-001	-1.08698E+000	3.57720E+000	10	...........
	40	0.546667	8.66982E-001	5.99519E-003	0.00000E+000	5.19772E-003	3.59960E-001	-1.09379E+000	3.57720E+000	10	...........
	41	0.56	8.73035E-001	5.99421E-003	0.00000E+000	5.23315E-003	3.59960E-001	-1.09172E+000	3.57720E+000	10	...........
	42	0.573333	8.78992E-001	5.98989E-003	0.00000E+000	5.26506E-003	3.59960E-001	-1.08581E+000	3.57720E+000	10	...........
	43	0.586667	8.85008E-001	5.99584E-003	0.00000E+000	5.30636E-003	3.59960E-001	-1.09302E+000	3.57720E+000	10	...........
	44	0.6	8.90947E-001	5.99333E-003	0.00000E+000	5.33974E-003	3.59960E-001	-1.09112E+000	3.57720E+000	10	...........
	45	0.613333	8.96885E-001	5.99465E-003	0.00000E+000	5.37651E-003	3.59960E-001	-1.08504E+000	3.57720E+000	10	...........
	46	0.626667	9.02789E-001	5.99269E-003	0.00000E+000	5.41013E-003	3.59960E-001	-1.09194E+000	3.57720E+000	10	...........
	47	0.64	9.08696E-001	5.99361E-003	0.00000E+000	5.44638E-003	3.59960E-001	-1.09021E+000	3.57720E+000	10	...........
	48	0.653333	9.14620E-001	5.99799E-003	0.00000E+000	5.48589E-003	3.59960E-001	-1.08428E+000	3.57720E+000	10	...........
	49	0.666667	9.20531E-001	5.99153E-003	0.00000E+000	5.51539E-003	3.59960E-001	-1.09111E+000	3.57720E+000	10	...........
	50	0.68	9.26384E-001	5.99646E-003	0.00000E+000	5.55503E-003	3.59960E-001	-1.08945E+000	3.57720E+000	10	...........
	51	0.693333	9.32169E-001	5.99823E-003	0.00000E+000	5.59137E-003	3.59960E-001	-1.08353E+000	3.57720E+000	10	...........
	52	0.706667	9.37920E-001	5.99485E-003	0.00000E+000	5.62268E-003	3.59960E-001	-1.09040E+000	3.57720E+000	10	...........
	53	0.72	9.43654E-001	5.99334E-003	0.00000E+000	5.65564E-003	3.59960E-001	-1.08878E+000	3.57720E+000	10	...........
	54	0.733333	9.49371E-001	5.99175E-003	0.00000E+000	5.68839E-003	3.59960E-001	-1.08266E+000	3.57720E+000	10	...........
	55	0.746667	9.55039E-001	5.98893E-003	0.00000E+000	5.71966E-003	3.59960E-001	-1.09012E+000	3.57720E+000	10	...........
	56	0.76	9.60654E-001	5.99262E-003	0.00000E+000	5.75684E-003	3.59960E-001	-1.08864E+000	3.57720E+000	10	...........
	57	0.773333	9.66280E-001	5.99289E-003	0.00000E+000	5.79082E-003	3.59960E-001	-1.08300E+000	3.57720E+000	10	...........
	58	0.786667	9.71884E-001	5.99308E-003	0.00000E+000	5.82458E-003	3.59960E-001	-1.09029E+000	3.57720E+000	10	...........
	59	0.8	9.77474E-001	5.99246E-003	0.00000E+000	5.85747E-003	3.59960E-001	-1.08908E+000	3.57720E+000	10	...........
	60	0.813333	9.82921E-001	5.99304E-003	0.00000E+000	5.89069E-003	3.59960E-001	-1.08357E+000	3.57720E+000	10	...........
	61	0.826667	9.88388E-001	5.99570E-003	0.00000E+000	5.92608E-003	3.59960E-001	-1.09045E+000	3.57720E+000	10	...........
	62	0.84	9.93783E-001	5.99883E-003	0.00000E+000	5.96153E-003	3.59960E-001	-1.08919E+000	3.57720E+000	10	...........
	63	0.85	9.98493E-001	5.99803E-003	0.00000E+000	5.98900E-003	3.59960E-001	-1.08122E+000	3.57720E+000	10	...........
STARTTIMEOFFSET	QUANT	436.0567	Start Time Offset (s)