File: Data/CV_CRGO300517_1/PWRCCD_CRGO300517_1/CHARGE_DISCHARGE/CHARGE_#880.DTA
EXPLAIN
TAG	PWR800_CHARGE
TITLE	LABEL	PWR Cyclic Charge Discharge (Cell) - Charge Step	Test &Identifier
DATE	LABEL	22-6-2017	Date
TIME	LABEL	16:10:14	Time
NOTES	NOTES	3	&Notes...
	supercap test cell
	0.6mg
	6M KOH
PSTAT	PSTAT	IFC5000-01520	Potentiostat
CAPACITY	QUANT	1.00000E-003	Capacity (A-hr)
CELLTYPE	SELECTOR	1	&Cell Type
WORKINGCONNECTION	SELECTOR	0	&Working Lead
MAXCHARGETIME	VARIABLEANDUNITS	1.00000E+002	s	1.00000E+002	second(s)	Max &Charge Time
CHARGECURRENT	QUANT	6.00000E-003	&Charge Current (A)
VOLTAGEFINISH	TWOPARAM	F	1.00000E-003	3.60000E+003	&Voltage Finish	 I (A) < 	Max Time(s)
SAMPLETIME	QUANT	1.00000E-002	Sa&mple Period (s)
CHARGESTOPAT1	MULTIPARAM	4	1.00000E+000	Charge Stop At &1	Voltage > Limit	V
CHARGESTOPAT2	MULTIPARAM	0	0.00000E+000	Charge Stop At &2	None	N/A
AESBHCSELECTOR	TOGGLE	F	Save Both Half Cells
IRCOMP	TOGGLE	F	IR &Measure
EOC	QUANT	0	Open Circuit (V)
SEQUENCER	TOGGLE	TRUE	Run as Sequence
PSTATMODEL	IQUANT	53	Pstat Model
PSTATSECTION	LABEL	IFC5000-01520	Pstat Section
PSTATSERIALNO	LABEL	01520	Pstat Serial Number
CTRLMODE	IQUANT	0	Control Mode
ELECTROMETER	IQUANT	1	RE=0 or CS=1
IESTAB	IQUANT	0	I/E Stability
CASPEED	IQUANT	4	Control Amp Speed
CONVENTION	IQUANT	1	Current Convention
ICHRANGE	IQUANT	2	Ich Range
ICHRANGEMODE	TOGGLE	T	Ich Auto Range
ICHOFFSETENABLE	TOGGLE	F	Ich Offset Enable
ICHOFFSET	QUANT	0	Ich Offset (V)
ICHFILTER	IQUANT	1	Ich Filter
VCHRANGE	IQUANT	2	Vch Range
VCHRANGEMODE	TOGGLE	T	Vch Auto Range
VCHOFFSETENABLE	TOGGLE	F	Vch Offset Enable
VCHOFFSET	QUANT	0	Vch Offset (V)
VCHFILTER	IQUANT	1	Vch Filter
IERANGELOWERLIMIT	IQUANT	9	I/E Range Lower Limit
IERANGEMODE	TOGGLE	F	I/E AutoRange
IERANGE	IQUANT	10	I/E Range
ACHSELECT	IQUANT	1	Ach Select
ACHRANGE	IQUANT	2	Ach Range
ACHOFFSETENABLE	TOGGLE	F	Ach Offset Enable
ACHOFFSET	QUANT	0	Ach Offset (V)
ACHFILTER	IQUANT	1	Ach Filter
CABLEID	IQUANT	14	Cable ID
DCCALDATE	LABEL	20-10-2016	DC Calibration Date
ACCALDATE	LABEL	12/3/2015	AC Calibration Date
FRAMEWORKVERSION	QUANT	7.01	Framework Version
INSTRUMENTVERSION	LABEL	4.00	Instrument Version
CURVE	TABLE	54
	Pt	T	Vf	Im	Vu	Pwr	Sig	Ach	Temp	IERange	Over
	#	s	V	A	V	W	V	V	deg C	#	bits
	0	0.013333	6.52523E-001	5.99111E-003	0.00000E+000	3.90934E-003	3.59960E-001	-1.16998E+000	3.57630E+000	10	...........
	1	0.026667	6.61790E-001	5.99499E-003	0.00000E+000	3.96743E-003	3.59960E-001	-1.16313E+000	3.57630E+000	10	...........
	2	0.04	6.70322E-001	5.99565E-003	0.00000E+000	4.01902E-003	3.59960E-001	-1.17054E+000	3.57630E+000	10	...........
	3	0.053333	6.78364E-001	5.99796E-003	0.00000E+000	4.06880E-003	3.59960E-001	-1.16979E+000	3.57630E+000	10	...........
	4	0.066667	6.86170E-001	5.99177E-003	0.00000E+000	4.11137E-003	3.59960E-001	-1.16247E+000	3.57630E+000	10	...........
	5	0.08	6.93766E-001	5.99202E-003	0.00000E+000	4.15706E-003	3.59960E-001	-1.17007E+000	3.57630E+000	10	...........
	6	0.093333	7.01186E-001	5.99429E-003	0.00000E+000	4.20311E-003	3.59960E-001	-1.16965E+000	3.57630E+000	10	...........
	7	0.106667	7.08489E-001	5.99333E-003	0.00000E+000	4.24621E-003	3.59960E-001	-1.16274E+000	3.57630E+000	10	...........
	8	0.12	7.15726E-001	5.99119E-003	0.00000E+000	4.28806E-003	3.59960E-001	-1.16996E+000	3.57630E+000	10	...........
	9	0.133333	7.22903E-001	5.98690E-003	0.00000E+000	4.32794E-003	3.59960E-001	-1.16957E+000	3.57630E+000	10	...........
	10	0.146667	7.29984E-001	5.99434E-003	0.00000E+000	4.37578E-003	3.59960E-001	-1.16268E+000	3.57630E+000	10	...........
	11	0.16	7.36978E-001	5.99508E-003	0.00000E+000	4.41825E-003	3.59960E-001	-1.17006E+000	3.57630E+000	10	...........
	12	0.173333	7.44013E-001	5.99079E-003	0.00000E+000	4.45722E-003	3.59960E-001	-1.16990E+000	3.57630E+000	10	...........
	13	0.186667	7.50961E-001	5.99822E-003	0.00000E+000	4.50443E-003	3.59960E-001	-1.16263E+000	3.57630E+000	10	...........
	14	0.2	7.57848E-001	5.99354E-003	0.00000E+000	4.54219E-003	3.59960E-001	-1.16943E+000	3.57630E+000	10	...........
	15	0.213333	7.64678E-001	5.99212E-003	0.00000E+000	4.58205E-003	3.59960E-001	-1.16958E+000	3.57630E+000	10	...........
	16	0.226667	7.71536E-001	5.99070E-003	0.00000E+000	4.62204E-003	3.59960E-001	-1.16259E+000	3.57630E+000	10	...........
	17	0.24	7.78345E-001	5.99508E-003	0.00000E+000	4.66624E-003	3.59960E-001	-1.16944E+000	3.57630E+000	10	...........
	18	0.253333	7.85120E-001	5.99233E-003	0.00000E+000	4.70470E-003	3.59960E-001	-1.16957E+000	3.57630E+000	10	...........
	19	0.266667	7.91877E-001	5.98944E-003	0.00000E+000	4.74290E-003	3.59960E-001	-1.16192E+000	3.57630E+000	10	...........
	20	0.28	7.98630E-001	5.99601E-003	0.00000E+000	4.78859E-003	3.59960E-001	-1.16895E+000	3.57630E+000	10	...........
	21	0.293333	8.05314E-001	5.99591E-003	0.00000E+000	4.82859E-003	3.59960E-001	-1.16971E+000	3.57630E+000	10	...........
	22	0.306667	8.11946E-001	5.99306E-003	0.00000E+000	4.86604E-003	3.59960E-001	-1.16209E+000	3.57630E+000	10	...........
	23	0.32	8.18593E-001	5.99325E-003	0.00000E+000	4.90603E-003	3.59960E-001	-1.16900E+000	3.57630E+000	10	...........
	24	0.333333	8.25242E-001	5.99755E-003	0.00000E+000	4.94943E-003	3.59960E-001	-1.16943E+000	3.57630E+000	10	...........
	25	0.346667	8.31844E-001	5.99190E-003	0.00000E+000	4.98433E-003	3.59960E-001	-1.16196E+000	3.57630E+000	10	...........
	26	0.36	8.38419E-001	5.99600E-003	0.00000E+000	5.02716E-003	3.59960E-001	-1.16881E+000	3.57630E+000	10	...........
	27	0.373333	8.44987E-001	5.99382E-003	0.00000E+000	5.06470E-003	3.59960E-001	-1.17001E+000	3.57630E+000	10	...........
	28	0.386667	8.51508E-001	5.99668E-003	0.00000E+000	5.10622E-003	3.59960E-001	-1.16209E+000	3.57630E+000	10	...........
	29	0.4	8.57998E-001	5.99153E-003	0.00000E+000	5.14072E-003	3.59960E-001	-1.16831E+000	3.57630E+000	10	...........
	30	0.413333	8.64506E-001	5.99001E-003	0.00000E+000	5.17840E-003	3.59960E-001	-1.16979E+000	3.57630E+000	10	...........
	31	0.426667	8.70990E-001	5.99363E-003	0.00000E+000	5.22040E-003	3.59960E-001	-1.16227E+000	3.57630E+000	10	...........
	32	0.44	8.77354E-001	5.98940E-003	0.00000E+000	5.25482E-003	3.59960E-001	-1.16869E+000	3.57630E+000	10	...........
	33	0.453333	8.83763E-001	5.99562E-003	0.00000E+000	5.29871E-003	3.59960E-001	-1.16985E+000	3.57630E+000	10	...........
	34	0.466667	8.90093E-001	5.99308E-003	0.00000E+000	5.33440E-003	3.59960E-001	-1.16218E+000	3.57630E+000	10	...........
	35	0.48	8.96399E-001	5.99263E-003	0.00000E+000	5.37179E-003	3.59960E-001	-1.16855E+000	3.57646E+000	10	...........
	36	0.493333	9.02741E-001	5.99327E-003	0.00000E+000	5.41037E-003	3.59960E-001	-1.17022E+000	3.57650E+000	10	...........
	37	0.506667	9.08997E-001	5.99995E-003	0.00000E+000	5.45393E-003	3.59960E-001	-1.16237E+000	3.57650E+000	10	...........
	38	0.52	9.15201E-001	5.99161E-003	0.00000E+000	5.48353E-003	3.59960E-001	-1.16857E+000	3.57650E+000	10	...........
	39	0.533333	9.21415E-001	5.99653E-003	0.00000E+000	5.52530E-003	3.59960E-001	-1.17010E+000	3.57650E+000	10	...........
	40	0.546667	9.27540E-001	5.99379E-003	0.00000E+000	5.55948E-003	3.59960E-001	-1.16236E+000	3.57650E+000	10	...........
	41	0.56	9.33619E-001	5.99372E-003	0.00000E+000	5.59585E-003	3.59960E-001	-1.16837E+000	3.57650E+000	10	...........
	42	0.573333	9.39683E-001	5.99731E-003	0.00000E+000	5.63557E-003	3.59960E-001	-1.17014E+000	3.57650E+000	10	...........
	43	0.586667	9.45699E-001	5.99516E-003	0.00000E+000	5.66961E-003	3.59960E-001	-1.16203E+000	3.57650E+000	10	...........
	44	0.6	9.51655E-001	5.99136E-003	0.00000E+000	5.70171E-003	3.59960E-001	-1.16789E+000	3.57650E+000	10	...........
	45	0.613333	9.57555E-001	5.99939E-003	0.00000E+000	5.74475E-003	3.59960E-001	-1.17025E+000	3.57650E+000	10	...........
	46	0.626667	9.63387E-001	5.99275E-003	0.00000E+000	5.77333E-003	3.59960E-001	-1.16222E+000	3.57650E+000	10	...........
	47	0.64	9.69165E-001	5.99126E-003	0.00000E+000	5.80652E-003	3.59960E-001	-1.16807E+000	3.57650E+000	10	...........
	48	0.653333	9.74961E-001	5.99465E-003	0.00000E+000	5.84455E-003	3.59960E-001	-1.17029E+000	3.57650E+000	10	...........
	49	0.666667	9.80632E-001	5.99289E-003	0.00000E+000	5.87682E-003	3.59960E-001	-1.16228E+000	3.57650E+000	10	...........
	50	0.68	9.86293E-001	5.98984E-003	0.00000E+000	5.90773E-003	3.59960E-001	-1.16797E+000	3.57650E+000	10	...........
	51	0.693333	9.91881E-001	5.99433E-003	0.00000E+000	5.94567E-003	3.59960E-001	-1.17056E+000	3.57650E+000	10	...........
	52	0.706667	9.97501E-001	5.99984E-003	0.00000E+000	5.98485E-003	3.59960E-001	-1.16237E+000	3.57650E+000	10	...........
	53	0.708333	1.00065E+000	5.99696E-003	0.00000E+000	6.00089E-003	3.59960E-001	-1.17717E+000	3.57650E+000	10	...........
STARTTIMEOFFSET	QUANT	1417.901	Start Time Offset (s)