File: Data/CV_CRGO300517_1/PWRCCD_CRGO300517_1/CHARGE_DISCHARGE/CHARGE_#549.DTA
EXPLAIN
TAG	PWR800_CHARGE
TITLE	LABEL	PWR Cyclic Charge Discharge (Cell) - Charge Step	Test &Identifier
DATE	LABEL	22-6-2017	Date
TIME	LABEL	15:57:49	Time
NOTES	NOTES	3	&Notes...
	supercap test cell
	0.6mg
	6M KOH
PSTAT	PSTAT	IFC5000-01520	Potentiostat
CAPACITY	QUANT	1.00000E-003	Capacity (A-hr)
CELLTYPE	SELECTOR	1	&Cell Type
WORKINGCONNECTION	SELECTOR	0	&Working Lead
MAXCHARGETIME	VARIABLEANDUNITS	1.00000E+002	s	1.00000E+002	second(s)	Max &Charge Time
CHARGECURRENT	QUANT	6.00000E-003	&Charge Current (A)
VOLTAGEFINISH	TWOPARAM	F	1.00000E-003	3.60000E+003	&Voltage Finish	 I (A) < 	Max Time(s)
SAMPLETIME	QUANT	1.00000E-002	Sa&mple Period (s)
CHARGESTOPAT1	MULTIPARAM	4	1.00000E+000	Charge Stop At &1	Voltage > Limit	V
CHARGESTOPAT2	MULTIPARAM	0	0.00000E+000	Charge Stop At &2	None	N/A
AESBHCSELECTOR	TOGGLE	F	Save Both Half Cells
IRCOMP	TOGGLE	F	IR &Measure
EOC	QUANT	0	Open Circuit (V)
SEQUENCER	TOGGLE	TRUE	Run as Sequence
PSTATMODEL	IQUANT	53	Pstat Model
PSTATSECTION	LABEL	IFC5000-01520	Pstat Section
PSTATSERIALNO	LABEL	01520	Pstat Serial Number
CTRLMODE	IQUANT	0	Control Mode
ELECTROMETER	IQUANT	1	RE=0 or CS=1
IESTAB	IQUANT	0	I/E Stability
CASPEED	IQUANT	4	Control Amp Speed
CONVENTION	IQUANT	1	Current Convention
ICHRANGE	IQUANT	2	Ich Range
ICHRANGEMODE	TOGGLE	T	Ich Auto Range
ICHOFFSETENABLE	TOGGLE	F	Ich Offset Enable
ICHOFFSET	QUANT	0	Ich Offset (V)
ICHFILTER	IQUANT	1	Ich Filter
VCHRANGE	IQUANT	2	Vch Range
VCHRANGEMODE	TOGGLE	T	Vch Auto Range
VCHOFFSETENABLE	TOGGLE	F	Vch Offset Enable
VCHOFFSET	QUANT	0	Vch Offset (V)
VCHFILTER	IQUANT	1	Vch Filter
IERANGELOWERLIMIT	IQUANT	9	I/E Range Lower Limit
IERANGEMODE	TOGGLE	F	I/E AutoRange
IERANGE	IQUANT	10	I/E Range
ACHSELECT	IQUANT	1	Ach Select
ACHRANGE	IQUANT	2	Ach Range
ACHOFFSETENABLE	TOGGLE	F	Ach Offset Enable
ACHOFFSET	QUANT	0	Ach Offset (V)
ACHFILTER	IQUANT	1	Ach Filter
CABLEID	IQUANT	14	Cable ID
DCCALDATE	LABEL	20-10-2016	DC Calibration Date
ACCALDATE	LABEL	12/3/2015	AC Calibration Date
FRAMEWORKVERSION	QUANT	7.01	Framework Version
INSTRUMENTVERSION	LABEL	4.00	Instrument Version
CURVE	TABLE	58
	Pt	T	Vf	Im	Vu	Pwr	Sig	Ach	Temp	IERange	Over
	#	s	V	A	V	W	V	V	deg C	#	bits
	0	0.013333	6.34963E-001	5.99278E-003	0.00000E+000	3.80519E-003	3.59960E-001	-1.13588E+000	3.57640E+000	10	...........
	1	0.026667	6.43881E-001	5.99523E-003	0.00000E+000	3.86022E-003	3.59960E-001	-1.12536E+000	3.57640E+000	10	...........
	2	0.04	6.52100E-001	5.99621E-003	0.00000E+000	3.91013E-003	3.59960E-001	-1.12774E+000	3.57640E+000	10	...........
	3	0.053333	6.59891E-001	5.99424E-003	0.00000E+000	3.95554E-003	3.59960E-001	-1.13606E+000	3.57640E+000	10	...........
	4	0.066667	6.67436E-001	5.99437E-003	0.00000E+000	4.00086E-003	3.59960E-001	-1.12570E+000	3.57640E+000	10	...........
	5	0.08	6.74764E-001	5.99207E-003	0.00000E+000	4.04323E-003	3.59960E-001	-1.12828E+000	3.57640E+000	10	...........
	6	0.093333	6.81910E-001	5.99263E-003	0.00000E+000	4.08644E-003	3.59960E-001	-1.13639E+000	3.57640E+000	10	...........
	7	0.106667	6.88979E-001	5.99432E-003	0.00000E+000	4.12996E-003	3.59960E-001	-1.12602E+000	3.57640E+000	10	...........
	8	0.12	6.95993E-001	5.99337E-003	0.00000E+000	4.17135E-003	3.59960E-001	-1.12850E+000	3.57640E+000	10	...........
	9	0.133333	7.02867E-001	5.99269E-003	0.00000E+000	4.21206E-003	3.59960E-001	-1.13641E+000	3.57640E+000	10	...........
	10	0.146667	7.09700E-001	5.99298E-003	0.00000E+000	4.25322E-003	3.59960E-001	-1.12606E+000	3.57640E+000	10	...........
	11	0.16	7.16500E-001	5.99631E-003	0.00000E+000	4.29635E-003	3.59960E-001	-1.12878E+000	3.57640E+000	10	...........
	12	0.173333	7.23252E-001	5.99236E-003	0.00000E+000	4.33399E-003	3.59960E-001	-1.13657E+000	3.57640E+000	10	...........
	13	0.186667	7.29953E-001	5.99471E-003	0.00000E+000	4.37585E-003	3.59960E-001	-1.12596E+000	3.57640E+000	10	...........
	14	0.2	7.36608E-001	5.99276E-003	0.00000E+000	4.41431E-003	3.59960E-001	-1.12879E+000	3.57640E+000	10	...........
	15	0.213333	7.43302E-001	5.99100E-003	0.00000E+000	4.45312E-003	3.59960E-001	-1.13625E+000	3.57669E+000	10	...........
	16	0.226667	7.49897E-001	5.98982E-003	0.00000E+000	4.49174E-003	3.59960E-001	-1.12605E+000	3.57670E+000	10	...........
	17	0.24	7.56520E-001	5.99110E-003	0.00000E+000	4.53239E-003	3.59960E-001	-1.12922E+000	3.57670E+000	10	...........
	18	0.253333	7.63099E-001	5.99452E-003	0.00000E+000	4.57441E-003	3.59960E-001	-1.13668E+000	3.57670E+000	10	...........
	19	0.266667	7.69710E-001	5.99462E-003	0.00000E+000	4.61412E-003	3.59960E-001	-1.12604E+000	3.57670E+000	10	...........
	20	0.28	7.76219E-001	5.99152E-003	0.00000E+000	4.65073E-003	3.59960E-001	-1.12964E+000	3.57670E+000	10	...........
	21	0.293333	7.82741E-001	5.99587E-003	0.00000E+000	4.69321E-003	3.59960E-001	-1.13690E+000	3.57670E+000	10	...........
	22	0.306667	7.89241E-001	5.99280E-003	0.00000E+000	4.72976E-003	3.59960E-001	-1.12683E+000	3.57670E+000	10	...........
	23	0.32	7.95755E-001	5.99310E-003	0.00000E+000	4.76904E-003	3.59960E-001	-1.13018E+000	3.57670E+000	10	...........
	24	0.333333	8.02205E-001	5.99326E-003	0.00000E+000	4.80782E-003	3.59960E-001	-1.13695E+000	3.57670E+000	10	...........
	25	0.346667	8.08601E-001	5.99483E-003	0.00000E+000	4.84743E-003	3.59960E-001	-1.12688E+000	3.57670E+000	10	...........
	26	0.36	8.15042E-001	5.99497E-003	0.00000E+000	4.88615E-003	3.59960E-001	-1.13032E+000	3.57670E+000	10	...........
	27	0.373333	8.21523E-001	5.99637E-003	0.00000E+000	4.92615E-003	3.59960E-001	-1.13743E+000	3.57670E+000	10	...........
	28	0.386667	8.27940E-001	5.99395E-003	0.00000E+000	4.96263E-003	3.59960E-001	-1.12754E+000	3.57670E+000	10	...........
	29	0.4	8.34311E-001	5.99313E-003	0.00000E+000	5.00014E-003	3.59960E-001	-1.13062E+000	3.57670E+000	10	...........
	30	0.413333	8.40696E-001	5.99674E-003	0.00000E+000	5.04144E-003	3.59960E-001	-1.13743E+000	3.57670E+000	10	...........
	31	0.426667	8.47075E-001	5.99579E-003	0.00000E+000	5.07889E-003	3.59960E-001	-1.12750E+000	3.57670E+000	10	...........
	32	0.44	8.53406E-001	6.00111E-003	0.00000E+000	5.12139E-003	3.59960E-001	-1.13106E+000	3.57670E+000	10	...........
	33	0.453333	8.59681E-001	5.99663E-003	0.00000E+000	5.15519E-003	3.59960E-001	-1.13749E+000	3.57670E+000	10	...........
	34	0.466667	8.65968E-001	5.99555E-003	0.00000E+000	5.19196E-003	3.59960E-001	-1.12737E+000	3.57670E+000	10	...........
	35	0.48	8.72271E-001	5.99042E-003	0.00000E+000	5.22527E-003	3.59960E-001	-1.13089E+000	3.57670E+000	10	...........
	36	0.493333	8.78509E-001	5.99538E-003	0.00000E+000	5.26699E-003	3.59960E-001	-1.13700E+000	3.57670E+000	10	...........
	37	0.506667	8.84734E-001	5.99555E-003	0.00000E+000	5.30447E-003	3.59960E-001	-1.12739E+000	3.57670E+000	10	...........
	38	0.52	8.90920E-001	5.99398E-003	0.00000E+000	5.34016E-003	3.59960E-001	-1.13113E+000	3.57670E+000	10	...........
	39	0.533333	8.97093E-001	5.99361E-003	0.00000E+000	5.37683E-003	3.59960E-001	-1.13723E+000	3.57670E+000	10	...........
	40	0.546667	9.03249E-001	5.99854E-003	0.00000E+000	5.41818E-003	3.59960E-001	-1.12736E+000	3.57670E+000	10	...........
	41	0.56	9.09374E-001	5.99537E-003	0.00000E+000	5.45203E-003	3.59960E-001	-1.13140E+000	3.57670E+000	10	...........
	42	0.573333	9.15401E-001	5.99547E-003	0.00000E+000	5.48826E-003	3.59960E-001	-1.13751E+000	3.57670E+000	10	...........
	43	0.586667	9.21521E-001	5.99334E-003	0.00000E+000	5.52299E-003	3.59960E-001	-1.12768E+000	3.57670E+000	10	...........
	44	0.6	9.27552E-001	5.99176E-003	0.00000E+000	5.55767E-003	3.59960E-001	-1.13159E+000	3.57670E+000	10	...........
	45	0.613333	9.33521E-001	5.98899E-003	0.00000E+000	5.59085E-003	3.59960E-001	-1.13717E+000	3.57670E+000	10	...........
	46	0.626667	9.39438E-001	5.99292E-003	0.00000E+000	5.62997E-003	3.59960E-001	-1.12765E+000	3.57670E+000	10	...........
	47	0.64	9.45351E-001	5.99012E-003	0.00000E+000	5.66277E-003	3.59960E-001	-1.13202E+000	3.57670E+000	10	...........
	48	0.653333	9.51266E-001	6.00105E-003	0.00000E+000	5.70860E-003	3.59960E-001	-1.13748E+000	3.57670E+000	10	...........
	49	0.666667	9.57071E-001	5.99245E-003	0.00000E+000	5.73519E-003	3.59960E-001	-1.12789E+000	3.57670E+000	10	...........
	50	0.68	9.62838E-001	5.99167E-003	0.00000E+000	5.76901E-003	3.59960E-001	-1.13212E+000	3.57670E+000	10	...........
	51	0.693333	9.68579E-001	5.99409E-003	0.00000E+000	5.80575E-003	3.59960E-001	-1.13771E+000	3.57670E+000	10	...........
	52	0.706667	9.74352E-001	5.98752E-003	0.00000E+000	5.83395E-003	3.59960E-001	-1.12861E+000	3.57670E+000	10	...........
	53	0.72	9.79994E-001	5.99648E-003	0.00000E+000	5.87652E-003	3.59960E-001	-1.13307E+000	3.57670E+000	10	...........
	54	0.733333	9.85560E-001	5.99792E-003	0.00000E+000	5.91131E-003	3.59960E-001	-1.13801E+000	3.57670E+000	10	...........
	55	0.746667	9.91086E-001	5.99338E-003	0.00000E+000	5.93996E-003	3.59960E-001	-1.12882E+000	3.57670E+000	10	...........
	56	0.76	9.96559E-001	5.99319E-003	0.00000E+000	5.97256E-003	3.59960E-001	-1.13336E+000	3.57670E+000	10	...........
	57	0.763333	1.00006E+000	5.98791E-003	0.00000E+000	5.98826E-003	3.59960E-001	-1.12571E+000	3.57670E+000	10	...........
STARTTIMEOFFSET	QUANT	933.9901	Start Time Offset (s)