File: Data/CV_CRGO300517_1/PWRCCD_CRGO300517_1/CHARGE_DISCHARGE/CHARGE_#454.DTA
EXPLAIN
TAG	PWR800_CHARGE
TITLE	LABEL	PWR Cyclic Charge Discharge (Cell) - Charge Step	Test &Identifier
DATE	LABEL	22-6-2017	Date
TIME	LABEL	15:54:06	Time
NOTES	NOTES	3	&Notes...
	supercap test cell
	0.6mg
	6M KOH
PSTAT	PSTAT	IFC5000-01520	Potentiostat
CAPACITY	QUANT	1.00000E-003	Capacity (A-hr)
CELLTYPE	SELECTOR	1	&Cell Type
WORKINGCONNECTION	SELECTOR	0	&Working Lead
MAXCHARGETIME	VARIABLEANDUNITS	1.00000E+002	s	1.00000E+002	second(s)	Max &Charge Time
CHARGECURRENT	QUANT	6.00000E-003	&Charge Current (A)
VOLTAGEFINISH	TWOPARAM	F	1.00000E-003	3.60000E+003	&Voltage Finish	 I (A) < 	Max Time(s)
SAMPLETIME	QUANT	1.00000E-002	Sa&mple Period (s)
CHARGESTOPAT1	MULTIPARAM	4	1.00000E+000	Charge Stop At &1	Voltage > Limit	V
CHARGESTOPAT2	MULTIPARAM	0	0.00000E+000	Charge Stop At &2	None	N/A
AESBHCSELECTOR	TOGGLE	F	Save Both Half Cells
IRCOMP	TOGGLE	F	IR &Measure
EOC	QUANT	0	Open Circuit (V)
SEQUENCER	TOGGLE	TRUE	Run as Sequence
PSTATMODEL	IQUANT	53	Pstat Model
PSTATSECTION	LABEL	IFC5000-01520	Pstat Section
PSTATSERIALNO	LABEL	01520	Pstat Serial Number
CTRLMODE	IQUANT	0	Control Mode
ELECTROMETER	IQUANT	1	RE=0 or CS=1
IESTAB	IQUANT	0	I/E Stability
CASPEED	IQUANT	4	Control Amp Speed
CONVENTION	IQUANT	1	Current Convention
ICHRANGE	IQUANT	2	Ich Range
ICHRANGEMODE	TOGGLE	T	Ich Auto Range
ICHOFFSETENABLE	TOGGLE	F	Ich Offset Enable
ICHOFFSET	QUANT	0	Ich Offset (V)
ICHFILTER	IQUANT	1	Ich Filter
VCHRANGE	IQUANT	2	Vch Range
VCHRANGEMODE	TOGGLE	T	Vch Auto Range
VCHOFFSETENABLE	TOGGLE	F	Vch Offset Enable
VCHOFFSET	QUANT	0	Vch Offset (V)
VCHFILTER	IQUANT	1	Vch Filter
IERANGELOWERLIMIT	IQUANT	9	I/E Range Lower Limit
IERANGEMODE	TOGGLE	F	I/E AutoRange
IERANGE	IQUANT	10	I/E Range
ACHSELECT	IQUANT	1	Ach Select
ACHRANGE	IQUANT	2	Ach Range
ACHOFFSETENABLE	TOGGLE	F	Ach Offset Enable
ACHOFFSET	QUANT	0	Ach Offset (V)
ACHFILTER	IQUANT	1	Ach Filter
CABLEID	IQUANT	14	Cable ID
DCCALDATE	LABEL	20-10-2016	DC Calibration Date
ACCALDATE	LABEL	12/3/2015	AC Calibration Date
FRAMEWORKVERSION	QUANT	7.01	Framework Version
INSTRUMENTVERSION	LABEL	4.00	Instrument Version
CURVE	TABLE	59
	Pt	T	Vf	Im	Vu	Pwr	Sig	Ach	Temp	IERange	Over
	#	s	V	A	V	W	V	V	deg C	#	bits
	0	0.013333	6.28573E-001	5.99174E-003	0.00000E+000	3.76624E-003	3.59960E-001	-1.14565E+000	3.57790E+000	10	...........
	1	0.026667	6.37390E-001	5.98983E-003	0.00000E+000	3.81786E-003	3.59960E-001	-1.13667E+000	3.57790E+000	10	...........
	2	0.04	6.45522E-001	5.99240E-003	0.00000E+000	3.86823E-003	3.59960E-001	-1.13446E+000	3.57790E+000	10	...........
	3	0.053333	6.53194E-001	5.99035E-003	0.00000E+000	3.91286E-003	3.59960E-001	-1.14532E+000	3.57790E+000	10	...........
	4	0.066667	6.60568E-001	5.99396E-003	0.00000E+000	3.95942E-003	3.59960E-001	-1.13637E+000	3.57790E+000	10	...........
	5	0.08	6.67830E-001	5.98924E-003	0.00000E+000	3.99980E-003	3.59960E-001	-1.13453E+000	3.57790E+000	10	...........
	6	0.093333	6.74900E-001	5.99289E-003	0.00000E+000	4.04460E-003	3.59960E-001	-1.14573E+000	3.57790E+000	10	...........
	7	0.106667	6.81870E-001	5.99715E-003	0.00000E+000	4.08928E-003	3.59960E-001	-1.13674E+000	3.57790E+000	10	...........
	8	0.12	6.88745E-001	5.99414E-003	0.00000E+000	4.12843E-003	3.59960E-001	-1.13436E+000	3.57790E+000	10	...........
	9	0.133333	6.95579E-001	5.99665E-003	0.00000E+000	4.17114E-003	3.59960E-001	-1.14540E+000	3.57790E+000	10	...........
	10	0.146667	7.02280E-001	5.99018E-003	0.00000E+000	4.20679E-003	3.59960E-001	-1.13641E+000	3.57790E+000	10	...........
	11	0.16	7.08969E-001	5.99381E-003	0.00000E+000	4.24943E-003	3.59960E-001	-1.13446E+000	3.57790E+000	10	...........
	12	0.173333	7.15663E-001	5.99686E-003	0.00000E+000	4.29173E-003	3.59960E-001	-1.14489E+000	3.57790E+000	10	...........
	13	0.186667	7.22336E-001	5.99655E-003	0.00000E+000	4.33152E-003	3.59960E-001	-1.13584E+000	3.57790E+000	10	...........
	14	0.2	7.28920E-001	5.99266E-003	0.00000E+000	4.36817E-003	3.59960E-001	-1.13406E+000	3.57790E+000	10	...........
	15	0.213333	7.35457E-001	5.99041E-003	0.00000E+000	4.40569E-003	3.59960E-001	-1.14509E+000	3.57790E+000	10	...........
	16	0.226667	7.42009E-001	5.99447E-003	0.00000E+000	4.44795E-003	3.59960E-001	-1.13590E+000	3.57790E+000	10	...........
	17	0.24	7.48562E-001	5.99246E-003	0.00000E+000	4.48573E-003	3.59960E-001	-1.13396E+000	3.57790E+000	10	...........
	18	0.253333	7.55068E-001	5.99088E-003	0.00000E+000	4.52353E-003	3.59960E-001	-1.14476E+000	3.57790E+000	10	...........
	19	0.266667	7.61508E-001	5.99298E-003	0.00000E+000	4.56370E-003	3.59960E-001	-1.13557E+000	3.57790E+000	10	...........
	20	0.28	7.67957E-001	5.99600E-003	0.00000E+000	4.60467E-003	3.59960E-001	-1.13407E+000	3.57790E+000	10	...........
	21	0.293333	7.74383E-001	5.99754E-003	0.00000E+000	4.64439E-003	3.59960E-001	-1.14504E+000	3.57790E+000	10	...........
	22	0.306667	7.80860E-001	5.98947E-003	0.00000E+000	4.67694E-003	3.59960E-001	-1.13557E+000	3.57790E+000	10	...........
	23	0.32	7.87275E-001	5.99458E-003	0.00000E+000	4.71939E-003	3.59960E-001	-1.13353E+000	3.57790E+000	10	...........
	24	0.333333	7.93685E-001	5.99419E-003	0.00000E+000	4.75750E-003	3.59960E-001	-1.14477E+000	3.57790E+000	10	...........
	25	0.346667	8.00080E-001	5.99190E-003	0.00000E+000	4.79400E-003	3.59960E-001	-1.13551E+000	3.57790E+000	10	...........
	26	0.36	8.06435E-001	5.99594E-003	0.00000E+000	4.83534E-003	3.59960E-001	-1.13383E+000	3.57790E+000	10	...........
	27	0.373333	8.12781E-001	5.99499E-003	0.00000E+000	4.87261E-003	3.59960E-001	-1.14469E+000	3.57790E+000	10	...........
	28	0.386667	8.19178E-001	5.99470E-003	0.00000E+000	4.91073E-003	3.59960E-001	-1.13542E+000	3.57790E+000	10	...........
	29	0.4	8.25534E-001	5.99794E-003	0.00000E+000	4.95151E-003	3.59960E-001	-1.13367E+000	3.57790E+000	10	...........
	30	0.413333	8.31824E-001	5.99493E-003	0.00000E+000	4.98673E-003	3.59960E-001	-1.14493E+000	3.57790E+000	10	...........
	31	0.426667	8.38099E-001	5.99390E-003	0.00000E+000	5.02348E-003	3.59960E-001	-1.13544E+000	3.57790E+000	10	...........
	32	0.44	8.44393E-001	5.99238E-003	0.00000E+000	5.05992E-003	3.59960E-001	-1.13372E+000	3.57790E+000	10	...........
	33	0.453333	8.50678E-001	5.99486E-003	0.00000E+000	5.09969E-003	3.59960E-001	-1.14449E+000	3.57790E+000	10	...........
	34	0.466667	8.56942E-001	5.99423E-003	0.00000E+000	5.13671E-003	3.59960E-001	-1.13513E+000	3.57790E+000	10	...........
	35	0.48	8.63170E-001	5.99481E-003	0.00000E+000	5.17454E-003	3.59960E-001	-1.13353E+000	3.57790E+000	10	...........
	36	0.493333	8.69412E-001	5.99873E-003	0.00000E+000	5.21536E-003	3.59960E-001	-1.14429E+000	3.57790E+000	10	...........
	37	0.506667	8.75589E-001	5.99144E-003	0.00000E+000	5.24604E-003	3.59960E-001	-1.13500E+000	3.57790E+000	10	...........
	38	0.52	8.81754E-001	5.99526E-003	0.00000E+000	5.28635E-003	3.59960E-001	-1.13322E+000	3.57790E+000	10	...........
	39	0.533333	8.87938E-001	5.99210E-003	0.00000E+000	5.32061E-003	3.59960E-001	-1.14414E+000	3.57790E+000	10	...........
	40	0.546667	8.94026E-001	5.98896E-003	0.00000E+000	5.35429E-003	3.59960E-001	-1.13469E+000	3.57790E+000	10	...........
	41	0.56	9.00158E-001	5.99729E-003	0.00000E+000	5.39851E-003	3.59960E-001	-1.13341E+000	3.57790E+000	10	...........
	42	0.573333	9.06262E-001	5.99417E-003	0.00000E+000	5.43228E-003	3.59960E-001	-1.14410E+000	3.57790E+000	10	...........
	43	0.586667	9.12295E-001	5.99499E-003	0.00000E+000	5.46920E-003	3.59960E-001	-1.13457E+000	3.57790E+000	10	...........
	44	0.6	9.18312E-001	5.99350E-003	0.00000E+000	5.50391E-003	3.59960E-001	-1.13315E+000	3.57790E+000	10	...........
	45	0.613333	9.24343E-001	5.99136E-003	0.00000E+000	5.53808E-003	3.59960E-001	-1.14431E+000	3.57790E+000	10	...........
	46	0.626667	9.30317E-001	5.99515E-003	0.00000E+000	5.57739E-003	3.59960E-001	-1.13474E+000	3.57790E+000	10	...........
	47	0.64	9.36195E-001	5.99712E-003	0.00000E+000	5.61447E-003	3.59960E-001	-1.13305E+000	3.57790E+000	10	...........
	48	0.653333	9.42054E-001	5.99462E-003	0.00000E+000	5.64725E-003	3.59960E-001	-1.14414E+000	3.57790E+000	10	...........
	49	0.666667	9.47936E-001	5.99548E-003	0.00000E+000	5.68333E-003	3.59960E-001	-1.13480E+000	3.57790E+000	10	...........
	50	0.68	9.53784E-001	5.99517E-003	0.00000E+000	5.71810E-003	3.59960E-001	-1.13315E+000	3.57790E+000	10	...........
	51	0.693333	9.59553E-001	5.99306E-003	0.00000E+000	5.75066E-003	3.59960E-001	-1.14428E+000	3.57790E+000	10	...........
	52	0.706667	9.65271E-001	5.99527E-003	0.00000E+000	5.78706E-003	3.59960E-001	-1.13469E+000	3.57790E+000	10	...........
	53	0.72	9.70927E-001	5.98977E-003	0.00000E+000	5.81562E-003	3.59960E-001	-1.13329E+000	3.57790E+000	10	...........
	54	0.733333	9.76638E-001	5.99602E-003	0.00000E+000	5.85594E-003	3.59960E-001	-1.14435E+000	3.57790E+000	10	...........
	55	0.746667	9.82204E-001	5.99917E-003	0.00000E+000	5.89241E-003	3.59960E-001	-1.13496E+000	3.57790E+000	10	...........
	56	0.76	9.87761E-001	5.99297E-003	0.00000E+000	5.91962E-003	3.59960E-001	-1.13353E+000	3.57790E+000	10	...........
	57	0.773333	9.93258E-001	5.99876E-003	0.00000E+000	5.95831E-003	3.59960E-001	-1.14449E+000	3.57790E+000	10	...........
	58	0.785	9.98395E-001	5.99604E-003	0.00000E+000	5.98642E-003	3.59960E-001	-1.13272E+000	3.57790E+000	10	...........
STARTTIMEOFFSET	QUANT	787.7035	Start Time Offset (s)