File: Data/CV_CRGO300517_1/PWRCCD_CRGO300517_1/CHARGE_DISCHARGE/CHARGE_#795.DTA
EXPLAIN
TAG	PWR800_CHARGE
TITLE	LABEL	PWR Cyclic Charge Discharge (Cell) - Charge Step	Test &Identifier
DATE	LABEL	22-6-2017	Date
TIME	LABEL	16:07:05	Time
NOTES	NOTES	3	&Notes...
	supercap test cell
	0.6mg
	6M KOH
PSTAT	PSTAT	IFC5000-01520	Potentiostat
CAPACITY	QUANT	1.00000E-003	Capacity (A-hr)
CELLTYPE	SELECTOR	1	&Cell Type
WORKINGCONNECTION	SELECTOR	0	&Working Lead
MAXCHARGETIME	VARIABLEANDUNITS	1.00000E+002	s	1.00000E+002	second(s)	Max &Charge Time
CHARGECURRENT	QUANT	6.00000E-003	&Charge Current (A)
VOLTAGEFINISH	TWOPARAM	F	1.00000E-003	3.60000E+003	&Voltage Finish	 I (A) < 	Max Time(s)
SAMPLETIME	QUANT	1.00000E-002	Sa&mple Period (s)
CHARGESTOPAT1	MULTIPARAM	4	1.00000E+000	Charge Stop At &1	Voltage > Limit	V
CHARGESTOPAT2	MULTIPARAM	0	0.00000E+000	Charge Stop At &2	None	N/A
AESBHCSELECTOR	TOGGLE	F	Save Both Half Cells
IRCOMP	TOGGLE	F	IR &Measure
EOC	QUANT	0	Open Circuit (V)
SEQUENCER	TOGGLE	TRUE	Run as Sequence
PSTATMODEL	IQUANT	53	Pstat Model
PSTATSECTION	LABEL	IFC5000-01520	Pstat Section
PSTATSERIALNO	LABEL	01520	Pstat Serial Number
CTRLMODE	IQUANT	0	Control Mode
ELECTROMETER	IQUANT	1	RE=0 or CS=1
IESTAB	IQUANT	0	I/E Stability
CASPEED	IQUANT	4	Control Amp Speed
CONVENTION	IQUANT	1	Current Convention
ICHRANGE	IQUANT	2	Ich Range
ICHRANGEMODE	TOGGLE	T	Ich Auto Range
ICHOFFSETENABLE	TOGGLE	F	Ich Offset Enable
ICHOFFSET	QUANT	0	Ich Offset (V)
ICHFILTER	IQUANT	1	Ich Filter
VCHRANGE	IQUANT	2	Vch Range
VCHRANGEMODE	TOGGLE	T	Vch Auto Range
VCHOFFSETENABLE	TOGGLE	F	Vch Offset Enable
VCHOFFSET	QUANT	0	Vch Offset (V)
VCHFILTER	IQUANT	1	Vch Filter
IERANGELOWERLIMIT	IQUANT	9	I/E Range Lower Limit
IERANGEMODE	TOGGLE	F	I/E AutoRange
IERANGE	IQUANT	10	I/E Range
ACHSELECT	IQUANT	1	Ach Select
ACHRANGE	IQUANT	2	Ach Range
ACHOFFSETENABLE	TOGGLE	F	Ach Offset Enable
ACHOFFSET	QUANT	0	Ach Offset (V)
ACHFILTER	IQUANT	1	Ach Filter
CABLEID	IQUANT	14	Cable ID
DCCALDATE	LABEL	20-10-2016	DC Calibration Date
ACCALDATE	LABEL	12/3/2015	AC Calibration Date
FRAMEWORKVERSION	QUANT	7.01	Framework Version
INSTRUMENTVERSION	LABEL	4.00	Instrument Version
CURVE	TABLE	55
	Pt	T	Vf	Im	Vu	Pwr	Sig	Ach	Temp	IERange	Over
	#	s	V	A	V	W	V	V	deg C	#	bits
	0	0.013333	6.48063E-001	5.99042E-003	0.00000E+000	3.88217E-003	3.59960E-001	-1.17593E+000	3.57630E+000	10	...........
	1	0.026667	6.57246E-001	5.99948E-003	0.00000E+000	3.94313E-003	3.59960E-001	-1.16510E+000	3.57630E+000	10	...........
	2	0.04	6.65679E-001	5.99005E-003	0.00000E+000	3.98745E-003	3.59960E-001	-1.16618E+000	3.57630E+000	10	...........
	3	0.053333	6.73678E-001	5.99424E-003	0.00000E+000	4.03819E-003	3.59960E-001	-1.17569E+000	3.57630E+000	10	...........
	4	0.066667	6.81427E-001	5.99884E-003	0.00000E+000	4.08777E-003	3.59960E-001	-1.16500E+000	3.57630E+000	10	...........
	5	0.08	6.88931E-001	5.99148E-003	0.00000E+000	4.12772E-003	3.59960E-001	-1.16636E+000	3.57630E+000	10	...........
	6	0.093333	6.96280E-001	5.99805E-003	0.00000E+000	4.17632E-003	3.59960E-001	-1.17576E+000	3.57630E+000	10	...........
	7	0.106667	7.03522E-001	5.99850E-003	0.00000E+000	4.22007E-003	3.59960E-001	-1.16478E+000	3.57630E+000	10	...........
	8	0.12	7.10666E-001	5.99147E-003	0.00000E+000	4.25793E-003	3.59960E-001	-1.16618E+000	3.57630E+000	10	...........
	9	0.133333	7.17817E-001	5.99730E-003	0.00000E+000	4.30496E-003	3.59960E-001	-1.17567E+000	3.57630E+000	10	...........
	10	0.146667	7.24851E-001	5.99158E-003	0.00000E+000	4.34300E-003	3.59960E-001	-1.16489E+000	3.57630E+000	10	...........
	11	0.16	7.31790E-001	5.99506E-003	0.00000E+000	4.38713E-003	3.59960E-001	-1.16608E+000	3.57630E+000	10	...........
	12	0.173333	7.38731E-001	5.98571E-003	0.00000E+000	4.42183E-003	3.59960E-001	-1.17558E+000	3.57630E+000	10	...........
	13	0.186667	7.45654E-001	5.99516E-003	0.00000E+000	4.47031E-003	3.59960E-001	-1.16487E+000	3.57630E+000	10	...........
	14	0.2	7.52472E-001	5.99229E-003	0.00000E+000	4.50903E-003	3.59960E-001	-1.16618E+000	3.57630E+000	10	...........
	15	0.213333	7.59300E-001	5.99271E-003	0.00000E+000	4.55026E-003	3.59960E-001	-1.17574E+000	3.57630E+000	10	...........
	16	0.226667	7.66084E-001	5.99282E-003	0.00000E+000	4.59100E-003	3.59960E-001	-1.16494E+000	3.57630E+000	10	...........
	17	0.24	7.72898E-001	5.99652E-003	0.00000E+000	4.63470E-003	3.59960E-001	-1.16626E+000	3.57630E+000	10	...........
	18	0.253333	7.79619E-001	5.99392E-003	0.00000E+000	4.67297E-003	3.59960E-001	-1.17589E+000	3.57630E+000	10	...........
	19	0.266667	7.86297E-001	5.99508E-003	0.00000E+000	4.71392E-003	3.59960E-001	-1.16498E+000	3.57630E+000	10	...........
	20	0.28	7.92987E-001	5.99368E-003	0.00000E+000	4.75291E-003	3.59960E-001	-1.16621E+000	3.57630E+000	10	...........
	21	0.293333	7.99642E-001	5.99245E-003	0.00000E+000	4.79181E-003	3.59960E-001	-1.17557E+000	3.57630E+000	10	...........
	22	0.306667	8.06221E-001	5.99512E-003	0.00000E+000	4.83339E-003	3.59960E-001	-1.16487E+000	3.57630E+000	10	...........
	23	0.32	8.12846E-001	5.99665E-003	0.00000E+000	4.87435E-003	3.59960E-001	-1.16584E+000	3.57630E+000	10	...........
	24	0.333333	8.19451E-001	5.99443E-003	0.00000E+000	4.91214E-003	3.59960E-001	-1.17518E+000	3.57630E+000	10	...........
	25	0.346667	8.26053E-001	5.99601E-003	0.00000E+000	4.95303E-003	3.59960E-001	-1.16455E+000	3.57630E+000	10	...........
	26	0.36	8.32618E-001	5.98871E-003	0.00000E+000	4.98631E-003	3.59960E-001	-1.16586E+000	3.57630E+000	10	...........
	27	0.373333	8.39151E-001	5.99687E-003	0.00000E+000	5.03228E-003	3.59960E-001	-1.17516E+000	3.57630E+000	10	...........
	28	0.386667	8.45652E-001	5.99271E-003	0.00000E+000	5.06774E-003	3.59960E-001	-1.16411E+000	3.57630E+000	10	...........
	29	0.4	8.52153E-001	5.99473E-003	0.00000E+000	5.10843E-003	3.59960E-001	-1.16581E+000	3.57630E+000	10	...........
	30	0.413333	8.58619E-001	5.99319E-003	0.00000E+000	5.14587E-003	3.59960E-001	-1.17526E+000	3.57713E+000	10	...........
	31	0.426667	8.65068E-001	5.99138E-003	0.00000E+000	5.18295E-003	3.59960E-001	-1.16419E+000	3.57740E+000	10	...........
	32	0.44	8.71508E-001	5.99037E-003	0.00000E+000	5.22065E-003	3.59960E-001	-1.16566E+000	3.57740E+000	10	...........
	33	0.453333	8.77914E-001	5.99671E-003	0.00000E+000	5.26460E-003	3.59960E-001	-1.17515E+000	3.57740E+000	10	...........
	34	0.466667	8.84226E-001	5.98999E-003	0.00000E+000	5.29651E-003	3.59960E-001	-1.16450E+000	3.57740E+000	10	...........
	35	0.48	8.90510E-001	5.99156E-003	0.00000E+000	5.33554E-003	3.59960E-001	-1.16585E+000	3.57740E+000	10	...........
	36	0.493333	8.96825E-001	5.98966E-003	0.00000E+000	5.37168E-003	3.59960E-001	-1.17509E+000	3.57740E+000	10	...........
	37	0.506667	9.03083E-001	5.99438E-003	0.00000E+000	5.41342E-003	3.59960E-001	-1.16444E+000	3.57740E+000	10	...........
	38	0.52	9.09303E-001	5.99233E-003	0.00000E+000	5.44884E-003	3.59960E-001	-1.16564E+000	3.57740E+000	10	...........
	39	0.533333	9.15477E-001	5.99713E-003	0.00000E+000	5.49023E-003	3.59960E-001	-1.17522E+000	3.57740E+000	10	...........
	40	0.546667	9.21659E-001	6.00088E-003	0.00000E+000	5.53077E-003	3.59960E-001	-1.16477E+000	3.57740E+000	10	...........
	41	0.56	9.27777E-001	5.99534E-003	0.00000E+000	5.56234E-003	3.59960E-001	-1.16583E+000	3.57740E+000	10	...........
	42	0.573333	9.33838E-001	5.98926E-003	0.00000E+000	5.59300E-003	3.59960E-001	-1.17530E+000	3.57740E+000	10	...........
	43	0.586667	9.39849E-001	5.98817E-003	0.00000E+000	5.62798E-003	3.59960E-001	-1.16418E+000	3.57740E+000	10	...........
	44	0.6	9.45833E-001	5.98944E-003	0.00000E+000	5.66501E-003	3.59960E-001	-1.16573E+000	3.57740E+000	10	...........
	45	0.613333	9.51796E-001	5.99080E-003	0.00000E+000	5.70202E-003	3.59960E-001	-1.17516E+000	3.57740E+000	10	...........
	46	0.626667	9.57678E-001	5.99546E-003	0.00000E+000	5.74172E-003	3.59960E-001	-1.16438E+000	3.57740E+000	10	...........
	47	0.64	9.63518E-001	5.99362E-003	0.00000E+000	5.77497E-003	3.59960E-001	-1.16545E+000	3.57740E+000	10	...........
	48	0.653333	9.69283E-001	5.99323E-003	0.00000E+000	5.80913E-003	3.59960E-001	-1.17472E+000	3.57740E+000	10	...........
	49	0.666667	9.75070E-001	5.99168E-003	0.00000E+000	5.84231E-003	3.59960E-001	-1.16409E+000	3.57740E+000	10	...........
	50	0.68	9.80776E-001	5.98960E-003	0.00000E+000	5.87445E-003	3.59960E-001	-1.16551E+000	3.57740E+000	10	...........
	51	0.693333	9.86411E-001	5.99299E-003	0.00000E+000	5.91155E-003	3.59960E-001	-1.17492E+000	3.57740E+000	10	...........
	52	0.706667	9.91974E-001	5.99369E-003	0.00000E+000	5.94558E-003	3.59960E-001	-1.16409E+000	3.57740E+000	10	...........
	53	0.72	9.97486E-001	5.99452E-003	0.00000E+000	5.97945E-003	3.59960E-001	-1.16541E+000	3.57740E+000	10	...........
	54	0.721667	1.00062E+000	5.99972E-003	0.00000E+000	6.00346E-003	3.59960E-001	-1.16350E+000	3.57740E+000	10	...........
STARTTIMEOFFSET	QUANT	1296.948	Start Time Offset (s)