File: Data/CV_CRGO300517_1/PWRCCD_CRGO300517_1/CHARGE_DISCHARGE/CHARGE_#911.DTA
EXPLAIN
TAG	PWR800_CHARGE
TITLE	LABEL	PWR Cyclic Charge Discharge (Cell) - Charge Step	Test &Identifier
DATE	LABEL	22-6-2017	Date
TIME	LABEL	16:11:23	Time
NOTES	NOTES	3	&Notes...
	supercap test cell
	0.6mg
	6M KOH
PSTAT	PSTAT	IFC5000-01520	Potentiostat
CAPACITY	QUANT	1.00000E-003	Capacity (A-hr)
CELLTYPE	SELECTOR	1	&Cell Type
WORKINGCONNECTION	SELECTOR	0	&Working Lead
MAXCHARGETIME	VARIABLEANDUNITS	1.00000E+002	s	1.00000E+002	second(s)	Max &Charge Time
CHARGECURRENT	QUANT	6.00000E-003	&Charge Current (A)
VOLTAGEFINISH	TWOPARAM	F	1.00000E-003	3.60000E+003	&Voltage Finish	 I (A) < 	Max Time(s)
SAMPLETIME	QUANT	1.00000E-002	Sa&mple Period (s)
CHARGESTOPAT1	MULTIPARAM	4	1.00000E+000	Charge Stop At &1	Voltage > Limit	V
CHARGESTOPAT2	MULTIPARAM	0	0.00000E+000	Charge Stop At &2	None	N/A
AESBHCSELECTOR	TOGGLE	F	Save Both Half Cells
IRCOMP	TOGGLE	F	IR &Measure
EOC	QUANT	0	Open Circuit (V)
SEQUENCER	TOGGLE	TRUE	Run as Sequence
PSTATMODEL	IQUANT	53	Pstat Model
PSTATSECTION	LABEL	IFC5000-01520	Pstat Section
PSTATSERIALNO	LABEL	01520	Pstat Serial Number
CTRLMODE	IQUANT	0	Control Mode
ELECTROMETER	IQUANT	1	RE=0 or CS=1
IESTAB	IQUANT	0	I/E Stability
CASPEED	IQUANT	4	Control Amp Speed
CONVENTION	IQUANT	1	Current Convention
ICHRANGE	IQUANT	2	Ich Range
ICHRANGEMODE	TOGGLE	T	Ich Auto Range
ICHOFFSETENABLE	TOGGLE	F	Ich Offset Enable
ICHOFFSET	QUANT	0	Ich Offset (V)
ICHFILTER	IQUANT	1	Ich Filter
VCHRANGE	IQUANT	2	Vch Range
VCHRANGEMODE	TOGGLE	T	Vch Auto Range
VCHOFFSETENABLE	TOGGLE	F	Vch Offset Enable
VCHOFFSET	QUANT	0	Vch Offset (V)
VCHFILTER	IQUANT	1	Vch Filter
IERANGELOWERLIMIT	IQUANT	9	I/E Range Lower Limit
IERANGEMODE	TOGGLE	F	I/E AutoRange
IERANGE	IQUANT	10	I/E Range
ACHSELECT	IQUANT	1	Ach Select
ACHRANGE	IQUANT	2	Ach Range
ACHOFFSETENABLE	TOGGLE	F	Ach Offset Enable
ACHOFFSET	QUANT	0	Ach Offset (V)
ACHFILTER	IQUANT	1	Ach Filter
CABLEID	IQUANT	14	Cable ID
DCCALDATE	LABEL	20-10-2016	DC Calibration Date
ACCALDATE	LABEL	12/3/2015	AC Calibration Date
FRAMEWORKVERSION	QUANT	7.01	Framework Version
INSTRUMENTVERSION	LABEL	4.00	Instrument Version
CURVE	TABLE	53
	Pt	T	Vf	Im	Vu	Pwr	Sig	Ach	Temp	IERange	Over
	#	s	V	A	V	W	V	V	deg C	#	bits
	0	0.013333	6.56234E-001	5.99303E-003	0.00000E+000	3.93283E-003	3.59960E-001	-1.17689E+000	3.57780E+000	10	...........
	1	0.026667	6.65239E-001	5.99694E-003	0.00000E+000	3.98940E-003	3.59960E-001	-1.17374E+000	3.57780E+000	10	...........
	2	0.04	6.73641E-001	5.99121E-003	0.00000E+000	4.03593E-003	3.59960E-001	-1.16814E+000	3.57780E+000	10	...........
	3	0.053333	6.81648E-001	5.99452E-003	0.00000E+000	4.08615E-003	3.59960E-001	-1.17695E+000	3.57780E+000	10	...........
	4	0.066667	6.89384E-001	5.98869E-003	0.00000E+000	4.12851E-003	3.59960E-001	-1.17399E+000	3.57780E+000	10	...........
	5	0.08	6.96966E-001	5.99572E-003	0.00000E+000	4.17881E-003	3.59960E-001	-1.16795E+000	3.57780E+000	10	...........
	6	0.093333	7.04330E-001	5.99280E-003	0.00000E+000	4.22091E-003	3.59960E-001	-1.17648E+000	3.57780E+000	10	...........
	7	0.106667	7.11654E-001	5.99650E-003	0.00000E+000	4.26743E-003	3.59960E-001	-1.17379E+000	3.57780E+000	10	...........
	8	0.12	7.18926E-001	5.99033E-003	0.00000E+000	4.30661E-003	3.59960E-001	-1.16811E+000	3.57780E+000	10	...........
	9	0.133333	7.26105E-001	5.99079E-003	0.00000E+000	4.34994E-003	3.59960E-001	-1.17650E+000	3.57780E+000	10	...........
	10	0.146667	7.33169E-001	5.99832E-003	0.00000E+000	4.39778E-003	3.59960E-001	-1.17371E+000	3.57780E+000	10	...........
	11	0.16	7.40233E-001	5.99828E-003	0.00000E+000	4.44012E-003	3.59960E-001	-1.16797E+000	3.57780E+000	10	...........
	12	0.173333	7.47234E-001	5.98899E-003	0.00000E+000	4.47518E-003	3.59960E-001	-1.17645E+000	3.57780E+000	10	...........
	13	0.186667	7.54189E-001	5.99310E-003	0.00000E+000	4.51993E-003	3.59960E-001	-1.17376E+000	3.57780E+000	10	...........
	14	0.2	7.61062E-001	5.99310E-003	0.00000E+000	4.56112E-003	3.59960E-001	-1.16769E+000	3.57780E+000	10	...........
	15	0.213333	7.67939E-001	5.99153E-003	0.00000E+000	4.60113E-003	3.59960E-001	-1.17647E+000	3.57780E+000	10	...........
	16	0.226667	7.74839E-001	5.99671E-003	0.00000E+000	4.64649E-003	3.59960E-001	-1.17375E+000	3.57780E+000	10	...........
	17	0.24	7.81646E-001	5.99323E-003	0.00000E+000	4.68458E-003	3.59960E-001	-1.16797E+000	3.57780E+000	10	...........
	18	0.253333	7.88408E-001	5.99179E-003	0.00000E+000	4.72398E-003	3.59960E-001	-1.17647E+000	3.57780E+000	10	...........
	19	0.266667	7.95238E-001	5.99572E-003	0.00000E+000	4.76803E-003	3.59960E-001	-1.17400E+000	3.57780E+000	10	...........
	20	0.28	8.01960E-001	5.99756E-003	0.00000E+000	4.80980E-003	3.59960E-001	-1.16788E+000	3.57780E+000	10	...........
	21	0.293333	8.08621E-001	5.99437E-003	0.00000E+000	4.84717E-003	3.59960E-001	-1.17605E+000	3.57780E+000	10	...........
	22	0.306667	8.15328E-001	5.99940E-003	0.00000E+000	4.89148E-003	3.59960E-001	-1.17385E+000	3.57780E+000	10	...........
	23	0.32	8.21993E-001	5.99222E-003	0.00000E+000	4.92556E-003	3.59960E-001	-1.16740E+000	3.57780E+000	10	...........
	24	0.333333	8.28636E-001	5.99391E-003	0.00000E+000	4.96676E-003	3.59960E-001	-1.17610E+000	3.57780E+000	10	...........
	25	0.346667	8.35238E-001	5.99749E-003	0.00000E+000	5.00934E-003	3.59960E-001	-1.17359E+000	3.57780E+000	10	...........
	26	0.36	8.41817E-001	5.99462E-003	0.00000E+000	5.04637E-003	3.59960E-001	-1.16724E+000	3.57780E+000	10	...........
	27	0.373333	8.48437E-001	5.99693E-003	0.00000E+000	5.08802E-003	3.59960E-001	-1.17589E+000	3.57780E+000	10	...........
	28	0.386667	8.54970E-001	5.99732E-003	0.00000E+000	5.12753E-003	3.59960E-001	-1.17364E+000	3.57780E+000	10	...........
	29	0.4	8.61494E-001	5.99501E-003	0.00000E+000	5.16467E-003	3.59960E-001	-1.16743E+000	3.57780E+000	10	...........
	30	0.413333	8.67983E-001	5.99372E-003	0.00000E+000	5.20244E-003	3.59960E-001	-1.17560E+000	3.57780E+000	10	...........
	31	0.426667	8.74446E-001	5.99381E-003	0.00000E+000	5.24127E-003	3.59960E-001	-1.17346E+000	3.57780E+000	10	...........
	32	0.44	8.80896E-001	5.98989E-003	0.00000E+000	5.27647E-003	3.59960E-001	-1.16725E+000	3.57780E+000	10	...........
	33	0.453333	8.87244E-001	5.99371E-003	0.00000E+000	5.31788E-003	3.59960E-001	-1.17576E+000	3.57780E+000	10	...........
	34	0.466667	8.93615E-001	5.99928E-003	0.00000E+000	5.36104E-003	3.59960E-001	-1.17380E+000	3.57780E+000	10	...........
	35	0.48	8.99931E-001	5.99112E-003	0.00000E+000	5.39159E-003	3.59960E-001	-1.16727E+000	3.57780E+000	10	...........
	36	0.493333	9.06207E-001	5.98710E-003	0.00000E+000	5.42555E-003	3.59960E-001	-1.17529E+000	3.57780E+000	10	...........
	37	0.506667	9.12444E-001	5.99261E-003	0.00000E+000	5.46792E-003	3.59960E-001	-1.17348E+000	3.57780E+000	10	...........
	38	0.52	9.18623E-001	5.99488E-003	0.00000E+000	5.50703E-003	3.59960E-001	-1.16735E+000	3.57780E+000	10	...........
	39	0.533333	9.24867E-001	5.99546E-003	0.00000E+000	5.54501E-003	3.59960E-001	-1.17566E+000	3.57780E+000	10	...........
	40	0.546667	9.30951E-001	5.99195E-003	0.00000E+000	5.57821E-003	3.59960E-001	-1.17365E+000	3.57780E+000	10	...........
	41	0.56	9.37052E-001	5.99496E-003	0.00000E+000	5.61759E-003	3.59960E-001	-1.16720E+000	3.57780E+000	10	...........
	42	0.573333	9.43047E-001	5.99750E-003	0.00000E+000	5.65593E-003	3.59960E-001	-1.17542E+000	3.57780E+000	10	...........
	43	0.586667	9.49060E-001	5.99309E-003	0.00000E+000	5.68781E-003	3.59960E-001	-1.17373E+000	3.57780E+000	10	...........
	44	0.6	9.55017E-001	5.99723E-003	0.00000E+000	5.72746E-003	3.59960E-001	-1.16724E+000	3.57772E+000	10	...........
	45	0.613333	9.60859E-001	5.98959E-003	0.00000E+000	5.75515E-003	3.59960E-001	-1.17521E+000	3.57750E+000	10	...........
	46	0.626667	9.66662E-001	5.99390E-003	0.00000E+000	5.79407E-003	3.59960E-001	-1.17352E+000	3.57750E+000	10	...........
	47	0.64	9.72465E-001	5.99405E-003	0.00000E+000	5.82901E-003	3.59960E-001	-1.16684E+000	3.57750E+000	10	...........
	48	0.653333	9.78220E-001	5.99565E-003	0.00000E+000	5.86506E-003	3.59960E-001	-1.17505E+000	3.57750E+000	10	...........
	49	0.666667	9.83921E-001	5.99500E-003	0.00000E+000	5.89861E-003	3.59960E-001	-1.17347E+000	3.57750E+000	10	...........
	50	0.68	9.89525E-001	5.99482E-003	0.00000E+000	5.93203E-003	3.59960E-001	-1.16678E+000	3.57750E+000	10	...........
	51	0.693333	9.95098E-001	5.99351E-003	0.00000E+000	5.96413E-003	3.59960E-001	-1.17477E+000	3.57750E+000	10	...........
	52	0.7	9.99239E-001	5.99229E-003	0.00000E+000	5.98773E-003	3.59960E-001	-1.16535E+000	3.57750E+000	10	...........
STARTTIMEOFFSET	QUANT	1461.496	Start Time Offset (s)