File: Data/CV_CRGO300517_1/PWRCCD_CRGO300517_1/CHARGE_DISCHARGE/CHARGE_#621.DTA
EXPLAIN
TAG	PWR800_CHARGE
TITLE	LABEL	PWR Cyclic Charge Discharge (Cell) - Charge Step	Test &Identifier
DATE	LABEL	22-6-2017	Date
TIME	LABEL	16:00:34	Time
NOTES	NOTES	3	&Notes...
	supercap test cell
	0.6mg
	6M KOH
PSTAT	PSTAT	IFC5000-01520	Potentiostat
CAPACITY	QUANT	1.00000E-003	Capacity (A-hr)
CELLTYPE	SELECTOR	1	&Cell Type
WORKINGCONNECTION	SELECTOR	0	&Working Lead
MAXCHARGETIME	VARIABLEANDUNITS	1.00000E+002	s	1.00000E+002	second(s)	Max &Charge Time
CHARGECURRENT	QUANT	6.00000E-003	&Charge Current (A)
VOLTAGEFINISH	TWOPARAM	F	1.00000E-003	3.60000E+003	&Voltage Finish	 I (A) < 	Max Time(s)
SAMPLETIME	QUANT	1.00000E-002	Sa&mple Period (s)
CHARGESTOPAT1	MULTIPARAM	4	1.00000E+000	Charge Stop At &1	Voltage > Limit	V
CHARGESTOPAT2	MULTIPARAM	0	0.00000E+000	Charge Stop At &2	None	N/A
AESBHCSELECTOR	TOGGLE	F	Save Both Half Cells
IRCOMP	TOGGLE	F	IR &Measure
EOC	QUANT	0	Open Circuit (V)
SEQUENCER	TOGGLE	TRUE	Run as Sequence
PSTATMODEL	IQUANT	53	Pstat Model
PSTATSECTION	LABEL	IFC5000-01520	Pstat Section
PSTATSERIALNO	LABEL	01520	Pstat Serial Number
CTRLMODE	IQUANT	0	Control Mode
ELECTROMETER	IQUANT	1	RE=0 or CS=1
IESTAB	IQUANT	0	I/E Stability
CASPEED	IQUANT	4	Control Amp Speed
CONVENTION	IQUANT	1	Current Convention
ICHRANGE	IQUANT	2	Ich Range
ICHRANGEMODE	TOGGLE	T	Ich Auto Range
ICHOFFSETENABLE	TOGGLE	F	Ich Offset Enable
ICHOFFSET	QUANT	0	Ich Offset (V)
ICHFILTER	IQUANT	1	Ich Filter
VCHRANGE	IQUANT	2	Vch Range
VCHRANGEMODE	TOGGLE	T	Vch Auto Range
VCHOFFSETENABLE	TOGGLE	F	Vch Offset Enable
VCHOFFSET	QUANT	0	Vch Offset (V)
VCHFILTER	IQUANT	1	Vch Filter
IERANGELOWERLIMIT	IQUANT	9	I/E Range Lower Limit
IERANGEMODE	TOGGLE	F	I/E AutoRange
IERANGE	IQUANT	10	I/E Range
ACHSELECT	IQUANT	1	Ach Select
ACHRANGE	IQUANT	2	Ach Range
ACHOFFSETENABLE	TOGGLE	F	Ach Offset Enable
ACHOFFSET	QUANT	0	Ach Offset (V)
ACHFILTER	IQUANT	1	Ach Filter
CABLEID	IQUANT	14	Cable ID
DCCALDATE	LABEL	20-10-2016	DC Calibration Date
ACCALDATE	LABEL	12/3/2015	AC Calibration Date
FRAMEWORKVERSION	QUANT	7.01	Framework Version
INSTRUMENTVERSION	LABEL	4.00	Instrument Version
CURVE	TABLE	57
	Pt	T	Vf	Im	Vu	Pwr	Sig	Ach	Temp	IERange	Over
	#	s	V	A	V	W	V	V	deg C	#	bits
	0	0.013333	6.39199E-001	5.99056E-003	0.00000E+000	3.82916E-003	3.59960E-001	-1.15772E+000	3.57670E+000	10	...........
	1	0.026667	6.48228E-001	5.98989E-003	0.00000E+000	3.88281E-003	3.59960E-001	-1.15200E+000	3.57670E+000	10	...........
	2	0.04	6.56496E-001	5.99709E-003	0.00000E+000	3.93706E-003	3.59960E-001	-1.14779E+000	3.57670E+000	10	...........
	3	0.053333	6.64351E-001	5.99259E-003	0.00000E+000	3.98119E-003	3.59960E-001	-1.15791E+000	3.57670E+000	10	...........
	4	0.066667	6.71965E-001	5.99670E-003	0.00000E+000	4.02957E-003	3.59960E-001	-1.15212E+000	3.57670E+000	10	...........
	5	0.08	6.79332E-001	5.99507E-003	0.00000E+000	4.07264E-003	3.59960E-001	-1.14759E+000	3.57670E+000	10	...........
	6	0.093333	6.86536E-001	5.99652E-003	0.00000E+000	4.11683E-003	3.59960E-001	-1.15756E+000	3.57670E+000	10	...........
	7	0.106667	6.93694E-001	5.99427E-003	0.00000E+000	4.15819E-003	3.59960E-001	-1.15189E+000	3.57670E+000	10	...........
	8	0.12	7.00690E-001	5.99476E-003	0.00000E+000	4.20047E-003	3.59960E-001	-1.14747E+000	3.57670E+000	10	...........
	9	0.133333	7.07651E-001	5.99528E-003	0.00000E+000	4.24257E-003	3.59960E-001	-1.15763E+000	3.57670E+000	10	...........
	10	0.146667	7.14507E-001	5.99251E-003	0.00000E+000	4.28169E-003	3.59960E-001	-1.15160E+000	3.57670E+000	10	...........
	11	0.16	7.21441E-001	5.99475E-003	0.00000E+000	4.32486E-003	3.59960E-001	-1.14693E+000	3.57670E+000	10	...........
	12	0.173333	7.28239E-001	5.99878E-003	0.00000E+000	4.36854E-003	3.59960E-001	-1.15741E+000	3.57670E+000	10	...........
	13	0.186667	7.34971E-001	5.99115E-003	0.00000E+000	4.40332E-003	3.59960E-001	-1.15182E+000	3.57670E+000	10	...........
	14	0.2	7.41714E-001	6.00092E-003	0.00000E+000	4.45096E-003	3.59960E-001	-1.14732E+000	3.57670E+000	10	...........
	15	0.213333	7.48452E-001	5.99668E-003	0.00000E+000	4.48823E-003	3.59960E-001	-1.15745E+000	3.57670E+000	10	...........
	16	0.226667	7.55122E-001	5.99851E-003	0.00000E+000	4.52961E-003	3.59960E-001	-1.15144E+000	3.57670E+000	10	...........
	17	0.24	7.61780E-001	5.99368E-003	0.00000E+000	4.56586E-003	3.59960E-001	-1.14719E+000	3.57670E+000	10	...........
	18	0.253333	7.68372E-001	5.99292E-003	0.00000E+000	4.60479E-003	3.59960E-001	-1.15769E+000	3.57670E+000	10	...........
	19	0.266667	7.74965E-001	5.99389E-003	0.00000E+000	4.64505E-003	3.59960E-001	-1.15151E+000	3.57670E+000	10	...........
	20	0.28	7.81564E-001	6.00107E-003	0.00000E+000	4.69022E-003	3.59960E-001	-1.14719E+000	3.57670E+000	10	...........
	21	0.293333	7.88126E-001	5.99059E-003	0.00000E+000	4.72134E-003	3.59960E-001	-1.15712E+000	3.57670E+000	10	...........
	22	0.306667	7.94677E-001	5.99453E-003	0.00000E+000	4.76372E-003	3.59960E-001	-1.15115E+000	3.57670E+000	10	...........
	23	0.32	8.01184E-001	5.99286E-003	0.00000E+000	4.80139E-003	3.59960E-001	-1.14702E+000	3.57670E+000	10	...........
	24	0.333333	8.07703E-001	5.99531E-003	0.00000E+000	4.84243E-003	3.59960E-001	-1.15729E+000	3.57670E+000	10	...........
	25	0.346667	8.14194E-001	5.99536E-003	0.00000E+000	4.88138E-003	3.59960E-001	-1.15101E+000	3.57670E+000	10	...........
	26	0.36	8.20666E-001	5.99305E-003	0.00000E+000	4.91830E-003	3.59960E-001	-1.14685E+000	3.57670E+000	10	...........
	27	0.373333	8.27134E-001	5.99193E-003	0.00000E+000	4.95613E-003	3.59960E-001	-1.15725E+000	3.57670E+000	10	...........
	28	0.386667	8.33595E-001	5.99427E-003	0.00000E+000	4.99679E-003	3.59960E-001	-1.15096E+000	3.57670E+000	10	...........
	29	0.4	8.40016E-001	5.99248E-003	0.00000E+000	5.03378E-003	3.59960E-001	-1.14668E+000	3.57670E+000	10	...........
	30	0.413333	8.46441E-001	5.99262E-003	0.00000E+000	5.07240E-003	3.59960E-001	-1.15689E+000	3.57670E+000	10	...........
	31	0.426667	8.52797E-001	5.99128E-003	0.00000E+000	5.10934E-003	3.59960E-001	-1.15079E+000	3.57670E+000	10	...........
	32	0.44	8.59157E-001	5.99629E-003	0.00000E+000	5.15176E-003	3.59960E-001	-1.14680E+000	3.57670E+000	10	...........
	33	0.453333	8.65509E-001	5.99685E-003	0.00000E+000	5.19033E-003	3.59960E-001	-1.15701E+000	3.57670E+000	10	...........
	34	0.466667	8.71844E-001	5.99262E-003	0.00000E+000	5.22463E-003	3.59960E-001	-1.15086E+000	3.57670E+000	10	...........
	35	0.48	8.78098E-001	5.99281E-003	0.00000E+000	5.26227E-003	3.59960E-001	-1.14662E+000	3.57670E+000	10	...........
	36	0.493333	8.84350E-001	5.99052E-003	0.00000E+000	5.29771E-003	3.59960E-001	-1.15704E+000	3.57670E+000	10	...........
	37	0.506667	8.90531E-001	5.99280E-003	0.00000E+000	5.33677E-003	3.59960E-001	-1.15098E+000	3.57670E+000	10	...........
	38	0.52	8.96755E-001	5.99778E-003	0.00000E+000	5.37853E-003	3.59960E-001	-1.14683E+000	3.57670E+000	10	...........
	39	0.533333	9.02918E-001	5.99041E-003	0.00000E+000	5.40885E-003	3.59960E-001	-1.15689E+000	3.57670E+000	10	...........
	40	0.546667	9.09098E-001	5.99123E-003	0.00000E+000	5.44661E-003	3.59960E-001	-1.15077E+000	3.57670E+000	10	...........
	41	0.56	9.15249E-001	5.99168E-003	0.00000E+000	5.48388E-003	3.59960E-001	-1.14665E+000	3.57670E+000	10	...........
	42	0.573333	9.21362E-001	5.99571E-003	0.00000E+000	5.52422E-003	3.59960E-001	-1.15697E+000	3.57670E+000	10	...........
	43	0.586667	9.27446E-001	5.99244E-003	0.00000E+000	5.55766E-003	3.59960E-001	-1.15081E+000	3.57670E+000	10	...........
	44	0.6	9.33419E-001	5.99292E-003	0.00000E+000	5.59390E-003	3.59960E-001	-1.14643E+000	3.57670E+000	10	...........
	45	0.613333	9.39372E-001	5.99719E-003	0.00000E+000	5.63359E-003	3.59960E-001	-1.15661E+000	3.57670E+000	10	...........
	46	0.626667	9.45310E-001	5.99611E-003	0.00000E+000	5.66818E-003	3.59960E-001	-1.15038E+000	3.57670E+000	10	...........
	47	0.64	9.51195E-001	5.99349E-003	0.00000E+000	5.70098E-003	3.59960E-001	-1.14649E+000	3.57670E+000	10	...........
	48	0.653333	9.57018E-001	5.99512E-003	0.00000E+000	5.73743E-003	3.59960E-001	-1.15670E+000	3.57670E+000	10	...........
	49	0.666667	9.62768E-001	5.99477E-003	0.00000E+000	5.77157E-003	3.59960E-001	-1.15039E+000	3.57670E+000	10	...........
	50	0.68	9.68511E-001	5.99366E-003	0.00000E+000	5.80492E-003	3.59960E-001	-1.14637E+000	3.57670E+000	10	...........
	51	0.693333	9.74262E-001	5.99362E-003	0.00000E+000	5.83936E-003	3.59960E-001	-1.15662E+000	3.57670E+000	10	...........
	52	0.706667	9.79938E-001	5.99611E-003	0.00000E+000	5.87581E-003	3.59960E-001	-1.15031E+000	3.57670E+000	10	...........
	53	0.72	9.85549E-001	5.99407E-003	0.00000E+000	5.90745E-003	3.59960E-001	-1.14617E+000	3.57670E+000	10	...........
	54	0.733333	9.91137E-001	5.99356E-003	0.00000E+000	5.94044E-003	3.59960E-001	-1.15650E+000	3.57670E+000	10	...........
	55	0.746667	9.96651E-001	5.99025E-003	0.00000E+000	5.97019E-003	3.59960E-001	-1.15029E+000	3.57670E+000	10	...........
	56	0.75	1.00013E+000	5.98578E-003	0.00000E+000	5.98658E-003	3.59960E-001	-1.15836E+000	3.57670E+000	10	...........
STARTTIMEOFFSET	QUANT	1042.347	Start Time Offset (s)