File: Data/CV_CRGO300517_1/PWRCCD_CRGO300517_1/CHARGE_DISCHARGE/CHARGE_#904.DTA
EXPLAIN
TAG	PWR800_CHARGE
TITLE	LABEL	PWR Cyclic Charge Discharge (Cell) - Charge Step	Test &Identifier
DATE	LABEL	22-6-2017	Date
TIME	LABEL	16:11:08	Time
NOTES	NOTES	3	&Notes...
	supercap test cell
	0.6mg
	6M KOH
PSTAT	PSTAT	IFC5000-01520	Potentiostat
CAPACITY	QUANT	1.00000E-003	Capacity (A-hr)
CELLTYPE	SELECTOR	1	&Cell Type
WORKINGCONNECTION	SELECTOR	0	&Working Lead
MAXCHARGETIME	VARIABLEANDUNITS	1.00000E+002	s	1.00000E+002	second(s)	Max &Charge Time
CHARGECURRENT	QUANT	6.00000E-003	&Charge Current (A)
VOLTAGEFINISH	TWOPARAM	F	1.00000E-003	3.60000E+003	&Voltage Finish	 I (A) < 	Max Time(s)
SAMPLETIME	QUANT	1.00000E-002	Sa&mple Period (s)
CHARGESTOPAT1	MULTIPARAM	4	1.00000E+000	Charge Stop At &1	Voltage > Limit	V
CHARGESTOPAT2	MULTIPARAM	0	0.00000E+000	Charge Stop At &2	None	N/A
AESBHCSELECTOR	TOGGLE	F	Save Both Half Cells
IRCOMP	TOGGLE	F	IR &Measure
EOC	QUANT	0	Open Circuit (V)
SEQUENCER	TOGGLE	TRUE	Run as Sequence
PSTATMODEL	IQUANT	53	Pstat Model
PSTATSECTION	LABEL	IFC5000-01520	Pstat Section
PSTATSERIALNO	LABEL	01520	Pstat Serial Number
CTRLMODE	IQUANT	0	Control Mode
ELECTROMETER	IQUANT	1	RE=0 or CS=1
IESTAB	IQUANT	0	I/E Stability
CASPEED	IQUANT	4	Control Amp Speed
CONVENTION	IQUANT	1	Current Convention
ICHRANGE	IQUANT	2	Ich Range
ICHRANGEMODE	TOGGLE	T	Ich Auto Range
ICHOFFSETENABLE	TOGGLE	F	Ich Offset Enable
ICHOFFSET	QUANT	0	Ich Offset (V)
ICHFILTER	IQUANT	1	Ich Filter
VCHRANGE	IQUANT	2	Vch Range
VCHRANGEMODE	TOGGLE	T	Vch Auto Range
VCHOFFSETENABLE	TOGGLE	F	Vch Offset Enable
VCHOFFSET	QUANT	0	Vch Offset (V)
VCHFILTER	IQUANT	1	Vch Filter
IERANGELOWERLIMIT	IQUANT	9	I/E Range Lower Limit
IERANGEMODE	TOGGLE	F	I/E AutoRange
IERANGE	IQUANT	10	I/E Range
ACHSELECT	IQUANT	1	Ach Select
ACHRANGE	IQUANT	2	Ach Range
ACHOFFSETENABLE	TOGGLE	F	Ach Offset Enable
ACHOFFSET	QUANT	0	Ach Offset (V)
ACHFILTER	IQUANT	1	Ach Filter
CABLEID	IQUANT	14	Cable ID
DCCALDATE	LABEL	20-10-2016	DC Calibration Date
ACCALDATE	LABEL	12/3/2015	AC Calibration Date
FRAMEWORKVERSION	QUANT	7.01	Framework Version
INSTRUMENTVERSION	LABEL	4.00	Instrument Version
CURVE	TABLE	53
	Pt	T	Vf	Im	Vu	Pwr	Sig	Ach	Temp	IERange	Over
	#	s	V	A	V	W	V	V	deg C	#	bits
	0	0.013333	6.53360E-001	5.99108E-003	0.00000E+000	3.91433E-003	3.59960E-001	-1.17613E+000	3.57660E+000	10	...........
	1	0.026667	6.62668E-001	5.99216E-003	0.00000E+000	3.97082E-003	3.59960E-001	-1.16526E+000	3.57660E+000	10	...........
	2	0.04	6.71256E-001	5.99132E-003	0.00000E+000	4.02171E-003	3.59960E-001	-1.16731E+000	3.57660E+000	10	...........
	3	0.053333	6.79338E-001	5.99185E-003	0.00000E+000	4.07049E-003	3.59960E-001	-1.17563E+000	3.57660E+000	10	...........
	4	0.066667	6.87125E-001	5.99481E-003	0.00000E+000	4.11918E-003	3.59960E-001	-1.16493E+000	3.57660E+000	10	...........
	5	0.08	6.94746E-001	5.99673E-003	0.00000E+000	4.16621E-003	3.59960E-001	-1.16725E+000	3.57660E+000	10	...........
	6	0.093333	7.02183E-001	5.99323E-003	0.00000E+000	4.20834E-003	3.59960E-001	-1.17570E+000	3.57660E+000	10	...........
	7	0.106667	7.09495E-001	5.99288E-003	0.00000E+000	4.25192E-003	3.59960E-001	-1.16497E+000	3.57660E+000	10	...........
	8	0.12	7.16776E-001	5.99739E-003	0.00000E+000	4.29878E-003	3.59960E-001	-1.16705E+000	3.57660E+000	10	...........
	9	0.133333	7.23936E-001	5.99351E-003	0.00000E+000	4.33892E-003	3.59960E-001	-1.17550E+000	3.57660E+000	10	...........
	10	0.146667	7.31020E-001	5.99398E-003	0.00000E+000	4.38172E-003	3.59960E-001	-1.16509E+000	3.57660E+000	10	...........
	11	0.16	7.38031E-001	5.99180E-003	0.00000E+000	4.42213E-003	3.59960E-001	-1.16724E+000	3.57660E+000	10	...........
	12	0.173333	7.45057E-001	5.99001E-003	0.00000E+000	4.46290E-003	3.59960E-001	-1.17545E+000	3.57660E+000	10	...........
	13	0.186667	7.51992E-001	5.99317E-003	0.00000E+000	4.50681E-003	3.59960E-001	-1.16464E+000	3.57660E+000	10	...........
	14	0.2	7.58910E-001	5.99705E-003	0.00000E+000	4.55122E-003	3.59960E-001	-1.16709E+000	3.57660E+000	10	...........
	15	0.213333	7.65805E-001	5.99177E-003	0.00000E+000	4.58853E-003	3.59960E-001	-1.17538E+000	3.57660E+000	10	...........
	16	0.226667	7.72631E-001	5.99360E-003	0.00000E+000	4.63085E-003	3.59960E-001	-1.16474E+000	3.57660E+000	10	...........
	17	0.24	7.79435E-001	5.98684E-003	0.00000E+000	4.66636E-003	3.59960E-001	-1.16693E+000	3.57660E+000	10	...........
	18	0.253333	7.86275E-001	5.99275E-003	0.00000E+000	4.71195E-003	3.59960E-001	-1.17494E+000	3.57660E+000	10	...........
	19	0.266667	7.93046E-001	5.99860E-003	0.00000E+000	4.75717E-003	3.59960E-001	-1.16424E+000	3.57660E+000	10	...........
	20	0.28	7.99757E-001	5.99608E-003	0.00000E+000	4.79541E-003	3.59960E-001	-1.16663E+000	3.57660E+000	10	...........
	21	0.293333	8.06441E-001	5.99319E-003	0.00000E+000	4.83315E-003	3.59960E-001	-1.17499E+000	3.57660E+000	10	...........
	22	0.306667	8.13129E-001	5.99381E-003	0.00000E+000	4.87374E-003	3.59960E-001	-1.16407E+000	3.57660E+000	10	...........
	23	0.32	8.19796E-001	5.99662E-003	0.00000E+000	4.91600E-003	3.59960E-001	-1.16660E+000	3.57660E+000	10	...........
	24	0.333333	8.26437E-001	5.99409E-003	0.00000E+000	4.95374E-003	3.59960E-001	-1.17480E+000	3.57660E+000	10	...........
	25	0.346667	8.33018E-001	5.99427E-003	0.00000E+000	4.99334E-003	3.59960E-001	-1.16430E+000	3.57660E+000	10	...........
	26	0.36	8.39621E-001	5.99464E-003	0.00000E+000	5.03322E-003	3.59960E-001	-1.16675E+000	3.57660E+000	10	...........
	27	0.373333	8.46215E-001	5.99114E-003	0.00000E+000	5.06979E-003	3.59960E-001	-1.17473E+000	3.57660E+000	10	...........
	28	0.386667	8.52757E-001	5.99326E-003	0.00000E+000	5.11079E-003	3.59960E-001	-1.16411E+000	3.57660E+000	10	...........
	29	0.4	8.59269E-001	5.99418E-003	0.00000E+000	5.15061E-003	3.59960E-001	-1.16649E+000	3.57660E+000	10	...........
	30	0.413333	8.65752E-001	5.99216E-003	0.00000E+000	5.18773E-003	3.59960E-001	-1.17470E+000	3.57660E+000	10	...........
	31	0.426667	8.72269E-001	5.99457E-003	0.00000E+000	5.22888E-003	3.59960E-001	-1.16425E+000	3.57660E+000	10	...........
	32	0.44	8.78690E-001	5.98995E-003	0.00000E+000	5.26331E-003	3.59960E-001	-1.16652E+000	3.57660E+000	10	...........
	33	0.453333	8.85075E-001	5.99177E-003	0.00000E+000	5.30317E-003	3.59960E-001	-1.17468E+000	3.57660E+000	10	...........
	34	0.466667	8.91413E-001	5.99024E-003	0.00000E+000	5.33978E-003	3.59960E-001	-1.16409E+000	3.57660E+000	10	...........
	35	0.48	8.97689E-001	5.99893E-003	0.00000E+000	5.38517E-003	3.59960E-001	-1.16685E+000	3.57660E+000	10	...........
	36	0.493333	9.03976E-001	5.99483E-003	0.00000E+000	5.41919E-003	3.59960E-001	-1.17492E+000	3.57660E+000	10	...........
	37	0.506667	9.10236E-001	5.99254E-003	0.00000E+000	5.45462E-003	3.59960E-001	-1.16420E+000	3.57660E+000	10	...........
	38	0.52	9.16432E-001	5.99576E-003	0.00000E+000	5.49471E-003	3.59960E-001	-1.16660E+000	3.57660E+000	10	...........
	39	0.533333	9.22658E-001	5.99373E-003	0.00000E+000	5.53016E-003	3.59960E-001	-1.17455E+000	3.57660E+000	10	...........
	40	0.546667	9.28815E-001	5.99385E-003	0.00000E+000	5.56718E-003	3.59960E-001	-1.16418E+000	3.57660E+000	10	...........
	41	0.56	9.34867E-001	5.99683E-003	0.00000E+000	5.60624E-003	3.59960E-001	-1.16678E+000	3.57660E+000	10	...........
	42	0.573333	9.40895E-001	5.99343E-003	0.00000E+000	5.63918E-003	3.59960E-001	-1.17414E+000	3.57660E+000	10	...........
	43	0.586667	9.46903E-001	5.99235E-003	0.00000E+000	5.67418E-003	3.59960E-001	-1.16332E+000	3.57660E+000	10	...........
	44	0.6	9.52855E-001	5.99620E-003	0.00000E+000	5.71351E-003	3.59960E-001	-1.16623E+000	3.57660E+000	10	...........
	45	0.613333	9.58706E-001	5.99246E-003	0.00000E+000	5.74500E-003	3.59960E-001	-1.17412E+000	3.57660E+000	10	...........
	46	0.626667	9.64557E-001	5.98874E-003	0.00000E+000	5.77648E-003	3.59960E-001	-1.16380E+000	3.57660E+000	10	...........
	47	0.64	9.70362E-001	5.99238E-003	0.00000E+000	5.81478E-003	3.59960E-001	-1.16621E+000	3.57660E+000	10	...........
	48	0.653333	9.76170E-001	5.98655E-003	0.00000E+000	5.84389E-003	3.59960E-001	-1.17383E+000	3.57660E+000	10	...........
	49	0.666667	9.81827E-001	5.99352E-003	0.00000E+000	5.88460E-003	3.59960E-001	-1.16335E+000	3.57660E+000	10	...........
	50	0.68	9.87521E-001	5.99164E-003	0.00000E+000	5.91687E-003	3.59960E-001	-1.16639E+000	3.57660E+000	10	...........
	51	0.693333	9.93046E-001	5.99419E-003	0.00000E+000	5.95251E-003	3.59960E-001	-1.17398E+000	3.57660E+000	10	...........
	52	0.705	9.98245E-001	5.99377E-003	0.00000E+000	5.98325E-003	3.59960E-001	-1.16137E+000	3.57660E+000	10	...........
STARTTIMEOFFSET	QUANT	1451.681	Start Time Offset (s)