File: Data/CV_CRGO300517_1/PWRCCD_CRGO300517_1/CHARGE_DISCHARGE/CHARGE_#379.DTA
EXPLAIN
TAG	PWR800_CHARGE
TITLE	LABEL	PWR Cyclic Charge Discharge (Cell) - Charge Step	Test &Identifier
DATE	LABEL	22-6-2017	Date
TIME	LABEL	15:51:08	Time
NOTES	NOTES	3	&Notes...
	supercap test cell
	0.6mg
	6M KOH
PSTAT	PSTAT	IFC5000-01520	Potentiostat
CAPACITY	QUANT	1.00000E-003	Capacity (A-hr)
CELLTYPE	SELECTOR	1	&Cell Type
WORKINGCONNECTION	SELECTOR	0	&Working Lead
MAXCHARGETIME	VARIABLEANDUNITS	1.00000E+002	s	1.00000E+002	second(s)	Max &Charge Time
CHARGECURRENT	QUANT	6.00000E-003	&Charge Current (A)
VOLTAGEFINISH	TWOPARAM	F	1.00000E-003	3.60000E+003	&Voltage Finish	 I (A) < 	Max Time(s)
SAMPLETIME	QUANT	1.00000E-002	Sa&mple Period (s)
CHARGESTOPAT1	MULTIPARAM	4	1.00000E+000	Charge Stop At &1	Voltage > Limit	V
CHARGESTOPAT2	MULTIPARAM	0	0.00000E+000	Charge Stop At &2	None	N/A
AESBHCSELECTOR	TOGGLE	F	Save Both Half Cells
IRCOMP	TOGGLE	F	IR &Measure
EOC	QUANT	0	Open Circuit (V)
SEQUENCER	TOGGLE	TRUE	Run as Sequence
PSTATMODEL	IQUANT	53	Pstat Model
PSTATSECTION	LABEL	IFC5000-01520	Pstat Section
PSTATSERIALNO	LABEL	01520	Pstat Serial Number
CTRLMODE	IQUANT	0	Control Mode
ELECTROMETER	IQUANT	1	RE=0 or CS=1
IESTAB	IQUANT	0	I/E Stability
CASPEED	IQUANT	4	Control Amp Speed
CONVENTION	IQUANT	1	Current Convention
ICHRANGE	IQUANT	2	Ich Range
ICHRANGEMODE	TOGGLE	T	Ich Auto Range
ICHOFFSETENABLE	TOGGLE	F	Ich Offset Enable
ICHOFFSET	QUANT	0	Ich Offset (V)
ICHFILTER	IQUANT	1	Ich Filter
VCHRANGE	IQUANT	2	Vch Range
VCHRANGEMODE	TOGGLE	T	Vch Auto Range
VCHOFFSETENABLE	TOGGLE	F	Vch Offset Enable
VCHOFFSET	QUANT	0	Vch Offset (V)
VCHFILTER	IQUANT	1	Vch Filter
IERANGELOWERLIMIT	IQUANT	9	I/E Range Lower Limit
IERANGEMODE	TOGGLE	F	I/E AutoRange
IERANGE	IQUANT	10	I/E Range
ACHSELECT	IQUANT	1	Ach Select
ACHRANGE	IQUANT	2	Ach Range
ACHOFFSETENABLE	TOGGLE	F	Ach Offset Enable
ACHOFFSET	QUANT	0	Ach Offset (V)
ACHFILTER	IQUANT	1	Ach Filter
CABLEID	IQUANT	14	Cable ID
DCCALDATE	LABEL	20-10-2016	DC Calibration Date
ACCALDATE	LABEL	12/3/2015	AC Calibration Date
FRAMEWORKVERSION	QUANT	7.01	Framework Version
INSTRUMENTVERSION	LABEL	4.00	Instrument Version
CURVE	TABLE	61
	Pt	T	Vf	Im	Vu	Pwr	Sig	Ach	Temp	IERange	Over
	#	s	V	A	V	W	V	V	deg C	#	bits
	0	0.013333	6.23574E-001	5.99313E-003	0.00000E+000	3.73716E-003	3.59960E-001	-1.11890E+000	3.57800E+000	10	...........
	1	0.026667	6.32298E-001	5.99708E-003	0.00000E+000	3.79194E-003	3.59960E-001	-1.12568E+000	3.57800E+000	10	...........
	2	0.04	6.40325E-001	5.99248E-003	0.00000E+000	3.83713E-003	3.59960E-001	-1.12712E+000	3.57800E+000	10	...........
	3	0.053333	6.47935E-001	5.99032E-003	0.00000E+000	3.88134E-003	3.59960E-001	-1.11907E+000	3.57800E+000	10	...........
	4	0.066667	6.55237E-001	5.99663E-003	0.00000E+000	3.92921E-003	3.59960E-001	-1.12561E+000	3.57800E+000	10	...........
	5	0.08	6.62337E-001	5.99636E-003	0.00000E+000	3.97161E-003	3.59960E-001	-1.12718E+000	3.57800E+000	10	...........
	6	0.093333	6.69361E-001	5.99657E-003	0.00000E+000	4.01386E-003	3.59960E-001	-1.11907E+000	3.57800E+000	10	...........
	7	0.106667	6.76261E-001	5.99074E-003	0.00000E+000	4.05130E-003	3.59960E-001	-1.12574E+000	3.57800E+000	10	...........
	8	0.12	6.83039E-001	5.99209E-003	0.00000E+000	4.09283E-003	3.59960E-001	-1.12733E+000	3.57800E+000	10	...........
	9	0.133333	6.89718E-001	5.99716E-003	0.00000E+000	4.13635E-003	3.59960E-001	-1.11906E+000	3.57800E+000	10	...........
	10	0.146667	6.96405E-001	5.99463E-003	0.00000E+000	4.17469E-003	3.59960E-001	-1.12552E+000	3.57800E+000	10	...........
	11	0.16	7.03012E-001	5.99621E-003	0.00000E+000	4.21541E-003	3.59960E-001	-1.12687E+000	3.57800E+000	10	...........
	12	0.173333	7.09579E-001	5.99370E-003	0.00000E+000	4.25300E-003	3.59960E-001	-1.11858E+000	3.57800E+000	10	...........
	13	0.186667	7.16128E-001	5.99613E-003	0.00000E+000	4.29399E-003	3.59960E-001	-1.12517E+000	3.57800E+000	10	...........
	14	0.2	7.22663E-001	5.99119E-003	0.00000E+000	4.32961E-003	3.59960E-001	-1.12681E+000	3.57800E+000	10	...........
	15	0.213333	7.29129E-001	5.99430E-003	0.00000E+000	4.37062E-003	3.59960E-001	-1.11845E+000	3.57800E+000	10	...........
	16	0.226667	7.35581E-001	5.99209E-003	0.00000E+000	4.40767E-003	3.59960E-001	-1.12512E+000	3.57800E+000	10	...........
	17	0.24	7.42032E-001	5.99336E-003	0.00000E+000	4.44727E-003	3.59960E-001	-1.12678E+000	3.57800E+000	10	...........
	18	0.253333	7.48487E-001	5.99390E-003	0.00000E+000	4.48635E-003	3.59960E-001	-1.11856E+000	3.57800E+000	10	...........
	19	0.266667	7.54878E-001	5.99495E-003	0.00000E+000	4.52546E-003	3.59960E-001	-1.12484E+000	3.57800E+000	10	...........
	20	0.28	7.61262E-001	5.99660E-003	0.00000E+000	4.56498E-003	3.59960E-001	-1.12661E+000	3.57800E+000	10	...........
	21	0.293333	7.67638E-001	5.99252E-003	0.00000E+000	4.60009E-003	3.59960E-001	-1.11843E+000	3.57800E+000	10	...........
	22	0.306667	7.74028E-001	5.99505E-003	0.00000E+000	4.64034E-003	3.59960E-001	-1.12482E+000	3.57800E+000	10	...........
	23	0.32	7.80419E-001	5.99419E-003	0.00000E+000	4.67798E-003	3.59960E-001	-1.12689E+000	3.57800E+000	10	...........
	24	0.333333	7.86749E-001	5.99263E-003	0.00000E+000	4.71470E-003	3.59960E-001	-1.11814E+000	3.57800E+000	10	...........
	25	0.346667	7.93092E-001	5.99336E-003	0.00000E+000	4.75329E-003	3.59960E-001	-1.12471E+000	3.57800E+000	10	...........
	26	0.36	7.99434E-001	5.99088E-003	0.00000E+000	4.78931E-003	3.59960E-001	-1.12647E+000	3.57800E+000	10	...........
	27	0.373333	8.05708E-001	5.99300E-003	0.00000E+000	4.82861E-003	3.59960E-001	-1.11830E+000	3.57800E+000	10	...........
	28	0.386667	8.12013E-001	5.99335E-003	0.00000E+000	4.86668E-003	3.59960E-001	-1.12478E+000	3.57800E+000	10	...........
	29	0.4	8.18313E-001	5.99643E-003	0.00000E+000	4.90696E-003	3.59960E-001	-1.12672E+000	3.57800E+000	10	...........
	30	0.413333	8.24555E-001	5.99283E-003	0.00000E+000	4.94142E-003	3.59960E-001	-1.11817E+000	3.57800E+000	10	...........
	31	0.426667	8.30790E-001	5.99266E-003	0.00000E+000	4.97865E-003	3.59960E-001	-1.12454E+000	3.57800E+000	10	...........
	32	0.44	8.37024E-001	5.99598E-003	0.00000E+000	5.01878E-003	3.59960E-001	-1.12672E+000	3.57800E+000	10	...........
	33	0.453333	8.43276E-001	5.99232E-003	0.00000E+000	5.05318E-003	3.59960E-001	-1.11831E+000	3.57800E+000	10	...........
	34	0.466667	8.49498E-001	5.99499E-003	0.00000E+000	5.09273E-003	3.59960E-001	-1.12437E+000	3.57800E+000	10	...........
	35	0.48	8.55663E-001	5.99553E-003	0.00000E+000	5.13016E-003	3.59960E-001	-1.12618E+000	3.57800E+000	10	...........
	36	0.493333	8.61863E-001	6.00049E-003	0.00000E+000	5.17160E-003	3.59960E-001	-1.11760E+000	3.57800E+000	10	...........
	37	0.506667	8.68033E-001	5.99489E-003	0.00000E+000	5.20376E-003	3.59960E-001	-1.12410E+000	3.57800E+000	10	...........
	38	0.52	8.74224E-001	5.99173E-003	0.00000E+000	5.23811E-003	3.59960E-001	-1.12636E+000	3.57800E+000	10	...........
	39	0.533333	8.80316E-001	5.99228E-003	0.00000E+000	5.27510E-003	3.59960E-001	-1.11777E+000	3.57800E+000	10	...........
	40	0.546667	8.86424E-001	5.99261E-003	0.00000E+000	5.31200E-003	3.59960E-001	-1.12379E+000	3.57800E+000	10	...........
	41	0.56	8.92547E-001	5.99472E-003	0.00000E+000	5.35057E-003	3.59960E-001	-1.12621E+000	3.57800E+000	10	...........
	42	0.573333	8.98609E-001	5.99489E-003	0.00000E+000	5.38706E-003	3.59960E-001	-1.11770E+000	3.57800E+000	10	...........
	43	0.586667	9.04667E-001	5.99063E-003	0.00000E+000	5.41953E-003	3.59960E-001	-1.12372E+000	3.57800E+000	10	...........
	44	0.6	9.10706E-001	5.99516E-003	0.00000E+000	5.45983E-003	3.59960E-001	-1.12605E+000	3.57800E+000	10	...........
	45	0.613333	9.16657E-001	5.99430E-003	0.00000E+000	5.49472E-003	3.59960E-001	-1.11742E+000	3.57800E+000	10	...........
	46	0.626667	9.22667E-001	5.99475E-003	0.00000E+000	5.53116E-003	3.59960E-001	-1.12339E+000	3.57800E+000	10	...........
	47	0.64	9.28558E-001	5.99198E-003	0.00000E+000	5.56390E-003	3.59960E-001	-1.12616E+000	3.57800E+000	10	...........
	48	0.653333	9.34426E-001	5.99753E-003	0.00000E+000	5.60424E-003	3.59960E-001	-1.11770E+000	3.57800E+000	10	...........
	49	0.666667	9.40307E-001	5.99498E-003	0.00000E+000	5.63712E-003	3.59960E-001	-1.12354E+000	3.57800E+000	10	...........
	50	0.68	9.46128E-001	5.99482E-003	0.00000E+000	5.67187E-003	3.59960E-001	-1.12588E+000	3.57800E+000	10	...........
	51	0.693333	9.51959E-001	5.99565E-003	0.00000E+000	5.70761E-003	3.59960E-001	-1.11760E+000	3.57800E+000	10	...........
	52	0.706667	9.57652E-001	5.99276E-003	0.00000E+000	5.73898E-003	3.59960E-001	-1.12380E+000	3.57800E+000	10	...........
	53	0.72	9.63335E-001	5.99096E-003	0.00000E+000	5.77131E-003	3.59960E-001	-1.12616E+000	3.57800E+000	10	...........
	54	0.733333	9.69007E-001	5.99784E-003	0.00000E+000	5.81195E-003	3.59960E-001	-1.11736E+000	3.57800E+000	10	...........
	55	0.746667	9.74696E-001	5.99875E-003	0.00000E+000	5.84695E-003	3.59960E-001	-1.12306E+000	3.57800E+000	10	...........
	56	0.76	9.80269E-001	5.99325E-003	0.00000E+000	5.87500E-003	3.59960E-001	-1.12600E+000	3.57800E+000	10	...........
	57	0.773333	9.85807E-001	5.99476E-003	0.00000E+000	5.90968E-003	3.59960E-001	-1.11759E+000	3.57800E+000	10	...........
	58	0.786667	9.91282E-001	5.99385E-003	0.00000E+000	5.94160E-003	3.59960E-001	-1.12332E+000	3.57800E+000	10	...........
	59	0.8	9.96722E-001	5.99525E-003	0.00000E+000	5.97560E-003	3.59960E-001	-1.12581E+000	3.57800E+000	10	...........
	60	0.803333	1.00007E+000	5.98044E-003	0.00000E+000	5.98085E-003	3.59960E-001	-1.12306E+000	3.57800E+000	10	...........
STARTTIMEOFFSET	QUANT	669.2382	Start Time Offset (s)