File: Data/CV_CRGO300517_1/PWRCCD_CRGO300517_1/CHARGE_DISCHARGE/CHARGE_#226.DTA
EXPLAIN
TAG	PWR800_CHARGE
TITLE	LABEL	PWR Cyclic Charge Discharge (Cell) - Charge Step	Test &Identifier
DATE	LABEL	22-6-2017	Date
TIME	LABEL	15:44:53	Time
NOTES	NOTES	3	&Notes...
	supercap test cell
	0.6mg
	6M KOH
PSTAT	PSTAT	IFC5000-01520	Potentiostat
CAPACITY	QUANT	1.00000E-003	Capacity (A-hr)
CELLTYPE	SELECTOR	1	&Cell Type
WORKINGCONNECTION	SELECTOR	0	&Working Lead
MAXCHARGETIME	VARIABLEANDUNITS	1.00000E+002	s	1.00000E+002	second(s)	Max &Charge Time
CHARGECURRENT	QUANT	6.00000E-003	&Charge Current (A)
VOLTAGEFINISH	TWOPARAM	F	1.00000E-003	3.60000E+003	&Voltage Finish	 I (A) < 	Max Time(s)
SAMPLETIME	QUANT	1.00000E-002	Sa&mple Period (s)
CHARGESTOPAT1	MULTIPARAM	4	1.00000E+000	Charge Stop At &1	Voltage > Limit	V
CHARGESTOPAT2	MULTIPARAM	0	0.00000E+000	Charge Stop At &2	None	N/A
AESBHCSELECTOR	TOGGLE	F	Save Both Half Cells
IRCOMP	TOGGLE	F	IR &Measure
EOC	QUANT	0	Open Circuit (V)
SEQUENCER	TOGGLE	TRUE	Run as Sequence
PSTATMODEL	IQUANT	53	Pstat Model
PSTATSECTION	LABEL	IFC5000-01520	Pstat Section
PSTATSERIALNO	LABEL	01520	Pstat Serial Number
CTRLMODE	IQUANT	0	Control Mode
ELECTROMETER	IQUANT	1	RE=0 or CS=1
IESTAB	IQUANT	0	I/E Stability
CASPEED	IQUANT	4	Control Amp Speed
CONVENTION	IQUANT	1	Current Convention
ICHRANGE	IQUANT	2	Ich Range
ICHRANGEMODE	TOGGLE	T	Ich Auto Range
ICHOFFSETENABLE	TOGGLE	F	Ich Offset Enable
ICHOFFSET	QUANT	0	Ich Offset (V)
ICHFILTER	IQUANT	1	Ich Filter
VCHRANGE	IQUANT	2	Vch Range
VCHRANGEMODE	TOGGLE	T	Vch Auto Range
VCHOFFSETENABLE	TOGGLE	F	Vch Offset Enable
VCHOFFSET	QUANT	0	Vch Offset (V)
VCHFILTER	IQUANT	1	Vch Filter
IERANGELOWERLIMIT	IQUANT	9	I/E Range Lower Limit
IERANGEMODE	TOGGLE	F	I/E AutoRange
IERANGE	IQUANT	10	I/E Range
ACHSELECT	IQUANT	1	Ach Select
ACHRANGE	IQUANT	2	Ach Range
ACHOFFSETENABLE	TOGGLE	F	Ach Offset Enable
ACHOFFSET	QUANT	0	Ach Offset (V)
ACHFILTER	IQUANT	1	Ach Filter
CABLEID	IQUANT	14	Cable ID
DCCALDATE	LABEL	20-10-2016	DC Calibration Date
ACCALDATE	LABEL	12/3/2015	AC Calibration Date
FRAMEWORKVERSION	QUANT	7.01	Framework Version
INSTRUMENTVERSION	LABEL	4.00	Instrument Version
CURVE	TABLE	65
	Pt	T	Vf	Im	Vu	Pwr	Sig	Ach	Temp	IERange	Over
	#	s	V	A	V	W	V	V	deg C	#	bits
	0	0.013333	6.09013E-001	5.99362E-003	0.00000E+000	3.65020E-003	3.59960E-001	-1.08875E+000	3.57820E+000	10	...........
	1	0.026667	6.17595E-001	5.99447E-003	0.00000E+000	3.70216E-003	3.59960E-001	-1.09857E+000	3.57820E+000	10	...........
	2	0.04	6.25358E-001	5.98870E-003	0.00000E+000	3.74508E-003	3.59960E-001	-1.09039E+000	3.57820E+000	10	...........
	3	0.053333	6.32776E-001	5.99599E-003	0.00000E+000	3.79412E-003	3.59960E-001	-1.08866E+000	3.57820E+000	10	...........
	4	0.066667	6.39861E-001	5.99145E-003	0.00000E+000	3.83370E-003	3.59960E-001	-1.09837E+000	3.57820E+000	10	...........
	5	0.08	6.46833E-001	5.99900E-003	0.00000E+000	3.88035E-003	3.59960E-001	-1.09026E+000	3.57820E+000	10	...........
	6	0.093333	6.53656E-001	5.99134E-003	0.00000E+000	3.91628E-003	3.59960E-001	-1.08857E+000	3.57820E+000	10	...........
	7	0.106667	6.60317E-001	5.99397E-003	0.00000E+000	3.95792E-003	3.59960E-001	-1.09827E+000	3.57820E+000	10	...........
	8	0.12	6.66932E-001	5.99537E-003	0.00000E+000	3.99850E-003	3.59960E-001	-1.09040E+000	3.57820E+000	10	...........
	9	0.133333	6.73450E-001	5.99629E-003	0.00000E+000	4.03820E-003	3.59960E-001	-1.08839E+000	3.57820E+000	10	...........
	10	0.146667	6.79908E-001	5.98864E-003	0.00000E+000	4.07172E-003	3.59960E-001	-1.09808E+000	3.57820E+000	10	...........
	11	0.16	6.86314E-001	5.99619E-003	0.00000E+000	4.11527E-003	3.59960E-001	-1.09026E+000	3.57820E+000	10	...........
	12	0.173333	6.92738E-001	5.99391E-003	0.00000E+000	4.15221E-003	3.59960E-001	-1.08845E+000	3.57820E+000	10	...........
	13	0.186667	6.99114E-001	5.99297E-003	0.00000E+000	4.18977E-003	3.59960E-001	-1.09814E+000	3.57820E+000	10	...........
	14	0.2	7.05426E-001	5.99526E-003	0.00000E+000	4.22922E-003	3.59960E-001	-1.09068E+000	3.57820E+000	10	...........
	15	0.213333	7.11735E-001	5.99255E-003	0.00000E+000	4.26511E-003	3.59960E-001	-1.08848E+000	3.57820E+000	10	...........
	16	0.226667	7.18047E-001	5.99268E-003	0.00000E+000	4.30302E-003	3.59960E-001	-1.09819E+000	3.57820E+000	10	...........
	17	0.24	7.24350E-001	5.99494E-003	0.00000E+000	4.34243E-003	3.59960E-001	-1.09069E+000	3.57820E+000	10	...........
	18	0.253333	7.30556E-001	5.99184E-003	0.00000E+000	4.37737E-003	3.59960E-001	-1.08844E+000	3.57820E+000	10	...........
	19	0.266667	7.36800E-001	5.99274E-003	0.00000E+000	4.41545E-003	3.59960E-001	-1.09804E+000	3.57820E+000	10	...........
	20	0.28	7.43025E-001	5.98963E-003	0.00000E+000	4.45045E-003	3.59960E-001	-1.09026E+000	3.57820E+000	10	...........
	21	0.293333	7.49190E-001	5.99466E-003	0.00000E+000	4.49114E-003	3.59960E-001	-1.08784E+000	3.57820E+000	10	...........
	22	0.306667	7.55380E-001	5.99055E-003	0.00000E+000	4.52514E-003	3.59960E-001	-1.09745E+000	3.57820E+000	10	...........
	23	0.32	7.61566E-001	5.99883E-003	0.00000E+000	4.56850E-003	3.59960E-001	-1.09040E+000	3.57820E+000	10	...........
	24	0.333333	7.67736E-001	5.99099E-003	0.00000E+000	4.59949E-003	3.59960E-001	-1.08775E+000	3.57820E+000	10	...........
	25	0.346667	7.73899E-001	5.99036E-003	0.00000E+000	4.63593E-003	3.59960E-001	-1.09741E+000	3.57820E+000	10	...........
	26	0.36	7.80036E-001	5.99145E-003	0.00000E+000	4.67355E-003	3.59960E-001	-1.09040E+000	3.57820E+000	10	...........
	27	0.373333	7.86185E-001	5.99587E-003	0.00000E+000	4.71386E-003	3.59960E-001	-1.08771E+000	3.57820E+000	10	...........
	28	0.386667	7.92312E-001	5.99706E-003	0.00000E+000	4.75154E-003	3.59960E-001	-1.09732E+000	3.57820E+000	10	...........
	29	0.4	7.98488E-001	5.99692E-003	0.00000E+000	4.78847E-003	3.59960E-001	-1.09054E+000	3.57820E+000	10	...........
	30	0.413333	8.04632E-001	5.99297E-003	0.00000E+000	4.82213E-003	3.59960E-001	-1.08736E+000	3.57820E+000	10	...........
	31	0.426667	8.10703E-001	5.99577E-003	0.00000E+000	4.86079E-003	3.59960E-001	-1.09704E+000	3.57820E+000	10	...........
	32	0.44	8.16851E-001	5.99073E-003	0.00000E+000	4.89353E-003	3.59960E-001	-1.09054E+000	3.57820E+000	10	...........
	33	0.453333	8.22996E-001	5.99386E-003	0.00000E+000	4.93293E-003	3.59960E-001	-1.08743E+000	3.57820E+000	10	...........
	34	0.466667	8.29045E-001	5.99457E-003	0.00000E+000	4.96977E-003	3.59960E-001	-1.09700E+000	3.57820E+000	10	...........
	35	0.48	8.35118E-001	5.99659E-003	0.00000E+000	5.00786E-003	3.59960E-001	-1.09055E+000	3.57820E+000	10	...........
	36	0.493333	8.41179E-001	5.99549E-003	0.00000E+000	5.04328E-003	3.59960E-001	-1.08744E+000	3.57820E+000	10	...........
	37	0.506667	8.47225E-001	5.99176E-003	0.00000E+000	5.07637E-003	3.59960E-001	-1.09699E+000	3.57820E+000	10	...........
	38	0.52	8.53285E-001	5.99149E-003	0.00000E+000	5.11244E-003	3.59960E-001	-1.09093E+000	3.57820E+000	10	...........
	39	0.533333	8.59283E-001	5.99323E-003	0.00000E+000	5.14988E-003	3.59960E-001	-1.08744E+000	3.57820E+000	10	...........
	40	0.546667	8.65294E-001	5.99711E-003	0.00000E+000	5.18926E-003	3.59960E-001	-1.09664E+000	3.57820E+000	10	...........
	41	0.56	8.71349E-001	5.99424E-003	0.00000E+000	5.22307E-003	3.59960E-001	-1.09068E+000	3.57820E+000	10	...........
	42	0.573333	8.77330E-001	5.99499E-003	0.00000E+000	5.25959E-003	3.59960E-001	-1.08715E+000	3.57820E+000	10	...........
	43	0.586667	8.83305E-001	5.99451E-003	0.00000E+000	5.29498E-003	3.59960E-001	-1.09683E+000	3.57820E+000	10	...........
	44	0.6	8.89269E-001	5.99191E-003	0.00000E+000	5.32843E-003	3.59960E-001	-1.09092E+000	3.57846E+000	10	...........
	45	0.613333	8.95239E-001	5.99260E-003	0.00000E+000	5.36481E-003	3.59960E-001	-1.08699E+000	3.58030E+000	10	...........
	46	0.626667	9.01174E-001	5.99353E-003	0.00000E+000	5.40121E-003	3.59960E-001	-1.09611E+000	3.58030E+000	10	...........
	47	0.64	9.07055E-001	5.99459E-003	0.00000E+000	5.43742E-003	3.59960E-001	-1.09085E+000	3.58030E+000	10	...........
	48	0.653333	9.12951E-001	5.99335E-003	0.00000E+000	5.47164E-003	3.59960E-001	-1.08697E+000	3.58030E+000	10	...........
	49	0.666667	9.18814E-001	5.99705E-003	0.00000E+000	5.51017E-003	3.59960E-001	-1.09626E+000	3.58030E+000	10	...........
	50	0.68	9.24680E-001	5.99023E-003	0.00000E+000	5.53905E-003	3.59960E-001	-1.09077E+000	3.58030E+000	10	...........
	51	0.693333	9.30465E-001	5.99471E-003	0.00000E+000	5.57786E-003	3.59960E-001	-1.08682E+000	3.58030E+000	10	...........
	52	0.706667	9.36220E-001	5.99152E-003	0.00000E+000	5.60938E-003	3.59960E-001	-1.09616E+000	3.58030E+000	10	...........
	53	0.72	9.41971E-001	5.99094E-003	0.00000E+000	5.64330E-003	3.59960E-001	-1.09095E+000	3.58030E+000	10	...........
	54	0.733333	9.47718E-001	5.98998E-003	0.00000E+000	5.67682E-003	3.59960E-001	-1.08684E+000	3.58030E+000	10	...........
	55	0.746667	9.53423E-001	5.99322E-003	0.00000E+000	5.71407E-003	3.59960E-001	-1.09602E+000	3.58030E+000	10	...........
	56	0.76	9.59076E-001	5.99736E-003	0.00000E+000	5.75193E-003	3.59960E-001	-1.09110E+000	3.58030E+000	10	...........
	57	0.773333	9.64700E-001	5.99430E-003	0.00000E+000	5.78270E-003	3.59960E-001	-1.08697E+000	3.58030E+000	10	...........
	58	0.786667	9.70294E-001	5.99841E-003	0.00000E+000	5.82022E-003	3.59960E-001	-1.09587E+000	3.58030E+000	10	...........
	59	0.8	9.75875E-001	5.99117E-003	0.00000E+000	5.84664E-003	3.59960E-001	-1.09126E+000	3.58030E+000	10	...........
	60	0.813333	9.81387E-001	5.99405E-003	0.00000E+000	5.88249E-003	3.59960E-001	-1.08710E+000	3.58030E+000	10	...........
	61	0.826667	9.86838E-001	5.99679E-003	0.00000E+000	5.91785E-003	3.59960E-001	-1.09597E+000	3.58030E+000	10	...........
	62	0.84	9.92239E-001	5.99733E-003	0.00000E+000	5.95078E-003	3.59960E-001	-1.09159E+000	3.58030E+000	10	...........
	63	0.853333	9.97659E-001	5.99252E-003	0.00000E+000	5.97849E-003	3.59960E-001	-1.08702E+000	3.58030E+000	10	...........
	64	0.855	1.00065E+000	5.99204E-003	0.00000E+000	5.99596E-003	3.59960E-001	-1.09897E+000	3.58030E+000	10	...........
STARTTIMEOFFSET	QUANT	417.415	Start Time Offset (s)