File: Data/CV_CRGO300517_1/PWRCCD_CRGO300517_1/CHARGE_DISCHARGE/CHARGE_#932.DTA
EXPLAIN
TAG	PWR800_CHARGE
TITLE	LABEL	PWR Cyclic Charge Discharge (Cell) - Charge Step	Test &Identifier
DATE	LABEL	22-6-2017	Date
TIME	LABEL	16:12:10	Time
NOTES	NOTES	3	&Notes...
	supercap test cell
	0.6mg
	6M KOH
PSTAT	PSTAT	IFC5000-01520	Potentiostat
CAPACITY	QUANT	1.00000E-003	Capacity (A-hr)
CELLTYPE	SELECTOR	1	&Cell Type
WORKINGCONNECTION	SELECTOR	0	&Working Lead
MAXCHARGETIME	VARIABLEANDUNITS	1.00000E+002	s	1.00000E+002	second(s)	Max &Charge Time
CHARGECURRENT	QUANT	6.00000E-003	&Charge Current (A)
VOLTAGEFINISH	TWOPARAM	F	1.00000E-003	3.60000E+003	&Voltage Finish	 I (A) < 	Max Time(s)
SAMPLETIME	QUANT	1.00000E-002	Sa&mple Period (s)
CHARGESTOPAT1	MULTIPARAM	4	1.00000E+000	Charge Stop At &1	Voltage > Limit	V
CHARGESTOPAT2	MULTIPARAM	0	0.00000E+000	Charge Stop At &2	None	N/A
AESBHCSELECTOR	TOGGLE	F	Save Both Half Cells
IRCOMP	TOGGLE	F	IR &Measure
EOC	QUANT	0	Open Circuit (V)
SEQUENCER	TOGGLE	TRUE	Run as Sequence
PSTATMODEL	IQUANT	53	Pstat Model
PSTATSECTION	LABEL	IFC5000-01520	Pstat Section
PSTATSERIALNO	LABEL	01520	Pstat Serial Number
CTRLMODE	IQUANT	0	Control Mode
ELECTROMETER	IQUANT	1	RE=0 or CS=1
IESTAB	IQUANT	0	I/E Stability
CASPEED	IQUANT	4	Control Amp Speed
CONVENTION	IQUANT	1	Current Convention
ICHRANGE	IQUANT	2	Ich Range
ICHRANGEMODE	TOGGLE	T	Ich Auto Range
ICHOFFSETENABLE	TOGGLE	F	Ich Offset Enable
ICHOFFSET	QUANT	0	Ich Offset (V)
ICHFILTER	IQUANT	1	Ich Filter
VCHRANGE	IQUANT	2	Vch Range
VCHRANGEMODE	TOGGLE	T	Vch Auto Range
VCHOFFSETENABLE	TOGGLE	F	Vch Offset Enable
VCHOFFSET	QUANT	0	Vch Offset (V)
VCHFILTER	IQUANT	1	Vch Filter
IERANGELOWERLIMIT	IQUANT	9	I/E Range Lower Limit
IERANGEMODE	TOGGLE	F	I/E AutoRange
IERANGE	IQUANT	10	I/E Range
ACHSELECT	IQUANT	1	Ach Select
ACHRANGE	IQUANT	2	Ach Range
ACHOFFSETENABLE	TOGGLE	F	Ach Offset Enable
ACHOFFSET	QUANT	0	Ach Offset (V)
ACHFILTER	IQUANT	1	Ach Filter
CABLEID	IQUANT	14	Cable ID
DCCALDATE	LABEL	20-10-2016	DC Calibration Date
ACCALDATE	LABEL	12/3/2015	AC Calibration Date
FRAMEWORKVERSION	QUANT	7.01	Framework Version
INSTRUMENTVERSION	LABEL	4.00	Instrument Version
CURVE	TABLE	53
	Pt	T	Vf	Im	Vu	Pwr	Sig	Ach	Temp	IERange	Over
	#	s	V	A	V	W	V	V	deg C	#	bits
	0	0.013333	6.54171E-001	5.99173E-003	0.00000E+000	3.91961E-003	3.59960E-001	-1.17557E+000	3.57660E+000	10	...........
	1	0.026667	6.63511E-001	5.99637E-003	0.00000E+000	3.97865E-003	3.59960E-001	-1.16913E+000	3.57660E+000	10	...........
	2	0.04	6.72098E-001	5.99345E-003	0.00000E+000	4.02818E-003	3.59960E-001	-1.17705E+000	3.57660E+000	10	...........
	3	0.053333	6.80202E-001	5.99662E-003	0.00000E+000	4.07891E-003	3.59960E-001	-1.17554E+000	3.57660E+000	10	...........
	4	0.066667	6.88040E-001	5.99658E-003	0.00000E+000	4.12588E-003	3.59960E-001	-1.16919E+000	3.57660E+000	10	...........
	5	0.08	6.95650E-001	5.99045E-003	0.00000E+000	4.16726E-003	3.59960E-001	-1.17696E+000	3.57660E+000	10	...........
	6	0.093333	7.03105E-001	5.99722E-003	0.00000E+000	4.21668E-003	3.59960E-001	-1.17530E+000	3.57660E+000	10	...........
	7	0.106667	7.10444E-001	5.99366E-003	0.00000E+000	4.25816E-003	3.59960E-001	-1.16911E+000	3.57660E+000	10	...........
	8	0.12	7.17730E-001	5.99377E-003	0.00000E+000	4.30191E-003	3.59960E-001	-1.17727E+000	3.57660E+000	10	...........
	9	0.133333	7.24919E-001	5.99215E-003	0.00000E+000	4.34382E-003	3.59960E-001	-1.17557E+000	3.57660E+000	10	...........
	10	0.146667	7.32045E-001	5.99530E-003	0.00000E+000	4.38883E-003	3.59960E-001	-1.16921E+000	3.57660E+000	10	...........
	11	0.16	7.39093E-001	5.99904E-003	0.00000E+000	4.43384E-003	3.59960E-001	-1.17727E+000	3.57660E+000	10	...........
	12	0.173333	7.46114E-001	5.99167E-003	0.00000E+000	4.47047E-003	3.59960E-001	-1.17535E+000	3.57660E+000	10	...........
	13	0.186667	7.53093E-001	5.99142E-003	0.00000E+000	4.51210E-003	3.59960E-001	-1.16926E+000	3.57660E+000	10	...........
	14	0.2	7.60029E-001	5.98961E-003	0.00000E+000	4.55228E-003	3.59960E-001	-1.17720E+000	3.57660E+000	10	...........
	15	0.213333	7.66917E-001	5.99415E-003	0.00000E+000	4.59701E-003	3.59960E-001	-1.17493E+000	3.57660E+000	10	...........
	16	0.226667	7.73777E-001	5.99428E-003	0.00000E+000	4.63824E-003	3.59960E-001	-1.16865E+000	3.57660E+000	10	...........
	17	0.24	7.80598E-001	5.98980E-003	0.00000E+000	4.67562E-003	3.59960E-001	-1.17696E+000	3.57660E+000	10	...........
	18	0.253333	7.87412E-001	5.99346E-003	0.00000E+000	4.71932E-003	3.59960E-001	-1.17486E+000	3.57660E+000	10	...........
	19	0.266667	7.94212E-001	5.99216E-003	0.00000E+000	4.75905E-003	3.59960E-001	-1.16893E+000	3.57660E+000	10	...........
	20	0.28	8.00932E-001	5.99250E-003	0.00000E+000	4.79958E-003	3.59960E-001	-1.17710E+000	3.57660E+000	10	...........
	21	0.293333	8.07629E-001	5.98775E-003	0.00000E+000	4.83588E-003	3.59960E-001	-1.17463E+000	3.57660E+000	10	...........
	22	0.306667	8.14320E-001	5.99326E-003	0.00000E+000	4.88043E-003	3.59960E-001	-1.16896E+000	3.57660E+000	10	...........
	23	0.32	8.21003E-001	5.99408E-003	0.00000E+000	4.92116E-003	3.59960E-001	-1.17733E+000	3.57660E+000	10	...........
	24	0.333333	8.27678E-001	5.99397E-003	0.00000E+000	4.96107E-003	3.59960E-001	-1.17499E+000	3.57660E+000	10	...........
	25	0.346667	8.34306E-001	5.99086E-003	0.00000E+000	4.99821E-003	3.59960E-001	-1.16877E+000	3.57660E+000	10	...........
	26	0.36	8.40885E-001	5.99377E-003	0.00000E+000	5.04007E-003	3.59960E-001	-1.17716E+000	3.57660E+000	10	...........
	27	0.373333	8.47489E-001	5.99668E-003	0.00000E+000	5.08212E-003	3.59960E-001	-1.17465E+000	3.57660E+000	10	...........
	28	0.386667	8.54057E-001	5.98848E-003	0.00000E+000	5.11451E-003	3.59960E-001	-1.16879E+000	3.57660E+000	10	...........
	29	0.4	8.60586E-001	5.99716E-003	0.00000E+000	5.16107E-003	3.59960E-001	-1.17738E+000	3.57660E+000	10	...........
	30	0.413333	8.67050E-001	5.99090E-003	0.00000E+000	5.19441E-003	3.59960E-001	-1.17463E+000	3.57660E+000	10	...........
	31	0.426667	8.73515E-001	5.99500E-003	0.00000E+000	5.23672E-003	3.59960E-001	-1.16882E+000	3.57660E+000	10	...........
	32	0.44	8.79980E-001	5.99550E-003	0.00000E+000	5.27592E-003	3.59960E-001	-1.17730E+000	3.57660E+000	10	...........
	33	0.453333	8.86406E-001	5.99516E-003	0.00000E+000	5.31414E-003	3.59960E-001	-1.17504E+000	3.57660E+000	10	...........
	34	0.466667	8.92772E-001	5.99519E-003	0.00000E+000	5.35234E-003	3.59960E-001	-1.16927E+000	3.57660E+000	10	...........
	35	0.48	8.99082E-001	5.99970E-003	0.00000E+000	5.39422E-003	3.59960E-001	-1.17748E+000	3.57660E+000	10	...........
	36	0.493333	9.05314E-001	5.99144E-003	0.00000E+000	5.42414E-003	3.59960E-001	-1.17465E+000	3.57660E+000	10	...........
	37	0.506667	9.11585E-001	5.99281E-003	0.00000E+000	5.46296E-003	3.59960E-001	-1.16905E+000	3.57660E+000	10	...........
	38	0.52	9.17762E-001	5.99174E-003	0.00000E+000	5.49899E-003	3.59960E-001	-1.17747E+000	3.57660E+000	10	...........
	39	0.533333	9.24022E-001	5.99183E-003	0.00000E+000	5.53658E-003	3.59960E-001	-1.17436E+000	3.57660E+000	10	...........
	40	0.546667	9.30148E-001	5.99441E-003	0.00000E+000	5.57569E-003	3.59960E-001	-1.16853E+000	3.57660E+000	10	...........
	41	0.56	9.36199E-001	5.99554E-003	0.00000E+000	5.61302E-003	3.59960E-001	-1.17701E+000	3.57660E+000	10	...........
	42	0.573333	9.42231E-001	5.99345E-003	0.00000E+000	5.64721E-003	3.59960E-001	-1.17428E+000	3.57660E+000	10	...........
	43	0.586667	9.48272E-001	5.99759E-003	0.00000E+000	5.68735E-003	3.59960E-001	-1.16885E+000	3.57660E+000	10	...........
	44	0.6	9.54205E-001	5.99788E-003	0.00000E+000	5.72320E-003	3.59960E-001	-1.17743E+000	3.57660E+000	10	...........
	45	0.613333	9.60052E-001	5.99508E-003	0.00000E+000	5.75559E-003	3.59960E-001	-1.17435E+000	3.57660E+000	10	...........
	46	0.626667	9.65901E-001	5.99115E-003	0.00000E+000	5.78686E-003	3.59960E-001	-1.16847E+000	3.57660E+000	10	...........
	47	0.64	9.71715E-001	5.99566E-003	0.00000E+000	5.82607E-003	3.59960E-001	-1.17741E+000	3.57660E+000	10	...........
	48	0.653333	9.77498E-001	5.99020E-003	0.00000E+000	5.85541E-003	3.59960E-001	-1.17437E+000	3.57660E+000	10	...........
	49	0.666667	9.83174E-001	5.99360E-003	0.00000E+000	5.89275E-003	3.59960E-001	-1.16885E+000	3.57660E+000	10	...........
	50	0.68	9.88779E-001	5.99002E-003	0.00000E+000	5.92280E-003	3.59960E-001	-1.17761E+000	3.57660E+000	10	...........
	51	0.693333	9.94321E-001	5.99672E-003	0.00000E+000	5.96267E-003	3.59960E-001	-1.17412E+000	3.57660E+000	10	...........
	52	0.701667	9.98850E-001	5.99393E-003	0.00000E+000	5.98703E-003	3.59960E-001	-1.16892E+000	3.57660E+000	10	...........
STARTTIMEOFFSET	QUANT	1490.869	Start Time Offset (s)