File: Data/CV_CRGO300517_1/PWRCCD_CRGO300517_1/CHARGE_DISCHARGE/CHARGE_#172.DTA
EXPLAIN
TAG	PWR800_CHARGE
TITLE	LABEL	PWR Cyclic Charge Discharge (Cell) - Charge Step	Test &Identifier
DATE	LABEL	22-6-2017	Date
TIME	LABEL	15:42:37	Time
NOTES	NOTES	3	&Notes...
	supercap test cell
	0.6mg
	6M KOH
PSTAT	PSTAT	IFC5000-01520	Potentiostat
CAPACITY	QUANT	1.00000E-003	Capacity (A-hr)
CELLTYPE	SELECTOR	1	&Cell Type
WORKINGCONNECTION	SELECTOR	0	&Working Lead
MAXCHARGETIME	VARIABLEANDUNITS	1.00000E+002	s	1.00000E+002	second(s)	Max &Charge Time
CHARGECURRENT	QUANT	6.00000E-003	&Charge Current (A)
VOLTAGEFINISH	TWOPARAM	F	1.00000E-003	3.60000E+003	&Voltage Finish	 I (A) < 	Max Time(s)
SAMPLETIME	QUANT	1.00000E-002	Sa&mple Period (s)
CHARGESTOPAT1	MULTIPARAM	4	1.00000E+000	Charge Stop At &1	Voltage > Limit	V
CHARGESTOPAT2	MULTIPARAM	0	0.00000E+000	Charge Stop At &2	None	N/A
AESBHCSELECTOR	TOGGLE	F	Save Both Half Cells
IRCOMP	TOGGLE	F	IR &Measure
EOC	QUANT	0	Open Circuit (V)
SEQUENCER	TOGGLE	TRUE	Run as Sequence
PSTATMODEL	IQUANT	53	Pstat Model
PSTATSECTION	LABEL	IFC5000-01520	Pstat Section
PSTATSERIALNO	LABEL	01520	Pstat Serial Number
CTRLMODE	IQUANT	0	Control Mode
ELECTROMETER	IQUANT	1	RE=0 or CS=1
IESTAB	IQUANT	0	I/E Stability
CASPEED	IQUANT	4	Control Amp Speed
CONVENTION	IQUANT	1	Current Convention
ICHRANGE	IQUANT	2	Ich Range
ICHRANGEMODE	TOGGLE	T	Ich Auto Range
ICHOFFSETENABLE	TOGGLE	F	Ich Offset Enable
ICHOFFSET	QUANT	0	Ich Offset (V)
ICHFILTER	IQUANT	1	Ich Filter
VCHRANGE	IQUANT	2	Vch Range
VCHRANGEMODE	TOGGLE	T	Vch Auto Range
VCHOFFSETENABLE	TOGGLE	F	Vch Offset Enable
VCHOFFSET	QUANT	0	Vch Offset (V)
VCHFILTER	IQUANT	1	Vch Filter
IERANGELOWERLIMIT	IQUANT	9	I/E Range Lower Limit
IERANGEMODE	TOGGLE	F	I/E AutoRange
IERANGE	IQUANT	10	I/E Range
ACHSELECT	IQUANT	1	Ach Select
ACHRANGE	IQUANT	2	Ach Range
ACHOFFSETENABLE	TOGGLE	F	Ach Offset Enable
ACHOFFSET	QUANT	0	Ach Offset (V)
ACHFILTER	IQUANT	1	Ach Filter
CABLEID	IQUANT	14	Cable ID
DCCALDATE	LABEL	20-10-2016	DC Calibration Date
ACCALDATE	LABEL	12/3/2015	AC Calibration Date
FRAMEWORKVERSION	QUANT	7.01	Framework Version
INSTRUMENTVERSION	LABEL	4.00	Instrument Version
CURVE	TABLE	66
	Pt	T	Vf	Im	Vu	Pwr	Sig	Ach	Temp	IERange	Over
	#	s	V	A	V	W	V	V	deg C	#	bits
	0	0.013333	6.02381E-001	5.99351E-003	0.00000E+000	3.61037E-003	3.59960E-001	-1.08807E+000	3.57830E+000	10	...........
	1	0.026667	6.10764E-001	5.99815E-003	0.00000E+000	3.66345E-003	3.59960E-001	-1.08841E+000	3.57830E+000	10	...........
	2	0.04	6.18540E-001	5.99598E-003	0.00000E+000	3.70876E-003	3.59960E-001	-1.08103E+000	3.57830E+000	10	...........
	3	0.053333	6.25847E-001	5.99464E-003	0.00000E+000	3.75172E-003	3.59960E-001	-1.08782E+000	3.57830E+000	10	...........
	4	0.066667	6.32866E-001	5.99462E-003	0.00000E+000	3.79379E-003	3.59960E-001	-1.08853E+000	3.57830E+000	10	...........
	5	0.08	6.39716E-001	5.99605E-003	0.00000E+000	3.83577E-003	3.59960E-001	-1.08124E+000	3.57830E+000	10	...........
	6	0.093333	6.46443E-001	5.99549E-003	0.00000E+000	3.87574E-003	3.59960E-001	-1.08790E+000	3.57830E+000	10	...........
	7	0.106667	6.53069E-001	5.99705E-003	0.00000E+000	3.91649E-003	3.59960E-001	-1.08859E+000	3.57830E+000	10	...........
	8	0.12	6.59559E-001	5.99221E-003	0.00000E+000	3.95222E-003	3.59960E-001	-1.08130E+000	3.57830E+000	10	...........
	9	0.133333	6.66042E-001	5.99488E-003	0.00000E+000	3.99284E-003	3.59960E-001	-1.08783E+000	3.57830E+000	10	...........
	10	0.146667	6.72410E-001	5.99367E-003	0.00000E+000	4.03020E-003	3.59960E-001	-1.08878E+000	3.57830E+000	10	...........
	11	0.16	6.78783E-001	5.99497E-003	0.00000E+000	4.06928E-003	3.59960E-001	-1.08137E+000	3.57830E+000	10	...........
	12	0.173333	6.85060E-001	5.99469E-003	0.00000E+000	4.10672E-003	3.59960E-001	-1.08764E+000	3.57830E+000	10	...........
	13	0.186667	6.91370E-001	5.99879E-003	0.00000E+000	4.14738E-003	3.59960E-001	-1.08885E+000	3.57830E+000	10	...........
	14	0.2	6.97588E-001	5.99510E-003	0.00000E+000	4.18211E-003	3.59960E-001	-1.08107E+000	3.57830E+000	10	...........
	15	0.213333	7.03799E-001	5.99516E-003	0.00000E+000	4.21939E-003	3.59960E-001	-1.08730E+000	3.57830E+000	10	...........
	16	0.226667	7.09957E-001	5.98930E-003	0.00000E+000	4.25214E-003	3.59960E-001	-1.08858E+000	3.57830E+000	10	...........
	17	0.24	7.16172E-001	5.99311E-003	0.00000E+000	4.29210E-003	3.59960E-001	-1.08101E+000	3.57830E+000	10	...........
	18	0.253333	7.22318E-001	5.99772E-003	0.00000E+000	4.33226E-003	3.59960E-001	-1.08704E+000	3.57830E+000	10	...........
	19	0.266667	7.28427E-001	5.99596E-003	0.00000E+000	4.36762E-003	3.59960E-001	-1.08887E+000	3.57830E+000	10	...........
	20	0.28	7.34551E-001	5.99446E-003	0.00000E+000	4.40323E-003	3.59960E-001	-1.08109E+000	3.57830E+000	10	...........
	21	0.293333	7.40638E-001	5.99266E-003	0.00000E+000	4.43840E-003	3.59960E-001	-1.08690E+000	3.57830E+000	10	...........
	22	0.306667	7.46759E-001	5.99395E-003	0.00000E+000	4.47604E-003	3.59960E-001	-1.08894E+000	3.57830E+000	10	...........
	23	0.32	7.52868E-001	5.99526E-003	0.00000E+000	4.51364E-003	3.59960E-001	-1.08092E+000	3.57830E+000	10	...........
	24	0.333333	7.58950E-001	5.99472E-003	0.00000E+000	4.54969E-003	3.59960E-001	-1.08684E+000	3.57830E+000	10	...........
	25	0.346667	7.65040E-001	5.99618E-003	0.00000E+000	4.58732E-003	3.59960E-001	-1.08887E+000	3.57830E+000	10	...........
	26	0.36	7.71138E-001	5.99593E-003	0.00000E+000	4.62369E-003	3.59960E-001	-1.08095E+000	3.57830E+000	10	...........
	27	0.373333	7.77183E-001	5.99597E-003	0.00000E+000	4.65997E-003	3.59960E-001	-1.08654E+000	3.57830E+000	10	...........
	28	0.386667	7.83239E-001	5.99343E-003	0.00000E+000	4.69428E-003	3.59960E-001	-1.08887E+000	3.57830E+000	10	...........
	29	0.4	7.89257E-001	5.99064E-003	0.00000E+000	4.72816E-003	3.59960E-001	-1.08107E+000	3.57830E+000	10	...........
	30	0.413333	7.95366E-001	5.99271E-003	0.00000E+000	4.76639E-003	3.59960E-001	-1.08683E+000	3.57830E+000	10	...........
	31	0.426667	8.01379E-001	5.99730E-003	0.00000E+000	4.80611E-003	3.59960E-001	-1.08920E+000	3.57830E+000	10	...........
	32	0.44	8.07394E-001	5.99452E-003	0.00000E+000	4.83994E-003	3.59960E-001	-1.08103E+000	3.57830E+000	10	...........
	33	0.453333	8.13414E-001	5.99658E-003	0.00000E+000	4.87770E-003	3.59960E-001	-1.08647E+000	3.57830E+000	10	...........
	34	0.466667	8.19481E-001	6.00192E-003	0.00000E+000	4.91846E-003	3.59960E-001	-1.08933E+000	3.57755E+000	10	...........
	35	0.48	8.25472E-001	5.99477E-003	0.00000E+000	4.94852E-003	3.59960E-001	-1.08134E+000	3.57730E+000	10	...........
	36	0.493333	8.31533E-001	5.99095E-003	0.00000E+000	4.98168E-003	3.59960E-001	-1.08644E+000	3.57730E+000	10	...........
	37	0.506667	8.37503E-001	5.99203E-003	0.00000E+000	5.01834E-003	3.59960E-001	-1.08920E+000	3.57730E+000	10	...........
	38	0.52	8.43509E-001	5.99175E-003	0.00000E+000	5.05409E-003	3.59960E-001	-1.08067E+000	3.57730E+000	10	...........
	39	0.533333	8.49498E-001	5.99180E-003	0.00000E+000	5.09002E-003	3.59960E-001	-1.08571E+000	3.57730E+000	10	...........
	40	0.546667	8.55418E-001	5.99446E-003	0.00000E+000	5.12777E-003	3.59960E-001	-1.08895E+000	3.57730E+000	10	...........
	41	0.56	8.61409E-001	5.99405E-003	0.00000E+000	5.16333E-003	3.59960E-001	-1.08104E+000	3.57730E+000	10	...........
	42	0.573333	8.67361E-001	5.99537E-003	0.00000E+000	5.20015E-003	3.59960E-001	-1.08588E+000	3.57730E+000	10	...........
	43	0.586667	8.73350E-001	5.99001E-003	0.00000E+000	5.23137E-003	3.59960E-001	-1.08895E+000	3.57730E+000	10	...........
	44	0.6	8.79266E-001	5.99469E-003	0.00000E+000	5.27092E-003	3.59960E-001	-1.08082E+000	3.57730E+000	10	...........
	45	0.613333	8.85175E-001	5.99321E-003	0.00000E+000	5.30504E-003	3.59960E-001	-1.08567E+000	3.57730E+000	10	...........
	46	0.626667	8.91052E-001	5.99166E-003	0.00000E+000	5.33889E-003	3.59960E-001	-1.08910E+000	3.57730E+000	10	...........
	47	0.64	8.96941E-001	5.99683E-003	0.00000E+000	5.37880E-003	3.59960E-001	-1.08077E+000	3.57730E+000	10	...........
	48	0.653333	9.02774E-001	5.99497E-003	0.00000E+000	5.41210E-003	3.59960E-001	-1.08535E+000	3.57730E+000	10	...........
	49	0.666667	9.08609E-001	5.99150E-003	0.00000E+000	5.44393E-003	3.59960E-001	-1.08918E+000	3.57730E+000	10	...........
	50	0.68	9.14417E-001	5.99350E-003	0.00000E+000	5.48056E-003	3.59960E-001	-1.08096E+000	3.57730E+000	10	...........
	51	0.693333	9.20247E-001	5.99354E-003	0.00000E+000	5.51554E-003	3.59960E-001	-1.08547E+000	3.57730E+000	10	...........
	52	0.706667	9.26044E-001	5.99540E-003	0.00000E+000	5.55200E-003	3.59960E-001	-1.08923E+000	3.57730E+000	10	...........
	53	0.72	9.31761E-001	5.99013E-003	0.00000E+000	5.58137E-003	3.59960E-001	-1.08067E+000	3.57730E+000	10	...........
	54	0.733333	9.37498E-001	5.99365E-003	0.00000E+000	5.61903E-003	3.59960E-001	-1.08533E+000	3.57730E+000	10	...........
	55	0.746667	9.43212E-001	5.99804E-003	0.00000E+000	5.65742E-003	3.59960E-001	-1.08946E+000	3.57730E+000	10	...........
	56	0.76	9.48951E-001	5.99342E-003	0.00000E+000	5.68746E-003	3.59960E-001	-1.08074E+000	3.57730E+000	10	...........
	57	0.773333	9.54550E-001	5.99491E-003	0.00000E+000	5.72244E-003	3.59960E-001	-1.08505E+000	3.57730E+000	10	...........
	58	0.786667	9.60180E-001	5.99349E-003	0.00000E+000	5.75483E-003	3.59960E-001	-1.08916E+000	3.57730E+000	10	...........
	59	0.8	9.65753E-001	5.99610E-003	0.00000E+000	5.79075E-003	3.59960E-001	-1.08047E+000	3.57730E+000	10	...........
	60	0.813333	9.71287E-001	5.99511E-003	0.00000E+000	5.82297E-003	3.59960E-001	-1.08477E+000	3.57730E+000	10	...........
	61	0.826667	9.76820E-001	5.99155E-003	0.00000E+000	5.85267E-003	3.59960E-001	-1.08906E+000	3.57730E+000	10	...........
	62	0.84	9.82331E-001	5.99189E-003	0.00000E+000	5.88602E-003	3.59960E-001	-1.08002E+000	3.57730E+000	10	...........
	63	0.853333	9.87729E-001	5.99202E-003	0.00000E+000	5.91849E-003	3.59960E-001	-1.08418E+000	3.57730E+000	10	...........
	64	0.866667	9.93136E-001	5.99642E-003	0.00000E+000	5.95526E-003	3.59960E-001	-1.08898E+000	3.57730E+000	10	...........
	65	0.878333	9.98183E-001	5.99595E-003	0.00000E+000	5.98506E-003	3.59960E-001	-1.07819E+000	3.57730E+000	10	...........
STARTTIMEOFFSET	QUANT	324.3734	Start Time Offset (s)