File: Data/CV_CRGO300517_1/PWRCCD_CRGO300517_1/CHARGE_DISCHARGE/CHARGE_#869.DTA
EXPLAIN
TAG	PWR800_CHARGE
TITLE	LABEL	PWR Cyclic Charge Discharge (Cell) - Charge Step	Test &Identifier
DATE	LABEL	22-6-2017	Date
TIME	LABEL	16:09:50	Time
NOTES	NOTES	3	&Notes...
	supercap test cell
	0.6mg
	6M KOH
PSTAT	PSTAT	IFC5000-01520	Potentiostat
CAPACITY	QUANT	1.00000E-003	Capacity (A-hr)
CELLTYPE	SELECTOR	1	&Cell Type
WORKINGCONNECTION	SELECTOR	0	&Working Lead
MAXCHARGETIME	VARIABLEANDUNITS	1.00000E+002	s	1.00000E+002	second(s)	Max &Charge Time
CHARGECURRENT	QUANT	6.00000E-003	&Charge Current (A)
VOLTAGEFINISH	TWOPARAM	F	1.00000E-003	3.60000E+003	&Voltage Finish	 I (A) < 	Max Time(s)
SAMPLETIME	QUANT	1.00000E-002	Sa&mple Period (s)
CHARGESTOPAT1	MULTIPARAM	4	1.00000E+000	Charge Stop At &1	Voltage > Limit	V
CHARGESTOPAT2	MULTIPARAM	0	0.00000E+000	Charge Stop At &2	None	N/A
AESBHCSELECTOR	TOGGLE	F	Save Both Half Cells
IRCOMP	TOGGLE	F	IR &Measure
EOC	QUANT	0	Open Circuit (V)
SEQUENCER	TOGGLE	TRUE	Run as Sequence
PSTATMODEL	IQUANT	53	Pstat Model
PSTATSECTION	LABEL	IFC5000-01520	Pstat Section
PSTATSERIALNO	LABEL	01520	Pstat Serial Number
CTRLMODE	IQUANT	0	Control Mode
ELECTROMETER	IQUANT	1	RE=0 or CS=1
IESTAB	IQUANT	0	I/E Stability
CASPEED	IQUANT	4	Control Amp Speed
CONVENTION	IQUANT	1	Current Convention
ICHRANGE	IQUANT	2	Ich Range
ICHRANGEMODE	TOGGLE	T	Ich Auto Range
ICHOFFSETENABLE	TOGGLE	F	Ich Offset Enable
ICHOFFSET	QUANT	0	Ich Offset (V)
ICHFILTER	IQUANT	1	Ich Filter
VCHRANGE	IQUANT	2	Vch Range
VCHRANGEMODE	TOGGLE	T	Vch Auto Range
VCHOFFSETENABLE	TOGGLE	F	Vch Offset Enable
VCHOFFSET	QUANT	0	Vch Offset (V)
VCHFILTER	IQUANT	1	Vch Filter
IERANGELOWERLIMIT	IQUANT	9	I/E Range Lower Limit
IERANGEMODE	TOGGLE	F	I/E AutoRange
IERANGE	IQUANT	10	I/E Range
ACHSELECT	IQUANT	1	Ach Select
ACHRANGE	IQUANT	2	Ach Range
ACHOFFSETENABLE	TOGGLE	F	Ach Offset Enable
ACHOFFSET	QUANT	0	Ach Offset (V)
ACHFILTER	IQUANT	1	Ach Filter
CABLEID	IQUANT	14	Cable ID
DCCALDATE	LABEL	20-10-2016	DC Calibration Date
ACCALDATE	LABEL	12/3/2015	AC Calibration Date
FRAMEWORKVERSION	QUANT	7.01	Framework Version
INSTRUMENTVERSION	LABEL	4.00	Instrument Version
CURVE	TABLE	54
	Pt	T	Vf	Im	Vu	Pwr	Sig	Ach	Temp	IERange	Over
	#	s	V	A	V	W	V	V	deg C	#	bits
	0	0.013333	6.52013E-001	5.99587E-003	0.00000E+000	3.90938E-003	3.59960E-001	-1.16737E+000	3.57780E+000	10	...........
	1	0.026667	6.61216E-001	5.99075E-003	0.00000E+000	3.96118E-003	3.59960E-001	-1.16497E+000	3.57780E+000	10	...........
	2	0.04	6.69756E-001	5.98905E-003	0.00000E+000	4.01120E-003	3.59960E-001	-1.17579E+000	3.57780E+000	10	...........
	3	0.053333	6.77787E-001	5.99343E-003	0.00000E+000	4.06227E-003	3.59960E-001	-1.16693E+000	3.57780E+000	10	...........
	4	0.066667	6.85561E-001	5.99265E-003	0.00000E+000	4.10833E-003	3.59960E-001	-1.16484E+000	3.57780E+000	10	...........
	5	0.08	6.93146E-001	5.99838E-003	0.00000E+000	4.15775E-003	3.59960E-001	-1.17585E+000	3.57780E+000	10	...........
	6	0.093333	7.00550E-001	5.99225E-003	0.00000E+000	4.19787E-003	3.59960E-001	-1.16732E+000	3.57780E+000	10	...........
	7	0.106667	7.07798E-001	5.99495E-003	0.00000E+000	4.24322E-003	3.59960E-001	-1.16492E+000	3.57780E+000	10	...........
	8	0.12	7.15054E-001	5.99245E-003	0.00000E+000	4.28492E-003	3.59960E-001	-1.17574E+000	3.57780E+000	10	...........
	9	0.133333	7.22231E-001	5.99446E-003	0.00000E+000	4.32939E-003	3.59960E-001	-1.16706E+000	3.57780E+000	10	...........
	10	0.146667	7.29294E-001	5.99761E-003	0.00000E+000	4.37402E-003	3.59960E-001	-1.16481E+000	3.57780E+000	10	...........
	11	0.16	7.36283E-001	5.99662E-003	0.00000E+000	4.41521E-003	3.59960E-001	-1.17588E+000	3.57780E+000	10	...........
	12	0.173333	7.43308E-001	5.99313E-003	0.00000E+000	4.45474E-003	3.59960E-001	-1.16717E+000	3.57780E+000	10	...........
	13	0.186667	7.50222E-001	5.99522E-003	0.00000E+000	4.49774E-003	3.59960E-001	-1.16436E+000	3.57780E+000	10	...........
	14	0.2	7.57085E-001	5.99252E-003	0.00000E+000	4.53685E-003	3.59960E-001	-1.17528E+000	3.57780E+000	10	...........
	15	0.213333	7.63919E-001	5.99049E-003	0.00000E+000	4.57625E-003	3.59960E-001	-1.16681E+000	3.57780E+000	10	...........
	16	0.226667	7.70767E-001	5.99487E-003	0.00000E+000	4.62064E-003	3.59960E-001	-1.16471E+000	3.57780E+000	10	...........
	17	0.24	7.77562E-001	5.99695E-003	0.00000E+000	4.66300E-003	3.59960E-001	-1.17546E+000	3.57780E+000	10	...........
	18	0.253333	7.84329E-001	5.99713E-003	0.00000E+000	4.70372E-003	3.59960E-001	-1.16684E+000	3.57780E+000	10	...........
	19	0.266667	7.91084E-001	5.99688E-003	0.00000E+000	4.74404E-003	3.59960E-001	-1.16419E+000	3.57780E+000	10	...........
	20	0.28	7.97859E-001	5.99604E-003	0.00000E+000	4.78400E-003	3.59960E-001	-1.17539E+000	3.57780E+000	10	...........
	21	0.293333	8.04554E-001	5.99207E-003	0.00000E+000	4.82095E-003	3.59960E-001	-1.16701E+000	3.57780E+000	10	...........
	22	0.306667	8.11199E-001	5.99780E-003	0.00000E+000	4.86541E-003	3.59960E-001	-1.16445E+000	3.57780E+000	10	...........
	23	0.32	8.17855E-001	5.99902E-003	0.00000E+000	4.90633E-003	3.59960E-001	-1.17509E+000	3.57780E+000	10	...........
	24	0.333333	8.24508E-001	5.99522E-003	0.00000E+000	4.94311E-003	3.59960E-001	-1.16655E+000	3.57780E+000	10	...........
	25	0.346667	8.31040E-001	5.99692E-003	0.00000E+000	4.98368E-003	3.59960E-001	-1.16419E+000	3.57780E+000	10	...........
	26	0.36	8.37640E-001	5.99691E-003	0.00000E+000	5.02325E-003	3.59960E-001	-1.17513E+000	3.57780E+000	10	...........
	27	0.373333	8.44189E-001	5.99185E-003	0.00000E+000	5.05825E-003	3.59960E-001	-1.16644E+000	3.57780E+000	10	...........
	28	0.386667	8.50731E-001	5.98965E-003	0.00000E+000	5.09558E-003	3.59960E-001	-1.16423E+000	3.57780E+000	10	...........
	29	0.4	8.57249E-001	5.99379E-003	0.00000E+000	5.13817E-003	3.59960E-001	-1.17507E+000	3.57780E+000	10	...........
	30	0.413333	8.63744E-001	5.99460E-003	0.00000E+000	5.17780E-003	3.59960E-001	-1.16675E+000	3.57780E+000	10	...........
	31	0.426667	8.70202E-001	5.99274E-003	0.00000E+000	5.21489E-003	3.59960E-001	-1.16444E+000	3.57780E+000	10	...........
	32	0.44	8.76650E-001	5.99412E-003	0.00000E+000	5.25474E-003	3.59960E-001	-1.17527E+000	3.57780E+000	10	...........
	33	0.453333	8.83017E-001	5.99377E-003	0.00000E+000	5.29260E-003	3.59960E-001	-1.16639E+000	3.57780E+000	10	...........
	34	0.466667	8.89362E-001	5.99851E-003	0.00000E+000	5.33484E-003	3.59960E-001	-1.16408E+000	3.57780E+000	10	...........
	35	0.48	8.95704E-001	5.99573E-003	0.00000E+000	5.37040E-003	3.59960E-001	-1.17512E+000	3.57780E+000	10	...........
	36	0.493333	9.01991E-001	5.99126E-003	0.00000E+000	5.40406E-003	3.59960E-001	-1.16644E+000	3.57780E+000	10	...........
	37	0.506667	9.08229E-001	5.99376E-003	0.00000E+000	5.44371E-003	3.59960E-001	-1.16374E+000	3.57780E+000	10	...........
	38	0.52	9.14430E-001	5.99607E-003	0.00000E+000	5.48298E-003	3.59960E-001	-1.17469E+000	3.57780E+000	10	...........
	39	0.533333	9.20617E-001	5.99234E-003	0.00000E+000	5.51665E-003	3.59960E-001	-1.16596E+000	3.57780E+000	10	...........
	40	0.546667	9.26782E-001	5.99471E-003	0.00000E+000	5.55579E-003	3.59960E-001	-1.16366E+000	3.57780E+000	10	...........
	41	0.56	9.32850E-001	5.99197E-003	0.00000E+000	5.58961E-003	3.59960E-001	-1.17478E+000	3.57780E+000	10	...........
	42	0.573333	9.38898E-001	5.99250E-003	0.00000E+000	5.62634E-003	3.59960E-001	-1.16592E+000	3.57780E+000	10	...........
	43	0.586667	9.44885E-001	5.99529E-003	0.00000E+000	5.66486E-003	3.59960E-001	-1.16386E+000	3.57780E+000	10	...........
	44	0.6	9.50915E-001	5.99418E-003	0.00000E+000	5.69995E-003	3.59960E-001	-1.17448E+000	3.57780E+000	10	...........
	45	0.613333	9.56795E-001	5.99667E-003	0.00000E+000	5.73759E-003	3.59960E-001	-1.16585E+000	3.57780E+000	10	...........
	46	0.626667	9.62630E-001	5.99192E-003	0.00000E+000	5.76801E-003	3.59960E-001	-1.16368E+000	3.57780E+000	10	...........
	47	0.64	9.68420E-001	5.99389E-003	0.00000E+000	5.80460E-003	3.59960E-001	-1.17459E+000	3.57780E+000	10	...........
	48	0.653333	9.74209E-001	5.99833E-003	0.00000E+000	5.84363E-003	3.59960E-001	-1.16598E+000	3.57780E+000	10	...........
	49	0.666667	9.79922E-001	5.99192E-003	0.00000E+000	5.87162E-003	3.59960E-001	-1.16366E+000	3.57780E+000	10	...........
	50	0.68	9.85569E-001	5.99459E-003	0.00000E+000	5.90808E-003	3.59960E-001	-1.17476E+000	3.57780E+000	10	...........
	51	0.693333	9.91166E-001	5.99210E-003	0.00000E+000	5.93917E-003	3.59960E-001	-1.16619E+000	3.57780E+000	10	...........
	52	0.706667	9.96718E-001	5.99022E-003	0.00000E+000	5.97056E-003	3.59960E-001	-1.16369E+000	3.57780E+000	10	...........
	53	0.71	1.00019E+000	5.99196E-003	0.00000E+000	5.99309E-003	3.59960E-001	-1.17567E+000	3.57780E+000	10	...........
STARTTIMEOFFSET	QUANT	1402.362	Start Time Offset (s)