File: Data/CV_CRGO300517_1/PWRCCD_CRGO300517_1/CHARGE_DISCHARGE/CHARGE_#216.DTA
EXPLAIN
TAG	PWR800_CHARGE
TITLE	LABEL	PWR Cyclic Charge Discharge (Cell) - Charge Step	Test &Identifier
DATE	LABEL	22-6-2017	Date
TIME	LABEL	15:44:28	Time
NOTES	NOTES	3	&Notes...
	supercap test cell
	0.6mg
	6M KOH
PSTAT	PSTAT	IFC5000-01520	Potentiostat
CAPACITY	QUANT	1.00000E-003	Capacity (A-hr)
CELLTYPE	SELECTOR	1	&Cell Type
WORKINGCONNECTION	SELECTOR	0	&Working Lead
MAXCHARGETIME	VARIABLEANDUNITS	1.00000E+002	s	1.00000E+002	second(s)	Max &Charge Time
CHARGECURRENT	QUANT	6.00000E-003	&Charge Current (A)
VOLTAGEFINISH	TWOPARAM	F	1.00000E-003	3.60000E+003	&Voltage Finish	 I (A) < 	Max Time(s)
SAMPLETIME	QUANT	1.00000E-002	Sa&mple Period (s)
CHARGESTOPAT1	MULTIPARAM	4	1.00000E+000	Charge Stop At &1	Voltage > Limit	V
CHARGESTOPAT2	MULTIPARAM	0	0.00000E+000	Charge Stop At &2	None	N/A
AESBHCSELECTOR	TOGGLE	F	Save Both Half Cells
IRCOMP	TOGGLE	F	IR &Measure
EOC	QUANT	0	Open Circuit (V)
SEQUENCER	TOGGLE	TRUE	Run as Sequence
PSTATMODEL	IQUANT	53	Pstat Model
PSTATSECTION	LABEL	IFC5000-01520	Pstat Section
PSTATSERIALNO	LABEL	01520	Pstat Serial Number
CTRLMODE	IQUANT	0	Control Mode
ELECTROMETER	IQUANT	1	RE=0 or CS=1
IESTAB	IQUANT	0	I/E Stability
CASPEED	IQUANT	4	Control Amp Speed
CONVENTION	IQUANT	1	Current Convention
ICHRANGE	IQUANT	2	Ich Range
ICHRANGEMODE	TOGGLE	T	Ich Auto Range
ICHOFFSETENABLE	TOGGLE	F	Ich Offset Enable
ICHOFFSET	QUANT	0	Ich Offset (V)
ICHFILTER	IQUANT	1	Ich Filter
VCHRANGE	IQUANT	2	Vch Range
VCHRANGEMODE	TOGGLE	T	Vch Auto Range
VCHOFFSETENABLE	TOGGLE	F	Vch Offset Enable
VCHOFFSET	QUANT	0	Vch Offset (V)
VCHFILTER	IQUANT	1	Vch Filter
IERANGELOWERLIMIT	IQUANT	9	I/E Range Lower Limit
IERANGEMODE	TOGGLE	F	I/E AutoRange
IERANGE	IQUANT	10	I/E Range
ACHSELECT	IQUANT	1	Ach Select
ACHRANGE	IQUANT	2	Ach Range
ACHOFFSETENABLE	TOGGLE	F	Ach Offset Enable
ACHOFFSET	QUANT	0	Ach Offset (V)
ACHFILTER	IQUANT	1	Ach Filter
CABLEID	IQUANT	14	Cable ID
DCCALDATE	LABEL	20-10-2016	DC Calibration Date
ACCALDATE	LABEL	12/3/2015	AC Calibration Date
FRAMEWORKVERSION	QUANT	7.01	Framework Version
INSTRUMENTVERSION	LABEL	4.00	Instrument Version
CURVE	TABLE	65
	Pt	T	Vf	Im	Vu	Pwr	Sig	Ach	Temp	IERange	Over
	#	s	V	A	V	W	V	V	deg C	#	bits
	0	0.013333	6.08348E-001	5.99393E-003	0.00000E+000	3.64639E-003	3.59960E-001	-1.09863E+000	3.57810E+000	10	...........
	1	0.026667	6.16914E-001	5.98803E-003	0.00000E+000	3.69410E-003	3.59960E-001	-1.09317E+000	3.57810E+000	10	...........
	2	0.04	6.24733E-001	5.99651E-003	0.00000E+000	3.74622E-003	3.59960E-001	-1.08923E+000	3.57810E+000	10	...........
	3	0.053333	6.32040E-001	5.99302E-003	0.00000E+000	3.78783E-003	3.59960E-001	-1.09848E+000	3.57810E+000	10	...........
	4	0.066667	6.39168E-001	5.98745E-003	0.00000E+000	3.82699E-003	3.59960E-001	-1.09327E+000	3.57810E+000	10	...........
	5	0.08	6.46051E-001	5.99104E-003	0.00000E+000	3.87051E-003	3.59960E-001	-1.08939E+000	3.57810E+000	10	...........
	6	0.093333	6.52859E-001	5.99666E-003	0.00000E+000	3.91498E-003	3.59960E-001	-1.09841E+000	3.57810E+000	10	...........
	7	0.106667	6.59534E-001	5.99037E-003	0.00000E+000	3.95086E-003	3.59960E-001	-1.09308E+000	3.57810E+000	10	...........
	8	0.12	6.66136E-001	5.99713E-003	0.00000E+000	3.99490E-003	3.59960E-001	-1.08915E+000	3.57810E+000	10	...........
	9	0.133333	6.72634E-001	5.99026E-003	0.00000E+000	4.02925E-003	3.59960E-001	-1.09859E+000	3.57810E+000	10	...........
	10	0.146667	6.79089E-001	5.98969E-003	0.00000E+000	4.06753E-003	3.59960E-001	-1.09317E+000	3.57810E+000	10	...........
	11	0.16	6.85506E-001	5.99245E-003	0.00000E+000	4.10786E-003	3.59960E-001	-1.08920E+000	3.57810E+000	10	...........
	12	0.173333	6.91913E-001	5.99918E-003	0.00000E+000	4.15091E-003	3.59960E-001	-1.09856E+000	3.57810E+000	10	...........
	13	0.186667	6.98266E-001	5.99534E-003	0.00000E+000	4.18634E-003	3.59960E-001	-1.09292E+000	3.57810E+000	10	...........
	14	0.2	7.04556E-001	5.99742E-003	0.00000E+000	4.22552E-003	3.59960E-001	-1.08921E+000	3.57810E+000	10	...........
	15	0.213333	7.10852E-001	5.99384E-003	0.00000E+000	4.26074E-003	3.59960E-001	-1.09857E+000	3.57810E+000	10	...........
	16	0.226667	7.17128E-001	5.99801E-003	0.00000E+000	4.30134E-003	3.59960E-001	-1.09307E+000	3.57810E+000	10	...........
	17	0.24	7.23390E-001	5.99457E-003	0.00000E+000	4.33642E-003	3.59960E-001	-1.08882E+000	3.57810E+000	10	...........
	18	0.253333	7.29614E-001	5.99679E-003	0.00000E+000	4.37534E-003	3.59960E-001	-1.09804E+000	3.57810E+000	10	...........
	19	0.266667	7.35769E-001	5.99386E-003	0.00000E+000	4.41010E-003	3.59960E-001	-1.09267E+000	3.57810E+000	10	...........
	20	0.28	7.41962E-001	5.99338E-003	0.00000E+000	4.44687E-003	3.59960E-001	-1.08883E+000	3.57810E+000	10	...........
	21	0.293333	7.48166E-001	5.99302E-003	0.00000E+000	4.48377E-003	3.59960E-001	-1.09818E+000	3.57810E+000	10	...........
	22	0.306667	7.54344E-001	5.99520E-003	0.00000E+000	4.52245E-003	3.59960E-001	-1.09251E+000	3.57810E+000	10	...........
	23	0.32	7.60515E-001	5.99330E-003	0.00000E+000	4.55800E-003	3.59960E-001	-1.08889E+000	3.57810E+000	10	...........
	24	0.333333	7.66669E-001	5.99457E-003	0.00000E+000	4.59585E-003	3.59960E-001	-1.09826E+000	3.57810E+000	10	...........
	25	0.346667	7.72828E-001	5.99157E-003	0.00000E+000	4.63045E-003	3.59960E-001	-1.09239E+000	3.57810E+000	10	...........
	26	0.36	7.78985E-001	5.99501E-003	0.00000E+000	4.67002E-003	3.59960E-001	-1.08866E+000	3.57810E+000	10	...........
	27	0.373333	7.85152E-001	5.99337E-003	0.00000E+000	4.70571E-003	3.59960E-001	-1.09789E+000	3.57810E+000	10	...........
	28	0.386667	7.91262E-001	5.99229E-003	0.00000E+000	4.74147E-003	3.59960E-001	-1.09247E+000	3.57810E+000	10	...........
	29	0.4	7.97413E-001	5.99709E-003	0.00000E+000	4.78215E-003	3.59960E-001	-1.08871E+000	3.57810E+000	10	...........
	30	0.413333	8.03511E-001	5.99399E-003	0.00000E+000	4.81624E-003	3.59960E-001	-1.09807E+000	3.57810E+000	10	...........
	31	0.426667	8.09636E-001	5.99590E-003	0.00000E+000	4.85450E-003	3.59960E-001	-1.09197E+000	3.57810E+000	10	...........
	32	0.44	8.15713E-001	5.99192E-003	0.00000E+000	4.88769E-003	3.59960E-001	-1.08831E+000	3.57810E+000	10	...........
	33	0.453333	8.21847E-001	5.99118E-003	0.00000E+000	4.92384E-003	3.59960E-001	-1.09826E+000	3.57810E+000	10	...........
	34	0.466667	8.27937E-001	5.99571E-003	0.00000E+000	4.96407E-003	3.59960E-001	-1.09245E+000	3.57810E+000	10	...........
	35	0.48	8.33978E-001	5.99478E-003	0.00000E+000	4.99951E-003	3.59960E-001	-1.08870E+000	3.57810E+000	10	...........
	36	0.493333	8.40029E-001	5.99191E-003	0.00000E+000	5.03338E-003	3.59960E-001	-1.09798E+000	3.57810E+000	10	...........
	37	0.506667	8.46076E-001	5.99625E-003	0.00000E+000	5.07329E-003	3.59960E-001	-1.09227E+000	3.57810E+000	10	...........
	38	0.52	8.52096E-001	5.99131E-003	0.00000E+000	5.10517E-003	3.59960E-001	-1.08876E+000	3.57810E+000	10	...........
	39	0.533333	8.58117E-001	5.99524E-003	0.00000E+000	5.14462E-003	3.59960E-001	-1.09822E+000	3.57810E+000	10	...........
	40	0.546667	8.64114E-001	5.99425E-003	0.00000E+000	5.17971E-003	3.59960E-001	-1.09220E+000	3.57810E+000	10	...........
	41	0.56	8.70156E-001	5.99893E-003	0.00000E+000	5.22001E-003	3.59960E-001	-1.08827E+000	3.57810E+000	10	...........
	42	0.573333	8.76152E-001	5.99585E-003	0.00000E+000	5.25327E-003	3.59960E-001	-1.09770E+000	3.57790E+000	10	...........
	43	0.586667	8.82094E-001	5.99290E-003	0.00000E+000	5.28631E-003	3.59960E-001	-1.09182E+000	3.57770E+000	10	...........
	44	0.6	8.88030E-001	5.99455E-003	0.00000E+000	5.32334E-003	3.59960E-001	-1.08857E+000	3.57770E+000	10	...........
	45	0.613333	8.93979E-001	5.99488E-003	0.00000E+000	5.35929E-003	3.59960E-001	-1.09757E+000	3.57770E+000	10	...........
	46	0.626667	8.99903E-001	5.99636E-003	0.00000E+000	5.39614E-003	3.59960E-001	-1.09167E+000	3.57770E+000	10	...........
	47	0.64	9.05809E-001	5.99451E-003	0.00000E+000	5.42988E-003	3.59960E-001	-1.08802E+000	3.57770E+000	10	...........
	48	0.653333	9.11651E-001	5.99859E-003	0.00000E+000	5.46862E-003	3.59960E-001	-1.09792E+000	3.57770E+000	10	...........
	49	0.666667	9.17501E-001	5.99590E-003	0.00000E+000	5.50124E-003	3.59960E-001	-1.09183E+000	3.57770E+000	10	...........
	50	0.68	9.23403E-001	5.99455E-003	0.00000E+000	5.53539E-003	3.59960E-001	-1.08808E+000	3.57770E+000	10	...........
	51	0.693333	9.29185E-001	5.98882E-003	0.00000E+000	5.56472E-003	3.59960E-001	-1.09757E+000	3.57770E+000	10	...........
	52	0.706667	9.34996E-001	5.99325E-003	0.00000E+000	5.60367E-003	3.59960E-001	-1.09174E+000	3.57770E+000	10	...........
	53	0.72	9.40728E-001	5.99389E-003	0.00000E+000	5.63862E-003	3.59960E-001	-1.08820E+000	3.57770E+000	10	...........
	54	0.733333	9.46483E-001	5.99205E-003	0.00000E+000	5.67137E-003	3.59960E-001	-1.09789E+000	3.57770E+000	10	...........
	55	0.746667	9.52158E-001	5.99493E-003	0.00000E+000	5.70812E-003	3.59960E-001	-1.09160E+000	3.57770E+000	10	...........
	56	0.76	9.57797E-001	5.98954E-003	0.00000E+000	5.73676E-003	3.59960E-001	-1.08809E+000	3.57770E+000	10	...........
	57	0.773333	9.63423E-001	5.99525E-003	0.00000E+000	5.77596E-003	3.59960E-001	-1.09783E+000	3.57770E+000	10	...........
	58	0.786667	9.69036E-001	5.99529E-003	0.00000E+000	5.80966E-003	3.59960E-001	-1.09164E+000	3.57770E+000	10	...........
	59	0.8	9.74622E-001	5.99237E-003	0.00000E+000	5.84030E-003	3.59960E-001	-1.08830E+000	3.57770E+000	10	...........
	60	0.813333	9.80125E-001	5.99342E-003	0.00000E+000	5.87430E-003	3.59960E-001	-1.09787E+000	3.57770E+000	10	...........
	61	0.826667	9.85619E-001	5.99370E-003	0.00000E+000	5.90750E-003	3.59960E-001	-1.09141E+000	3.57770E+000	10	...........
	62	0.84	9.91051E-001	5.99583E-003	0.00000E+000	5.94217E-003	3.59960E-001	-1.08828E+000	3.57770E+000	10	...........
	63	0.853333	9.96449E-001	5.99569E-003	0.00000E+000	5.97440E-003	3.59960E-001	-1.09790E+000	3.57770E+000	10	...........
	64	0.856667	9.99804E-001	5.99392E-003	0.00000E+000	5.99274E-003	3.59960E-001	-1.07729E+000	3.57770E+000	10	...........
STARTTIMEOFFSET	QUANT	400.3816	Start Time Offset (s)