File: Data/CV_CRGO300517_1/PWRCCD_CRGO300517_1/CHARGE_DISCHARGE/CHARGE_#575.DTA
EXPLAIN
TAG	PWR800_CHARGE
TITLE	LABEL	PWR Cyclic Charge Discharge (Cell) - Charge Step	Test &Identifier
DATE	LABEL	22-6-2017	Date
TIME	LABEL	15:58:48	Time
NOTES	NOTES	3	&Notes...
	supercap test cell
	0.6mg
	6M KOH
PSTAT	PSTAT	IFC5000-01520	Potentiostat
CAPACITY	QUANT	1.00000E-003	Capacity (A-hr)
CELLTYPE	SELECTOR	1	&Cell Type
WORKINGCONNECTION	SELECTOR	0	&Working Lead
MAXCHARGETIME	VARIABLEANDUNITS	1.00000E+002	s	1.00000E+002	second(s)	Max &Charge Time
CHARGECURRENT	QUANT	6.00000E-003	&Charge Current (A)
VOLTAGEFINISH	TWOPARAM	F	1.00000E-003	3.60000E+003	&Voltage Finish	 I (A) < 	Max Time(s)
SAMPLETIME	QUANT	1.00000E-002	Sa&mple Period (s)
CHARGESTOPAT1	MULTIPARAM	4	1.00000E+000	Charge Stop At &1	Voltage > Limit	V
CHARGESTOPAT2	MULTIPARAM	0	0.00000E+000	Charge Stop At &2	None	N/A
AESBHCSELECTOR	TOGGLE	F	Save Both Half Cells
IRCOMP	TOGGLE	F	IR &Measure
EOC	QUANT	0	Open Circuit (V)
SEQUENCER	TOGGLE	TRUE	Run as Sequence
PSTATMODEL	IQUANT	53	Pstat Model
PSTATSECTION	LABEL	IFC5000-01520	Pstat Section
PSTATSERIALNO	LABEL	01520	Pstat Serial Number
CTRLMODE	IQUANT	0	Control Mode
ELECTROMETER	IQUANT	1	RE=0 or CS=1
IESTAB	IQUANT	0	I/E Stability
CASPEED	IQUANT	4	Control Amp Speed
CONVENTION	IQUANT	1	Current Convention
ICHRANGE	IQUANT	2	Ich Range
ICHRANGEMODE	TOGGLE	T	Ich Auto Range
ICHOFFSETENABLE	TOGGLE	F	Ich Offset Enable
ICHOFFSET	QUANT	0	Ich Offset (V)
ICHFILTER	IQUANT	1	Ich Filter
VCHRANGE	IQUANT	2	Vch Range
VCHRANGEMODE	TOGGLE	T	Vch Auto Range
VCHOFFSETENABLE	TOGGLE	F	Vch Offset Enable
VCHOFFSET	QUANT	0	Vch Offset (V)
VCHFILTER	IQUANT	1	Vch Filter
IERANGELOWERLIMIT	IQUANT	9	I/E Range Lower Limit
IERANGEMODE	TOGGLE	F	I/E AutoRange
IERANGE	IQUANT	10	I/E Range
ACHSELECT	IQUANT	1	Ach Select
ACHRANGE	IQUANT	2	Ach Range
ACHOFFSETENABLE	TOGGLE	F	Ach Offset Enable
ACHOFFSET	QUANT	0	Ach Offset (V)
ACHFILTER	IQUANT	1	Ach Filter
CABLEID	IQUANT	14	Cable ID
DCCALDATE	LABEL	20-10-2016	DC Calibration Date
ACCALDATE	LABEL	12/3/2015	AC Calibration Date
FRAMEWORKVERSION	QUANT	7.01	Framework Version
INSTRUMENTVERSION	LABEL	4.00	Instrument Version
CURVE	TABLE	57
	Pt	T	Vf	Im	Vu	Pwr	Sig	Ach	Temp	IERange	Over
	#	s	V	A	V	W	V	V	deg C	#	bits
	0	0.013333	6.36748E-001	5.99282E-003	0.00000E+000	3.81592E-003	3.59960E-001	-1.14238E+000	3.57640E+000	10	...........
	1	0.026667	6.45730E-001	5.99442E-003	0.00000E+000	3.87078E-003	3.59960E-001	-1.15339E+000	3.57640E+000	10	...........
	2	0.04	6.53984E-001	5.99125E-003	0.00000E+000	3.91818E-003	3.59960E-001	-1.14434E+000	3.57640E+000	10	...........
	3	0.053333	6.61794E-001	5.99369E-003	0.00000E+000	3.96659E-003	3.59960E-001	-1.14225E+000	3.57640E+000	10	...........
	4	0.066667	6.69351E-001	5.99204E-003	0.00000E+000	4.01077E-003	3.59960E-001	-1.15337E+000	3.57640E+000	10	...........
	5	0.08	6.76648E-001	5.99216E-003	0.00000E+000	4.05459E-003	3.59960E-001	-1.14451E+000	3.57640E+000	10	...........
	6	0.093333	6.83793E-001	5.98924E-003	0.00000E+000	4.09540E-003	3.59960E-001	-1.14199E+000	3.57640E+000	10	...........
	7	0.106667	6.90920E-001	5.99283E-003	0.00000E+000	4.14057E-003	3.59960E-001	-1.15319E+000	3.57640E+000	10	...........
	8	0.12	6.97887E-001	5.99669E-003	0.00000E+000	4.18501E-003	3.59960E-001	-1.14467E+000	3.57640E+000	10	...........
	9	0.133333	7.04844E-001	5.99313E-003	0.00000E+000	4.22422E-003	3.59960E-001	-1.14243E+000	3.57640E+000	10	...........
	10	0.146667	7.11686E-001	5.99058E-003	0.00000E+000	4.26341E-003	3.59960E-001	-1.15341E+000	3.57640E+000	10	...........
	11	0.16	7.18547E-001	5.99422E-003	0.00000E+000	4.30713E-003	3.59960E-001	-1.14468E+000	3.57640E+000	10	...........
	12	0.173333	7.25336E-001	5.99876E-003	0.00000E+000	4.35111E-003	3.59960E-001	-1.14213E+000	3.57640E+000	10	...........
	13	0.186667	7.32022E-001	5.99517E-003	0.00000E+000	4.38860E-003	3.59960E-001	-1.15343E+000	3.57640E+000	10	...........
	14	0.2	7.38689E-001	5.98953E-003	0.00000E+000	4.42439E-003	3.59960E-001	-1.14463E+000	3.57640E+000	10	...........
	15	0.213333	7.45392E-001	5.99471E-003	0.00000E+000	4.46841E-003	3.59960E-001	-1.14165E+000	3.57640E+000	10	...........
	16	0.226667	7.52001E-001	5.99507E-003	0.00000E+000	4.50830E-003	3.59960E-001	-1.15269E+000	3.57640E+000	10	...........
	17	0.24	7.58656E-001	5.98950E-003	0.00000E+000	4.54397E-003	3.59960E-001	-1.14416E+000	3.57640E+000	10	...........
	18	0.253333	7.65208E-001	5.98917E-003	0.00000E+000	4.58296E-003	3.59960E-001	-1.14158E+000	3.57640E+000	10	...........
	19	0.266667	7.71795E-001	5.99285E-003	0.00000E+000	4.62525E-003	3.59960E-001	-1.15279E+000	3.57640E+000	10	...........
	20	0.28	7.78336E-001	5.99137E-003	0.00000E+000	4.66330E-003	3.59960E-001	-1.14425E+000	3.57640E+000	10	...........
	21	0.293333	7.84884E-001	5.99766E-003	0.00000E+000	4.70747E-003	3.59960E-001	-1.14156E+000	3.57643E+000	10	...........
	22	0.306667	7.91421E-001	5.98862E-003	0.00000E+000	4.73952E-003	3.59960E-001	-1.15246E+000	3.57660E+000	10	...........
	23	0.32	7.97973E-001	5.99477E-003	0.00000E+000	4.78367E-003	3.59960E-001	-1.14422E+000	3.57660E+000	10	...........
	24	0.333333	8.04447E-001	5.99112E-003	0.00000E+000	4.81954E-003	3.59960E-001	-1.14148E+000	3.57660E+000	10	...........
	25	0.346667	8.10880E-001	6.00032E-003	0.00000E+000	4.86554E-003	3.59960E-001	-1.15265E+000	3.57660E+000	10	...........
	26	0.36	8.17346E-001	5.99484E-003	0.00000E+000	4.89987E-003	3.59960E-001	-1.14412E+000	3.57660E+000	10	...........
	27	0.373333	8.23770E-001	5.99456E-003	0.00000E+000	4.93814E-003	3.59960E-001	-1.14133E+000	3.57660E+000	10	...........
	28	0.386667	8.30184E-001	5.99287E-003	0.00000E+000	4.97519E-003	3.59960E-001	-1.15240E+000	3.57660E+000	10	...........
	29	0.4	8.36574E-001	5.99332E-003	0.00000E+000	5.01385E-003	3.59960E-001	-1.14416E+000	3.57660E+000	10	...........
	30	0.413333	8.42946E-001	5.99395E-003	0.00000E+000	5.05257E-003	3.59960E-001	-1.14137E+000	3.57660E+000	10	...........
	31	0.426667	8.49367E-001	5.99325E-003	0.00000E+000	5.09047E-003	3.59960E-001	-1.15215E+000	3.57660E+000	10	...........
	32	0.44	8.55662E-001	5.99233E-003	0.00000E+000	5.12741E-003	3.59960E-001	-1.14407E+000	3.57660E+000	10	...........
	33	0.453333	8.61982E-001	5.99394E-003	0.00000E+000	5.16666E-003	3.59960E-001	-1.14141E+000	3.57660E+000	10	...........
	34	0.466667	8.68250E-001	5.99401E-003	0.00000E+000	5.20430E-003	3.59960E-001	-1.15257E+000	3.57660E+000	10	...........
	35	0.48	8.74530E-001	5.99316E-003	0.00000E+000	5.24119E-003	3.59960E-001	-1.14414E+000	3.57660E+000	10	...........
	36	0.493333	8.80809E-001	5.99475E-003	0.00000E+000	5.28023E-003	3.59960E-001	-1.14128E+000	3.57660E+000	10	...........
	37	0.506667	8.87062E-001	5.99397E-003	0.00000E+000	5.31702E-003	3.59960E-001	-1.15224E+000	3.57660E+000	10	...........
	38	0.52	8.93238E-001	5.98639E-003	0.00000E+000	5.34727E-003	3.59960E-001	-1.14426E+000	3.57660E+000	10	...........
	39	0.533333	8.99436E-001	5.99358E-003	0.00000E+000	5.39084E-003	3.59960E-001	-1.14090E+000	3.57660E+000	10	...........
	40	0.546667	9.05569E-001	5.99380E-003	0.00000E+000	5.42780E-003	3.59960E-001	-1.15176E+000	3.57660E+000	10	...........
	41	0.56	9.11690E-001	5.99137E-003	0.00000E+000	5.46227E-003	3.59960E-001	-1.14372E+000	3.57660E+000	10	...........
	42	0.573333	9.17722E-001	5.98921E-003	0.00000E+000	5.49643E-003	3.59960E-001	-1.14092E+000	3.57660E+000	10	...........
	43	0.586667	9.23837E-001	5.99578E-003	0.00000E+000	5.53913E-003	3.59960E-001	-1.15185E+000	3.57660E+000	10	...........
	44	0.6	9.29797E-001	5.98562E-003	0.00000E+000	5.56541E-003	3.59960E-001	-1.14401E+000	3.57660E+000	10	...........
	45	0.613333	9.35755E-001	5.99079E-003	0.00000E+000	5.60591E-003	3.59960E-001	-1.14083E+000	3.57660E+000	10	...........
	46	0.626667	9.41694E-001	5.99203E-003	0.00000E+000	5.64266E-003	3.59960E-001	-1.15167E+000	3.57660E+000	10	...........
	47	0.64	9.47588E-001	5.99452E-003	0.00000E+000	5.68034E-003	3.59960E-001	-1.14391E+000	3.57660E+000	10	...........
	48	0.653333	9.53452E-001	5.99874E-003	0.00000E+000	5.71951E-003	3.59960E-001	-1.14093E+000	3.57660E+000	10	...........
	49	0.666667	9.59243E-001	5.99702E-003	0.00000E+000	5.75260E-003	3.59960E-001	-1.15165E+000	3.57660E+000	10	...........
	50	0.68	9.64985E-001	5.99467E-003	0.00000E+000	5.78476E-003	3.59960E-001	-1.14367E+000	3.57660E+000	10	...........
	51	0.693333	9.70719E-001	5.99055E-003	0.00000E+000	5.81514E-003	3.59960E-001	-1.14046E+000	3.57660E+000	10	...........
	52	0.706667	9.76421E-001	5.99185E-003	0.00000E+000	5.85057E-003	3.59960E-001	-1.15126E+000	3.57660E+000	10	...........
	53	0.72	9.82052E-001	5.99797E-003	0.00000E+000	5.89032E-003	3.59960E-001	-1.14385E+000	3.57660E+000	10	...........
	54	0.733333	9.87637E-001	5.99400E-003	0.00000E+000	5.91990E-003	3.59960E-001	-1.14064E+000	3.57660E+000	10	...........
	55	0.746667	9.93156E-001	5.99478E-003	0.00000E+000	5.95376E-003	3.59960E-001	-1.15148E+000	3.57660E+000	10	...........
	56	0.758333	9.98302E-001	5.99469E-003	0.00000E+000	5.98451E-003	3.59960E-001	-1.14201E+000	3.57660E+000	10	...........
STARTTIMEOFFSET	QUANT	973.342	Start Time Offset (s)