File: Data/CV_CRGO300517_1/PWRCCD_CRGO300517_1/CHARGE_DISCHARGE/CHARGE_#902.DTA
EXPLAIN
TAG	PWR800_CHARGE
TITLE	LABEL	PWR Cyclic Charge Discharge (Cell) - Charge Step	Test &Identifier
DATE	LABEL	22-6-2017	Date
TIME	LABEL	16:11:03	Time
NOTES	NOTES	3	&Notes...
	supercap test cell
	0.6mg
	6M KOH
PSTAT	PSTAT	IFC5000-01520	Potentiostat
CAPACITY	QUANT	1.00000E-003	Capacity (A-hr)
CELLTYPE	SELECTOR	1	&Cell Type
WORKINGCONNECTION	SELECTOR	0	&Working Lead
MAXCHARGETIME	VARIABLEANDUNITS	1.00000E+002	s	1.00000E+002	second(s)	Max &Charge Time
CHARGECURRENT	QUANT	6.00000E-003	&Charge Current (A)
VOLTAGEFINISH	TWOPARAM	F	1.00000E-003	3.60000E+003	&Voltage Finish	 I (A) < 	Max Time(s)
SAMPLETIME	QUANT	1.00000E-002	Sa&mple Period (s)
CHARGESTOPAT1	MULTIPARAM	4	1.00000E+000	Charge Stop At &1	Voltage > Limit	V
CHARGESTOPAT2	MULTIPARAM	0	0.00000E+000	Charge Stop At &2	None	N/A
AESBHCSELECTOR	TOGGLE	F	Save Both Half Cells
IRCOMP	TOGGLE	F	IR &Measure
EOC	QUANT	0	Open Circuit (V)
SEQUENCER	TOGGLE	TRUE	Run as Sequence
PSTATMODEL	IQUANT	53	Pstat Model
PSTATSECTION	LABEL	IFC5000-01520	Pstat Section
PSTATSERIALNO	LABEL	01520	Pstat Serial Number
CTRLMODE	IQUANT	0	Control Mode
ELECTROMETER	IQUANT	1	RE=0 or CS=1
IESTAB	IQUANT	0	I/E Stability
CASPEED	IQUANT	4	Control Amp Speed
CONVENTION	IQUANT	1	Current Convention
ICHRANGE	IQUANT	2	Ich Range
ICHRANGEMODE	TOGGLE	T	Ich Auto Range
ICHOFFSETENABLE	TOGGLE	F	Ich Offset Enable
ICHOFFSET	QUANT	0	Ich Offset (V)
ICHFILTER	IQUANT	1	Ich Filter
VCHRANGE	IQUANT	2	Vch Range
VCHRANGEMODE	TOGGLE	T	Vch Auto Range
VCHOFFSETENABLE	TOGGLE	F	Vch Offset Enable
VCHOFFSET	QUANT	0	Vch Offset (V)
VCHFILTER	IQUANT	1	Vch Filter
IERANGELOWERLIMIT	IQUANT	9	I/E Range Lower Limit
IERANGEMODE	TOGGLE	F	I/E AutoRange
IERANGE	IQUANT	10	I/E Range
ACHSELECT	IQUANT	1	Ach Select
ACHRANGE	IQUANT	2	Ach Range
ACHOFFSETENABLE	TOGGLE	F	Ach Offset Enable
ACHOFFSET	QUANT	0	Ach Offset (V)
ACHFILTER	IQUANT	1	Ach Filter
CABLEID	IQUANT	14	Cable ID
DCCALDATE	LABEL	20-10-2016	DC Calibration Date
ACCALDATE	LABEL	12/3/2015	AC Calibration Date
FRAMEWORKVERSION	QUANT	7.01	Framework Version
INSTRUMENTVERSION	LABEL	4.00	Instrument Version
CURVE	TABLE	53
	Pt	T	Vf	Im	Vu	Pwr	Sig	Ach	Temp	IERange	Over
	#	s	V	A	V	W	V	V	deg C	#	bits
	0	0.013333	6.53077E-001	5.99340E-003	0.00000E+000	3.91415E-003	3.59960E-001	-1.17026E+000	3.57700E+000	10	...........
	1	0.026667	6.62358E-001	5.99295E-003	0.00000E+000	3.96948E-003	3.59960E-001	-1.16808E+000	3.57700E+000	10	...........
	2	0.04	6.70910E-001	5.99327E-003	0.00000E+000	4.02094E-003	3.59960E-001	-1.17915E+000	3.57700E+000	10	...........
	3	0.053333	6.79029E-001	5.98971E-003	0.00000E+000	4.06719E-003	3.59960E-001	-1.16986E+000	3.57700E+000	10	...........
	4	0.066667	6.86833E-001	5.99322E-003	0.00000E+000	4.11634E-003	3.59960E-001	-1.16800E+000	3.57700E+000	10	...........
	5	0.08	6.94439E-001	5.99719E-003	0.00000E+000	4.16468E-003	3.59960E-001	-1.17945E+000	3.57700E+000	10	...........
	6	0.093333	7.01909E-001	5.99160E-003	0.00000E+000	4.20556E-003	3.59960E-001	-1.17001E+000	3.57700E+000	10	...........
	7	0.106667	7.09229E-001	5.99381E-003	0.00000E+000	4.25099E-003	3.59960E-001	-1.16790E+000	3.57700E+000	10	...........
	8	0.12	7.16490E-001	5.99142E-003	0.00000E+000	4.29280E-003	3.59960E-001	-1.17908E+000	3.57700E+000	10	...........
	9	0.133333	7.23668E-001	5.99624E-003	0.00000E+000	4.33929E-003	3.59960E-001	-1.16981E+000	3.57700E+000	10	...........
	10	0.146667	7.30762E-001	5.99503E-003	0.00000E+000	4.38094E-003	3.59960E-001	-1.16812E+000	3.57700E+000	10	...........
	11	0.16	7.37800E-001	5.99493E-003	0.00000E+000	4.42306E-003	3.59960E-001	-1.17911E+000	3.57700E+000	10	...........
	12	0.173333	7.44811E-001	5.99453E-003	0.00000E+000	4.46479E-003	3.59960E-001	-1.16893E+000	3.57700E+000	10	...........
	13	0.186667	7.51766E-001	5.99351E-003	0.00000E+000	4.50572E-003	3.59960E-001	-1.16751E+000	3.57700E+000	10	...........
	14	0.2	7.58715E-001	5.99132E-003	0.00000E+000	4.54570E-003	3.59960E-001	-1.17880E+000	3.57700E+000	10	...........
	15	0.213333	7.65572E-001	5.99092E-003	0.00000E+000	4.58648E-003	3.59960E-001	-1.16939E+000	3.57700E+000	10	...........
	16	0.226667	7.72481E-001	5.99648E-003	0.00000E+000	4.63217E-003	3.59960E-001	-1.16769E+000	3.57700E+000	10	...........
	17	0.24	7.79327E-001	5.98972E-003	0.00000E+000	4.66796E-003	3.59960E-001	-1.17888E+000	3.57700E+000	10	...........
	18	0.253333	7.86117E-001	5.99398E-003	0.00000E+000	4.71197E-003	3.59960E-001	-1.16912E+000	3.57700E+000	10	...........
	19	0.266667	7.92881E-001	5.99136E-003	0.00000E+000	4.75044E-003	3.59960E-001	-1.16764E+000	3.57700E+000	10	...........
	20	0.28	7.99631E-001	5.99271E-003	0.00000E+000	4.79196E-003	3.59960E-001	-1.17883E+000	3.57700E+000	10	...........
	21	0.293333	8.06327E-001	5.99226E-003	0.00000E+000	4.83172E-003	3.59960E-001	-1.16893E+000	3.57700E+000	10	...........
	22	0.306667	8.12989E-001	5.99106E-003	0.00000E+000	4.87066E-003	3.59960E-001	-1.16716E+000	3.57700E+000	10	...........
	23	0.32	8.19661E-001	5.99379E-003	0.00000E+000	4.91288E-003	3.59960E-001	-1.17846E+000	3.57700E+000	10	...........
	24	0.333333	8.26326E-001	5.99395E-003	0.00000E+000	4.95296E-003	3.59960E-001	-1.16896E+000	3.57700E+000	10	...........
	25	0.346667	8.32962E-001	5.98889E-003	0.00000E+000	4.98852E-003	3.59960E-001	-1.16740E+000	3.57700E+000	10	...........
	26	0.36	8.39541E-001	5.99143E-003	0.00000E+000	5.03005E-003	3.59960E-001	-1.17862E+000	3.57700E+000	10	...........
	27	0.373333	8.46130E-001	5.99814E-003	0.00000E+000	5.07520E-003	3.59960E-001	-1.16884E+000	3.57700E+000	10	...........
	28	0.386667	8.52623E-001	5.99537E-003	0.00000E+000	5.11179E-003	3.59960E-001	-1.16741E+000	3.57700E+000	10	...........
	29	0.4	8.59141E-001	5.99043E-003	0.00000E+000	5.14662E-003	3.59960E-001	-1.17896E+000	3.57700E+000	10	...........
	30	0.413333	8.65591E-001	5.99224E-003	0.00000E+000	5.18682E-003	3.59960E-001	-1.16907E+000	3.57700E+000	10	...........
	31	0.426667	8.72060E-001	5.99473E-003	0.00000E+000	5.22777E-003	3.59960E-001	-1.16758E+000	3.57700E+000	10	...........
	32	0.44	8.78478E-001	5.99739E-003	0.00000E+000	5.26857E-003	3.59960E-001	-1.17863E+000	3.57700E+000	10	...........
	33	0.453333	8.84893E-001	5.99917E-003	0.00000E+000	5.30862E-003	3.59960E-001	-1.16869E+000	3.57700E+000	10	...........
	34	0.466667	8.91269E-001	5.99065E-003	0.00000E+000	5.33928E-003	3.59960E-001	-1.16752E+000	3.57700E+000	10	...........
	35	0.48	8.97582E-001	5.99120E-003	0.00000E+000	5.37760E-003	3.59960E-001	-1.17843E+000	3.57700E+000	10	...........
	36	0.493333	9.03871E-001	5.99240E-003	0.00000E+000	5.41636E-003	3.59960E-001	-1.16806E+000	3.57700E+000	10	...........
	37	0.506667	9.10140E-001	5.99940E-003	0.00000E+000	5.46029E-003	3.59960E-001	-1.16682E+000	3.57700E+000	10	...........
	38	0.52	9.16367E-001	5.99074E-003	0.00000E+000	5.48971E-003	3.59960E-001	-1.17808E+000	3.57700E+000	10	...........
	39	0.533333	9.22594E-001	5.99332E-003	0.00000E+000	5.52940E-003	3.59960E-001	-1.16831E+000	3.57700E+000	10	...........
	40	0.546667	9.28698E-001	5.99428E-003	0.00000E+000	5.56687E-003	3.59960E-001	-1.16721E+000	3.57700E+000	10	...........
	41	0.56	9.34779E-001	5.99216E-003	0.00000E+000	5.60135E-003	3.59960E-001	-1.17833E+000	3.57700E+000	10	...........
	42	0.573333	9.40782E-001	5.99402E-003	0.00000E+000	5.63907E-003	3.59960E-001	-1.16826E+000	3.57700E+000	10	...........
	43	0.586667	9.46788E-001	5.99012E-003	0.00000E+000	5.67137E-003	3.59960E-001	-1.16702E+000	3.57700E+000	10	...........
	44	0.6	9.52723E-001	5.99276E-003	0.00000E+000	5.70944E-003	3.59960E-001	-1.17822E+000	3.57700E+000	10	...........
	45	0.613333	9.58642E-001	5.99363E-003	0.00000E+000	5.74575E-003	3.59960E-001	-1.16832E+000	3.57700E+000	10	...........
	46	0.626667	9.64471E-001	5.99690E-003	0.00000E+000	5.78383E-003	3.59960E-001	-1.16717E+000	3.57700E+000	10	...........
	47	0.64	9.70323E-001	5.99429E-003	0.00000E+000	5.81640E-003	3.59960E-001	-1.17831E+000	3.57700E+000	10	...........
	48	0.653333	9.76081E-001	5.99614E-003	0.00000E+000	5.85272E-003	3.59960E-001	-1.16796E+000	3.57700E+000	10	...........
	49	0.666667	9.81718E-001	5.99189E-003	0.00000E+000	5.88235E-003	3.59960E-001	-1.16716E+000	3.57700E+000	10	...........
	50	0.68	9.87394E-001	5.99422E-003	0.00000E+000	5.91866E-003	3.59960E-001	-1.17836E+000	3.57700E+000	10	...........
	51	0.693333	9.92946E-001	5.99340E-003	0.00000E+000	5.95112E-003	3.59960E-001	-1.16834E+000	3.57700E+000	10	...........
	52	0.705	9.98152E-001	5.99088E-003	0.00000E+000	5.97981E-003	3.59960E-001	-1.16809E+000	3.57700E+000	10	...........
STARTTIMEOFFSET	QUANT	1448.872	Start Time Offset (s)