File: Data/CV_CRGO300517_1/PWRCCD_CRGO300517_1/CHARGE_DISCHARGE/CHARGE_#867.DTA
EXPLAIN
TAG	PWR800_CHARGE
TITLE	LABEL	PWR Cyclic Charge Discharge (Cell) - Charge Step	Test &Identifier
DATE	LABEL	22-6-2017	Date
TIME	LABEL	16:09:46	Time
NOTES	NOTES	3	&Notes...
	supercap test cell
	0.6mg
	6M KOH
PSTAT	PSTAT	IFC5000-01520	Potentiostat
CAPACITY	QUANT	1.00000E-003	Capacity (A-hr)
CELLTYPE	SELECTOR	1	&Cell Type
WORKINGCONNECTION	SELECTOR	0	&Working Lead
MAXCHARGETIME	VARIABLEANDUNITS	1.00000E+002	s	1.00000E+002	second(s)	Max &Charge Time
CHARGECURRENT	QUANT	6.00000E-003	&Charge Current (A)
VOLTAGEFINISH	TWOPARAM	F	1.00000E-003	3.60000E+003	&Voltage Finish	 I (A) < 	Max Time(s)
SAMPLETIME	QUANT	1.00000E-002	Sa&mple Period (s)
CHARGESTOPAT1	MULTIPARAM	4	1.00000E+000	Charge Stop At &1	Voltage > Limit	V
CHARGESTOPAT2	MULTIPARAM	0	0.00000E+000	Charge Stop At &2	None	N/A
AESBHCSELECTOR	TOGGLE	F	Save Both Half Cells
IRCOMP	TOGGLE	F	IR &Measure
EOC	QUANT	0	Open Circuit (V)
SEQUENCER	TOGGLE	TRUE	Run as Sequence
PSTATMODEL	IQUANT	53	Pstat Model
PSTATSECTION	LABEL	IFC5000-01520	Pstat Section
PSTATSERIALNO	LABEL	01520	Pstat Serial Number
CTRLMODE	IQUANT	0	Control Mode
ELECTROMETER	IQUANT	1	RE=0 or CS=1
IESTAB	IQUANT	0	I/E Stability
CASPEED	IQUANT	4	Control Amp Speed
CONVENTION	IQUANT	1	Current Convention
ICHRANGE	IQUANT	2	Ich Range
ICHRANGEMODE	TOGGLE	T	Ich Auto Range
ICHOFFSETENABLE	TOGGLE	F	Ich Offset Enable
ICHOFFSET	QUANT	0	Ich Offset (V)
ICHFILTER	IQUANT	1	Ich Filter
VCHRANGE	IQUANT	2	Vch Range
VCHRANGEMODE	TOGGLE	T	Vch Auto Range
VCHOFFSETENABLE	TOGGLE	F	Vch Offset Enable
VCHOFFSET	QUANT	0	Vch Offset (V)
VCHFILTER	IQUANT	1	Vch Filter
IERANGELOWERLIMIT	IQUANT	9	I/E Range Lower Limit
IERANGEMODE	TOGGLE	F	I/E AutoRange
IERANGE	IQUANT	10	I/E Range
ACHSELECT	IQUANT	1	Ach Select
ACHRANGE	IQUANT	2	Ach Range
ACHOFFSETENABLE	TOGGLE	F	Ach Offset Enable
ACHOFFSET	QUANT	0	Ach Offset (V)
ACHFILTER	IQUANT	1	Ach Filter
CABLEID	IQUANT	14	Cable ID
DCCALDATE	LABEL	20-10-2016	DC Calibration Date
ACCALDATE	LABEL	12/3/2015	AC Calibration Date
FRAMEWORKVERSION	QUANT	7.01	Framework Version
INSTRUMENTVERSION	LABEL	4.00	Instrument Version
CURVE	TABLE	54
	Pt	T	Vf	Im	Vu	Pwr	Sig	Ach	Temp	IERange	Over
	#	s	V	A	V	W	V	V	deg C	#	bits
	0	0.013333	6.51403E-001	5.99384E-003	0.00000E+000	3.90441E-003	3.59960E-001	-1.16550E+000	3.57630E+000	10	...........
	1	0.026667	6.60656E-001	5.99134E-003	0.00000E+000	3.95821E-003	3.59960E-001	-1.17581E+000	3.57630E+000	10	...........
	2	0.04	6.69182E-001	5.99241E-003	0.00000E+000	4.01001E-003	3.59960E-001	-1.16522E+000	3.57630E+000	10	...........
	3	0.053333	6.77278E-001	5.99385E-003	0.00000E+000	4.05951E-003	3.59960E-001	-1.16547E+000	3.57630E+000	10	...........
	4	0.066667	6.85016E-001	5.98960E-003	0.00000E+000	4.10297E-003	3.59960E-001	-1.17561E+000	3.57630E+000	10	...........
	5	0.08	6.92589E-001	5.99093E-003	0.00000E+000	4.14926E-003	3.59960E-001	-1.16511E+000	3.57630E+000	10	...........
	6	0.093333	6.99977E-001	5.99413E-003	0.00000E+000	4.19575E-003	3.59960E-001	-1.16540E+000	3.57630E+000	10	...........
	7	0.106667	7.07297E-001	5.99061E-003	0.00000E+000	4.23714E-003	3.59960E-001	-1.17564E+000	3.57630E+000	10	...........
	8	0.12	7.14497E-001	5.98804E-003	0.00000E+000	4.27844E-003	3.59960E-001	-1.16491E+000	3.57630E+000	10	...........
	9	0.133333	7.21697E-001	5.99518E-003	0.00000E+000	4.32670E-003	3.59960E-001	-1.16502E+000	3.57630E+000	10	...........
	10	0.146667	7.28761E-001	5.99038E-003	0.00000E+000	4.36556E-003	3.59960E-001	-1.17518E+000	3.57630E+000	10	...........
	11	0.16	7.35769E-001	5.99422E-003	0.00000E+000	4.41036E-003	3.59960E-001	-1.16472E+000	3.57630E+000	10	...........
	12	0.173333	7.42758E-001	5.99496E-003	0.00000E+000	4.45280E-003	3.59960E-001	-1.16497E+000	3.57630E+000	10	...........
	13	0.186667	7.49640E-001	5.99075E-003	0.00000E+000	4.49090E-003	3.59960E-001	-1.17527E+000	3.57630E+000	10	...........
	14	0.2	7.56558E-001	5.98999E-003	0.00000E+000	4.53178E-003	3.59960E-001	-1.16479E+000	3.57630E+000	10	...........
	15	0.213333	7.63434E-001	5.99540E-003	0.00000E+000	4.57709E-003	3.59960E-001	-1.16485E+000	3.57640E+000	10	...........
	16	0.226667	7.70235E-001	5.98653E-003	0.00000E+000	4.61104E-003	3.59960E-001	-1.17519E+000	3.57650E+000	10	...........
	17	0.24	7.77054E-001	5.98940E-003	0.00000E+000	4.65409E-003	3.59960E-001	-1.16479E+000	3.57650E+000	10	...........
	18	0.253333	7.83844E-001	5.99613E-003	0.00000E+000	4.70003E-003	3.59960E-001	-1.16483E+000	3.57650E+000	10	...........
	19	0.266667	7.90570E-001	5.99160E-003	0.00000E+000	4.73678E-003	3.59960E-001	-1.17503E+000	3.57650E+000	10	...........
	20	0.28	7.97327E-001	5.99030E-003	0.00000E+000	4.77622E-003	3.59960E-001	-1.16459E+000	3.57650E+000	10	...........
	21	0.293333	8.04024E-001	5.99745E-003	0.00000E+000	4.82210E-003	3.59960E-001	-1.16485E+000	3.57650E+000	10	...........
	22	0.306667	8.10649E-001	5.99512E-003	0.00000E+000	4.85994E-003	3.59960E-001	-1.17494E+000	3.57650E+000	10	...........
	23	0.32	8.17281E-001	5.99454E-003	0.00000E+000	4.89923E-003	3.59960E-001	-1.16457E+000	3.57650E+000	10	...........
	24	0.333333	8.23951E-001	5.99638E-003	0.00000E+000	4.94072E-003	3.59960E-001	-1.16514E+000	3.57650E+000	10	...........
	25	0.346667	8.30536E-001	5.99183E-003	0.00000E+000	4.97643E-003	3.59960E-001	-1.17486E+000	3.57650E+000	10	...........
	26	0.36	8.37100E-001	5.99400E-003	0.00000E+000	5.01758E-003	3.59960E-001	-1.16455E+000	3.57650E+000	10	...........
	27	0.373333	8.43630E-001	5.99367E-003	0.00000E+000	5.05644E-003	3.59960E-001	-1.16486E+000	3.57650E+000	10	...........
	28	0.386667	8.50195E-001	5.99574E-003	0.00000E+000	5.09755E-003	3.59960E-001	-1.17515E+000	3.57650E+000	10	...........
	29	0.4	8.56695E-001	5.99212E-003	0.00000E+000	5.13342E-003	3.59960E-001	-1.16465E+000	3.57650E+000	10	...........
	30	0.413333	8.63186E-001	5.99033E-003	0.00000E+000	5.17077E-003	3.59960E-001	-1.16469E+000	3.57650E+000	10	...........
	31	0.426667	8.69623E-001	5.99501E-003	0.00000E+000	5.21340E-003	3.59960E-001	-1.17464E+000	3.57650E+000	10	...........
	32	0.44	8.76058E-001	5.99656E-003	0.00000E+000	5.25333E-003	3.59960E-001	-1.16435E+000	3.57650E+000	10	...........
	33	0.453333	8.82410E-001	5.99448E-003	0.00000E+000	5.28959E-003	3.59960E-001	-1.16434E+000	3.57650E+000	10	...........
	34	0.466667	8.88770E-001	5.99348E-003	0.00000E+000	5.32683E-003	3.59960E-001	-1.17450E+000	3.57650E+000	10	...........
	35	0.48	8.95079E-001	5.99134E-003	0.00000E+000	5.36272E-003	3.59960E-001	-1.16392E+000	3.57650E+000	10	...........
	36	0.493333	9.01380E-001	5.98974E-003	0.00000E+000	5.39904E-003	3.59960E-001	-1.16423E+000	3.57650E+000	10	...........
	37	0.506667	9.07642E-001	5.99093E-003	0.00000E+000	5.43763E-003	3.59960E-001	-1.17442E+000	3.57650E+000	10	...........
	38	0.52	9.13855E-001	5.99834E-003	0.00000E+000	5.48161E-003	3.59960E-001	-1.16392E+000	3.57650E+000	10	...........
	39	0.533333	9.20101E-001	5.99603E-003	0.00000E+000	5.51695E-003	3.59960E-001	-1.16423E+000	3.57650E+000	10	...........
	40	0.546667	9.26267E-001	5.99753E-003	0.00000E+000	5.55531E-003	3.59960E-001	-1.17416E+000	3.57650E+000	10	...........
	41	0.56	9.32323E-001	5.99250E-003	0.00000E+000	5.58694E-003	3.59960E-001	-1.16366E+000	3.57650E+000	10	...........
	42	0.573333	9.38381E-001	5.99470E-003	0.00000E+000	5.62531E-003	3.59960E-001	-1.16426E+000	3.57650E+000	10	...........
	43	0.586667	9.44343E-001	5.99463E-003	0.00000E+000	5.66099E-003	3.59960E-001	-1.17430E+000	3.57650E+000	10	...........
	44	0.6	9.50319E-001	5.99214E-003	0.00000E+000	5.69445E-003	3.59960E-001	-1.16382E+000	3.57650E+000	10	...........
	45	0.613333	9.56172E-001	5.99285E-003	0.00000E+000	5.73019E-003	3.59960E-001	-1.16423E+000	3.57650E+000	10	...........
	46	0.626667	9.62039E-001	5.99287E-003	0.00000E+000	5.76538E-003	3.59960E-001	-1.17415E+000	3.57650E+000	10	...........
	47	0.64	9.67865E-001	5.99200E-003	0.00000E+000	5.79944E-003	3.59960E-001	-1.16368E+000	3.57650E+000	10	...........
	48	0.653333	9.73658E-001	5.99357E-003	0.00000E+000	5.83569E-003	3.59960E-001	-1.16444E+000	3.57650E+000	10	...........
	49	0.666667	9.79370E-001	5.99278E-003	0.00000E+000	5.86915E-003	3.59960E-001	-1.17439E+000	3.57650E+000	10	...........
	50	0.68	9.85010E-001	5.99490E-003	0.00000E+000	5.90503E-003	3.59960E-001	-1.16374E+000	3.57650E+000	10	...........
	51	0.693333	9.90608E-001	5.99325E-003	0.00000E+000	5.93696E-003	3.59960E-001	-1.16421E+000	3.57650E+000	10	...........
	52	0.706667	9.96146E-001	5.99187E-003	0.00000E+000	5.96878E-003	3.59960E-001	-1.17414E+000	3.57650E+000	10	...........
	53	0.711667	9.99941E-001	5.98831E-003	0.00000E+000	5.98796E-003	3.59960E-001	-1.15364E+000	3.57650E+000	10	...........
STARTTIMEOFFSET	QUANT	1399.532	Start Time Offset (s)