File: Data/CV_CRGO300517_1/PWRCCD_CRGO300517_1/CHARGE_DISCHARGE/CHARGE_#658.DTA
EXPLAIN
TAG	PWR800_CHARGE
TITLE	LABEL	PWR Cyclic Charge Discharge (Cell) - Charge Step	Test &Identifier
DATE	LABEL	22-6-2017	Date
TIME	LABEL	16:01:58	Time
NOTES	NOTES	3	&Notes...
	supercap test cell
	0.6mg
	6M KOH
PSTAT	PSTAT	IFC5000-01520	Potentiostat
CAPACITY	QUANT	1.00000E-003	Capacity (A-hr)
CELLTYPE	SELECTOR	1	&Cell Type
WORKINGCONNECTION	SELECTOR	0	&Working Lead
MAXCHARGETIME	VARIABLEANDUNITS	1.00000E+002	s	1.00000E+002	second(s)	Max &Charge Time
CHARGECURRENT	QUANT	6.00000E-003	&Charge Current (A)
VOLTAGEFINISH	TWOPARAM	F	1.00000E-003	3.60000E+003	&Voltage Finish	 I (A) < 	Max Time(s)
SAMPLETIME	QUANT	1.00000E-002	Sa&mple Period (s)
CHARGESTOPAT1	MULTIPARAM	4	1.00000E+000	Charge Stop At &1	Voltage > Limit	V
CHARGESTOPAT2	MULTIPARAM	0	0.00000E+000	Charge Stop At &2	None	N/A
AESBHCSELECTOR	TOGGLE	F	Save Both Half Cells
IRCOMP	TOGGLE	F	IR &Measure
EOC	QUANT	0	Open Circuit (V)
SEQUENCER	TOGGLE	TRUE	Run as Sequence
PSTATMODEL	IQUANT	53	Pstat Model
PSTATSECTION	LABEL	IFC5000-01520	Pstat Section
PSTATSERIALNO	LABEL	01520	Pstat Serial Number
CTRLMODE	IQUANT	0	Control Mode
ELECTROMETER	IQUANT	1	RE=0 or CS=1
IESTAB	IQUANT	0	I/E Stability
CASPEED	IQUANT	4	Control Amp Speed
CONVENTION	IQUANT	1	Current Convention
ICHRANGE	IQUANT	2	Ich Range
ICHRANGEMODE	TOGGLE	T	Ich Auto Range
ICHOFFSETENABLE	TOGGLE	F	Ich Offset Enable
ICHOFFSET	QUANT	0	Ich Offset (V)
ICHFILTER	IQUANT	1	Ich Filter
VCHRANGE	IQUANT	2	Vch Range
VCHRANGEMODE	TOGGLE	T	Vch Auto Range
VCHOFFSETENABLE	TOGGLE	F	Vch Offset Enable
VCHOFFSET	QUANT	0	Vch Offset (V)
VCHFILTER	IQUANT	1	Vch Filter
IERANGELOWERLIMIT	IQUANT	9	I/E Range Lower Limit
IERANGEMODE	TOGGLE	F	I/E AutoRange
IERANGE	IQUANT	10	I/E Range
ACHSELECT	IQUANT	1	Ach Select
ACHRANGE	IQUANT	2	Ach Range
ACHOFFSETENABLE	TOGGLE	F	Ach Offset Enable
ACHOFFSET	QUANT	0	Ach Offset (V)
ACHFILTER	IQUANT	1	Ach Filter
CABLEID	IQUANT	14	Cable ID
DCCALDATE	LABEL	20-10-2016	DC Calibration Date
ACCALDATE	LABEL	12/3/2015	AC Calibration Date
FRAMEWORKVERSION	QUANT	7.01	Framework Version
INSTRUMENTVERSION	LABEL	4.00	Instrument Version
CURVE	TABLE	56
	Pt	T	Vf	Im	Vu	Pwr	Sig	Ach	Temp	IERange	Over
	#	s	V	A	V	W	V	V	deg C	#	bits
	0	0.013333	6.41274E-001	5.99078E-003	0.00000E+000	3.84173E-003	3.59960E-001	-1.15200E+000	3.57840E+000	10	...........
	1	0.026667	6.50320E-001	5.98862E-003	0.00000E+000	3.89452E-003	3.59960E-001	-1.16301E+000	3.57840E+000	10	...........
	2	0.04	6.58660E-001	5.99755E-003	0.00000E+000	3.95035E-003	3.59960E-001	-1.15430E+000	3.57840E+000	10	...........
	3	0.053333	6.66559E-001	5.99415E-003	0.00000E+000	3.99545E-003	3.59960E-001	-1.15183E+000	3.57840E+000	10	...........
	4	0.066667	6.74134E-001	5.99446E-003	0.00000E+000	4.04107E-003	3.59960E-001	-1.16325E+000	3.57840E+000	10	...........
	5	0.08	6.81590E-001	5.99448E-003	0.00000E+000	4.08578E-003	3.59960E-001	-1.15420E+000	3.57840E+000	10	...........
	6	0.093333	6.88853E-001	5.99529E-003	0.00000E+000	4.12987E-003	3.59960E-001	-1.15211E+000	3.57840E+000	10	...........
	7	0.106667	6.95999E-001	5.99645E-003	0.00000E+000	4.17352E-003	3.59960E-001	-1.16338E+000	3.57840E+000	10	...........
	8	0.12	7.03019E-001	5.98945E-003	0.00000E+000	4.21070E-003	3.59960E-001	-1.15418E+000	3.57840E+000	10	...........
	9	0.133333	7.10042E-001	5.99631E-003	0.00000E+000	4.25763E-003	3.59960E-001	-1.15223E+000	3.57840E+000	10	...........
	10	0.146667	7.16992E-001	5.99597E-003	0.00000E+000	4.29906E-003	3.59960E-001	-1.16332E+000	3.57840E+000	10	...........
	11	0.16	7.23857E-001	5.99279E-003	0.00000E+000	4.33792E-003	3.59960E-001	-1.15408E+000	3.57840E+000	10	...........
	12	0.173333	7.30661E-001	5.99325E-003	0.00000E+000	4.37903E-003	3.59960E-001	-1.15206E+000	3.57840E+000	10	...........
	13	0.186667	7.37482E-001	5.99308E-003	0.00000E+000	4.41979E-003	3.59960E-001	-1.16340E+000	3.57840E+000	10	...........
	14	0.2	7.44228E-001	5.99312E-003	0.00000E+000	4.46025E-003	3.59960E-001	-1.15378E+000	3.57840E+000	10	...........
	15	0.213333	7.50958E-001	5.99717E-003	0.00000E+000	4.50362E-003	3.59960E-001	-1.15162E+000	3.57840E+000	10	...........
	16	0.226667	7.57687E-001	5.99398E-003	0.00000E+000	4.54156E-003	3.59960E-001	-1.16278E+000	3.57840E+000	10	...........
	17	0.24	7.64376E-001	5.99038E-003	0.00000E+000	4.57890E-003	3.59960E-001	-1.15330E+000	3.57840E+000	10	...........
	18	0.253333	7.71019E-001	5.99500E-003	0.00000E+000	4.62226E-003	3.59960E-001	-1.15181E+000	3.57840E+000	10	...........
	19	0.266667	7.77661E-001	5.99637E-003	0.00000E+000	4.66314E-003	3.59960E-001	-1.16293E+000	3.57840E+000	10	...........
	20	0.28	7.84214E-001	5.99289E-003	0.00000E+000	4.69971E-003	3.59960E-001	-1.15320E+000	3.57840E+000	10	...........
	21	0.293333	7.90795E-001	5.99730E-003	0.00000E+000	4.74263E-003	3.59960E-001	-1.15190E+000	3.57840E+000	10	...........
	22	0.306667	7.97370E-001	5.99236E-003	0.00000E+000	4.77813E-003	3.59960E-001	-1.16301E+000	3.57840E+000	10	...........
	23	0.32	8.03928E-001	5.99355E-003	0.00000E+000	4.81838E-003	3.59960E-001	-1.15340E+000	3.57840E+000	10	...........
	24	0.333333	8.10471E-001	5.99766E-003	0.00000E+000	4.86093E-003	3.59960E-001	-1.15194E+000	3.57840E+000	10	...........
	25	0.346667	8.16985E-001	5.99582E-003	0.00000E+000	4.89849E-003	3.59960E-001	-1.16302E+000	3.57840E+000	10	...........
	26	0.36	8.23490E-001	5.99180E-003	0.00000E+000	4.93419E-003	3.59960E-001	-1.15317E+000	3.57840E+000	10	...........
	27	0.373333	8.29949E-001	5.99174E-003	0.00000E+000	4.97283E-003	3.59960E-001	-1.15171E+000	3.57840E+000	10	...........
	28	0.386667	8.36415E-001	5.99493E-003	0.00000E+000	5.01425E-003	3.59960E-001	-1.16286E+000	3.57840E+000	10	...........
	29	0.4	8.42895E-001	5.99042E-003	0.00000E+000	5.04930E-003	3.59960E-001	-1.15302E+000	3.57840E+000	10	...........
	30	0.413333	8.49271E-001	5.99019E-003	0.00000E+000	5.08730E-003	3.59960E-001	-1.15191E+000	3.57840E+000	10	...........
	31	0.426667	8.55689E-001	5.99552E-003	0.00000E+000	5.13031E-003	3.59960E-001	-1.16289E+000	3.57840E+000	10	...........
	32	0.44	8.62127E-001	5.99429E-003	0.00000E+000	5.16784E-003	3.59960E-001	-1.15285E+000	3.57840E+000	10	...........
	33	0.453333	8.68477E-001	5.99494E-003	0.00000E+000	5.20646E-003	3.59960E-001	-1.15204E+000	3.57840E+000	10	...........
	34	0.466667	8.74831E-001	5.99854E-003	0.00000E+000	5.24771E-003	3.59960E-001	-1.16308E+000	3.57840E+000	10	...........
	35	0.48	8.81076E-001	5.99306E-003	0.00000E+000	5.28034E-003	3.59960E-001	-1.15300E+000	3.57724E+000	10	...........
	36	0.493333	8.87344E-001	5.99526E-003	0.00000E+000	5.31986E-003	3.59960E-001	-1.15199E+000	3.57720E+000	10	...........
	37	0.506667	8.93538E-001	5.99313E-003	0.00000E+000	5.35510E-003	3.59960E-001	-1.16290E+000	3.57720E+000	10	...........
	38	0.52	8.99753E-001	5.98953E-003	0.00000E+000	5.38909E-003	3.59960E-001	-1.15280E+000	3.57720E+000	10	...........
	39	0.533333	9.05943E-001	5.99375E-003	0.00000E+000	5.43000E-003	3.59960E-001	-1.15172E+000	3.57720E+000	10	...........
	40	0.546667	9.12069E-001	5.99804E-003	0.00000E+000	5.47062E-003	3.59960E-001	-1.16257E+000	3.57720E+000	10	...........
	41	0.56	9.18169E-001	5.98894E-003	0.00000E+000	5.49886E-003	3.59960E-001	-1.15236E+000	3.57720E+000	10	...........
	42	0.573333	9.24352E-001	5.99783E-003	0.00000E+000	5.54411E-003	3.59960E-001	-1.15158E+000	3.57720E+000	10	...........
	43	0.586667	9.30388E-001	5.99459E-003	0.00000E+000	5.57730E-003	3.59960E-001	-1.16254E+000	3.57720E+000	10	...........
	44	0.6	9.36383E-001	5.98832E-003	0.00000E+000	5.60736E-003	3.59960E-001	-1.15234E+000	3.57720E+000	10	...........
	45	0.613333	9.42303E-001	5.99259E-003	0.00000E+000	5.64684E-003	3.59960E-001	-1.15172E+000	3.57720E+000	10	...........
	46	0.626667	9.48277E-001	5.99464E-003	0.00000E+000	5.68458E-003	3.59960E-001	-1.16254E+000	3.57720E+000	10	...........
	47	0.64	9.54118E-001	5.99490E-003	0.00000E+000	5.71984E-003	3.59960E-001	-1.15197E+000	3.57720E+000	10	...........
	48	0.653333	9.59973E-001	5.99328E-003	0.00000E+000	5.75339E-003	3.59960E-001	-1.15151E+000	3.57720E+000	10	...........
	49	0.666667	9.65730E-001	5.99165E-003	0.00000E+000	5.78632E-003	3.59960E-001	-1.16237E+000	3.57720E+000	10	...........
	50	0.68	9.71510E-001	5.99543E-003	0.00000E+000	5.82462E-003	3.59960E-001	-1.15206E+000	3.57720E+000	10	...........
	51	0.693333	9.77256E-001	5.99316E-003	0.00000E+000	5.85684E-003	3.59960E-001	-1.15170E+000	3.57720E+000	10	...........
	52	0.706667	9.82873E-001	5.99482E-003	0.00000E+000	5.89215E-003	3.59960E-001	-1.16221E+000	3.57720E+000	10	...........
	53	0.72	9.88491E-001	5.99508E-003	0.00000E+000	5.92609E-003	3.59960E-001	-1.15188E+000	3.57720E+000	10	...........
	54	0.733333	9.94029E-001	5.99657E-003	0.00000E+000	5.96076E-003	3.59960E-001	-1.15198E+000	3.57720E+000	10	...........
	55	0.743333	9.98862E-001	5.99424E-003	0.00000E+000	5.98741E-003	3.59960E-001	-1.16319E+000	3.57720E+000	10	...........
STARTTIMEOFFSET	QUANT	1097.333	Start Time Offset (s)