File: Data/CV_CRGO300517_1/PWRCCD_CRGO300517_1/CHARGE_DISCHARGE/CHARGE_#60.DTA
EXPLAIN
TAG	PWR800_CHARGE
TITLE	LABEL	PWR Cyclic Charge Discharge (Cell) - Charge Step	Test &Identifier
DATE	LABEL	22-6-2017	Date
TIME	LABEL	15:37:43	Time
NOTES	NOTES	3	&Notes...
	supercap test cell
	0.6mg
	6M KOH
PSTAT	PSTAT	IFC5000-01520	Potentiostat
CAPACITY	QUANT	1.00000E-003	Capacity (A-hr)
CELLTYPE	SELECTOR	1	&Cell Type
WORKINGCONNECTION	SELECTOR	0	&Working Lead
MAXCHARGETIME	VARIABLEANDUNITS	1.00000E+002	s	1.00000E+002	second(s)	Max &Charge Time
CHARGECURRENT	QUANT	6.00000E-003	&Charge Current (A)
VOLTAGEFINISH	TWOPARAM	F	1.00000E-003	3.60000E+003	&Voltage Finish	 I (A) < 	Max Time(s)
SAMPLETIME	QUANT	1.00000E-002	Sa&mple Period (s)
CHARGESTOPAT1	MULTIPARAM	4	1.00000E+000	Charge Stop At &1	Voltage > Limit	V
CHARGESTOPAT2	MULTIPARAM	0	0.00000E+000	Charge Stop At &2	None	N/A
AESBHCSELECTOR	TOGGLE	F	Save Both Half Cells
IRCOMP	TOGGLE	F	IR &Measure
EOC	QUANT	0	Open Circuit (V)
SEQUENCER	TOGGLE	TRUE	Run as Sequence
PSTATMODEL	IQUANT	53	Pstat Model
PSTATSECTION	LABEL	IFC5000-01520	Pstat Section
PSTATSERIALNO	LABEL	01520	Pstat Serial Number
CTRLMODE	IQUANT	0	Control Mode
ELECTROMETER	IQUANT	1	RE=0 or CS=1
IESTAB	IQUANT	0	I/E Stability
CASPEED	IQUANT	4	Control Amp Speed
CONVENTION	IQUANT	1	Current Convention
ICHRANGE	IQUANT	2	Ich Range
ICHRANGEMODE	TOGGLE	T	Ich Auto Range
ICHOFFSETENABLE	TOGGLE	F	Ich Offset Enable
ICHOFFSET	QUANT	0	Ich Offset (V)
ICHFILTER	IQUANT	1	Ich Filter
VCHRANGE	IQUANT	2	Vch Range
VCHRANGEMODE	TOGGLE	T	Vch Auto Range
VCHOFFSETENABLE	TOGGLE	F	Vch Offset Enable
VCHOFFSET	QUANT	0	Vch Offset (V)
VCHFILTER	IQUANT	1	Vch Filter
IERANGELOWERLIMIT	IQUANT	9	I/E Range Lower Limit
IERANGEMODE	TOGGLE	F	I/E AutoRange
IERANGE	IQUANT	10	I/E Range
ACHSELECT	IQUANT	1	Ach Select
ACHRANGE	IQUANT	2	Ach Range
ACHOFFSETENABLE	TOGGLE	F	Ach Offset Enable
ACHOFFSET	QUANT	0	Ach Offset (V)
ACHFILTER	IQUANT	1	Ach Filter
CABLEID	IQUANT	14	Cable ID
DCCALDATE	LABEL	20-10-2016	DC Calibration Date
ACCALDATE	LABEL	12/3/2015	AC Calibration Date
FRAMEWORKVERSION	QUANT	7.01	Framework Version
INSTRUMENTVERSION	LABEL	4.00	Instrument Version
CURVE	TABLE	73
	Pt	T	Vf	Im	Vu	Pwr	Sig	Ach	Temp	IERange	Over
	#	s	V	A	V	W	V	V	deg C	#	bits
	0	0.013333	5.77930E-001	5.99378E-003	0.00000E+000	3.46399E-003	3.59960E-001	-1.04395E+000	3.57850E+000	10	...........
	1	0.026667	5.86047E-001	5.99508E-003	0.00000E+000	3.51340E-003	3.59960E-001	-1.04786E+000	3.57850E+000	10	...........
	2	0.04	5.93517E-001	5.99514E-003	0.00000E+000	3.55822E-003	3.59960E-001	-1.05445E+000	3.57850E+000	10	...........
	3	0.053333	6.00571E-001	5.99735E-003	0.00000E+000	3.60184E-003	3.59960E-001	-1.04378E+000	3.57850E+000	10	...........
	4	0.066667	6.07350E-001	5.99583E-003	0.00000E+000	3.64156E-003	3.59960E-001	-1.04776E+000	3.57850E+000	10	...........
	5	0.08	6.13994E-001	5.99530E-003	0.00000E+000	3.68108E-003	3.59960E-001	-1.05426E+000	3.57850E+000	10	...........
	6	0.093333	6.20504E-001	5.99082E-003	0.00000E+000	3.71733E-003	3.59960E-001	-1.04377E+000	3.57850E+000	10	...........
	7	0.106667	6.26847E-001	5.99643E-003	0.00000E+000	3.75885E-003	3.59960E-001	-1.04777E+000	3.57850E+000	10	...........
	8	0.12	6.33058E-001	5.99648E-003	0.00000E+000	3.79612E-003	3.59960E-001	-1.05461E+000	3.57850E+000	10	...........
	9	0.133333	6.39274E-001	5.99700E-003	0.00000E+000	3.83373E-003	3.59960E-001	-1.04375E+000	3.57850E+000	10	...........
	10	0.146667	6.45420E-001	5.98896E-003	0.00000E+000	3.86540E-003	3.59960E-001	-1.04746E+000	3.57850E+000	10	...........
	11	0.16	6.51486E-001	5.99243E-003	0.00000E+000	3.90398E-003	3.59960E-001	-1.05455E+000	3.57850E+000	10	...........
	12	0.173333	6.57491E-001	5.99435E-003	0.00000E+000	3.94123E-003	3.59960E-001	-1.04326E+000	3.57850E+000	10	...........
	13	0.186667	6.63463E-001	5.99613E-003	0.00000E+000	3.97821E-003	3.59960E-001	-1.04698E+000	3.57850E+000	10	...........
	14	0.2	6.69472E-001	5.99820E-003	0.00000E+000	4.01563E-003	3.59960E-001	-1.05414E+000	3.57850E+000	10	...........
	15	0.213333	6.75430E-001	5.99346E-003	0.00000E+000	4.04816E-003	3.59960E-001	-1.04313E+000	3.57850E+000	10	...........
	16	0.226667	6.81302E-001	5.99546E-003	0.00000E+000	4.08472E-003	3.59960E-001	-1.04672E+000	3.57850E+000	10	...........
	17	0.24	6.87155E-001	5.99491E-003	0.00000E+000	4.11943E-003	3.59960E-001	-1.05430E+000	3.57850E+000	10	...........
	18	0.253333	6.93072E-001	5.99249E-003	0.00000E+000	4.15322E-003	3.59960E-001	-1.04313E+000	3.57850E+000	10	...........
	19	0.266667	6.98954E-001	5.99503E-003	0.00000E+000	4.19025E-003	3.59960E-001	-1.04659E+000	3.57850E+000	10	...........
	20	0.28	7.04824E-001	5.99366E-003	0.00000E+000	4.22447E-003	3.59960E-001	-1.05406E+000	3.57850E+000	10	...........
	21	0.293333	7.10620E-001	5.99497E-003	0.00000E+000	4.26014E-003	3.59960E-001	-1.04311E+000	3.57850E+000	10	...........
	22	0.306667	7.16484E-001	5.99695E-003	0.00000E+000	4.29672E-003	3.59960E-001	-1.04662E+000	3.57850E+000	10	...........
	23	0.32	7.22276E-001	5.99167E-003	0.00000E+000	4.32764E-003	3.59960E-001	-1.05427E+000	3.57850E+000	10	...........
	24	0.333333	7.28083E-001	5.99464E-003	0.00000E+000	4.36460E-003	3.59960E-001	-1.04296E+000	3.57850E+000	10	...........
	25	0.346667	7.33881E-001	5.99487E-003	0.00000E+000	4.39952E-003	3.59960E-001	-1.04612E+000	3.57850E+000	10	...........
	26	0.36	7.39679E-001	5.99354E-003	0.00000E+000	4.43330E-003	3.59960E-001	-1.05419E+000	3.57850E+000	10	...........
	27	0.373333	7.45499E-001	5.99299E-003	0.00000E+000	4.46776E-003	3.59960E-001	-1.04323E+000	3.57850E+000	10	...........
	28	0.386667	7.51251E-001	5.99701E-003	0.00000E+000	4.50526E-003	3.59960E-001	-1.04634E+000	3.57850E+000	10	...........
	29	0.4	7.57073E-001	5.99765E-003	0.00000E+000	4.54066E-003	3.59960E-001	-1.05423E+000	3.57850E+000	10	...........
	30	0.413333	7.62840E-001	5.99410E-003	0.00000E+000	4.57254E-003	3.59960E-001	-1.04312E+000	3.57850E+000	10	...........
	31	0.426667	7.68635E-001	5.99601E-003	0.00000E+000	4.60874E-003	3.59960E-001	-1.04611E+000	3.57850E+000	10	...........
	32	0.44	7.74404E-001	5.99268E-003	0.00000E+000	4.64075E-003	3.59960E-001	-1.05453E+000	3.57850E+000	10	...........
	33	0.453333	7.80165E-001	5.99176E-003	0.00000E+000	4.67456E-003	3.59960E-001	-1.04317E+000	3.57850E+000	10	...........
	34	0.466667	7.85946E-001	5.99696E-003	0.00000E+000	4.71329E-003	3.59960E-001	-1.04595E+000	3.57838E+000	10	...........
	35	0.48	7.91739E-001	5.99515E-003	0.00000E+000	4.74659E-003	3.59960E-001	-1.05416E+000	3.57750E+000	10	...........
	36	0.493333	7.97509E-001	5.99287E-003	0.00000E+000	4.77937E-003	3.59960E-001	-1.04275E+000	3.57750E+000	10	...........
	37	0.506667	8.03270E-001	5.99762E-003	0.00000E+000	4.81771E-003	3.59960E-001	-1.04549E+000	3.57750E+000	10	...........
	38	0.52	8.09015E-001	5.99507E-003	0.00000E+000	4.85010E-003	3.59960E-001	-1.05424E+000	3.57750E+000	10	...........
	39	0.533333	8.14778E-001	5.99311E-003	0.00000E+000	4.88306E-003	3.59960E-001	-1.04281E+000	3.57750E+000	10	...........
	40	0.546667	8.20539E-001	5.99294E-003	0.00000E+000	4.91744E-003	3.59960E-001	-1.04522E+000	3.57750E+000	10	...........
	41	0.56	8.26321E-001	5.99545E-003	0.00000E+000	4.95417E-003	3.59960E-001	-1.05414E+000	3.57750E+000	10	...........
	42	0.573333	8.32062E-001	5.99239E-003	0.00000E+000	4.98604E-003	3.59960E-001	-1.04307E+000	3.57750E+000	10	...........
	43	0.586667	8.37823E-001	5.99313E-003	0.00000E+000	5.02118E-003	3.59960E-001	-1.04529E+000	3.57750E+000	10	...........
	44	0.6	8.43594E-001	5.99466E-003	0.00000E+000	5.05705E-003	3.59960E-001	-1.05414E+000	3.57750E+000	10	...........
	45	0.613333	8.49332E-001	5.99165E-003	0.00000E+000	5.08890E-003	3.59960E-001	-1.04261E+000	3.57750E+000	10	...........
	46	0.626667	8.55097E-001	5.99415E-003	0.00000E+000	5.12557E-003	3.59960E-001	-1.04496E+000	3.57750E+000	10	...........
	47	0.64	8.60840E-001	5.99707E-003	0.00000E+000	5.16252E-003	3.59960E-001	-1.05429E+000	3.57750E+000	10	...........
	48	0.653333	8.66537E-001	5.99672E-003	0.00000E+000	5.19638E-003	3.59960E-001	-1.04274E+000	3.57750E+000	10	...........
	49	0.666667	8.72263E-001	5.99604E-003	0.00000E+000	5.23013E-003	3.59960E-001	-1.04480E+000	3.57750E+000	10	...........
	50	0.68	8.77963E-001	5.99295E-003	0.00000E+000	5.26158E-003	3.59960E-001	-1.05419E+000	3.57750E+000	10	...........
	51	0.693333	8.83698E-001	5.99588E-003	0.00000E+000	5.29855E-003	3.59960E-001	-1.04289E+000	3.57750E+000	10	...........
	52	0.706667	8.89397E-001	5.99426E-003	0.00000E+000	5.33128E-003	3.59960E-001	-1.04494E+000	3.57750E+000	10	...........
	53	0.72	8.95086E-001	5.99508E-003	0.00000E+000	5.36612E-003	3.59960E-001	-1.05450E+000	3.57750E+000	10	...........
	54	0.733333	9.00786E-001	5.99546E-003	0.00000E+000	5.40063E-003	3.59960E-001	-1.04294E+000	3.57750E+000	10	...........
	55	0.746667	9.06449E-001	5.99472E-003	0.00000E+000	5.43391E-003	3.59960E-001	-1.04464E+000	3.57750E+000	10	...........
	56	0.76	9.12138E-001	5.99537E-003	0.00000E+000	5.46860E-003	3.59960E-001	-1.05429E+000	3.57750E+000	10	...........
	57	0.773333	9.17829E-001	5.99482E-003	0.00000E+000	5.50222E-003	3.59960E-001	-1.04289E+000	3.57750E+000	10	...........
	58	0.786667	9.23471E-001	5.99290E-003	0.00000E+000	5.53427E-003	3.59960E-001	-1.04464E+000	3.57750E+000	10	...........
	59	0.8	9.29064E-001	5.99622E-003	0.00000E+000	5.57087E-003	3.59960E-001	-1.05431E+000	3.57750E+000	10	...........
	60	0.813333	9.34634E-001	5.99711E-003	0.00000E+000	5.60510E-003	3.59960E-001	-1.04244E+000	3.57750E+000	10	...........
	61	0.826667	9.40168E-001	5.99591E-003	0.00000E+000	5.63716E-003	3.59960E-001	-1.04402E+000	3.57750E+000	10	...........
	62	0.84	9.45751E-001	5.99651E-003	0.00000E+000	5.67121E-003	3.59960E-001	-1.05428E+000	3.57750E+000	10	...........
	63	0.853333	9.51310E-001	5.99520E-003	0.00000E+000	5.70329E-003	3.59960E-001	-1.04274E+000	3.57750E+000	10	...........
	64	0.866667	9.56793E-001	5.99193E-003	0.00000E+000	5.73304E-003	3.59960E-001	-1.04419E+000	3.57750E+000	10	...........
	65	0.88	9.62215E-001	5.99405E-003	0.00000E+000	5.76757E-003	3.59960E-001	-1.05393E+000	3.57750E+000	10	...........
	66	0.893333	9.67701E-001	5.99574E-003	0.00000E+000	5.80208E-003	3.59960E-001	-1.04274E+000	3.57750E+000	10	...........
	67	0.906667	9.73137E-001	5.99300E-003	0.00000E+000	5.83201E-003	3.59960E-001	-1.04426E+000	3.57750E+000	10	...........
	68	0.92	9.78567E-001	5.99130E-003	0.00000E+000	5.86289E-003	3.59960E-001	-1.05423E+000	3.57750E+000	10	...........
	69	0.933333	9.83917E-001	5.99105E-003	0.00000E+000	5.89469E-003	3.59960E-001	-1.04271E+000	3.57750E+000	10	...........
	70	0.946667	9.89269E-001	5.99392E-003	0.00000E+000	5.92959E-003	3.59960E-001	-1.04402E+000	3.57750E+000	10	...........
	71	0.96	9.94524E-001	5.99312E-003	0.00000E+000	5.96031E-003	3.59960E-001	-1.05429E+000	3.57750E+000	10	...........
	72	0.96833	9.98872E-001	5.99840E-003	0.00000E+000	5.99163E-003	3.59960E-001	-1.03463E+000	3.57750E+000	10	...........
STARTTIMEOFFSET	QUANT	119.93	Start Time Offset (s)