File: Data/CV_CRGO300517_1/PWRCCD_CRGO300517_1/CHARGE_DISCHARGE/CHARGE_#675.DTA
EXPLAIN
TAG	PWR800_CHARGE
TITLE	LABEL	PWR Cyclic Charge Discharge (Cell) - Charge Step	Test &Identifier
DATE	LABEL	22-6-2017	Date
TIME	LABEL	16:02:37	Time
NOTES	NOTES	3	&Notes...
	supercap test cell
	0.6mg
	6M KOH
PSTAT	PSTAT	IFC5000-01520	Potentiostat
CAPACITY	QUANT	1.00000E-003	Capacity (A-hr)
CELLTYPE	SELECTOR	1	&Cell Type
WORKINGCONNECTION	SELECTOR	0	&Working Lead
MAXCHARGETIME	VARIABLEANDUNITS	1.00000E+002	s	1.00000E+002	second(s)	Max &Charge Time
CHARGECURRENT	QUANT	6.00000E-003	&Charge Current (A)
VOLTAGEFINISH	TWOPARAM	F	1.00000E-003	3.60000E+003	&Voltage Finish	 I (A) < 	Max Time(s)
SAMPLETIME	QUANT	1.00000E-002	Sa&mple Period (s)
CHARGESTOPAT1	MULTIPARAM	4	1.00000E+000	Charge Stop At &1	Voltage > Limit	V
CHARGESTOPAT2	MULTIPARAM	0	0.00000E+000	Charge Stop At &2	None	N/A
AESBHCSELECTOR	TOGGLE	F	Save Both Half Cells
IRCOMP	TOGGLE	F	IR &Measure
EOC	QUANT	0	Open Circuit (V)
SEQUENCER	TOGGLE	TRUE	Run as Sequence
PSTATMODEL	IQUANT	53	Pstat Model
PSTATSECTION	LABEL	IFC5000-01520	Pstat Section
PSTATSERIALNO	LABEL	01520	Pstat Serial Number
CTRLMODE	IQUANT	0	Control Mode
ELECTROMETER	IQUANT	1	RE=0 or CS=1
IESTAB	IQUANT	0	I/E Stability
CASPEED	IQUANT	4	Control Amp Speed
CONVENTION	IQUANT	1	Current Convention
ICHRANGE	IQUANT	2	Ich Range
ICHRANGEMODE	TOGGLE	T	Ich Auto Range
ICHOFFSETENABLE	TOGGLE	F	Ich Offset Enable
ICHOFFSET	QUANT	0	Ich Offset (V)
ICHFILTER	IQUANT	1	Ich Filter
VCHRANGE	IQUANT	2	Vch Range
VCHRANGEMODE	TOGGLE	T	Vch Auto Range
VCHOFFSETENABLE	TOGGLE	F	Vch Offset Enable
VCHOFFSET	QUANT	0	Vch Offset (V)
VCHFILTER	IQUANT	1	Vch Filter
IERANGELOWERLIMIT	IQUANT	9	I/E Range Lower Limit
IERANGEMODE	TOGGLE	F	I/E AutoRange
IERANGE	IQUANT	10	I/E Range
ACHSELECT	IQUANT	1	Ach Select
ACHRANGE	IQUANT	2	Ach Range
ACHOFFSETENABLE	TOGGLE	F	Ach Offset Enable
ACHOFFSET	QUANT	0	Ach Offset (V)
ACHFILTER	IQUANT	1	Ach Filter
CABLEID	IQUANT	14	Cable ID
DCCALDATE	LABEL	20-10-2016	DC Calibration Date
ACCALDATE	LABEL	12/3/2015	AC Calibration Date
FRAMEWORKVERSION	QUANT	7.01	Framework Version
INSTRUMENTVERSION	LABEL	4.00	Instrument Version
CURVE	TABLE	56
	Pt	T	Vf	Im	Vu	Pwr	Sig	Ach	Temp	IERange	Over
	#	s	V	A	V	W	V	V	deg C	#	bits
	0	0.013333	6.41728E-001	5.99472E-003	0.00000E+000	3.84698E-003	3.59960E-001	-1.16128E+000	3.57710E+000	10	...........
	1	0.026667	6.50801E-001	5.99972E-003	0.00000E+000	3.90462E-003	3.59960E-001	-1.15518E+000	3.57710E+000	10	...........
	2	0.04	6.59135E-001	5.99387E-003	0.00000E+000	3.95078E-003	3.59960E-001	-1.15086E+000	3.57710E+000	10	...........
	3	0.053333	6.67021E-001	5.99809E-003	0.00000E+000	4.00085E-003	3.59960E-001	-1.16121E+000	3.57710E+000	10	...........
	4	0.066667	6.74664E-001	5.99330E-003	0.00000E+000	4.04346E-003	3.59960E-001	-1.15506E+000	3.57710E+000	10	...........
	5	0.08	6.82059E-001	5.99459E-003	0.00000E+000	4.08867E-003	3.59960E-001	-1.15073E+000	3.57710E+000	10	...........
	6	0.093333	6.89324E-001	5.99572E-003	0.00000E+000	4.13300E-003	3.59960E-001	-1.16125E+000	3.57710E+000	10	...........
	7	0.106667	6.96463E-001	5.98982E-003	0.00000E+000	4.17169E-003	3.59960E-001	-1.15498E+000	3.57710E+000	10	...........
	8	0.12	7.03591E-001	5.99358E-003	0.00000E+000	4.21703E-003	3.59960E-001	-1.15081E+000	3.57710E+000	10	...........
	9	0.133333	7.10582E-001	5.99615E-003	0.00000E+000	4.26076E-003	3.59960E-001	-1.16137E+000	3.57710E+000	10	...........
	10	0.146667	7.17540E-001	5.99515E-003	0.00000E+000	4.30176E-003	3.59960E-001	-1.15485E+000	3.57710E+000	10	...........
	11	0.16	7.24446E-001	5.99548E-003	0.00000E+000	4.34340E-003	3.59960E-001	-1.15067E+000	3.57710E+000	10	...........
	12	0.173333	7.31266E-001	5.99796E-003	0.00000E+000	4.38611E-003	3.59960E-001	-1.16125E+000	3.57710E+000	10	...........
	13	0.186667	7.38053E-001	5.98873E-003	0.00000E+000	4.42000E-003	3.59960E-001	-1.15464E+000	3.57710E+000	10	...........
	14	0.2	7.44873E-001	5.98915E-003	0.00000E+000	4.46116E-003	3.59960E-001	-1.15017E+000	3.57710E+000	10	...........
	15	0.213333	7.51575E-001	5.99380E-003	0.00000E+000	4.50479E-003	3.59960E-001	-1.16071E+000	3.57710E+000	10	...........
	16	0.226667	7.58293E-001	5.99567E-003	0.00000E+000	4.54648E-003	3.59960E-001	-1.15429E+000	3.57710E+000	10	...........
	17	0.24	7.64950E-001	5.99117E-003	0.00000E+000	4.58295E-003	3.59960E-001	-1.15019E+000	3.57710E+000	10	...........
	18	0.253333	7.71613E-001	5.99487E-003	0.00000E+000	4.62572E-003	3.59960E-001	-1.16080E+000	3.57710E+000	10	...........
	19	0.266667	7.78216E-001	5.99176E-003	0.00000E+000	4.66288E-003	3.59960E-001	-1.15435E+000	3.57710E+000	10	...........
	20	0.28	7.84862E-001	5.99578E-003	0.00000E+000	4.70586E-003	3.59960E-001	-1.15031E+000	3.57710E+000	10	...........
	21	0.293333	7.91457E-001	5.99114E-003	0.00000E+000	4.74173E-003	3.59960E-001	-1.16081E+000	3.57710E+000	10	...........
	22	0.306667	7.98084E-001	5.99701E-003	0.00000E+000	4.78612E-003	3.59960E-001	-1.15400E+000	3.57710E+000	10	...........
	23	0.32	8.04607E-001	5.99730E-003	0.00000E+000	4.82546E-003	3.59960E-001	-1.15044E+000	3.57710E+000	10	...........
	24	0.333333	8.11154E-001	5.99892E-003	0.00000E+000	4.86605E-003	3.59960E-001	-1.16099E+000	3.57710E+000	10	...........
	25	0.346667	8.17664E-001	5.99358E-003	0.00000E+000	4.90074E-003	3.59960E-001	-1.15395E+000	3.57710E+000	10	...........
	26	0.36	8.24163E-001	5.99209E-003	0.00000E+000	4.93846E-003	3.59960E-001	-1.15001E+000	3.57710E+000	10	...........
	27	0.373333	8.30674E-001	5.99469E-003	0.00000E+000	4.97963E-003	3.59960E-001	-1.16080E+000	3.57710E+000	10	...........
	28	0.386667	8.37107E-001	5.99071E-003	0.00000E+000	5.01487E-003	3.59960E-001	-1.15395E+000	3.57710E+000	10	...........
	29	0.4	8.43535E-001	5.99474E-003	0.00000E+000	5.05677E-003	3.59960E-001	-1.15024E+000	3.57710E+000	10	...........
	30	0.413333	8.49967E-001	5.99230E-003	0.00000E+000	5.09326E-003	3.59960E-001	-1.16084E+000	3.57710E+000	10	...........
	31	0.426667	8.56365E-001	5.99417E-003	0.00000E+000	5.13319E-003	3.59960E-001	-1.15394E+000	3.57710E+000	10	...........
	32	0.44	8.62697E-001	5.99610E-003	0.00000E+000	5.17281E-003	3.59960E-001	-1.15024E+000	3.57710E+000	10	...........
	33	0.453333	8.69016E-001	5.98976E-003	0.00000E+000	5.20519E-003	3.59960E-001	-1.16098E+000	3.57710E+000	10	...........
	34	0.466667	8.75372E-001	5.99568E-003	0.00000E+000	5.24845E-003	3.59960E-001	-1.15398E+000	3.57710E+000	10	...........
	35	0.48	8.81655E-001	5.99235E-003	0.00000E+000	5.28319E-003	3.59960E-001	-1.15031E+000	3.57710E+000	10	...........
	36	0.493333	8.87938E-001	5.99832E-003	0.00000E+000	5.32613E-003	3.59960E-001	-1.16107E+000	3.57710E+000	10	...........
	37	0.506667	8.94206E-001	5.99352E-003	0.00000E+000	5.35944E-003	3.59960E-001	-1.15374E+000	3.57710E+000	10	...........
	38	0.52	9.00410E-001	5.99504E-003	0.00000E+000	5.39799E-003	3.59960E-001	-1.14983E+000	3.57710E+000	10	...........
	39	0.533333	9.06633E-001	5.99335E-003	0.00000E+000	5.43377E-003	3.59960E-001	-1.16091E+000	3.57710E+000	10	...........
	40	0.546667	9.12803E-001	5.99547E-003	0.00000E+000	5.47268E-003	3.59960E-001	-1.15333E+000	3.57710E+000	10	...........
	41	0.56	9.18934E-001	5.98889E-003	0.00000E+000	5.50339E-003	3.59960E-001	-1.14987E+000	3.57710E+000	10	...........
	42	0.573333	9.25036E-001	5.98646E-003	0.00000E+000	5.53769E-003	3.59960E-001	-1.16065E+000	3.57710E+000	10	...........
	43	0.586667	9.31090E-001	5.99304E-003	0.00000E+000	5.58006E-003	3.59960E-001	-1.15353E+000	3.57710E+000	10	...........
	44	0.6	9.37064E-001	5.99480E-003	0.00000E+000	5.61752E-003	3.59960E-001	-1.15002E+000	3.57710E+000	10	...........
	45	0.613333	9.42988E-001	5.99204E-003	0.00000E+000	5.65042E-003	3.59960E-001	-1.16094E+000	3.57710E+000	10	...........
	46	0.626667	9.48910E-001	5.99637E-003	0.00000E+000	5.69001E-003	3.59960E-001	-1.15335E+000	3.57710E+000	10	...........
	47	0.64	9.54771E-001	5.99286E-003	0.00000E+000	5.72181E-003	3.59960E-001	-1.15000E+000	3.57710E+000	10	...........
	48	0.653333	9.60606E-001	5.99530E-003	0.00000E+000	5.75912E-003	3.59960E-001	-1.16088E+000	3.57710E+000	10	...........
	49	0.666667	9.66394E-001	5.99495E-003	0.00000E+000	5.79348E-003	3.59960E-001	-1.15337E+000	3.57710E+000	10	...........
	50	0.68	9.72115E-001	5.99207E-003	0.00000E+000	5.82498E-003	3.59960E-001	-1.14993E+000	3.57710E+000	10	...........
	51	0.693333	9.77812E-001	5.99467E-003	0.00000E+000	5.86166E-003	3.59960E-001	-1.16092E+000	3.57710E+000	10	...........
	52	0.706667	9.83465E-001	5.99160E-003	0.00000E+000	5.89253E-003	3.59960E-001	-1.15323E+000	3.57710E+000	10	...........
	53	0.72	9.89044E-001	5.99412E-003	0.00000E+000	5.92844E-003	3.59960E-001	-1.14993E+000	3.57710E+000	10	...........
	54	0.733333	9.94596E-001	5.99428E-003	0.00000E+000	5.96189E-003	3.59960E-001	-1.16107E+000	3.57710E+000	10	...........
	55	0.741667	9.99092E-001	5.99700E-003	0.00000E+000	5.99155E-003	3.59960E-001	-1.14635E+000	3.57710E+000	10	...........
STARTTIMEOFFSET	QUANT	1122.436	Start Time Offset (s)