File: Data/CV_CRGO300517_1/PWRCCD_CRGO300517_1/CHARGE_DISCHARGE/CHARGE_#657.DTA
EXPLAIN
TAG	PWR800_CHARGE
TITLE	LABEL	PWR Cyclic Charge Discharge (Cell) - Charge Step	Test &Identifier
DATE	LABEL	22-6-2017	Date
TIME	LABEL	16:01:56	Time
NOTES	NOTES	3	&Notes...
	supercap test cell
	0.6mg
	6M KOH
PSTAT	PSTAT	IFC5000-01520	Potentiostat
CAPACITY	QUANT	1.00000E-003	Capacity (A-hr)
CELLTYPE	SELECTOR	1	&Cell Type
WORKINGCONNECTION	SELECTOR	0	&Working Lead
MAXCHARGETIME	VARIABLEANDUNITS	1.00000E+002	s	1.00000E+002	second(s)	Max &Charge Time
CHARGECURRENT	QUANT	6.00000E-003	&Charge Current (A)
VOLTAGEFINISH	TWOPARAM	F	1.00000E-003	3.60000E+003	&Voltage Finish	 I (A) < 	Max Time(s)
SAMPLETIME	QUANT	1.00000E-002	Sa&mple Period (s)
CHARGESTOPAT1	MULTIPARAM	4	1.00000E+000	Charge Stop At &1	Voltage > Limit	V
CHARGESTOPAT2	MULTIPARAM	0	0.00000E+000	Charge Stop At &2	None	N/A
AESBHCSELECTOR	TOGGLE	F	Save Both Half Cells
IRCOMP	TOGGLE	F	IR &Measure
EOC	QUANT	0	Open Circuit (V)
SEQUENCER	TOGGLE	TRUE	Run as Sequence
PSTATMODEL	IQUANT	53	Pstat Model
PSTATSECTION	LABEL	IFC5000-01520	Pstat Section
PSTATSERIALNO	LABEL	01520	Pstat Serial Number
CTRLMODE	IQUANT	0	Control Mode
ELECTROMETER	IQUANT	1	RE=0 or CS=1
IESTAB	IQUANT	0	I/E Stability
CASPEED	IQUANT	4	Control Amp Speed
CONVENTION	IQUANT	1	Current Convention
ICHRANGE	IQUANT	2	Ich Range
ICHRANGEMODE	TOGGLE	T	Ich Auto Range
ICHOFFSETENABLE	TOGGLE	F	Ich Offset Enable
ICHOFFSET	QUANT	0	Ich Offset (V)
ICHFILTER	IQUANT	1	Ich Filter
VCHRANGE	IQUANT	2	Vch Range
VCHRANGEMODE	TOGGLE	T	Vch Auto Range
VCHOFFSETENABLE	TOGGLE	F	Vch Offset Enable
VCHOFFSET	QUANT	0	Vch Offset (V)
VCHFILTER	IQUANT	1	Vch Filter
IERANGELOWERLIMIT	IQUANT	9	I/E Range Lower Limit
IERANGEMODE	TOGGLE	F	I/E AutoRange
IERANGE	IQUANT	10	I/E Range
ACHSELECT	IQUANT	1	Ach Select
ACHRANGE	IQUANT	2	Ach Range
ACHOFFSETENABLE	TOGGLE	F	Ach Offset Enable
ACHOFFSET	QUANT	0	Ach Offset (V)
ACHFILTER	IQUANT	1	Ach Filter
CABLEID	IQUANT	14	Cable ID
DCCALDATE	LABEL	20-10-2016	DC Calibration Date
ACCALDATE	LABEL	12/3/2015	AC Calibration Date
FRAMEWORKVERSION	QUANT	7.01	Framework Version
INSTRUMENTVERSION	LABEL	4.00	Instrument Version
CURVE	TABLE	56
	Pt	T	Vf	Im	Vu	Pwr	Sig	Ach	Temp	IERange	Over
	#	s	V	A	V	W	V	V	deg C	#	bits
	0	0.013333	6.41602E-001	5.99623E-003	0.00000E+000	3.84719E-003	3.59960E-001	-1.15999E+000	3.57780E+000	10	...........
	1	0.026667	6.50619E-001	5.99346E-003	0.00000E+000	3.89945E-003	3.59960E-001	-1.15125E+000	3.57780E+000	10	...........
	2	0.04	6.58938E-001	5.99483E-003	0.00000E+000	3.95022E-003	3.59960E-001	-1.15622E+000	3.57780E+000	10	...........
	3	0.053333	6.66833E-001	5.99001E-003	0.00000E+000	3.99433E-003	3.59960E-001	-1.16003E+000	3.57780E+000	10	...........
	4	0.066667	6.74456E-001	5.99649E-003	0.00000E+000	4.04437E-003	3.59960E-001	-1.15127E+000	3.57780E+000	10	...........
	5	0.08	6.81870E-001	5.99359E-003	0.00000E+000	4.08685E-003	3.59960E-001	-1.15617E+000	3.57780E+000	10	...........
	6	0.093333	6.89132E-001	5.98973E-003	0.00000E+000	4.12771E-003	3.59960E-001	-1.15976E+000	3.57780E+000	10	...........
	7	0.106667	6.96277E-001	5.99451E-003	0.00000E+000	4.17384E-003	3.59960E-001	-1.15105E+000	3.57780E+000	10	...........
	8	0.12	7.03304E-001	5.99319E-003	0.00000E+000	4.21503E-003	3.59960E-001	-1.15615E+000	3.57780E+000	10	...........
	9	0.133333	7.10306E-001	5.99488E-003	0.00000E+000	4.25819E-003	3.59960E-001	-1.15990E+000	3.57780E+000	10	...........
	10	0.146667	7.17209E-001	5.99580E-003	0.00000E+000	4.30025E-003	3.59960E-001	-1.15127E+000	3.57780E+000	10	...........
	11	0.16	7.24097E-001	5.99225E-003	0.00000E+000	4.33897E-003	3.59960E-001	-1.15620E+000	3.57780E+000	10	...........
	12	0.173333	7.30917E-001	5.99567E-003	0.00000E+000	4.38234E-003	3.59960E-001	-1.15949E+000	3.57780E+000	10	...........
	13	0.186667	7.37717E-001	5.99547E-003	0.00000E+000	4.42296E-003	3.59960E-001	-1.15119E+000	3.57780E+000	10	...........
	14	0.2	7.44476E-001	5.99680E-003	0.00000E+000	4.46447E-003	3.59960E-001	-1.15649E+000	3.57780E+000	10	...........
	15	0.213333	7.51162E-001	5.99379E-003	0.00000E+000	4.50231E-003	3.59960E-001	-1.15943E+000	3.57780E+000	10	...........
	16	0.226667	7.57827E-001	5.99352E-003	0.00000E+000	4.54205E-003	3.59960E-001	-1.15088E+000	3.57780E+000	10	...........
	17	0.24	7.64527E-001	5.99276E-003	0.00000E+000	4.58163E-003	3.59960E-001	-1.15602E+000	3.57780E+000	10	...........
	18	0.253333	7.71213E-001	5.99690E-003	0.00000E+000	4.62489E-003	3.59960E-001	-1.15903E+000	3.57780E+000	10	...........
	19	0.266667	7.77806E-001	5.99724E-003	0.00000E+000	4.66469E-003	3.59960E-001	-1.15067E+000	3.57780E+000	10	...........
	20	0.28	7.84418E-001	5.98851E-003	0.00000E+000	4.69750E-003	3.59960E-001	-1.15601E+000	3.57780E+000	10	...........
	21	0.293333	7.91019E-001	5.99414E-003	0.00000E+000	4.74148E-003	3.59960E-001	-1.15877E+000	3.57780E+000	10	...........
	22	0.306667	7.97630E-001	5.99699E-003	0.00000E+000	4.78338E-003	3.59960E-001	-1.15063E+000	3.57780E+000	10	...........
	23	0.32	8.04134E-001	5.99307E-003	0.00000E+000	4.81923E-003	3.59960E-001	-1.15614E+000	3.57780E+000	10	...........
	24	0.333333	8.10660E-001	5.98937E-003	0.00000E+000	4.85534E-003	3.59960E-001	-1.15894E+000	3.57780E+000	10	...........
	25	0.346667	8.17179E-001	5.99257E-003	0.00000E+000	4.89700E-003	3.59960E-001	-1.15059E+000	3.57780E+000	10	...........
	26	0.36	8.23686E-001	5.98934E-003	0.00000E+000	4.93334E-003	3.59960E-001	-1.15617E+000	3.57780E+000	10	...........
	27	0.373333	8.30129E-001	5.99395E-003	0.00000E+000	4.97575E-003	3.59960E-001	-1.15864E+000	3.57780E+000	10	...........
	28	0.386667	8.36579E-001	5.99092E-003	0.00000E+000	5.01188E-003	3.59960E-001	-1.15047E+000	3.57780E+000	10	...........
	29	0.4	8.43022E-001	5.99812E-003	0.00000E+000	5.05655E-003	3.59960E-001	-1.15638E+000	3.57780E+000	10	...........
	30	0.413333	8.49453E-001	5.99222E-003	0.00000E+000	5.09011E-003	3.59960E-001	-1.15852E+000	3.57780E+000	10	...........
	31	0.426667	8.55856E-001	5.99765E-003	0.00000E+000	5.13312E-003	3.59960E-001	-1.15024E+000	3.57780E+000	10	...........
	32	0.44	8.62198E-001	5.99581E-003	0.00000E+000	5.16958E-003	3.59960E-001	-1.15630E+000	3.57780E+000	10	...........
	33	0.453333	8.68594E-001	5.99754E-003	0.00000E+000	5.20942E-003	3.59960E-001	-1.15846E+000	3.57780E+000	10	...........
	34	0.466667	8.74896E-001	5.99601E-003	0.00000E+000	5.24589E-003	3.59960E-001	-1.15042E+000	3.57780E+000	10	...........
	35	0.48	8.81170E-001	5.99035E-003	0.00000E+000	5.27852E-003	3.59960E-001	-1.15652E+000	3.57780E+000	10	...........
	36	0.493333	8.87437E-001	5.99243E-003	0.00000E+000	5.31790E-003	3.59960E-001	-1.15840E+000	3.57780E+000	10	...........
	37	0.506667	8.93687E-001	5.98828E-003	0.00000E+000	5.35165E-003	3.59960E-001	-1.15022E+000	3.57780E+000	10	...........
	38	0.52	8.99873E-001	5.99243E-003	0.00000E+000	5.39242E-003	3.59960E-001	-1.15645E+000	3.57780E+000	10	...........
	39	0.533333	9.06049E-001	5.99232E-003	0.00000E+000	5.42934E-003	3.59960E-001	-1.15842E+000	3.57780E+000	10	...........
	40	0.546667	9.12170E-001	5.99381E-003	0.00000E+000	5.46738E-003	3.59960E-001	-1.15015E+000	3.57780E+000	10	...........
	41	0.56	9.18305E-001	5.99675E-003	0.00000E+000	5.50685E-003	3.59960E-001	-1.15628E+000	3.57780E+000	10	...........
	42	0.573333	9.24437E-001	5.99507E-003	0.00000E+000	5.54207E-003	3.59960E-001	-1.15779E+000	3.57780E+000	10	...........
	43	0.586667	9.30459E-001	5.99442E-003	0.00000E+000	5.57756E-003	3.59960E-001	-1.14991E+000	3.57780E+000	10	...........
	44	0.6	9.36419E-001	5.99352E-003	0.00000E+000	5.61245E-003	3.59960E-001	-1.15639E+000	3.57780E+000	10	...........
	45	0.613333	9.42354E-001	5.99797E-003	0.00000E+000	5.65221E-003	3.59960E-001	-1.15770E+000	3.57780E+000	10	...........
	46	0.626667	9.48270E-001	5.99785E-003	0.00000E+000	5.68758E-003	3.59960E-001	-1.14987E+000	3.57780E+000	10	...........
	47	0.64	9.54185E-001	5.99705E-003	0.00000E+000	5.72229E-003	3.59960E-001	-1.15643E+000	3.57780E+000	10	...........
	48	0.653333	9.60008E-001	5.99318E-003	0.00000E+000	5.75350E-003	3.59960E-001	-1.15754E+000	3.57780E+000	10	...........
	49	0.666667	9.65763E-001	5.99354E-003	0.00000E+000	5.78834E-003	3.59960E-001	-1.14983E+000	3.57780E+000	10	...........
	50	0.68	9.71523E-001	5.99333E-003	0.00000E+000	5.82266E-003	3.59960E-001	-1.15636E+000	3.57780E+000	10	...........
	51	0.693333	9.77281E-001	5.99307E-003	0.00000E+000	5.85691E-003	3.59960E-001	-1.15744E+000	3.57780E+000	10	...........
	52	0.706667	9.82945E-001	6.00065E-003	0.00000E+000	5.89831E-003	3.59960E-001	-1.14991E+000	3.57780E+000	10	...........
	53	0.72	9.88532E-001	5.99361E-003	0.00000E+000	5.92488E-003	3.59960E-001	-1.15661E+000	3.57780E+000	10	...........
	54	0.733333	9.94048E-001	5.99716E-003	0.00000E+000	5.96147E-003	3.59960E-001	-1.15751E+000	3.57780E+000	10	...........
	55	0.743333	9.98849E-001	5.99599E-003	0.00000E+000	5.98908E-003	3.59960E-001	-1.14645E+000	3.57780E+000	10	...........
STARTTIMEOFFSET	QUANT	1095.853	Start Time Offset (s)