File: Data/CV_CRGO300517_1/PWRCCD_CRGO300517_1/CHARGE_DISCHARGE/CHARGE_#126.DTA
EXPLAIN
TAG	PWR800_CHARGE
TITLE	LABEL	PWR Cyclic Charge Discharge (Cell) - Charge Step	Test &Identifier
DATE	LABEL	22-6-2017	Date
TIME	LABEL	15:40:39	Time
NOTES	NOTES	3	&Notes...
	supercap test cell
	0.6mg
	6M KOH
PSTAT	PSTAT	IFC5000-01520	Potentiostat
CAPACITY	QUANT	1.00000E-003	Capacity (A-hr)
CELLTYPE	SELECTOR	1	&Cell Type
WORKINGCONNECTION	SELECTOR	0	&Working Lead
MAXCHARGETIME	VARIABLEANDUNITS	1.00000E+002	s	1.00000E+002	second(s)	Max &Charge Time
CHARGECURRENT	QUANT	6.00000E-003	&Charge Current (A)
VOLTAGEFINISH	TWOPARAM	F	1.00000E-003	3.60000E+003	&Voltage Finish	 I (A) < 	Max Time(s)
SAMPLETIME	QUANT	1.00000E-002	Sa&mple Period (s)
CHARGESTOPAT1	MULTIPARAM	4	1.00000E+000	Charge Stop At &1	Voltage > Limit	V
CHARGESTOPAT2	MULTIPARAM	0	0.00000E+000	Charge Stop At &2	None	N/A
AESBHCSELECTOR	TOGGLE	F	Save Both Half Cells
IRCOMP	TOGGLE	F	IR &Measure
EOC	QUANT	0	Open Circuit (V)
SEQUENCER	TOGGLE	TRUE	Run as Sequence
PSTATMODEL	IQUANT	53	Pstat Model
PSTATSECTION	LABEL	IFC5000-01520	Pstat Section
PSTATSERIALNO	LABEL	01520	Pstat Serial Number
CTRLMODE	IQUANT	0	Control Mode
ELECTROMETER	IQUANT	1	RE=0 or CS=1
IESTAB	IQUANT	0	I/E Stability
CASPEED	IQUANT	4	Control Amp Speed
CONVENTION	IQUANT	1	Current Convention
ICHRANGE	IQUANT	2	Ich Range
ICHRANGEMODE	TOGGLE	T	Ich Auto Range
ICHOFFSETENABLE	TOGGLE	F	Ich Offset Enable
ICHOFFSET	QUANT	0	Ich Offset (V)
ICHFILTER	IQUANT	1	Ich Filter
VCHRANGE	IQUANT	2	Vch Range
VCHRANGEMODE	TOGGLE	T	Vch Auto Range
VCHOFFSETENABLE	TOGGLE	F	Vch Offset Enable
VCHOFFSET	QUANT	0	Vch Offset (V)
VCHFILTER	IQUANT	1	Vch Filter
IERANGELOWERLIMIT	IQUANT	9	I/E Range Lower Limit
IERANGEMODE	TOGGLE	F	I/E AutoRange
IERANGE	IQUANT	10	I/E Range
ACHSELECT	IQUANT	1	Ach Select
ACHRANGE	IQUANT	2	Ach Range
ACHOFFSETENABLE	TOGGLE	F	Ach Offset Enable
ACHOFFSET	QUANT	0	Ach Offset (V)
ACHFILTER	IQUANT	1	Ach Filter
CABLEID	IQUANT	14	Cable ID
DCCALDATE	LABEL	20-10-2016	DC Calibration Date
ACCALDATE	LABEL	12/3/2015	AC Calibration Date
FRAMEWORKVERSION	QUANT	7.01	Framework Version
INSTRUMENTVERSION	LABEL	4.00	Instrument Version
CURVE	TABLE	68
	Pt	T	Vf	Im	Vu	Pwr	Sig	Ach	Temp	IERange	Over
	#	s	V	A	V	W	V	V	deg C	#	bits
	0	0.013333	5.94290E-001	5.99650E-003	0.00000E+000	3.56366E-003	3.59960E-001	-1.06919E+000	3.57720E+000	10	...........
	1	0.026667	6.02610E-001	5.99422E-003	0.00000E+000	3.61217E-003	3.59960E-001	-1.07936E+000	3.57720E+000	10	...........
	2	0.04	6.10221E-001	5.99251E-003	0.00000E+000	3.65676E-003	3.59960E-001	-1.07139E+000	3.57720E+000	10	...........
	3	0.053333	6.17520E-001	5.99206E-003	0.00000E+000	3.70022E-003	3.59960E-001	-1.06892E+000	3.57720E+000	10	...........
	4	0.066667	6.24473E-001	5.99660E-003	0.00000E+000	3.74471E-003	3.59960E-001	-1.07952E+000	3.57720E+000	10	...........
	5	0.08	6.31186E-001	5.99085E-003	0.00000E+000	3.78134E-003	3.59960E-001	-1.07135E+000	3.57720E+000	10	...........
	6	0.093333	6.37805E-001	5.99412E-003	0.00000E+000	3.82308E-003	3.59960E-001	-1.06894E+000	3.57720E+000	10	...........
	7	0.106667	6.44354E-001	5.99809E-003	0.00000E+000	3.86489E-003	3.59960E-001	-1.07927E+000	3.57720E+000	10	...........
	8	0.12	6.50787E-001	5.99577E-003	0.00000E+000	3.90197E-003	3.59960E-001	-1.07114E+000	3.57720E+000	10	...........
	9	0.133333	6.57153E-001	5.99112E-003	0.00000E+000	3.93709E-003	3.59960E-001	-1.06906E+000	3.57720E+000	10	...........
	10	0.146667	6.63468E-001	5.99854E-003	0.00000E+000	3.97984E-003	3.59960E-001	-1.07919E+000	3.57720E+000	10	...........
	11	0.16	6.69751E-001	5.99777E-003	0.00000E+000	4.01701E-003	3.59960E-001	-1.07109E+000	3.57720E+000	10	...........
	12	0.173333	6.75969E-001	5.99236E-003	0.00000E+000	4.05065E-003	3.59960E-001	-1.06876E+000	3.57720E+000	10	...........
	13	0.186667	6.82139E-001	5.99384E-003	0.00000E+000	4.08863E-003	3.59960E-001	-1.07933E+000	3.57720E+000	10	...........
	14	0.2	6.88305E-001	5.99440E-003	0.00000E+000	4.12597E-003	3.59960E-001	-1.07136E+000	3.57720E+000	10	...........
	15	0.213333	6.94419E-001	5.99198E-003	0.00000E+000	4.16094E-003	3.59960E-001	-1.06911E+000	3.57720E+000	10	...........
	16	0.226667	7.00521E-001	5.99989E-003	0.00000E+000	4.20305E-003	3.59960E-001	-1.07946E+000	3.57720E+000	10	...........
	17	0.24	7.06577E-001	5.99503E-003	0.00000E+000	4.23595E-003	3.59960E-001	-1.07126E+000	3.57720E+000	10	...........
	18	0.253333	7.12634E-001	5.99351E-003	0.00000E+000	4.27118E-003	3.59960E-001	-1.06894E+000	3.57720E+000	10	...........
	19	0.266667	7.18690E-001	5.99580E-003	0.00000E+000	4.30912E-003	3.59960E-001	-1.07938E+000	3.57720E+000	10	...........
	20	0.28	7.24721E-001	5.99196E-003	0.00000E+000	4.34250E-003	3.59960E-001	-1.07114E+000	3.57720E+000	10	...........
	21	0.293333	7.30724E-001	5.99444E-003	0.00000E+000	4.38028E-003	3.59960E-001	-1.06830E+000	3.57720E+000	10	...........
	22	0.306667	7.36738E-001	5.99387E-003	0.00000E+000	4.41591E-003	3.59960E-001	-1.07881E+000	3.57720E+000	10	...........
	23	0.32	7.42760E-001	5.99374E-003	0.00000E+000	4.45191E-003	3.59960E-001	-1.07076E+000	3.57720E+000	10	...........
	24	0.333333	7.48747E-001	5.99433E-003	0.00000E+000	4.48824E-003	3.59960E-001	-1.06854E+000	3.57720E+000	10	...........
	25	0.346667	7.54757E-001	5.99372E-003	0.00000E+000	4.52380E-003	3.59960E-001	-1.07887E+000	3.57720E+000	10	...........
	26	0.36	7.60694E-001	5.99386E-003	0.00000E+000	4.55950E-003	3.59960E-001	-1.07064E+000	3.57720E+000	10	...........
	27	0.373333	7.66708E-001	5.99801E-003	0.00000E+000	4.59872E-003	3.59960E-001	-1.06807E+000	3.57720E+000	10	...........
	28	0.386667	7.72701E-001	5.99660E-003	0.00000E+000	4.63358E-003	3.59960E-001	-1.07882E+000	3.57720E+000	10	...........
	29	0.4	7.78648E-001	5.99643E-003	0.00000E+000	4.66911E-003	3.59960E-001	-1.07079E+000	3.57720E+000	10	...........
	30	0.413333	7.84597E-001	5.98923E-003	0.00000E+000	4.69913E-003	3.59960E-001	-1.06853E+000	3.57720E+000	10	...........
	31	0.426667	7.90590E-001	5.99320E-003	0.00000E+000	4.73816E-003	3.59960E-001	-1.07852E+000	3.57720E+000	10	...........
	32	0.44	7.96559E-001	5.99560E-003	0.00000E+000	4.77584E-003	3.59960E-001	-1.07062E+000	3.57720E+000	10	...........
	33	0.453333	8.02483E-001	5.99597E-003	0.00000E+000	4.81167E-003	3.59960E-001	-1.06835E+000	3.57720E+000	10	...........
	34	0.466667	8.08403E-001	5.99356E-003	0.00000E+000	4.84521E-003	3.59960E-001	-1.07879E+000	3.57720E+000	10	...........
	35	0.48	8.14359E-001	5.99089E-003	0.00000E+000	4.87874E-003	3.59960E-001	-1.07076E+000	3.57720E+000	10	...........
	36	0.493333	8.20350E-001	5.99537E-003	0.00000E+000	4.91830E-003	3.59960E-001	-1.06830E+000	3.57720E+000	10	...........
	37	0.506667	8.26276E-001	5.99843E-003	0.00000E+000	4.95636E-003	3.59960E-001	-1.07878E+000	3.57720E+000	10	...........
	38	0.52	8.32193E-001	5.99391E-003	0.00000E+000	4.98809E-003	3.59960E-001	-1.07084E+000	3.57720E+000	10	...........
	39	0.533333	8.38103E-001	5.99293E-003	0.00000E+000	5.02269E-003	3.59960E-001	-1.06869E+000	3.57720E+000	10	...........
	40	0.546667	8.44033E-001	5.99373E-003	0.00000E+000	5.05890E-003	3.59960E-001	-1.07903E+000	3.57720E+000	10	...........
	41	0.56	8.49951E-001	5.99978E-003	0.00000E+000	5.09952E-003	3.59960E-001	-1.07092E+000	3.57720E+000	10	...........
	42	0.573333	8.55843E-001	5.99047E-003	0.00000E+000	5.12691E-003	3.59960E-001	-1.06822E+000	3.57720E+000	10	...........
	43	0.586667	8.61714E-001	5.99808E-003	0.00000E+000	5.16863E-003	3.59960E-001	-1.07901E+000	3.57720E+000	10	...........
	44	0.6	8.67556E-001	5.99507E-003	0.00000E+000	5.20106E-003	3.59960E-001	-1.07086E+000	3.57720E+000	10	...........
	45	0.613333	8.73450E-001	5.99280E-003	0.00000E+000	5.23441E-003	3.59960E-001	-1.06803E+000	3.57720E+000	10	...........
	46	0.626667	8.79322E-001	5.99710E-003	0.00000E+000	5.27338E-003	3.59960E-001	-1.07844E+000	3.57720E+000	10	...........
	47	0.64	8.85212E-001	5.99621E-003	0.00000E+000	5.30792E-003	3.59960E-001	-1.07039E+000	3.57720E+000	10	...........
	48	0.653333	8.91004E-001	5.99474E-003	0.00000E+000	5.34134E-003	3.59960E-001	-1.06807E+000	3.57720E+000	10	...........
	49	0.666667	8.96800E-001	5.99660E-003	0.00000E+000	5.37775E-003	3.59960E-001	-1.07878E+000	3.57720E+000	10	...........
	50	0.68	9.02565E-001	5.99504E-003	0.00000E+000	5.41092E-003	3.59960E-001	-1.07054E+000	3.57720E+000	10	...........
	51	0.693333	9.08329E-001	5.99656E-003	0.00000E+000	5.44684E-003	3.59960E-001	-1.06810E+000	3.57720E+000	10	...........
	52	0.706667	9.14113E-001	5.99167E-003	0.00000E+000	5.47707E-003	3.59960E-001	-1.07855E+000	3.57720E+000	10	...........
	53	0.72	9.19893E-001	5.99188E-003	0.00000E+000	5.51189E-003	3.59960E-001	-1.07049E+000	3.57720E+000	10	...........
	54	0.733333	9.25646E-001	5.99316E-003	0.00000E+000	5.54754E-003	3.59960E-001	-1.06827E+000	3.57720E+000	10	...........
	55	0.746667	9.31332E-001	5.99681E-003	0.00000E+000	5.58502E-003	3.59960E-001	-1.07855E+000	3.57720E+000	10	...........
	56	0.76	9.37004E-001	5.99249E-003	0.00000E+000	5.61499E-003	3.59960E-001	-1.07019E+000	3.57720E+000	10	...........
	57	0.773333	9.42669E-001	5.99787E-003	0.00000E+000	5.65401E-003	3.59960E-001	-1.06785E+000	3.57720E+000	10	...........
	58	0.786667	9.48322E-001	5.99530E-003	0.00000E+000	5.68548E-003	3.59960E-001	-1.07845E+000	3.57720E+000	10	...........
	59	0.8	9.53927E-001	5.99822E-003	0.00000E+000	5.72187E-003	3.59960E-001	-1.07047E+000	3.57720E+000	10	...........
	60	0.813333	9.59471E-001	5.99041E-003	0.00000E+000	5.74763E-003	3.59960E-001	-1.06807E+000	3.57720E+000	10	...........
	61	0.826667	9.65017E-001	5.99651E-003	0.00000E+000	5.78674E-003	3.59960E-001	-1.07857E+000	3.57720E+000	10	...........
	62	0.84	9.70544E-001	5.99525E-003	0.00000E+000	5.81866E-003	3.59960E-001	-1.07044E+000	3.57720E+000	10	...........
	63	0.853333	9.76074E-001	5.99666E-003	0.00000E+000	5.85318E-003	3.59960E-001	-1.06825E+000	3.57720E+000	10	...........
	64	0.866667	9.81545E-001	5.99616E-003	0.00000E+000	5.88550E-003	3.59960E-001	-1.07888E+000	3.57780E+000	10	...........
	65	0.88	9.86944E-001	5.99575E-003	0.00000E+000	5.91747E-003	3.59960E-001	-1.07057E+000	3.57840E+000	10	...........
	66	0.893333	9.92299E-001	5.99682E-003	0.00000E+000	5.95063E-003	3.59960E-001	-1.06791E+000	3.57840E+000	10	...........
	67	0.906667	9.97674E-001	5.99709E-003	0.00000E+000	5.98314E-003	3.59960E-001	-1.07843E+000	3.57840E+000	10	...........
STARTTIMEOFFSET	QUANT	242.65	Start Time Offset (s)