File: Data/CV_CRGO300517_1/PWRCCD_CRGO300517_1/CHARGE_DISCHARGE/CHARGE_#545.DTA
EXPLAIN
TAG	PWR800_CHARGE
TITLE	LABEL	PWR Cyclic Charge Discharge (Cell) - Charge Step	Test &Identifier
DATE	LABEL	22-6-2017	Date
TIME	LABEL	15:57:39	Time
NOTES	NOTES	3	&Notes...
	supercap test cell
	0.6mg
	6M KOH
PSTAT	PSTAT	IFC5000-01520	Potentiostat
CAPACITY	QUANT	1.00000E-003	Capacity (A-hr)
CELLTYPE	SELECTOR	1	&Cell Type
WORKINGCONNECTION	SELECTOR	0	&Working Lead
MAXCHARGETIME	VARIABLEANDUNITS	1.00000E+002	s	1.00000E+002	second(s)	Max &Charge Time
CHARGECURRENT	QUANT	6.00000E-003	&Charge Current (A)
VOLTAGEFINISH	TWOPARAM	F	1.00000E-003	3.60000E+003	&Voltage Finish	 I (A) < 	Max Time(s)
SAMPLETIME	QUANT	1.00000E-002	Sa&mple Period (s)
CHARGESTOPAT1	MULTIPARAM	4	1.00000E+000	Charge Stop At &1	Voltage > Limit	V
CHARGESTOPAT2	MULTIPARAM	0	0.00000E+000	Charge Stop At &2	None	N/A
AESBHCSELECTOR	TOGGLE	F	Save Both Half Cells
IRCOMP	TOGGLE	F	IR &Measure
EOC	QUANT	0	Open Circuit (V)
SEQUENCER	TOGGLE	TRUE	Run as Sequence
PSTATMODEL	IQUANT	53	Pstat Model
PSTATSECTION	LABEL	IFC5000-01520	Pstat Section
PSTATSERIALNO	LABEL	01520	Pstat Serial Number
CTRLMODE	IQUANT	0	Control Mode
ELECTROMETER	IQUANT	1	RE=0 or CS=1
IESTAB	IQUANT	0	I/E Stability
CASPEED	IQUANT	4	Control Amp Speed
CONVENTION	IQUANT	1	Current Convention
ICHRANGE	IQUANT	2	Ich Range
ICHRANGEMODE	TOGGLE	T	Ich Auto Range
ICHOFFSETENABLE	TOGGLE	F	Ich Offset Enable
ICHOFFSET	QUANT	0	Ich Offset (V)
ICHFILTER	IQUANT	1	Ich Filter
VCHRANGE	IQUANT	2	Vch Range
VCHRANGEMODE	TOGGLE	T	Vch Auto Range
VCHOFFSETENABLE	TOGGLE	F	Vch Offset Enable
VCHOFFSET	QUANT	0	Vch Offset (V)
VCHFILTER	IQUANT	1	Vch Filter
IERANGELOWERLIMIT	IQUANT	9	I/E Range Lower Limit
IERANGEMODE	TOGGLE	F	I/E AutoRange
IERANGE	IQUANT	10	I/E Range
ACHSELECT	IQUANT	1	Ach Select
ACHRANGE	IQUANT	2	Ach Range
ACHOFFSETENABLE	TOGGLE	F	Ach Offset Enable
ACHOFFSET	QUANT	0	Ach Offset (V)
ACHFILTER	IQUANT	1	Ach Filter
CABLEID	IQUANT	14	Cable ID
DCCALDATE	LABEL	20-10-2016	DC Calibration Date
ACCALDATE	LABEL	12/3/2015	AC Calibration Date
FRAMEWORKVERSION	QUANT	7.01	Framework Version
INSTRUMENTVERSION	LABEL	4.00	Instrument Version
CURVE	TABLE	58
	Pt	T	Vf	Im	Vu	Pwr	Sig	Ach	Temp	IERange	Over
	#	s	V	A	V	W	V	V	deg C	#	bits
	0	0.013333	6.35265E-001	5.99500E-003	0.00000E+000	3.80842E-003	3.59960E-001	-1.14685E+000	3.57690E+000	10	...........
	1	0.026667	6.44237E-001	6.00011E-003	0.00000E+000	3.86550E-003	3.59960E-001	-1.14204E+000	3.57690E+000	10	...........
	2	0.04	6.52428E-001	5.99233E-003	0.00000E+000	3.90956E-003	3.59960E-001	-1.13713E+000	3.57690E+000	10	...........
	3	0.053333	6.60207E-001	5.99491E-003	0.00000E+000	3.95788E-003	3.59960E-001	-1.14668E+000	3.57690E+000	10	...........
	4	0.066667	6.67755E-001	5.99182E-003	0.00000E+000	4.00107E-003	3.59960E-001	-1.14208E+000	3.57690E+000	10	...........
	5	0.08	6.75056E-001	5.99492E-003	0.00000E+000	4.04691E-003	3.59960E-001	-1.13700E+000	3.57690E+000	10	...........
	6	0.093333	6.82215E-001	5.99479E-003	0.00000E+000	4.08974E-003	3.59960E-001	-1.14624E+000	3.57690E+000	10	...........
	7	0.106667	6.89258E-001	5.99521E-003	0.00000E+000	4.13225E-003	3.59960E-001	-1.14172E+000	3.57690E+000	10	...........
	8	0.12	6.96204E-001	5.99153E-003	0.00000E+000	4.17133E-003	3.59960E-001	-1.13668E+000	3.57690E+000	10	...........
	9	0.133333	7.03090E-001	5.99659E-003	0.00000E+000	4.21614E-003	3.59960E-001	-1.14609E+000	3.57690E+000	10	...........
	10	0.146667	7.09860E-001	5.99438E-003	0.00000E+000	4.25517E-003	3.59960E-001	-1.14182E+000	3.57690E+000	10	...........
	11	0.16	7.16692E-001	5.99085E-003	0.00000E+000	4.29359E-003	3.59960E-001	-1.13667E+000	3.57690E+000	10	...........
	12	0.173333	7.23493E-001	5.99356E-003	0.00000E+000	4.33630E-003	3.59960E-001	-1.14611E+000	3.57690E+000	10	...........
	13	0.186667	7.30204E-001	5.99453E-003	0.00000E+000	4.37723E-003	3.59960E-001	-1.14191E+000	3.57690E+000	10	...........
	14	0.2	7.36860E-001	5.99619E-003	0.00000E+000	4.41836E-003	3.59960E-001	-1.13681E+000	3.57690E+000	10	...........
	15	0.213333	7.43543E-001	5.99001E-003	0.00000E+000	4.45383E-003	3.59960E-001	-1.14623E+000	3.57690E+000	10	...........
	16	0.226667	7.50098E-001	5.99110E-003	0.00000E+000	4.49391E-003	3.59960E-001	-1.14176E+000	3.57690E+000	10	...........
	17	0.24	7.56700E-001	5.99398E-003	0.00000E+000	4.53565E-003	3.59960E-001	-1.13689E+000	3.57690E+000	10	...........
	18	0.253333	7.63255E-001	5.99513E-003	0.00000E+000	4.57581E-003	3.59960E-001	-1.14609E+000	3.57690E+000	10	...........
	19	0.266667	7.69838E-001	5.98973E-003	0.00000E+000	4.61112E-003	3.59960E-001	-1.14184E+000	3.57690E+000	10	...........
	20	0.28	7.76396E-001	5.99401E-003	0.00000E+000	4.65373E-003	3.59960E-001	-1.13667E+000	3.57690E+000	10	...........
	21	0.293333	7.82916E-001	5.99347E-003	0.00000E+000	4.69238E-003	3.59960E-001	-1.14591E+000	3.57690E+000	10	...........
	22	0.306667	7.89412E-001	5.99046E-003	0.00000E+000	4.72895E-003	3.59960E-001	-1.14200E+000	3.57690E+000	10	...........
	23	0.32	7.95947E-001	5.99183E-003	0.00000E+000	4.76918E-003	3.59960E-001	-1.13697E+000	3.57690E+000	10	...........
	24	0.333333	8.02403E-001	5.99547E-003	0.00000E+000	4.81079E-003	3.59960E-001	-1.14610E+000	3.57690E+000	10	...........
	25	0.346667	8.08841E-001	5.99064E-003	0.00000E+000	4.84548E-003	3.59960E-001	-1.14182E+000	3.57690E+000	10	...........
	26	0.36	8.15231E-001	5.99236E-003	0.00000E+000	4.88516E-003	3.59960E-001	-1.13699E+000	3.57690E+000	10	...........
	27	0.373333	8.21699E-001	5.99028E-003	0.00000E+000	4.92221E-003	3.59960E-001	-1.14606E+000	3.57690E+000	10	...........
	28	0.386667	8.28059E-001	5.99594E-003	0.00000E+000	4.96499E-003	3.59960E-001	-1.14219E+000	3.57690E+000	10	...........
	29	0.4	8.34437E-001	5.99169E-003	0.00000E+000	4.99969E-003	3.59960E-001	-1.13663E+000	3.57690E+000	10	...........
	30	0.413333	8.40801E-001	5.99476E-003	0.00000E+000	5.04040E-003	3.59960E-001	-1.14567E+000	3.57690E+000	10	...........
	31	0.426667	8.47194E-001	5.99235E-003	0.00000E+000	5.07668E-003	3.59960E-001	-1.14176E+000	3.57715E+000	10	...........
	32	0.44	8.53499E-001	5.99472E-003	0.00000E+000	5.11649E-003	3.59960E-001	-1.13656E+000	3.57740E+000	10	...........
	33	0.453333	8.59783E-001	5.99728E-003	0.00000E+000	5.15636E-003	3.59960E-001	-1.14555E+000	3.57740E+000	10	...........
	34	0.466667	8.66074E-001	5.99453E-003	0.00000E+000	5.19171E-003	3.59960E-001	-1.14175E+000	3.57740E+000	10	...........
	35	0.48	8.72363E-001	6.00039E-003	0.00000E+000	5.23452E-003	3.59960E-001	-1.13646E+000	3.57740E+000	10	...........
	36	0.493333	8.78622E-001	5.98919E-003	0.00000E+000	5.26223E-003	3.59960E-001	-1.14556E+000	3.57740E+000	10	...........
	37	0.506667	8.84831E-001	5.99342E-003	0.00000E+000	5.30316E-003	3.59960E-001	-1.14173E+000	3.57740E+000	10	...........
	38	0.52	8.91007E-001	5.99210E-003	0.00000E+000	5.33901E-003	3.59960E-001	-1.13630E+000	3.57740E+000	10	...........
	39	0.533333	8.97160E-001	5.99676E-003	0.00000E+000	5.38006E-003	3.59960E-001	-1.14552E+000	3.57740E+000	10	...........
	40	0.546667	9.03294E-001	5.99271E-003	0.00000E+000	5.41318E-003	3.59960E-001	-1.14178E+000	3.57740E+000	10	...........
	41	0.56	9.09373E-001	5.99154E-003	0.00000E+000	5.44854E-003	3.59960E-001	-1.13645E+000	3.57740E+000	10	...........
	42	0.573333	9.15431E-001	5.99226E-003	0.00000E+000	5.48550E-003	3.59960E-001	-1.14537E+000	3.57740E+000	10	...........
	43	0.586667	9.21554E-001	5.99285E-003	0.00000E+000	5.52274E-003	3.59960E-001	-1.14171E+000	3.57740E+000	10	...........
	44	0.6	9.27557E-001	5.99464E-003	0.00000E+000	5.56037E-003	3.59960E-001	-1.13648E+000	3.57740E+000	10	...........
	45	0.613333	9.33528E-001	5.99148E-003	0.00000E+000	5.59321E-003	3.59960E-001	-1.14522E+000	3.57740E+000	10	...........
	46	0.626667	9.39473E-001	5.99168E-003	0.00000E+000	5.62902E-003	3.59960E-001	-1.14147E+000	3.57740E+000	10	...........
	47	0.64	9.45352E-001	5.99250E-003	0.00000E+000	5.66502E-003	3.59960E-001	-1.13625E+000	3.57740E+000	10	...........
	48	0.653333	9.51255E-001	5.99698E-003	0.00000E+000	5.70466E-003	3.59960E-001	-1.14553E+000	3.57740E+000	10	...........
	49	0.666667	9.57061E-001	5.99207E-003	0.00000E+000	5.73477E-003	3.59960E-001	-1.14185E+000	3.57740E+000	10	...........
	50	0.68	9.62799E-001	5.99026E-003	0.00000E+000	5.76741E-003	3.59960E-001	-1.13616E+000	3.57740E+000	10	...........
	51	0.693333	9.68526E-001	5.99497E-003	0.00000E+000	5.80628E-003	3.59960E-001	-1.14517E+000	3.57740E+000	10	...........
	52	0.706667	9.74259E-001	5.99157E-003	0.00000E+000	5.83734E-003	3.59960E-001	-1.14185E+000	3.57740E+000	10	...........
	53	0.72	9.79903E-001	5.99159E-003	0.00000E+000	5.87118E-003	3.59960E-001	-1.13636E+000	3.57740E+000	10	...........
	54	0.733333	9.85500E-001	5.99750E-003	0.00000E+000	5.91054E-003	3.59960E-001	-1.14469E+000	3.57740E+000	10	...........
	55	0.746667	9.91027E-001	5.99246E-003	0.00000E+000	5.93869E-003	3.59960E-001	-1.14100E+000	3.57740E+000	10	...........
	56	0.76	9.96511E-001	5.99187E-003	0.00000E+000	5.97097E-003	3.59960E-001	-1.13578E+000	3.57740E+000	10	...........
	57	0.763333	9.99964E-001	6.00155E-003	0.00000E+000	6.00134E-003	3.59960E-001	-1.15002E+000	3.57740E+000	10	...........
STARTTIMEOFFSET	QUANT	927.9086	Start Time Offset (s)