File: Data/CV_CRGO300517_1/PWRCCD_CRGO300517_1/CHARGE_DISCHARGE/CHARGE_#256.DTA
EXPLAIN
TAG	PWR800_CHARGE
TITLE	LABEL	PWR Cyclic Charge Discharge (Cell) - Charge Step	Test &Identifier
DATE	LABEL	22-6-2017	Date
TIME	LABEL	15:46:07	Time
NOTES	NOTES	3	&Notes...
	supercap test cell
	0.6mg
	6M KOH
PSTAT	PSTAT	IFC5000-01520	Potentiostat
CAPACITY	QUANT	1.00000E-003	Capacity (A-hr)
CELLTYPE	SELECTOR	1	&Cell Type
WORKINGCONNECTION	SELECTOR	0	&Working Lead
MAXCHARGETIME	VARIABLEANDUNITS	1.00000E+002	s	1.00000E+002	second(s)	Max &Charge Time
CHARGECURRENT	QUANT	6.00000E-003	&Charge Current (A)
VOLTAGEFINISH	TWOPARAM	F	1.00000E-003	3.60000E+003	&Voltage Finish	 I (A) < 	Max Time(s)
SAMPLETIME	QUANT	1.00000E-002	Sa&mple Period (s)
CHARGESTOPAT1	MULTIPARAM	4	1.00000E+000	Charge Stop At &1	Voltage > Limit	V
CHARGESTOPAT2	MULTIPARAM	0	0.00000E+000	Charge Stop At &2	None	N/A
AESBHCSELECTOR	TOGGLE	F	Save Both Half Cells
IRCOMP	TOGGLE	F	IR &Measure
EOC	QUANT	0	Open Circuit (V)
SEQUENCER	TOGGLE	TRUE	Run as Sequence
PSTATMODEL	IQUANT	53	Pstat Model
PSTATSECTION	LABEL	IFC5000-01520	Pstat Section
PSTATSERIALNO	LABEL	01520	Pstat Serial Number
CTRLMODE	IQUANT	0	Control Mode
ELECTROMETER	IQUANT	1	RE=0 or CS=1
IESTAB	IQUANT	0	I/E Stability
CASPEED	IQUANT	4	Control Amp Speed
CONVENTION	IQUANT	1	Current Convention
ICHRANGE	IQUANT	2	Ich Range
ICHRANGEMODE	TOGGLE	T	Ich Auto Range
ICHOFFSETENABLE	TOGGLE	F	Ich Offset Enable
ICHOFFSET	QUANT	0	Ich Offset (V)
ICHFILTER	IQUANT	1	Ich Filter
VCHRANGE	IQUANT	2	Vch Range
VCHRANGEMODE	TOGGLE	T	Vch Auto Range
VCHOFFSETENABLE	TOGGLE	F	Vch Offset Enable
VCHOFFSET	QUANT	0	Vch Offset (V)
VCHFILTER	IQUANT	1	Vch Filter
IERANGELOWERLIMIT	IQUANT	9	I/E Range Lower Limit
IERANGEMODE	TOGGLE	F	I/E AutoRange
IERANGE	IQUANT	10	I/E Range
ACHSELECT	IQUANT	1	Ach Select
ACHRANGE	IQUANT	2	Ach Range
ACHOFFSETENABLE	TOGGLE	F	Ach Offset Enable
ACHOFFSET	QUANT	0	Ach Offset (V)
ACHFILTER	IQUANT	1	Ach Filter
CABLEID	IQUANT	14	Cable ID
DCCALDATE	LABEL	20-10-2016	DC Calibration Date
ACCALDATE	LABEL	12/3/2015	AC Calibration Date
FRAMEWORKVERSION	QUANT	7.01	Framework Version
INSTRUMENTVERSION	LABEL	4.00	Instrument Version
CURVE	TABLE	64
	Pt	T	Vf	Im	Vu	Pwr	Sig	Ach	Temp	IERange	Over
	#	s	V	A	V	W	V	V	deg C	#	bits
	0	0.013333	6.11522E-001	5.99378E-003	0.00000E+000	3.66533E-003	3.59960E-001	-1.09509E+000	3.57670E+000	10	...........
	1	0.026667	6.20129E-001	5.99406E-003	0.00000E+000	3.71709E-003	3.59960E-001	-1.09646E+000	3.57670E+000	10	...........
	2	0.04	6.28030E-001	5.99255E-003	0.00000E+000	3.76350E-003	3.59960E-001	-1.10433E+000	3.57670E+000	10	...........
	3	0.053333	6.35477E-001	5.99406E-003	0.00000E+000	3.80909E-003	3.59960E-001	-1.09513E+000	3.57670E+000	10	...........
	4	0.066667	6.42686E-001	5.99190E-003	0.00000E+000	3.85091E-003	3.59960E-001	-1.09684E+000	3.57670E+000	10	...........
	5	0.08	6.49631E-001	5.99910E-003	0.00000E+000	3.89720E-003	3.59960E-001	-1.10464E+000	3.57670E+000	10	...........
	6	0.093333	6.56531E-001	6.00100E-003	0.00000E+000	3.93984E-003	3.59960E-001	-1.09511E+000	3.57670E+000	10	...........
	7	0.106667	6.63263E-001	5.99143E-003	0.00000E+000	3.97390E-003	3.59960E-001	-1.09662E+000	3.57670E+000	10	...........
	8	0.12	6.69953E-001	5.99095E-003	0.00000E+000	4.01366E-003	3.59960E-001	-1.10446E+000	3.57670E+000	10	...........
	9	0.133333	6.76498E-001	5.99402E-003	0.00000E+000	4.05494E-003	3.59960E-001	-1.09526E+000	3.57670E+000	10	...........
	10	0.146667	6.83002E-001	5.99473E-003	0.00000E+000	4.09441E-003	3.59960E-001	-1.09694E+000	3.57670E+000	10	...........
	11	0.16	6.89464E-001	5.99827E-003	0.00000E+000	4.13559E-003	3.59960E-001	-1.10487E+000	3.57670E+000	10	...........
	12	0.173333	6.95899E-001	5.99445E-003	0.00000E+000	4.17153E-003	3.59960E-001	-1.09514E+000	3.57670E+000	10	...........
	13	0.186667	7.02298E-001	5.99231E-003	0.00000E+000	4.20839E-003	3.59960E-001	-1.09673E+000	3.57670E+000	10	...........
	14	0.2	7.08634E-001	5.99521E-003	0.00000E+000	4.24841E-003	3.59960E-001	-1.10487E+000	3.57670E+000	10	...........
	15	0.213333	7.14999E-001	5.99529E-003	0.00000E+000	4.28663E-003	3.59960E-001	-1.09553E+000	3.57670E+000	10	...........
	16	0.226667	7.21407E-001	5.99286E-003	0.00000E+000	4.32329E-003	3.59960E-001	-1.09700E+000	3.57670E+000	10	...........
	17	0.24	7.27676E-001	5.99696E-003	0.00000E+000	4.36384E-003	3.59960E-001	-1.10510E+000	3.57670E+000	10	...........
	18	0.253333	7.33943E-001	5.99578E-003	0.00000E+000	4.40056E-003	3.59960E-001	-1.09548E+000	3.57670E+000	10	...........
	19	0.266667	7.40167E-001	5.99033E-003	0.00000E+000	4.43384E-003	3.59960E-001	-1.09728E+000	3.57670E+000	10	...........
	20	0.28	7.46445E-001	5.99199E-003	0.00000E+000	4.47269E-003	3.59960E-001	-1.10534E+000	3.57680E+000	10	...........
	21	0.293333	7.52689E-001	5.99845E-003	0.00000E+000	4.51497E-003	3.59960E-001	-1.09572E+000	3.57690E+000	10	...........
	22	0.306667	7.58905E-001	5.99666E-003	0.00000E+000	4.55089E-003	3.59960E-001	-1.09713E+000	3.57690E+000	10	...........
	23	0.32	7.65110E-001	5.99183E-003	0.00000E+000	4.58441E-003	3.59960E-001	-1.10525E+000	3.57690E+000	10	...........
	24	0.333333	7.71349E-001	5.99504E-003	0.00000E+000	4.62427E-003	3.59960E-001	-1.09575E+000	3.57690E+000	10	...........
	25	0.346667	7.77557E-001	5.99162E-003	0.00000E+000	4.65883E-003	3.59960E-001	-1.09691E+000	3.57690E+000	10	...........
	26	0.36	7.83744E-001	5.99623E-003	0.00000E+000	4.69951E-003	3.59960E-001	-1.10517E+000	3.57690E+000	10	...........
	27	0.373333	7.89925E-001	5.99513E-003	0.00000E+000	4.73570E-003	3.59960E-001	-1.09562E+000	3.57690E+000	10	...........
	28	0.386667	7.96140E-001	5.99381E-003	0.00000E+000	4.77191E-003	3.59960E-001	-1.09685E+000	3.57690E+000	10	...........
	29	0.4	8.02305E-001	5.99310E-003	0.00000E+000	4.80829E-003	3.59960E-001	-1.10514E+000	3.57690E+000	10	...........
	30	0.413333	8.08481E-001	5.98981E-003	0.00000E+000	4.84264E-003	3.59960E-001	-1.09581E+000	3.57690E+000	10	...........
	31	0.426667	8.14653E-001	5.99338E-003	0.00000E+000	4.88253E-003	3.59960E-001	-1.09695E+000	3.57690E+000	10	...........
	32	0.44	8.20786E-001	5.99741E-003	0.00000E+000	4.92259E-003	3.59960E-001	-1.10523E+000	3.57690E+000	10	...........
	33	0.453333	8.26895E-001	5.99666E-003	0.00000E+000	4.95861E-003	3.59960E-001	-1.09563E+000	3.57690E+000	10	...........
	34	0.466667	8.32983E-001	5.99337E-003	0.00000E+000	4.99238E-003	3.59960E-001	-1.09710E+000	3.57690E+000	10	...........
	35	0.48	8.39043E-001	5.99487E-003	0.00000E+000	5.02995E-003	3.59960E-001	-1.10531E+000	3.57690E+000	10	...........
	36	0.493333	8.45183E-001	5.99171E-003	0.00000E+000	5.06409E-003	3.59960E-001	-1.09570E+000	3.57690E+000	10	...........
	37	0.506667	8.51298E-001	5.99288E-003	0.00000E+000	5.10173E-003	3.59960E-001	-1.09694E+000	3.57690E+000	10	...........
	38	0.52	8.57335E-001	5.99157E-003	0.00000E+000	5.13678E-003	3.59960E-001	-1.10527E+000	3.57690E+000	10	...........
	39	0.533333	8.63412E-001	5.99539E-003	0.00000E+000	5.17649E-003	3.59960E-001	-1.09580E+000	3.57690E+000	10	...........
	40	0.546667	8.69491E-001	5.99216E-003	0.00000E+000	5.21013E-003	3.59960E-001	-1.09745E+000	3.57690E+000	10	...........
	41	0.56	8.75525E-001	5.99738E-003	0.00000E+000	5.25086E-003	3.59960E-001	-1.10544E+000	3.57690E+000	10	...........
	42	0.573333	8.81524E-001	5.99463E-003	0.00000E+000	5.28441E-003	3.59960E-001	-1.09606E+000	3.57690E+000	10	...........
	43	0.586667	8.87511E-001	5.99412E-003	0.00000E+000	5.31984E-003	3.59960E-001	-1.09745E+000	3.57690E+000	10	...........
	44	0.6	8.93487E-001	5.99441E-003	0.00000E+000	5.35592E-003	3.59960E-001	-1.10567E+000	3.57690E+000	10	...........
	45	0.613333	8.99408E-001	5.99346E-003	0.00000E+000	5.39056E-003	3.59960E-001	-1.09631E+000	3.57690E+000	10	...........
	46	0.626667	9.05353E-001	5.99345E-003	0.00000E+000	5.42618E-003	3.59960E-001	-1.09736E+000	3.57690E+000	10	...........
	47	0.64	9.11301E-001	5.99548E-003	0.00000E+000	5.46369E-003	3.59960E-001	-1.10542E+000	3.57690E+000	10	...........
	48	0.653333	9.17192E-001	5.98993E-003	0.00000E+000	5.49392E-003	3.59960E-001	-1.09601E+000	3.57690E+000	10	...........
	49	0.666667	9.23098E-001	5.99380E-003	0.00000E+000	5.53287E-003	3.59960E-001	-1.09708E+000	3.57690E+000	10	...........
	50	0.68	9.28928E-001	5.98933E-003	0.00000E+000	5.56365E-003	3.59960E-001	-1.10549E+000	3.57690E+000	10	...........
	51	0.693333	9.34755E-001	5.99182E-003	0.00000E+000	5.60088E-003	3.59960E-001	-1.09587E+000	3.57690E+000	10	...........
	52	0.706667	9.40538E-001	5.99447E-003	0.00000E+000	5.63803E-003	3.59960E-001	-1.09692E+000	3.57690E+000	10	...........
	53	0.72	9.46293E-001	5.99528E-003	0.00000E+000	5.67329E-003	3.59960E-001	-1.10546E+000	3.57690E+000	10	...........
	54	0.733333	9.52035E-001	5.99699E-003	0.00000E+000	5.70935E-003	3.59960E-001	-1.09605E+000	3.57690E+000	10	...........
	55	0.746667	9.57728E-001	5.99293E-003	0.00000E+000	5.73959E-003	3.59960E-001	-1.09720E+000	3.57690E+000	10	...........
	56	0.76	9.63345E-001	5.99087E-003	0.00000E+000	5.77128E-003	3.59960E-001	-1.10569E+000	3.57690E+000	10	...........
	57	0.773333	9.68950E-001	5.99037E-003	0.00000E+000	5.80437E-003	3.59960E-001	-1.09586E+000	3.57690E+000	10	...........
	58	0.786667	9.74621E-001	5.99680E-003	0.00000E+000	5.84460E-003	3.59960E-001	-1.09711E+000	3.57690E+000	10	...........
	59	0.8	9.80120E-001	5.99466E-003	0.00000E+000	5.87549E-003	3.59960E-001	-1.10573E+000	3.57690E+000	10	...........
	60	0.813333	9.85595E-001	5.99333E-003	0.00000E+000	5.90700E-003	3.59960E-001	-1.09601E+000	3.57690E+000	10	...........
	61	0.826667	9.91078E-001	5.99633E-003	0.00000E+000	5.94283E-003	3.59960E-001	-1.09711E+000	3.57690E+000	10	...........
	62	0.84	9.96494E-001	5.99613E-003	0.00000E+000	5.97510E-003	3.59960E-001	-1.10563E+000	3.57690E+000	10	...........
	63	0.843333	9.99854E-001	5.99396E-003	0.00000E+000	5.99308E-003	3.59960E-001	-1.08985E+000	3.57690E+000	10	...........
STARTTIMEOFFSET	QUANT	468.0384	Start Time Offset (s)