File: Data/CV_CRGO300517_1/PWRCCD_CRGO300517_1/CHARGE_DISCHARGE/CHARGE_#411.DTA
EXPLAIN
TAG	PWR800_CHARGE
TITLE	LABEL	PWR Cyclic Charge Discharge (Cell) - Charge Step	Test &Identifier
DATE	LABEL	22-6-2017	Date
TIME	LABEL	15:52:24	Time
NOTES	NOTES	3	&Notes...
	supercap test cell
	0.6mg
	6M KOH
PSTAT	PSTAT	IFC5000-01520	Potentiostat
CAPACITY	QUANT	1.00000E-003	Capacity (A-hr)
CELLTYPE	SELECTOR	1	&Cell Type
WORKINGCONNECTION	SELECTOR	0	&Working Lead
MAXCHARGETIME	VARIABLEANDUNITS	1.00000E+002	s	1.00000E+002	second(s)	Max &Charge Time
CHARGECURRENT	QUANT	6.00000E-003	&Charge Current (A)
VOLTAGEFINISH	TWOPARAM	F	1.00000E-003	3.60000E+003	&Voltage Finish	 I (A) < 	Max Time(s)
SAMPLETIME	QUANT	1.00000E-002	Sa&mple Period (s)
CHARGESTOPAT1	MULTIPARAM	4	1.00000E+000	Charge Stop At &1	Voltage > Limit	V
CHARGESTOPAT2	MULTIPARAM	0	0.00000E+000	Charge Stop At &2	None	N/A
AESBHCSELECTOR	TOGGLE	F	Save Both Half Cells
IRCOMP	TOGGLE	F	IR &Measure
EOC	QUANT	0	Open Circuit (V)
SEQUENCER	TOGGLE	TRUE	Run as Sequence
PSTATMODEL	IQUANT	53	Pstat Model
PSTATSECTION	LABEL	IFC5000-01520	Pstat Section
PSTATSERIALNO	LABEL	01520	Pstat Serial Number
CTRLMODE	IQUANT	0	Control Mode
ELECTROMETER	IQUANT	1	RE=0 or CS=1
IESTAB	IQUANT	0	I/E Stability
CASPEED	IQUANT	4	Control Amp Speed
CONVENTION	IQUANT	1	Current Convention
ICHRANGE	IQUANT	2	Ich Range
ICHRANGEMODE	TOGGLE	T	Ich Auto Range
ICHOFFSETENABLE	TOGGLE	F	Ich Offset Enable
ICHOFFSET	QUANT	0	Ich Offset (V)
ICHFILTER	IQUANT	1	Ich Filter
VCHRANGE	IQUANT	2	Vch Range
VCHRANGEMODE	TOGGLE	T	Vch Auto Range
VCHOFFSETENABLE	TOGGLE	F	Vch Offset Enable
VCHOFFSET	QUANT	0	Vch Offset (V)
VCHFILTER	IQUANT	1	Vch Filter
IERANGELOWERLIMIT	IQUANT	9	I/E Range Lower Limit
IERANGEMODE	TOGGLE	F	I/E AutoRange
IERANGE	IQUANT	10	I/E Range
ACHSELECT	IQUANT	1	Ach Select
ACHRANGE	IQUANT	2	Ach Range
ACHOFFSETENABLE	TOGGLE	F	Ach Offset Enable
ACHOFFSET	QUANT	0	Ach Offset (V)
ACHFILTER	IQUANT	1	Ach Filter
CABLEID	IQUANT	14	Cable ID
DCCALDATE	LABEL	20-10-2016	DC Calibration Date
ACCALDATE	LABEL	12/3/2015	AC Calibration Date
FRAMEWORKVERSION	QUANT	7.01	Framework Version
INSTRUMENTVERSION	LABEL	4.00	Instrument Version
CURVE	TABLE	60
	Pt	T	Vf	Im	Vu	Pwr	Sig	Ach	Temp	IERange	Over
	#	s	V	A	V	W	V	V	deg C	#	bits
	0	0.013333	6.26316E-001	5.99326E-003	0.00000E+000	3.75367E-003	3.59960E-001	-1.13112E+000	3.57790E+000	10	...........
	1	0.026667	6.35018E-001	5.99215E-003	0.00000E+000	3.80512E-003	3.59960E-001	-1.12577E+000	3.57790E+000	10	...........
	2	0.04	6.43112E-001	5.99500E-003	0.00000E+000	3.85546E-003	3.59960E-001	-1.13462E+000	3.57790E+000	10	...........
	3	0.053333	6.50744E-001	5.99121E-003	0.00000E+000	3.89874E-003	3.59960E-001	-1.13103E+000	3.57790E+000	10	...........
	4	0.066667	6.58145E-001	5.99885E-003	0.00000E+000	3.94811E-003	3.59960E-001	-1.12561E+000	3.57790E+000	10	...........
	5	0.08	6.65333E-001	5.99419E-003	0.00000E+000	3.98813E-003	3.59960E-001	-1.13442E+000	3.57790E+000	10	...........
	6	0.093333	6.72368E-001	5.99794E-003	0.00000E+000	4.03282E-003	3.59960E-001	-1.13121E+000	3.57790E+000	10	...........
	7	0.106667	6.79244E-001	5.99358E-003	0.00000E+000	4.07111E-003	3.59960E-001	-1.12569E+000	3.57790E+000	10	...........
	8	0.12	6.86063E-001	5.99624E-003	0.00000E+000	4.11380E-003	3.59960E-001	-1.13424E+000	3.57790E+000	10	...........
	9	0.133333	6.92892E-001	5.99520E-003	0.00000E+000	4.15402E-003	3.59960E-001	-1.13087E+000	3.57790E+000	10	...........
	10	0.146667	6.99578E-001	5.99309E-003	0.00000E+000	4.19263E-003	3.59960E-001	-1.12553E+000	3.57790E+000	10	...........
	11	0.16	7.06245E-001	5.99545E-003	0.00000E+000	4.23426E-003	3.59960E-001	-1.13431E+000	3.57790E+000	10	...........
	12	0.173333	7.12822E-001	5.99385E-003	0.00000E+000	4.27255E-003	3.59960E-001	-1.13091E+000	3.57790E+000	10	...........
	13	0.186667	7.19462E-001	5.99261E-003	0.00000E+000	4.31145E-003	3.59960E-001	-1.12554E+000	3.57790E+000	10	...........
	14	0.2	7.26009E-001	5.99456E-003	0.00000E+000	4.35211E-003	3.59960E-001	-1.13436E+000	3.57790E+000	10	...........
	15	0.213333	7.32480E-001	5.99293E-003	0.00000E+000	4.38970E-003	3.59960E-001	-1.13078E+000	3.57790E+000	10	...........
	16	0.226667	7.38977E-001	5.99423E-003	0.00000E+000	4.42960E-003	3.59960E-001	-1.12567E+000	3.57790E+000	10	...........
	17	0.24	7.45515E-001	5.99391E-003	0.00000E+000	4.46855E-003	3.59960E-001	-1.13423E+000	3.57790E+000	10	...........
	18	0.253333	7.51940E-001	5.99467E-003	0.00000E+000	4.50763E-003	3.59960E-001	-1.13033E+000	3.57790E+000	10	...........
	19	0.266667	7.58386E-001	5.99112E-003	0.00000E+000	4.54358E-003	3.59960E-001	-1.12510E+000	3.57790E+000	10	...........
	20	0.28	7.64797E-001	5.99521E-003	0.00000E+000	4.58512E-003	3.59960E-001	-1.13424E+000	3.57790E+000	10	...........
	21	0.293333	7.71196E-001	5.99336E-003	0.00000E+000	4.62206E-003	3.59960E-001	-1.13049E+000	3.57790E+000	10	...........
	22	0.306667	7.77612E-001	5.99296E-003	0.00000E+000	4.66019E-003	3.59960E-001	-1.12539E+000	3.57790E+000	10	...........
	23	0.32	7.84000E-001	5.99007E-003	0.00000E+000	4.69622E-003	3.59960E-001	-1.13415E+000	3.57790E+000	10	...........
	24	0.333333	7.90360E-001	5.99317E-003	0.00000E+000	4.73676E-003	3.59960E-001	-1.13003E+000	3.57790E+000	10	...........
	25	0.346667	7.96731E-001	5.99228E-003	0.00000E+000	4.77424E-003	3.59960E-001	-1.12504E+000	3.57790E+000	10	...........
	26	0.36	8.03071E-001	5.99661E-003	0.00000E+000	4.81570E-003	3.59960E-001	-1.13422E+000	3.57790E+000	10	...........
	27	0.373333	8.09406E-001	5.99424E-003	0.00000E+000	4.85177E-003	3.59960E-001	-1.13025E+000	3.57790E+000	10	...........
	28	0.386667	8.15720E-001	5.99634E-003	0.00000E+000	4.89133E-003	3.59960E-001	-1.12493E+000	3.57790E+000	10	...........
	29	0.4	8.22071E-001	5.99580E-003	0.00000E+000	4.92897E-003	3.59960E-001	-1.13394E+000	3.57790E+000	10	...........
	30	0.413333	8.28310E-001	5.99296E-003	0.00000E+000	4.96403E-003	3.59960E-001	-1.12985E+000	3.57790E+000	10	...........
	31	0.426667	8.34613E-001	5.99435E-003	0.00000E+000	5.00297E-003	3.59960E-001	-1.12494E+000	3.57790E+000	10	...........
	32	0.44	8.40816E-001	5.99286E-003	0.00000E+000	5.03890E-003	3.59960E-001	-1.13405E+000	3.57760E+000	10	...........
	33	0.453333	8.47097E-001	5.99418E-003	0.00000E+000	5.07765E-003	3.59960E-001	-1.12989E+000	3.57670E+000	10	...........
	34	0.466667	8.53365E-001	5.99732E-003	0.00000E+000	5.11790E-003	3.59960E-001	-1.12481E+000	3.57670E+000	10	...........
	35	0.48	8.59571E-001	5.99584E-003	0.00000E+000	5.15385E-003	3.59960E-001	-1.13394E+000	3.57670E+000	10	...........
	36	0.493333	8.65734E-001	5.99358E-003	0.00000E+000	5.18885E-003	3.59960E-001	-1.12999E+000	3.57670E+000	10	...........
	37	0.506667	8.71929E-001	5.99662E-003	0.00000E+000	5.22863E-003	3.59960E-001	-1.12492E+000	3.57670E+000	10	...........
	38	0.52	8.78070E-001	5.99700E-003	0.00000E+000	5.26579E-003	3.59960E-001	-1.13411E+000	3.57670E+000	10	...........
	39	0.533333	8.84250E-001	5.99584E-003	0.00000E+000	5.30182E-003	3.59960E-001	-1.12972E+000	3.57670E+000	10	...........
	40	0.546667	8.90321E-001	5.98946E-003	0.00000E+000	5.33254E-003	3.59960E-001	-1.12466E+000	3.57670E+000	10	...........
	41	0.56	8.96444E-001	5.99610E-003	0.00000E+000	5.37517E-003	3.59960E-001	-1.13382E+000	3.57670E+000	10	...........
	42	0.573333	9.02512E-001	5.99111E-003	0.00000E+000	5.40705E-003	3.59960E-001	-1.12940E+000	3.57670E+000	10	...........
	43	0.586667	9.08561E-001	5.99153E-003	0.00000E+000	5.44367E-003	3.59960E-001	-1.12432E+000	3.57670E+000	10	...........
	44	0.6	9.14561E-001	5.99365E-003	0.00000E+000	5.48156E-003	3.59960E-001	-1.13345E+000	3.57670E+000	10	...........
	45	0.613333	9.20612E-001	6.00011E-003	0.00000E+000	5.52378E-003	3.59960E-001	-1.12928E+000	3.57670E+000	10	...........
	46	0.626667	9.26576E-001	5.99284E-003	0.00000E+000	5.55282E-003	3.59960E-001	-1.12438E+000	3.57670E+000	10	...........
	47	0.64	9.32472E-001	5.99489E-003	0.00000E+000	5.59006E-003	3.59960E-001	-1.13383E+000	3.57670E+000	10	...........
	48	0.653333	9.38367E-001	5.99709E-003	0.00000E+000	5.62747E-003	3.59960E-001	-1.12917E+000	3.57670E+000	10	...........
	49	0.666667	9.44218E-001	5.99265E-003	0.00000E+000	5.65837E-003	3.59960E-001	-1.12422E+000	3.57670E+000	10	...........
	50	0.68	9.50058E-001	5.99698E-003	0.00000E+000	5.69748E-003	3.59960E-001	-1.13350E+000	3.57670E+000	10	...........
	51	0.693333	9.55806E-001	5.99471E-003	0.00000E+000	5.72978E-003	3.59960E-001	-1.12905E+000	3.57670E+000	10	...........
	52	0.706667	9.61524E-001	5.99550E-003	0.00000E+000	5.76482E-003	3.59960E-001	-1.12428E+000	3.57670E+000	10	...........
	53	0.72	9.67229E-001	5.99434E-003	0.00000E+000	5.79791E-003	3.59960E-001	-1.13366E+000	3.57670E+000	10	...........
	54	0.733333	9.72894E-001	5.99560E-003	0.00000E+000	5.83308E-003	3.59960E-001	-1.12891E+000	3.57670E+000	10	...........
	55	0.746667	9.78599E-001	5.99526E-003	0.00000E+000	5.86696E-003	3.59960E-001	-1.12416E+000	3.57670E+000	10	...........
	56	0.76	9.84151E-001	5.99250E-003	0.00000E+000	5.89752E-003	3.59960E-001	-1.13368E+000	3.57670E+000	10	...........
	57	0.773333	9.89650E-001	5.99282E-003	0.00000E+000	5.93080E-003	3.59960E-001	-1.12930E+000	3.57670E+000	10	...........
	58	0.786667	9.95132E-001	5.99321E-003	0.00000E+000	5.96403E-003	3.59960E-001	-1.12423E+000	3.57670E+000	10	...........
	59	0.793333	9.99251E-001	5.99600E-003	0.00000E+000	5.99151E-003	3.59960E-001	-1.13862E+000	3.57670E+000	10	...........
STARTTIMEOFFSET	QUANT	720.1035	Start Time Offset (s)