File: Data/CV_CRGO300517_1/PWRCCD_CRGO300517_1/CHARGE_DISCHARGE/CHARGE_#298.DTA
EXPLAIN
TAG	PWR800_CHARGE
TITLE	LABEL	PWR Cyclic Charge Discharge (Cell) - Charge Step	Test &Identifier
DATE	LABEL	22-6-2017	Date
TIME	LABEL	15:47:51	Time
NOTES	NOTES	3	&Notes...
	supercap test cell
	0.6mg
	6M KOH
PSTAT	PSTAT	IFC5000-01520	Potentiostat
CAPACITY	QUANT	1.00000E-003	Capacity (A-hr)
CELLTYPE	SELECTOR	1	&Cell Type
WORKINGCONNECTION	SELECTOR	0	&Working Lead
MAXCHARGETIME	VARIABLEANDUNITS	1.00000E+002	s	1.00000E+002	second(s)	Max &Charge Time
CHARGECURRENT	QUANT	6.00000E-003	&Charge Current (A)
VOLTAGEFINISH	TWOPARAM	F	1.00000E-003	3.60000E+003	&Voltage Finish	 I (A) < 	Max Time(s)
SAMPLETIME	QUANT	1.00000E-002	Sa&mple Period (s)
CHARGESTOPAT1	MULTIPARAM	4	1.00000E+000	Charge Stop At &1	Voltage > Limit	V
CHARGESTOPAT2	MULTIPARAM	0	0.00000E+000	Charge Stop At &2	None	N/A
AESBHCSELECTOR	TOGGLE	F	Save Both Half Cells
IRCOMP	TOGGLE	F	IR &Measure
EOC	QUANT	0	Open Circuit (V)
SEQUENCER	TOGGLE	TRUE	Run as Sequence
PSTATMODEL	IQUANT	53	Pstat Model
PSTATSECTION	LABEL	IFC5000-01520	Pstat Section
PSTATSERIALNO	LABEL	01520	Pstat Serial Number
CTRLMODE	IQUANT	0	Control Mode
ELECTROMETER	IQUANT	1	RE=0 or CS=1
IESTAB	IQUANT	0	I/E Stability
CASPEED	IQUANT	4	Control Amp Speed
CONVENTION	IQUANT	1	Current Convention
ICHRANGE	IQUANT	2	Ich Range
ICHRANGEMODE	TOGGLE	T	Ich Auto Range
ICHOFFSETENABLE	TOGGLE	F	Ich Offset Enable
ICHOFFSET	QUANT	0	Ich Offset (V)
ICHFILTER	IQUANT	1	Ich Filter
VCHRANGE	IQUANT	2	Vch Range
VCHRANGEMODE	TOGGLE	T	Vch Auto Range
VCHOFFSETENABLE	TOGGLE	F	Vch Offset Enable
VCHOFFSET	QUANT	0	Vch Offset (V)
VCHFILTER	IQUANT	1	Vch Filter
IERANGELOWERLIMIT	IQUANT	9	I/E Range Lower Limit
IERANGEMODE	TOGGLE	F	I/E AutoRange
IERANGE	IQUANT	10	I/E Range
ACHSELECT	IQUANT	1	Ach Select
ACHRANGE	IQUANT	2	Ach Range
ACHOFFSETENABLE	TOGGLE	F	Ach Offset Enable
ACHOFFSET	QUANT	0	Ach Offset (V)
ACHFILTER	IQUANT	1	Ach Filter
CABLEID	IQUANT	14	Cable ID
DCCALDATE	LABEL	20-10-2016	DC Calibration Date
ACCALDATE	LABEL	12/3/2015	AC Calibration Date
FRAMEWORKVERSION	QUANT	7.01	Framework Version
INSTRUMENTVERSION	LABEL	4.00	Instrument Version
CURVE	TABLE	63
	Pt	T	Vf	Im	Vu	Pwr	Sig	Ach	Temp	IERange	Over
	#	s	V	A	V	W	V	V	deg C	#	bits
	0	0.013333	6.16338E-001	5.99667E-003	0.00000E+000	3.69598E-003	3.59960E-001	-1.10288E+000	3.57660E+000	10	...........
	1	0.026667	6.24990E-001	5.99188E-003	0.00000E+000	3.74487E-003	3.59960E-001	-1.11200E+000	3.57683E+000	10	...........
	2	0.04	6.32879E-001	5.99692E-003	0.00000E+000	3.79533E-003	3.59960E-001	-1.10759E+000	3.57690E+000	10	...........
	3	0.053333	6.40400E-001	5.99167E-003	0.00000E+000	3.83707E-003	3.59960E-001	-1.10295E+000	3.57690E+000	10	...........
	4	0.066667	6.47666E-001	5.98873E-003	0.00000E+000	3.87870E-003	3.59960E-001	-1.11209E+000	3.57690E+000	10	...........
	5	0.08	6.54710E-001	5.99501E-003	0.00000E+000	3.92499E-003	3.59960E-001	-1.10765E+000	3.57690E+000	10	...........
	6	0.093333	6.61553E-001	5.99695E-003	0.00000E+000	3.96730E-003	3.59960E-001	-1.10284E+000	3.57690E+000	10	...........
	7	0.106667	6.68394E-001	5.99414E-003	0.00000E+000	4.00644E-003	3.59960E-001	-1.11192E+000	3.57690E+000	10	...........
	8	0.12	6.75111E-001	5.99217E-003	0.00000E+000	4.04538E-003	3.59960E-001	-1.10763E+000	3.57690E+000	10	...........
	9	0.133333	6.81734E-001	5.99252E-003	0.00000E+000	4.08530E-003	3.59960E-001	-1.10299E+000	3.57690E+000	10	...........
	10	0.146667	6.88289E-001	5.99472E-003	0.00000E+000	4.12610E-003	3.59960E-001	-1.11189E+000	3.57690E+000	10	...........
	11	0.16	6.94841E-001	5.99423E-003	0.00000E+000	4.16504E-003	3.59960E-001	-1.10750E+000	3.57690E+000	10	...........
	12	0.173333	7.01285E-001	5.99599E-003	0.00000E+000	4.20490E-003	3.59960E-001	-1.10290E+000	3.57690E+000	10	...........
	13	0.186667	7.07748E-001	5.98887E-003	0.00000E+000	4.23861E-003	3.59960E-001	-1.11200E+000	3.57690E+000	10	...........
	14	0.2	7.14165E-001	5.99130E-003	0.00000E+000	4.27877E-003	3.59960E-001	-1.10786E+000	3.57690E+000	10	...........
	15	0.213333	7.20604E-001	5.99186E-003	0.00000E+000	4.31776E-003	3.59960E-001	-1.10310E+000	3.57690E+000	10	...........
	16	0.226667	7.26983E-001	5.99258E-003	0.00000E+000	4.35650E-003	3.59960E-001	-1.11198E+000	3.57690E+000	10	...........
	17	0.24	7.33339E-001	5.99881E-003	0.00000E+000	4.39916E-003	3.59960E-001	-1.10791E+000	3.57690E+000	10	...........
	18	0.253333	7.39665E-001	5.99343E-003	0.00000E+000	4.43313E-003	3.59960E-001	-1.10324E+000	3.57690E+000	10	...........
	19	0.266667	7.45993E-001	5.99369E-003	0.00000E+000	4.47125E-003	3.59960E-001	-1.11221E+000	3.57690E+000	10	...........
	20	0.28	7.52260E-001	5.99096E-003	0.00000E+000	4.50676E-003	3.59960E-001	-1.10800E+000	3.57690E+000	10	...........
	21	0.293333	7.58578E-001	5.99708E-003	0.00000E+000	4.54925E-003	3.59960E-001	-1.10316E+000	3.57690E+000	10	...........
	22	0.306667	7.64853E-001	5.99382E-003	0.00000E+000	4.58439E-003	3.59960E-001	-1.11199E+000	3.57690E+000	10	...........
	23	0.32	7.71149E-001	5.99820E-003	0.00000E+000	4.62551E-003	3.59960E-001	-1.10781E+000	3.57690E+000	10	...........
	24	0.333333	7.77408E-001	5.99534E-003	0.00000E+000	4.66082E-003	3.59960E-001	-1.10298E+000	3.57690E+000	10	...........
	25	0.346667	7.83639E-001	5.99841E-003	0.00000E+000	4.70059E-003	3.59960E-001	-1.11208E+000	3.57690E+000	10	...........
	26	0.36	7.89888E-001	5.99506E-003	0.00000E+000	4.73543E-003	3.59960E-001	-1.10781E+000	3.57690E+000	10	...........
	27	0.373333	7.96090E-001	5.99095E-003	0.00000E+000	4.76934E-003	3.59960E-001	-1.10300E+000	3.57690E+000	10	...........
	28	0.386667	8.02262E-001	5.99090E-003	0.00000E+000	4.80627E-003	3.59960E-001	-1.11196E+000	3.57690E+000	10	...........
	29	0.4	8.08481E-001	5.99601E-003	0.00000E+000	4.84766E-003	3.59960E-001	-1.10796E+000	3.57690E+000	10	...........
	30	0.413333	8.14650E-001	5.99859E-003	0.00000E+000	4.88675E-003	3.59960E-001	-1.10325E+000	3.57690E+000	10	...........
	31	0.426667	8.20891E-001	5.99705E-003	0.00000E+000	4.92292E-003	3.59960E-001	-1.11169E+000	3.57690E+000	10	...........
	32	0.44	8.27028E-001	5.99400E-003	0.00000E+000	4.95720E-003	3.59960E-001	-1.10786E+000	3.57690E+000	10	...........
	33	0.453333	8.33209E-001	5.99155E-003	0.00000E+000	4.99221E-003	3.59960E-001	-1.10315E+000	3.57690E+000	10	...........
	34	0.466667	8.39356E-001	5.99753E-003	0.00000E+000	5.03406E-003	3.59960E-001	-1.11202E+000	3.57690E+000	10	...........
	35	0.48	8.45488E-001	5.99757E-003	0.00000E+000	5.07087E-003	3.59960E-001	-1.10809E+000	3.57690E+000	10	...........
	36	0.493333	8.51627E-001	5.99414E-003	0.00000E+000	5.10477E-003	3.59960E-001	-1.10288E+000	3.57690E+000	10	...........
	37	0.506667	8.57761E-001	5.99664E-003	0.00000E+000	5.14369E-003	3.59960E-001	-1.11174E+000	3.57690E+000	10	...........
	38	0.52	8.63857E-001	5.99506E-003	0.00000E+000	5.17888E-003	3.59960E-001	-1.10801E+000	3.57690E+000	10	...........
	39	0.533333	8.69971E-001	5.99613E-003	0.00000E+000	5.21646E-003	3.59960E-001	-1.10321E+000	3.57690E+000	10	...........
	40	0.546667	8.76082E-001	5.99640E-003	0.00000E+000	5.25334E-003	3.59960E-001	-1.11196E+000	3.57690E+000	10	...........
	41	0.56	8.82124E-001	5.99469E-003	0.00000E+000	5.28806E-003	3.59960E-001	-1.10810E+000	3.57690E+000	10	...........
	42	0.573333	8.88153E-001	5.99886E-003	0.00000E+000	5.32790E-003	3.59960E-001	-1.10324E+000	3.57690E+000	10	...........
	43	0.586667	8.94175E-001	5.99077E-003	0.00000E+000	5.35679E-003	3.59960E-001	-1.11189E+000	3.57690E+000	10	...........
	44	0.6	9.00175E-001	5.99527E-003	0.00000E+000	5.39679E-003	3.59960E-001	-1.10838E+000	3.57690E+000	10	...........
	45	0.613333	9.06102E-001	5.99032E-003	0.00000E+000	5.42784E-003	3.59960E-001	-1.10313E+000	3.57690E+000	10	...........
	46	0.626667	9.12054E-001	5.99643E-003	0.00000E+000	5.46907E-003	3.59960E-001	-1.11177E+000	3.57690E+000	10	...........
	47	0.64	9.17981E-001	5.99091E-003	0.00000E+000	5.49955E-003	3.59960E-001	-1.10787E+000	3.57690E+000	10	...........
	48	0.653333	9.23901E-001	5.99672E-003	0.00000E+000	5.54038E-003	3.59960E-001	-1.10270E+000	3.57690E+000	10	...........
	49	0.666667	9.29748E-001	5.99428E-003	0.00000E+000	5.57317E-003	3.59960E-001	-1.11150E+000	3.57690E+000	10	...........
	50	0.68	9.35609E-001	5.99554E-003	0.00000E+000	5.60948E-003	3.59960E-001	-1.10765E+000	3.57690E+000	10	...........
	51	0.693333	9.41404E-001	5.99927E-003	0.00000E+000	5.64773E-003	3.59960E-001	-1.10263E+000	3.57690E+000	10	...........
	52	0.706667	9.47154E-001	5.99417E-003	0.00000E+000	5.67740E-003	3.59960E-001	-1.11121E+000	3.57690E+000	10	...........
	53	0.72	9.52924E-001	5.99539E-003	0.00000E+000	5.71315E-003	3.59960E-001	-1.10788E+000	3.57690E+000	10	...........
	54	0.733333	9.58619E-001	5.99213E-003	0.00000E+000	5.74417E-003	3.59960E-001	-1.10272E+000	3.57690E+000	10	...........
	55	0.746667	9.64273E-001	5.99407E-003	0.00000E+000	5.77992E-003	3.59960E-001	-1.11136E+000	3.57690E+000	10	...........
	56	0.76	9.69902E-001	5.98918E-003	0.00000E+000	5.80892E-003	3.59960E-001	-1.10774E+000	3.57690E+000	10	...........
	57	0.773333	9.75546E-001	5.99589E-003	0.00000E+000	5.84927E-003	3.59960E-001	-1.10260E+000	3.57690E+000	10	...........
	58	0.786667	9.81108E-001	5.99552E-003	0.00000E+000	5.88226E-003	3.59960E-001	-1.11110E+000	3.57690E+000	10	...........
	59	0.8	9.86546E-001	5.99403E-003	0.00000E+000	5.91339E-003	3.59960E-001	-1.10792E+000	3.57690E+000	10	...........
	60	0.813333	9.91996E-001	5.99340E-003	0.00000E+000	5.94542E-003	3.59960E-001	-1.10281E+000	3.57690E+000	10	...........
	61	0.826667	9.97417E-001	5.99706E-003	0.00000E+000	5.98156E-003	3.59960E-001	-1.11122E+000	3.57690E+000	10	...........
	62	0.828333	1.00037E+000	5.99813E-003	0.00000E+000	6.00037E-003	3.59960E-001	-1.09042E+000	3.57690E+000	10	...........
STARTTIMEOFFSET	QUANT	537.8416	Start Time Offset (s)