File: Data/CV_CRGO300517_1/PWRCCD_CRGO300517_1/CHARGE_DISCHARGE/CHARGE_#634.DTA
EXPLAIN
TAG	PWR800_CHARGE
TITLE	LABEL	PWR Cyclic Charge Discharge (Cell) - Charge Step	Test &Identifier
DATE	LABEL	22-6-2017	Date
TIME	LABEL	16:01:03	Time
NOTES	NOTES	3	&Notes...
	supercap test cell
	0.6mg
	6M KOH
PSTAT	PSTAT	IFC5000-01520	Potentiostat
CAPACITY	QUANT	1.00000E-003	Capacity (A-hr)
CELLTYPE	SELECTOR	1	&Cell Type
WORKINGCONNECTION	SELECTOR	0	&Working Lead
MAXCHARGETIME	VARIABLEANDUNITS	1.00000E+002	s	1.00000E+002	second(s)	Max &Charge Time
CHARGECURRENT	QUANT	6.00000E-003	&Charge Current (A)
VOLTAGEFINISH	TWOPARAM	F	1.00000E-003	3.60000E+003	&Voltage Finish	 I (A) < 	Max Time(s)
SAMPLETIME	QUANT	1.00000E-002	Sa&mple Period (s)
CHARGESTOPAT1	MULTIPARAM	4	1.00000E+000	Charge Stop At &1	Voltage > Limit	V
CHARGESTOPAT2	MULTIPARAM	0	0.00000E+000	Charge Stop At &2	None	N/A
AESBHCSELECTOR	TOGGLE	F	Save Both Half Cells
IRCOMP	TOGGLE	F	IR &Measure
EOC	QUANT	0	Open Circuit (V)
SEQUENCER	TOGGLE	TRUE	Run as Sequence
PSTATMODEL	IQUANT	53	Pstat Model
PSTATSECTION	LABEL	IFC5000-01520	Pstat Section
PSTATSERIALNO	LABEL	01520	Pstat Serial Number
CTRLMODE	IQUANT	0	Control Mode
ELECTROMETER	IQUANT	1	RE=0 or CS=1
IESTAB	IQUANT	0	I/E Stability
CASPEED	IQUANT	4	Control Amp Speed
CONVENTION	IQUANT	1	Current Convention
ICHRANGE	IQUANT	2	Ich Range
ICHRANGEMODE	TOGGLE	T	Ich Auto Range
ICHOFFSETENABLE	TOGGLE	F	Ich Offset Enable
ICHOFFSET	QUANT	0	Ich Offset (V)
ICHFILTER	IQUANT	1	Ich Filter
VCHRANGE	IQUANT	2	Vch Range
VCHRANGEMODE	TOGGLE	T	Vch Auto Range
VCHOFFSETENABLE	TOGGLE	F	Vch Offset Enable
VCHOFFSET	QUANT	0	Vch Offset (V)
VCHFILTER	IQUANT	1	Vch Filter
IERANGELOWERLIMIT	IQUANT	9	I/E Range Lower Limit
IERANGEMODE	TOGGLE	F	I/E AutoRange
IERANGE	IQUANT	10	I/E Range
ACHSELECT	IQUANT	1	Ach Select
ACHRANGE	IQUANT	2	Ach Range
ACHOFFSETENABLE	TOGGLE	F	Ach Offset Enable
ACHOFFSET	QUANT	0	Ach Offset (V)
ACHFILTER	IQUANT	1	Ach Filter
CABLEID	IQUANT	14	Cable ID
DCCALDATE	LABEL	20-10-2016	DC Calibration Date
ACCALDATE	LABEL	12/3/2015	AC Calibration Date
FRAMEWORKVERSION	QUANT	7.01	Framework Version
INSTRUMENTVERSION	LABEL	4.00	Instrument Version
CURVE	TABLE	57
	Pt	T	Vf	Im	Vu	Pwr	Sig	Ach	Temp	IERange	Over
	#	s	V	A	V	W	V	V	deg C	#	bits
	0	0.013333	6.39052E-001	5.99499E-003	0.00000E+000	3.83111E-003	3.59960E-001	-1.14887E+000	3.57640E+000	10	...........
	1	0.026667	6.48074E-001	5.99574E-003	0.00000E+000	3.88568E-003	3.59960E-001	-1.14367E+000	3.57640E+000	10	...........
	2	0.04	6.56383E-001	5.99488E-003	0.00000E+000	3.93494E-003	3.59960E-001	-1.15303E+000	3.57640E+000	10	...........
	3	0.053333	6.64256E-001	5.99609E-003	0.00000E+000	3.98294E-003	3.59960E-001	-1.14856E+000	3.57640E+000	10	...........
	4	0.066667	6.71851E-001	5.99603E-003	0.00000E+000	4.02844E-003	3.59960E-001	-1.14344E+000	3.57640E+000	10	...........
	5	0.08	6.79294E-001	5.99251E-003	0.00000E+000	4.07068E-003	3.59960E-001	-1.15279E+000	3.57640E+000	10	...........
	6	0.093333	6.86501E-001	5.99353E-003	0.00000E+000	4.11456E-003	3.59960E-001	-1.14864E+000	3.57640E+000	10	...........
	7	0.106667	6.93701E-001	5.99041E-003	0.00000E+000	4.15555E-003	3.59960E-001	-1.14381E+000	3.57640E+000	10	...........
	8	0.12	7.00728E-001	5.99269E-003	0.00000E+000	4.19925E-003	3.59960E-001	-1.15307E+000	3.57640E+000	10	...........
	9	0.133333	7.07708E-001	5.99482E-003	0.00000E+000	4.24259E-003	3.59960E-001	-1.14841E+000	3.57640E+000	10	...........
	10	0.146667	7.14607E-001	5.98953E-003	0.00000E+000	4.28016E-003	3.59960E-001	-1.14341E+000	3.57640E+000	10	...........
	11	0.16	7.21521E-001	5.99571E-003	0.00000E+000	4.32603E-003	3.59960E-001	-1.15324E+000	3.57640E+000	10	...........
	12	0.173333	7.28340E-001	5.99877E-003	0.00000E+000	4.36914E-003	3.59960E-001	-1.14859E+000	3.57640E+000	10	...........
	13	0.186667	7.35122E-001	5.99831E-003	0.00000E+000	4.40949E-003	3.59960E-001	-1.14344E+000	3.57640E+000	10	...........
	14	0.2	7.41861E-001	5.99502E-003	0.00000E+000	4.44747E-003	3.59960E-001	-1.15290E+000	3.57640E+000	10	...........
	15	0.213333	7.48575E-001	5.98996E-003	0.00000E+000	4.48393E-003	3.59960E-001	-1.14808E+000	3.57640E+000	10	...........
	16	0.226667	7.55264E-001	5.99550E-003	0.00000E+000	4.52818E-003	3.59960E-001	-1.14311E+000	3.57640E+000	10	...........
	17	0.24	7.61908E-001	5.99453E-003	0.00000E+000	4.56729E-003	3.59960E-001	-1.15274E+000	3.57640E+000	10	...........
	18	0.253333	7.68551E-001	5.98908E-003	0.00000E+000	4.60291E-003	3.59960E-001	-1.14800E+000	3.57640E+000	10	...........
	19	0.266667	7.75198E-001	5.99671E-003	0.00000E+000	4.64864E-003	3.59960E-001	-1.14302E+000	3.57640E+000	10	...........
	20	0.28	7.81787E-001	5.99176E-003	0.00000E+000	4.68428E-003	3.59960E-001	-1.15263E+000	3.57640E+000	10	...........
	21	0.293333	7.88423E-001	5.99723E-003	0.00000E+000	4.72836E-003	3.59960E-001	-1.14827E+000	3.57640E+000	10	...........
	22	0.306667	7.94981E-001	5.99595E-003	0.00000E+000	4.76666E-003	3.59960E-001	-1.14314E+000	3.57643E+000	10	...........
	23	0.32	8.01528E-001	5.99260E-003	0.00000E+000	4.80324E-003	3.59960E-001	-1.15288E+000	3.57660E+000	10	...........
	24	0.333333	8.08024E-001	5.99709E-003	0.00000E+000	4.84579E-003	3.59960E-001	-1.14783E+000	3.57660E+000	10	...........
	25	0.346667	8.14535E-001	5.99032E-003	0.00000E+000	4.87933E-003	3.59960E-001	-1.14320E+000	3.57660E+000	10	...........
	26	0.36	8.21024E-001	5.99240E-003	0.00000E+000	4.91991E-003	3.59960E-001	-1.15291E+000	3.57660E+000	10	...........
	27	0.373333	8.27508E-001	5.99322E-003	0.00000E+000	4.95943E-003	3.59960E-001	-1.14790E+000	3.57660E+000	10	...........
	28	0.386667	8.33936E-001	5.99243E-003	0.00000E+000	4.99730E-003	3.59960E-001	-1.14297E+000	3.57660E+000	10	...........
	29	0.4	8.40360E-001	5.99703E-003	0.00000E+000	5.03966E-003	3.59960E-001	-1.15272E+000	3.57660E+000	10	...........
	30	0.413333	8.46782E-001	5.99213E-003	0.00000E+000	5.07403E-003	3.59960E-001	-1.14765E+000	3.57660E+000	10	...........
	31	0.426667	8.53116E-001	5.98592E-003	0.00000E+000	5.10668E-003	3.59960E-001	-1.14301E+000	3.57660E+000	10	...........
	32	0.44	8.59471E-001	5.99208E-003	0.00000E+000	5.15002E-003	3.59960E-001	-1.15285E+000	3.57660E+000	10	...........
	33	0.453333	8.65859E-001	5.99681E-003	0.00000E+000	5.19239E-003	3.59960E-001	-1.14779E+000	3.57660E+000	10	...........
	34	0.466667	8.72175E-001	5.99017E-003	0.00000E+000	5.22448E-003	3.59960E-001	-1.14312E+000	3.57660E+000	10	...........
	35	0.48	8.78445E-001	5.99322E-003	0.00000E+000	5.26471E-003	3.59960E-001	-1.15294E+000	3.57660E+000	10	...........
	36	0.493333	8.84708E-001	5.99469E-003	0.00000E+000	5.30355E-003	3.59960E-001	-1.14791E+000	3.57660E+000	10	...........
	37	0.506667	8.90992E-001	5.99529E-003	0.00000E+000	5.34176E-003	3.59960E-001	-1.14323E+000	3.57660E+000	10	...........
	38	0.52	8.97175E-001	5.98975E-003	0.00000E+000	5.37386E-003	3.59960E-001	-1.15263E+000	3.57660E+000	10	...........
	39	0.533333	9.03332E-001	5.99357E-003	0.00000E+000	5.41419E-003	3.59960E-001	-1.14733E+000	3.57660E+000	10	...........
	40	0.546667	9.09494E-001	5.99566E-003	0.00000E+000	5.45302E-003	3.59960E-001	-1.14251E+000	3.57660E+000	10	...........
	41	0.56	9.15629E-001	5.99600E-003	0.00000E+000	5.49011E-003	3.59960E-001	-1.15261E+000	3.57660E+000	10	...........
	42	0.573333	9.21748E-001	5.99427E-003	0.00000E+000	5.52520E-003	3.59960E-001	-1.14744E+000	3.57660E+000	10	...........
	43	0.586667	9.27811E-001	5.99053E-003	0.00000E+000	5.55808E-003	3.59960E-001	-1.14258E+000	3.57660E+000	10	...........
	44	0.6	9.33810E-001	5.99552E-003	0.00000E+000	5.59868E-003	3.59960E-001	-1.15215E+000	3.57660E+000	10	...........
	45	0.613333	9.39774E-001	5.98934E-003	0.00000E+000	5.62863E-003	3.59960E-001	-1.14752E+000	3.57660E+000	10	...........
	46	0.626667	9.45716E-001	5.99681E-003	0.00000E+000	5.67128E-003	3.59960E-001	-1.14280E+000	3.57660E+000	10	...........
	47	0.64	9.51595E-001	5.99401E-003	0.00000E+000	5.70387E-003	3.59960E-001	-1.15251E+000	3.57660E+000	10	...........
	48	0.653333	9.57420E-001	5.99735E-003	0.00000E+000	5.74198E-003	3.59960E-001	-1.14730E+000	3.57660E+000	10	...........
	49	0.666667	9.63235E-001	5.99962E-003	0.00000E+000	5.77905E-003	3.59960E-001	-1.14259E+000	3.57660E+000	10	...........
	50	0.68	9.68966E-001	5.99232E-003	0.00000E+000	5.80636E-003	3.59960E-001	-1.15257E+000	3.57660E+000	10	...........
	51	0.693333	9.74702E-001	5.99453E-003	0.00000E+000	5.84288E-003	3.59960E-001	-1.14740E+000	3.57660E+000	10	...........
	52	0.706667	9.80335E-001	5.99744E-003	0.00000E+000	5.87951E-003	3.59960E-001	-1.14291E+000	3.57660E+000	10	...........
	53	0.72	9.85950E-001	5.99799E-003	0.00000E+000	5.91372E-003	3.59960E-001	-1.15248E+000	3.57660E+000	10	...........
	54	0.733333	9.91511E-001	5.99023E-003	0.00000E+000	5.93938E-003	3.59960E-001	-1.14739E+000	3.57660E+000	10	...........
	55	0.746667	9.97032E-001	5.99309E-003	0.00000E+000	5.97530E-003	3.59960E-001	-1.14277E+000	3.57660E+000	10	...........
	56	0.748333	1.00016E+000	5.98720E-003	0.00000E+000	5.98818E-003	3.59960E-001	-1.15592E+000	3.57660E+000	10	...........
STARTTIMEOFFSET	QUANT	1061.703	Start Time Offset (s)