File: Data/CV_CRGO300517_1/PWRCCD_CRGO300517_1/CHARGE_DISCHARGE/CHARGE_#917.DTA
EXPLAIN
TAG	PWR800_CHARGE
TITLE	LABEL	PWR Cyclic Charge Discharge (Cell) - Charge Step	Test &Identifier
DATE	LABEL	22-6-2017	Date
TIME	LABEL	16:11:36	Time
NOTES	NOTES	3	&Notes...
	supercap test cell
	0.6mg
	6M KOH
PSTAT	PSTAT	IFC5000-01520	Potentiostat
CAPACITY	QUANT	1.00000E-003	Capacity (A-hr)
CELLTYPE	SELECTOR	1	&Cell Type
WORKINGCONNECTION	SELECTOR	0	&Working Lead
MAXCHARGETIME	VARIABLEANDUNITS	1.00000E+002	s	1.00000E+002	second(s)	Max &Charge Time
CHARGECURRENT	QUANT	6.00000E-003	&Charge Current (A)
VOLTAGEFINISH	TWOPARAM	F	1.00000E-003	3.60000E+003	&Voltage Finish	 I (A) < 	Max Time(s)
SAMPLETIME	QUANT	1.00000E-002	Sa&mple Period (s)
CHARGESTOPAT1	MULTIPARAM	4	1.00000E+000	Charge Stop At &1	Voltage > Limit	V
CHARGESTOPAT2	MULTIPARAM	0	0.00000E+000	Charge Stop At &2	None	N/A
AESBHCSELECTOR	TOGGLE	F	Save Both Half Cells
IRCOMP	TOGGLE	F	IR &Measure
EOC	QUANT	0	Open Circuit (V)
SEQUENCER	TOGGLE	TRUE	Run as Sequence
PSTATMODEL	IQUANT	53	Pstat Model
PSTATSECTION	LABEL	IFC5000-01520	Pstat Section
PSTATSERIALNO	LABEL	01520	Pstat Serial Number
CTRLMODE	IQUANT	0	Control Mode
ELECTROMETER	IQUANT	1	RE=0 or CS=1
IESTAB	IQUANT	0	I/E Stability
CASPEED	IQUANT	4	Control Amp Speed
CONVENTION	IQUANT	1	Current Convention
ICHRANGE	IQUANT	2	Ich Range
ICHRANGEMODE	TOGGLE	T	Ich Auto Range
ICHOFFSETENABLE	TOGGLE	F	Ich Offset Enable
ICHOFFSET	QUANT	0	Ich Offset (V)
ICHFILTER	IQUANT	1	Ich Filter
VCHRANGE	IQUANT	2	Vch Range
VCHRANGEMODE	TOGGLE	T	Vch Auto Range
VCHOFFSETENABLE	TOGGLE	F	Vch Offset Enable
VCHOFFSET	QUANT	0	Vch Offset (V)
VCHFILTER	IQUANT	1	Vch Filter
IERANGELOWERLIMIT	IQUANT	9	I/E Range Lower Limit
IERANGEMODE	TOGGLE	F	I/E AutoRange
IERANGE	IQUANT	10	I/E Range
ACHSELECT	IQUANT	1	Ach Select
ACHRANGE	IQUANT	2	Ach Range
ACHOFFSETENABLE	TOGGLE	F	Ach Offset Enable
ACHOFFSET	QUANT	0	Ach Offset (V)
ACHFILTER	IQUANT	1	Ach Filter
CABLEID	IQUANT	14	Cable ID
DCCALDATE	LABEL	20-10-2016	DC Calibration Date
ACCALDATE	LABEL	12/3/2015	AC Calibration Date
FRAMEWORKVERSION	QUANT	7.01	Framework Version
INSTRUMENTVERSION	LABEL	4.00	Instrument Version
CURVE	TABLE	53
	Pt	T	Vf	Im	Vu	Pwr	Sig	Ach	Temp	IERange	Over
	#	s	V	A	V	W	V	V	deg C	#	bits
	0	0.013333	6.53515E-001	5.99262E-003	0.00000E+000	3.91627E-003	3.59960E-001	-1.16990E+000	3.57640E+000	10	...........
	1	0.026667	6.62803E-001	5.99215E-003	0.00000E+000	3.97162E-003	3.59960E-001	-1.18135E+000	3.57640E+000	10	...........
	2	0.04	6.71366E-001	5.99115E-003	0.00000E+000	4.02226E-003	3.59960E-001	-1.17298E+000	3.57640E+000	10	...........
	3	0.053333	6.79464E-001	5.99156E-003	0.00000E+000	4.07105E-003	3.59960E-001	-1.17022E+000	3.57640E+000	10	...........
	4	0.066667	6.87278E-001	5.99568E-003	0.00000E+000	4.12070E-003	3.59960E-001	-1.18116E+000	3.57640E+000	10	...........
	5	0.08	6.94937E-001	5.99365E-003	0.00000E+000	4.16521E-003	3.59960E-001	-1.17291E+000	3.57640E+000	10	...........
	6	0.093333	7.02386E-001	5.99577E-003	0.00000E+000	4.21135E-003	3.59960E-001	-1.16989E+000	3.57640E+000	10	...........
	7	0.106667	7.09689E-001	5.99669E-003	0.00000E+000	4.25579E-003	3.59960E-001	-1.18102E+000	3.57640E+000	10	...........
	8	0.12	7.16918E-001	5.99513E-003	0.00000E+000	4.29801E-003	3.59960E-001	-1.17298E+000	3.57640E+000	10	...........
	9	0.133333	7.24114E-001	5.99385E-003	0.00000E+000	4.34024E-003	3.59960E-001	-1.16969E+000	3.57640E+000	10	...........
	10	0.146667	7.31212E-001	5.99274E-003	0.00000E+000	4.38196E-003	3.59960E-001	-1.18059E+000	3.57640E+000	10	...........
	11	0.16	7.38217E-001	5.99193E-003	0.00000E+000	4.42335E-003	3.59960E-001	-1.17282E+000	3.57640E+000	10	...........
	12	0.173333	7.45259E-001	5.99693E-003	0.00000E+000	4.46926E-003	3.59960E-001	-1.16990E+000	3.57640E+000	10	...........
	13	0.186667	7.52202E-001	5.99713E-003	0.00000E+000	4.51105E-003	3.59960E-001	-1.18097E+000	3.57640E+000	10	...........
	14	0.2	7.59087E-001	5.99378E-003	0.00000E+000	4.54980E-003	3.59960E-001	-1.17305E+000	3.57640E+000	10	...........
	15	0.213333	7.65969E-001	5.99123E-003	0.00000E+000	4.58909E-003	3.59960E-001	-1.16972E+000	3.57640E+000	10	...........
	16	0.226667	7.72840E-001	5.99687E-003	0.00000E+000	4.63462E-003	3.59960E-001	-1.18095E+000	3.57640E+000	10	...........
	17	0.24	7.79678E-001	5.99623E-003	0.00000E+000	4.67513E-003	3.59960E-001	-1.17340E+000	3.57640E+000	10	...........
	18	0.253333	7.86491E-001	5.99297E-003	0.00000E+000	4.71342E-003	3.59960E-001	-1.16994E+000	3.57640E+000	10	...........
	19	0.266667	7.93255E-001	5.99310E-003	0.00000E+000	4.75406E-003	3.59960E-001	-1.18073E+000	3.57640E+000	10	...........
	20	0.28	7.99975E-001	5.98967E-003	0.00000E+000	4.79159E-003	3.59960E-001	-1.17317E+000	3.57640E+000	10	...........
	21	0.293333	8.06730E-001	5.99415E-003	0.00000E+000	4.83566E-003	3.59960E-001	-1.16969E+000	3.57640E+000	10	...........
	22	0.306667	8.13423E-001	5.99044E-003	0.00000E+000	4.87276E-003	3.59960E-001	-1.18058E+000	3.57640E+000	10	...........
	23	0.32	8.20087E-001	5.99616E-003	0.00000E+000	4.91738E-003	3.59960E-001	-1.17286E+000	3.57640E+000	10	...........
	24	0.333333	8.26705E-001	5.98737E-003	0.00000E+000	4.94979E-003	3.59960E-001	-1.16907E+000	3.57640E+000	10	...........
	25	0.346667	8.33315E-001	5.99620E-003	0.00000E+000	4.99672E-003	3.59960E-001	-1.17993E+000	3.57640E+000	10	...........
	26	0.36	8.39911E-001	5.99287E-003	0.00000E+000	5.03348E-003	3.59960E-001	-1.17262E+000	3.57640E+000	10	...........
	27	0.373333	8.46526E-001	5.99527E-003	0.00000E+000	5.07515E-003	3.59960E-001	-1.16912E+000	3.57640E+000	10	...........
	28	0.386667	8.53063E-001	5.99227E-003	0.00000E+000	5.11178E-003	3.59960E-001	-1.17979E+000	3.57640E+000	10	...........
	29	0.4	8.59566E-001	5.99064E-003	0.00000E+000	5.14935E-003	3.59960E-001	-1.17275E+000	3.57640E+000	10	...........
	30	0.413333	8.66051E-001	5.99478E-003	0.00000E+000	5.19179E-003	3.59960E-001	-1.16870E+000	3.57640E+000	10	...........
	31	0.426667	8.72553E-001	5.98968E-003	0.00000E+000	5.22632E-003	3.59960E-001	-1.17967E+000	3.57640E+000	10	...........
	32	0.44	8.78955E-001	5.99228E-003	0.00000E+000	5.26695E-003	3.59960E-001	-1.17292E+000	3.57640E+000	10	...........
	33	0.453333	8.85422E-001	5.99561E-003	0.00000E+000	5.30864E-003	3.59960E-001	-1.16916E+000	3.57646E+000	10	...........
	34	0.466667	8.91756E-001	5.99341E-003	0.00000E+000	5.34466E-003	3.59960E-001	-1.17971E+000	3.57650E+000	10	...........
	35	0.48	8.98071E-001	5.99125E-003	0.00000E+000	5.38057E-003	3.59960E-001	-1.17283E+000	3.57650E+000	10	...........
	36	0.493333	9.04344E-001	5.99916E-003	0.00000E+000	5.42531E-003	3.59960E-001	-1.16885E+000	3.57650E+000	10	...........
	37	0.506667	9.10608E-001	5.99737E-003	0.00000E+000	5.46125E-003	3.59960E-001	-1.17971E+000	3.57650E+000	10	...........
	38	0.52	9.16804E-001	5.99355E-003	0.00000E+000	5.49491E-003	3.59960E-001	-1.17312E+000	3.57650E+000	10	...........
	39	0.533333	9.23026E-001	5.99373E-003	0.00000E+000	5.53236E-003	3.59960E-001	-1.16906E+000	3.57650E+000	10	...........
	40	0.546667	9.29111E-001	5.99618E-003	0.00000E+000	5.57112E-003	3.59960E-001	-1.17952E+000	3.57650E+000	10	...........
	41	0.56	9.35204E-001	5.99183E-003	0.00000E+000	5.60358E-003	3.59960E-001	-1.17310E+000	3.57650E+000	10	...........
	42	0.573333	9.41230E-001	5.98757E-003	0.00000E+000	5.63568E-003	3.59960E-001	-1.16898E+000	3.57650E+000	10	...........
	43	0.586667	9.47249E-001	5.99647E-003	0.00000E+000	5.68016E-003	3.59960E-001	-1.17959E+000	3.57650E+000	10	...........
	44	0.6	9.53224E-001	5.99051E-003	0.00000E+000	5.71029E-003	3.59960E-001	-1.17316E+000	3.57650E+000	10	...........
	45	0.613333	9.59118E-001	5.99454E-003	0.00000E+000	5.74947E-003	3.59960E-001	-1.16859E+000	3.57650E+000	10	...........
	46	0.626667	9.64958E-001	5.99241E-003	0.00000E+000	5.78243E-003	3.59960E-001	-1.17914E+000	3.57650E+000	10	...........
	47	0.64	9.70778E-001	5.99488E-003	0.00000E+000	5.81969E-003	3.59960E-001	-1.17286E+000	3.57650E+000	10	...........
	48	0.653333	9.76562E-001	5.98970E-003	0.00000E+000	5.84931E-003	3.59960E-001	-1.16837E+000	3.57650E+000	10	...........
	49	0.666667	9.82244E-001	5.99955E-003	0.00000E+000	5.89302E-003	3.59960E-001	-1.17889E+000	3.57650E+000	10	...........
	50	0.68	9.87859E-001	5.99699E-003	0.00000E+000	5.92419E-003	3.59960E-001	-1.17267E+000	3.57650E+000	10	...........
	51	0.693333	9.93417E-001	5.99827E-003	0.00000E+000	5.95878E-003	3.59960E-001	-1.16816E+000	3.57650E+000	10	...........
	52	0.703333	9.98288E-001	5.99798E-003	0.00000E+000	5.98771E-003	3.59960E-001	-1.18261E+000	3.57650E+000	10	...........
STARTTIMEOFFSET	QUANT	1469.902	Start Time Offset (s)