File: Data/CV_CRGO300517_1/PWRCCD_CRGO300517_1/CHARGE_DISCHARGE/CHARGE_#693.DTA
EXPLAIN
TAG	PWR800_CHARGE
TITLE	LABEL	PWR Cyclic Charge Discharge (Cell) - Charge Step	Test &Identifier
DATE	LABEL	22-6-2017	Date
TIME	LABEL	16:03:17	Time
NOTES	NOTES	3	&Notes...
	supercap test cell
	0.6mg
	6M KOH
PSTAT	PSTAT	IFC5000-01520	Potentiostat
CAPACITY	QUANT	1.00000E-003	Capacity (A-hr)
CELLTYPE	SELECTOR	1	&Cell Type
WORKINGCONNECTION	SELECTOR	0	&Working Lead
MAXCHARGETIME	VARIABLEANDUNITS	1.00000E+002	s	1.00000E+002	second(s)	Max &Charge Time
CHARGECURRENT	QUANT	6.00000E-003	&Charge Current (A)
VOLTAGEFINISH	TWOPARAM	F	1.00000E-003	3.60000E+003	&Voltage Finish	 I (A) < 	Max Time(s)
SAMPLETIME	QUANT	1.00000E-002	Sa&mple Period (s)
CHARGESTOPAT1	MULTIPARAM	4	1.00000E+000	Charge Stop At &1	Voltage > Limit	V
CHARGESTOPAT2	MULTIPARAM	0	0.00000E+000	Charge Stop At &2	None	N/A
AESBHCSELECTOR	TOGGLE	F	Save Both Half Cells
IRCOMP	TOGGLE	F	IR &Measure
EOC	QUANT	0	Open Circuit (V)
SEQUENCER	TOGGLE	TRUE	Run as Sequence
PSTATMODEL	IQUANT	53	Pstat Model
PSTATSECTION	LABEL	IFC5000-01520	Pstat Section
PSTATSERIALNO	LABEL	01520	Pstat Serial Number
CTRLMODE	IQUANT	0	Control Mode
ELECTROMETER	IQUANT	1	RE=0 or CS=1
IESTAB	IQUANT	0	I/E Stability
CASPEED	IQUANT	4	Control Amp Speed
CONVENTION	IQUANT	1	Current Convention
ICHRANGE	IQUANT	2	Ich Range
ICHRANGEMODE	TOGGLE	T	Ich Auto Range
ICHOFFSETENABLE	TOGGLE	F	Ich Offset Enable
ICHOFFSET	QUANT	0	Ich Offset (V)
ICHFILTER	IQUANT	1	Ich Filter
VCHRANGE	IQUANT	2	Vch Range
VCHRANGEMODE	TOGGLE	T	Vch Auto Range
VCHOFFSETENABLE	TOGGLE	F	Vch Offset Enable
VCHOFFSET	QUANT	0	Vch Offset (V)
VCHFILTER	IQUANT	1	Vch Filter
IERANGELOWERLIMIT	IQUANT	9	I/E Range Lower Limit
IERANGEMODE	TOGGLE	F	I/E AutoRange
IERANGE	IQUANT	10	I/E Range
ACHSELECT	IQUANT	1	Ach Select
ACHRANGE	IQUANT	2	Ach Range
ACHOFFSETENABLE	TOGGLE	F	Ach Offset Enable
ACHOFFSET	QUANT	0	Ach Offset (V)
ACHFILTER	IQUANT	1	Ach Filter
CABLEID	IQUANT	14	Cable ID
DCCALDATE	LABEL	20-10-2016	DC Calibration Date
ACCALDATE	LABEL	12/3/2015	AC Calibration Date
FRAMEWORKVERSION	QUANT	7.01	Framework Version
INSTRUMENTVERSION	LABEL	4.00	Instrument Version
CURVE	TABLE	56
	Pt	T	Vf	Im	Vu	Pwr	Sig	Ach	Temp	IERange	Over
	#	s	V	A	V	W	V	V	deg C	#	bits
	0	0.013333	6.42942E-001	5.99236E-003	0.00000E+000	3.85274E-003	3.59960E-001	-1.15303E+000	3.57700E+000	10	...........
	1	0.026667	6.51989E-001	5.98920E-003	0.00000E+000	3.90489E-003	3.59960E-001	-1.16233E+000	3.57700E+000	10	...........
	2	0.04	6.60290E-001	5.99561E-003	0.00000E+000	3.95884E-003	3.59960E-001	-1.15126E+000	3.57700E+000	10	...........
	3	0.053333	6.68213E-001	5.99081E-003	0.00000E+000	4.00313E-003	3.59960E-001	-1.15270E+000	3.57700E+000	10	...........
	4	0.066667	6.75785E-001	5.98905E-003	0.00000E+000	4.04731E-003	3.59960E-001	-1.16221E+000	3.57700E+000	10	...........
	5	0.08	6.83269E-001	5.99353E-003	0.00000E+000	4.09520E-003	3.59960E-001	-1.15153E+000	3.57700E+000	10	...........
	6	0.093333	6.90538E-001	5.99414E-003	0.00000E+000	4.13918E-003	3.59960E-001	-1.15240E+000	3.57700E+000	10	...........
	7	0.106667	6.97677E-001	5.99046E-003	0.00000E+000	4.17941E-003	3.59960E-001	-1.16193E+000	3.57700E+000	10	...........
	8	0.12	7.04757E-001	5.99047E-003	0.00000E+000	4.22183E-003	3.59960E-001	-1.15108E+000	3.57700E+000	10	...........
	9	0.133333	7.11755E-001	5.99200E-003	0.00000E+000	4.26483E-003	3.59960E-001	-1.15252E+000	3.57700E+000	10	...........
	10	0.146667	7.18726E-001	5.99268E-003	0.00000E+000	4.30709E-003	3.59960E-001	-1.16198E+000	3.57700E+000	10	...........
	11	0.16	7.25645E-001	5.99261E-003	0.00000E+000	4.34851E-003	3.59960E-001	-1.15111E+000	3.57700E+000	10	...........
	12	0.173333	7.32485E-001	5.99071E-003	0.00000E+000	4.38811E-003	3.59960E-001	-1.15237E+000	3.57700E+000	10	...........
	13	0.186667	7.39270E-001	5.99196E-003	0.00000E+000	4.42967E-003	3.59960E-001	-1.16188E+000	3.57700E+000	10	...........
	14	0.2	7.46090E-001	5.99206E-003	0.00000E+000	4.47062E-003	3.59960E-001	-1.15106E+000	3.57700E+000	10	...........
	15	0.213333	7.52814E-001	5.99201E-003	0.00000E+000	4.51087E-003	3.59960E-001	-1.15257E+000	3.57700E+000	10	...........
	16	0.226667	7.59570E-001	5.99031E-003	0.00000E+000	4.55006E-003	3.59960E-001	-1.16164E+000	3.57700E+000	10	...........
	17	0.24	7.66265E-001	5.99103E-003	0.00000E+000	4.59071E-003	3.59960E-001	-1.15078E+000	3.57700E+000	10	...........
	18	0.253333	7.72961E-001	5.99599E-003	0.00000E+000	4.63467E-003	3.59960E-001	-1.15232E+000	3.57700E+000	10	...........
	19	0.266667	7.79628E-001	5.99565E-003	0.00000E+000	4.67437E-003	3.59960E-001	-1.16198E+000	3.57700E+000	10	...........
	20	0.28	7.86211E-001	5.99199E-003	0.00000E+000	4.71097E-003	3.59960E-001	-1.15121E+000	3.57700E+000	10	...........
	21	0.293333	7.92830E-001	5.99252E-003	0.00000E+000	4.75105E-003	3.59960E-001	-1.15251E+000	3.57700E+000	10	...........
	22	0.306667	7.99416E-001	5.99881E-003	0.00000E+000	4.79554E-003	3.59960E-001	-1.16162E+000	3.57700E+000	10	...........
	23	0.32	8.05977E-001	5.98986E-003	0.00000E+000	4.82769E-003	3.59960E-001	-1.15108E+000	3.57700E+000	10	...........
	24	0.333333	8.12531E-001	5.99256E-003	0.00000E+000	4.86914E-003	3.59960E-001	-1.15279E+000	3.57700E+000	10	...........
	25	0.346667	8.19110E-001	5.99541E-003	0.00000E+000	4.91090E-003	3.59960E-001	-1.16183E+000	3.57700E+000	10	...........
	26	0.36	8.25686E-001	5.99583E-003	0.00000E+000	4.95067E-003	3.59960E-001	-1.15068E+000	3.57700E+000	10	...........
	27	0.373333	8.32134E-001	5.99419E-003	0.00000E+000	4.98797E-003	3.59960E-001	-1.15199E+000	3.57700E+000	10	...........
	28	0.386667	8.38556E-001	5.99008E-003	0.00000E+000	5.02301E-003	3.59960E-001	-1.16143E+000	3.57700E+000	10	...........
	29	0.4	8.45040E-001	5.99507E-003	0.00000E+000	5.06608E-003	3.59960E-001	-1.15077E+000	3.57700E+000	10	...........
	30	0.413333	8.51440E-001	5.99407E-003	0.00000E+000	5.10360E-003	3.59960E-001	-1.15204E+000	3.57700E+000	10	...........
	31	0.426667	8.57841E-001	5.99709E-003	0.00000E+000	5.14455E-003	3.59960E-001	-1.16122E+000	3.57712E+000	10	...........
	32	0.44	8.64209E-001	5.98875E-003	0.00000E+000	5.17553E-003	3.59960E-001	-1.15037E+000	3.57720E+000	10	...........
	33	0.453333	8.70630E-001	5.99259E-003	0.00000E+000	5.21733E-003	3.59960E-001	-1.15217E+000	3.57720E+000	10	...........
	34	0.466667	8.76938E-001	5.99051E-003	0.00000E+000	5.25330E-003	3.59960E-001	-1.16136E+000	3.57720E+000	10	...........
	35	0.48	8.83263E-001	5.99348E-003	0.00000E+000	5.29382E-003	3.59960E-001	-1.15058E+000	3.57720E+000	10	...........
	36	0.493333	8.89537E-001	5.99221E-003	0.00000E+000	5.33029E-003	3.59960E-001	-1.15183E+000	3.57720E+000	10	...........
	37	0.506667	8.95777E-001	5.99362E-003	0.00000E+000	5.36895E-003	3.59960E-001	-1.16125E+000	3.57720E+000	10	...........
	38	0.52	9.01966E-001	5.99125E-003	0.00000E+000	5.40390E-003	3.59960E-001	-1.15039E+000	3.57720E+000	10	...........
	39	0.533333	9.08127E-001	5.99481E-003	0.00000E+000	5.44405E-003	3.59960E-001	-1.15210E+000	3.57720E+000	10	...........
	40	0.546667	9.14314E-001	5.99096E-003	0.00000E+000	5.47762E-003	3.59960E-001	-1.16123E+000	3.57720E+000	10	...........
	41	0.56	9.20457E-001	5.99766E-003	0.00000E+000	5.52059E-003	3.59960E-001	-1.15045E+000	3.57720E+000	10	...........
	42	0.573333	9.26526E-001	5.99410E-003	0.00000E+000	5.55369E-003	3.59960E-001	-1.15206E+000	3.57720E+000	10	...........
	43	0.586667	9.32553E-001	5.99251E-003	0.00000E+000	5.58833E-003	3.59960E-001	-1.16134E+000	3.57720E+000	10	...........
	44	0.6	9.38520E-001	5.99686E-003	0.00000E+000	5.62817E-003	3.59960E-001	-1.15074E+000	3.57720E+000	10	...........
	45	0.613333	9.44448E-001	5.99311E-003	0.00000E+000	5.66019E-003	3.59960E-001	-1.15230E+000	3.57720E+000	10	...........
	46	0.626667	9.50391E-001	5.99577E-003	0.00000E+000	5.69833E-003	3.59960E-001	-1.16118E+000	3.57720E+000	10	...........
	47	0.64	9.56285E-001	5.98976E-003	0.00000E+000	5.72791E-003	3.59960E-001	-1.15039E+000	3.57720E+000	10	...........
	48	0.653333	9.62091E-001	5.99758E-003	0.00000E+000	5.77022E-003	3.59960E-001	-1.15197E+000	3.57720E+000	10	...........
	49	0.666667	9.67875E-001	5.99539E-003	0.00000E+000	5.80278E-003	3.59960E-001	-1.16111E+000	3.57720E+000	10	...........
	50	0.68	9.73589E-001	5.99422E-003	0.00000E+000	5.83591E-003	3.59960E-001	-1.15013E+000	3.57720E+000	10	...........
	51	0.693333	9.79306E-001	5.99126E-003	0.00000E+000	5.86728E-003	3.59960E-001	-1.15161E+000	3.57720E+000	10	...........
	52	0.706667	9.84891E-001	5.99136E-003	0.00000E+000	5.90084E-003	3.59960E-001	-1.16071E+000	3.57720E+000	10	...........
	53	0.72	9.90480E-001	5.99033E-003	0.00000E+000	5.93330E-003	3.59960E-001	-1.15008E+000	3.57720E+000	10	...........
	54	0.733333	9.96032E-001	5.99158E-003	0.00000E+000	5.96781E-003	3.59960E-001	-1.15187E+000	3.57720E+000	10	...........
	55	0.738333	9.99781E-001	5.99082E-003	0.00000E+000	5.98950E-003	3.59960E-001	-1.15717E+000	3.57720E+000	10	...........
STARTTIMEOFFSET	QUANT	1148.942	Start Time Offset (s)