File: Data/CV_CRGO300517_1/PWRCCD_CRGO300517_1/CHARGE_DISCHARGE/CHARGE_#503.DTA
EXPLAIN
TAG	PWR800_CHARGE
TITLE	LABEL	PWR Cyclic Charge Discharge (Cell) - Charge Step	Test &Identifier
DATE	LABEL	22-6-2017	Date
TIME	LABEL	15:56:02	Time
NOTES	NOTES	3	&Notes...
	supercap test cell
	0.6mg
	6M KOH
PSTAT	PSTAT	IFC5000-01520	Potentiostat
CAPACITY	QUANT	1.00000E-003	Capacity (A-hr)
CELLTYPE	SELECTOR	1	&Cell Type
WORKINGCONNECTION	SELECTOR	0	&Working Lead
MAXCHARGETIME	VARIABLEANDUNITS	1.00000E+002	s	1.00000E+002	second(s)	Max &Charge Time
CHARGECURRENT	QUANT	6.00000E-003	&Charge Current (A)
VOLTAGEFINISH	TWOPARAM	F	1.00000E-003	3.60000E+003	&Voltage Finish	 I (A) < 	Max Time(s)
SAMPLETIME	QUANT	1.00000E-002	Sa&mple Period (s)
CHARGESTOPAT1	MULTIPARAM	4	1.00000E+000	Charge Stop At &1	Voltage > Limit	V
CHARGESTOPAT2	MULTIPARAM	0	0.00000E+000	Charge Stop At &2	None	N/A
AESBHCSELECTOR	TOGGLE	F	Save Both Half Cells
IRCOMP	TOGGLE	F	IR &Measure
EOC	QUANT	0	Open Circuit (V)
SEQUENCER	TOGGLE	TRUE	Run as Sequence
PSTATMODEL	IQUANT	53	Pstat Model
PSTATSECTION	LABEL	IFC5000-01520	Pstat Section
PSTATSERIALNO	LABEL	01520	Pstat Serial Number
CTRLMODE	IQUANT	0	Control Mode
ELECTROMETER	IQUANT	1	RE=0 or CS=1
IESTAB	IQUANT	0	I/E Stability
CASPEED	IQUANT	4	Control Amp Speed
CONVENTION	IQUANT	1	Current Convention
ICHRANGE	IQUANT	2	Ich Range
ICHRANGEMODE	TOGGLE	T	Ich Auto Range
ICHOFFSETENABLE	TOGGLE	F	Ich Offset Enable
ICHOFFSET	QUANT	0	Ich Offset (V)
ICHFILTER	IQUANT	1	Ich Filter
VCHRANGE	IQUANT	2	Vch Range
VCHRANGEMODE	TOGGLE	T	Vch Auto Range
VCHOFFSETENABLE	TOGGLE	F	Vch Offset Enable
VCHOFFSET	QUANT	0	Vch Offset (V)
VCHFILTER	IQUANT	1	Vch Filter
IERANGELOWERLIMIT	IQUANT	9	I/E Range Lower Limit
IERANGEMODE	TOGGLE	F	I/E AutoRange
IERANGE	IQUANT	10	I/E Range
ACHSELECT	IQUANT	1	Ach Select
ACHRANGE	IQUANT	2	Ach Range
ACHOFFSETENABLE	TOGGLE	F	Ach Offset Enable
ACHOFFSET	QUANT	0	Ach Offset (V)
ACHFILTER	IQUANT	1	Ach Filter
CABLEID	IQUANT	14	Cable ID
DCCALDATE	LABEL	20-10-2016	DC Calibration Date
ACCALDATE	LABEL	12/3/2015	AC Calibration Date
FRAMEWORKVERSION	QUANT	7.01	Framework Version
INSTRUMENTVERSION	LABEL	4.00	Instrument Version
CURVE	TABLE	58
	Pt	T	Vf	Im	Vu	Pwr	Sig	Ach	Temp	IERange	Over
	#	s	V	A	V	W	V	V	deg C	#	bits
	0	0.013333	6.32054E-001	5.99982E-003	0.00000E+000	3.79221E-003	3.59960E-001	-1.11913E+000	3.57790E+000	10	...........
	1	0.026667	6.40989E-001	5.99597E-003	0.00000E+000	3.84335E-003	3.59960E-001	-1.11021E+000	3.57790E+000	10	...........
	2	0.04	6.49166E-001	5.99804E-003	0.00000E+000	3.89372E-003	3.59960E-001	-1.11464E+000	3.57790E+000	10	...........
	3	0.053333	6.56890E-001	5.99430E-003	0.00000E+000	3.93760E-003	3.59960E-001	-1.11890E+000	3.57790E+000	10	...........
	4	0.066667	6.64365E-001	5.99270E-003	0.00000E+000	3.98134E-003	3.59960E-001	-1.10946E+000	3.57790E+000	10	...........
	5	0.08	6.71666E-001	5.99179E-003	0.00000E+000	4.02448E-003	3.59960E-001	-1.11399E+000	3.57790E+000	10	...........
	6	0.093333	6.78839E-001	5.99276E-003	0.00000E+000	4.06812E-003	3.59960E-001	-1.11799E+000	3.57790E+000	10	...........
	7	0.106667	6.85832E-001	5.99099E-003	0.00000E+000	4.10881E-003	3.59960E-001	-1.10899E+000	3.57790E+000	10	...........
	8	0.12	6.92784E-001	5.99888E-003	0.00000E+000	4.15593E-003	3.59960E-001	-1.11369E+000	3.57790E+000	10	...........
	9	0.133333	6.99608E-001	5.99087E-003	0.00000E+000	4.19126E-003	3.59960E-001	-1.11772E+000	3.57790E+000	10	...........
	10	0.146667	7.06397E-001	5.99056E-003	0.00000E+000	4.23171E-003	3.59960E-001	-1.10900E+000	3.57790E+000	10	...........
	11	0.16	7.13145E-001	5.99286E-003	0.00000E+000	4.27378E-003	3.59960E-001	-1.11393E+000	3.57790E+000	10	...........
	12	0.173333	7.19903E-001	5.99487E-003	0.00000E+000	4.31572E-003	3.59960E-001	-1.11837E+000	3.57790E+000	10	...........
	13	0.186667	7.26585E-001	5.99593E-003	0.00000E+000	4.35655E-003	3.59960E-001	-1.10978E+000	3.57790E+000	10	...........
	14	0.2	7.33213E-001	5.99302E-003	0.00000E+000	4.39416E-003	3.59960E-001	-1.11444E+000	3.57790E+000	10	...........
	15	0.213333	7.39803E-001	5.99162E-003	0.00000E+000	4.43262E-003	3.59960E-001	-1.11816E+000	3.57790E+000	10	...........
	16	0.226667	7.46415E-001	5.99688E-003	0.00000E+000	4.47616E-003	3.59960E-001	-1.10975E+000	3.57790E+000	10	...........
	17	0.24	7.53040E-001	5.99541E-003	0.00000E+000	4.51478E-003	3.59960E-001	-1.11462E+000	3.57790E+000	10	...........
	18	0.253333	7.59586E-001	5.99687E-003	0.00000E+000	4.55514E-003	3.59960E-001	-1.11824E+000	3.57790E+000	10	...........
	19	0.266667	7.66095E-001	5.99418E-003	0.00000E+000	4.59211E-003	3.59960E-001	-1.10966E+000	3.57790E+000	10	...........
	20	0.28	7.72647E-001	5.99204E-003	0.00000E+000	4.62973E-003	3.59960E-001	-1.11479E+000	3.57790E+000	10	...........
	21	0.293333	7.79091E-001	5.99302E-003	0.00000E+000	4.66911E-003	3.59960E-001	-1.11826E+000	3.57790E+000	10	...........
	22	0.306667	7.85623E-001	5.99435E-003	0.00000E+000	4.70931E-003	3.59960E-001	-1.11029E+000	3.57790E+000	10	...........
	23	0.32	7.92087E-001	5.99189E-003	0.00000E+000	4.74610E-003	3.59960E-001	-1.11546E+000	3.57790E+000	10	...........
	24	0.333333	7.98563E-001	5.99397E-003	0.00000E+000	4.78656E-003	3.59960E-001	-1.11890E+000	3.57790E+000	10	...........
	25	0.346667	8.04961E-001	5.99406E-003	0.00000E+000	4.82498E-003	3.59960E-001	-1.11025E+000	3.57790E+000	10	...........
	26	0.36	8.11367E-001	5.99335E-003	0.00000E+000	4.86281E-003	3.59960E-001	-1.11578E+000	3.57790E+000	10	...........
	27	0.373333	8.17782E-001	5.99471E-003	0.00000E+000	4.90236E-003	3.59960E-001	-1.11923E+000	3.57790E+000	10	...........
	28	0.386667	8.24154E-001	5.99505E-003	0.00000E+000	4.94085E-003	3.59960E-001	-1.11051E+000	3.57790E+000	10	...........
	29	0.4	8.30480E-001	5.99133E-003	0.00000E+000	4.97568E-003	3.59960E-001	-1.11571E+000	3.57790E+000	10	...........
	30	0.413333	8.36816E-001	5.99696E-003	0.00000E+000	5.01835E-003	3.59960E-001	-1.11834E+000	3.57790E+000	10	...........
	31	0.426667	8.43172E-001	5.99930E-003	0.00000E+000	5.05844E-003	3.59960E-001	-1.11017E+000	3.57790E+000	10	...........
	32	0.44	8.49506E-001	6.00063E-003	0.00000E+000	5.09757E-003	3.59960E-001	-1.11589E+000	3.57790E+000	10	...........
	33	0.453333	8.55748E-001	5.99580E-003	0.00000E+000	5.13090E-003	3.59960E-001	-1.11863E+000	3.57790E+000	10	...........
	34	0.466667	8.62045E-001	5.99457E-003	0.00000E+000	5.16760E-003	3.59960E-001	-1.11006E+000	3.57790E+000	10	...........
	35	0.48	8.68297E-001	5.99551E-003	0.00000E+000	5.20588E-003	3.59960E-001	-1.11578E+000	3.57790E+000	10	...........
	36	0.493333	8.74496E-001	5.99627E-003	0.00000E+000	5.24372E-003	3.59960E-001	-1.11839E+000	3.57790E+000	10	...........
	37	0.506667	8.80712E-001	5.99344E-003	0.00000E+000	5.27849E-003	3.59960E-001	-1.11036E+000	3.57790E+000	10	...........
	38	0.52	8.86915E-001	5.99206E-003	0.00000E+000	5.31445E-003	3.59960E-001	-1.11587E+000	3.57790E+000	10	...........
	39	0.533333	8.93082E-001	5.99253E-003	0.00000E+000	5.35182E-003	3.59960E-001	-1.11811E+000	3.57790E+000	10	...........
	40	0.546667	8.99238E-001	5.99438E-003	0.00000E+000	5.39037E-003	3.59960E-001	-1.10969E+000	3.57790E+000	10	...........
	41	0.56	9.05331E-001	5.99810E-003	0.00000E+000	5.43027E-003	3.59960E-001	-1.11582E+000	3.57790E+000	10	...........
	42	0.573333	9.11392E-001	5.99572E-003	0.00000E+000	5.46446E-003	3.59960E-001	-1.11826E+000	3.57764E+000	10	...........
	43	0.586667	9.17472E-001	5.99351E-003	0.00000E+000	5.49888E-003	3.59960E-001	-1.11018E+000	3.57720E+000	10	...........
	44	0.6	9.23548E-001	5.99432E-003	0.00000E+000	5.53605E-003	3.59960E-001	-1.11604E+000	3.57720E+000	10	...........
	45	0.613333	9.29497E-001	5.99359E-003	0.00000E+000	5.57102E-003	3.59960E-001	-1.11808E+000	3.57720E+000	10	...........
	46	0.626667	9.35429E-001	5.99453E-003	0.00000E+000	5.60746E-003	3.59960E-001	-1.11054E+000	3.57720E+000	10	...........
	47	0.64	9.41334E-001	5.99822E-003	0.00000E+000	5.64633E-003	3.59960E-001	-1.11642E+000	3.57720E+000	10	...........
	48	0.653333	9.47269E-001	5.99233E-003	0.00000E+000	5.67635E-003	3.59960E-001	-1.11830E+000	3.57720E+000	10	...........
	49	0.666667	9.53114E-001	5.99506E-003	0.00000E+000	5.71398E-003	3.59960E-001	-1.11029E+000	3.57720E+000	10	...........
	50	0.68	9.58870E-001	5.99300E-003	0.00000E+000	5.74651E-003	3.59960E-001	-1.11653E+000	3.57720E+000	10	...........
	51	0.693333	9.64606E-001	5.99265E-003	0.00000E+000	5.78055E-003	3.59960E-001	-1.11837E+000	3.57720E+000	10	...........
	52	0.706667	9.70322E-001	5.99415E-003	0.00000E+000	5.81625E-003	3.59960E-001	-1.11081E+000	3.57720E+000	10	...........
	53	0.72	9.76011E-001	5.99266E-003	0.00000E+000	5.84891E-003	3.59960E-001	-1.11743E+000	3.57720E+000	10	...........
	54	0.733333	9.81607E-001	5.99380E-003	0.00000E+000	5.88356E-003	3.59960E-001	-1.11812E+000	3.57720E+000	10	...........
	55	0.746667	9.87135E-001	5.99652E-003	0.00000E+000	5.91938E-003	3.59960E-001	-1.11059E+000	3.57720E+000	10	...........
	56	0.76	9.92636E-001	5.99544E-003	0.00000E+000	5.95129E-003	3.59960E-001	-1.11739E+000	3.57720E+000	10	...........
	57	0.773333	9.98151E-001	5.99238E-003	0.00000E+000	5.98130E-003	3.59960E-001	-1.11880E+000	3.57720E+000	10	...........
STARTTIMEOFFSET	QUANT	863.6453	Start Time Offset (s)