File: Data/CV_CRGO300517_1/PWRCCD_CRGO300517_1/CHARGE_DISCHARGE/CHARGE_#66.DTA
EXPLAIN
TAG	PWR800_CHARGE
TITLE	LABEL	PWR Cyclic Charge Discharge (Cell) - Charge Step	Test &Identifier
DATE	LABEL	22-6-2017	Date
TIME	LABEL	15:38:00	Time
NOTES	NOTES	3	&Notes...
	supercap test cell
	0.6mg
	6M KOH
PSTAT	PSTAT	IFC5000-01520	Potentiostat
CAPACITY	QUANT	1.00000E-003	Capacity (A-hr)
CELLTYPE	SELECTOR	1	&Cell Type
WORKINGCONNECTION	SELECTOR	0	&Working Lead
MAXCHARGETIME	VARIABLEANDUNITS	1.00000E+002	s	1.00000E+002	second(s)	Max &Charge Time
CHARGECURRENT	QUANT	6.00000E-003	&Charge Current (A)
VOLTAGEFINISH	TWOPARAM	F	1.00000E-003	3.60000E+003	&Voltage Finish	 I (A) < 	Max Time(s)
SAMPLETIME	QUANT	1.00000E-002	Sa&mple Period (s)
CHARGESTOPAT1	MULTIPARAM	4	1.00000E+000	Charge Stop At &1	Voltage > Limit	V
CHARGESTOPAT2	MULTIPARAM	0	0.00000E+000	Charge Stop At &2	None	N/A
AESBHCSELECTOR	TOGGLE	F	Save Both Half Cells
IRCOMP	TOGGLE	F	IR &Measure
EOC	QUANT	0	Open Circuit (V)
SEQUENCER	TOGGLE	TRUE	Run as Sequence
PSTATMODEL	IQUANT	53	Pstat Model
PSTATSECTION	LABEL	IFC5000-01520	Pstat Section
PSTATSERIALNO	LABEL	01520	Pstat Serial Number
CTRLMODE	IQUANT	0	Control Mode
ELECTROMETER	IQUANT	1	RE=0 or CS=1
IESTAB	IQUANT	0	I/E Stability
CASPEED	IQUANT	4	Control Amp Speed
CONVENTION	IQUANT	1	Current Convention
ICHRANGE	IQUANT	2	Ich Range
ICHRANGEMODE	TOGGLE	T	Ich Auto Range
ICHOFFSETENABLE	TOGGLE	F	Ich Offset Enable
ICHOFFSET	QUANT	0	Ich Offset (V)
ICHFILTER	IQUANT	1	Ich Filter
VCHRANGE	IQUANT	2	Vch Range
VCHRANGEMODE	TOGGLE	T	Vch Auto Range
VCHOFFSETENABLE	TOGGLE	F	Vch Offset Enable
VCHOFFSET	QUANT	0	Vch Offset (V)
VCHFILTER	IQUANT	1	Vch Filter
IERANGELOWERLIMIT	IQUANT	9	I/E Range Lower Limit
IERANGEMODE	TOGGLE	F	I/E AutoRange
IERANGE	IQUANT	10	I/E Range
ACHSELECT	IQUANT	1	Ach Select
ACHRANGE	IQUANT	2	Ach Range
ACHOFFSETENABLE	TOGGLE	F	Ach Offset Enable
ACHOFFSET	QUANT	0	Ach Offset (V)
ACHFILTER	IQUANT	1	Ach Filter
CABLEID	IQUANT	14	Cable ID
DCCALDATE	LABEL	20-10-2016	DC Calibration Date
ACCALDATE	LABEL	12/3/2015	AC Calibration Date
FRAMEWORKVERSION	QUANT	7.01	Framework Version
INSTRUMENTVERSION	LABEL	4.00	Instrument Version
CURVE	TABLE	73
	Pt	T	Vf	Im	Vu	Pwr	Sig	Ach	Temp	IERange	Over
	#	s	V	A	V	W	V	V	deg C	#	bits
	0	0.013333	5.79630E-001	5.99217E-003	0.00000E+000	3.47324E-003	3.59960E-001	-1.04536E+000	3.57770E+000	10	...........
	1	0.026667	5.87773E-001	5.99189E-003	0.00000E+000	3.52187E-003	3.59960E-001	-1.05574E+000	3.57770E+000	10	...........
	2	0.04	5.95316E-001	5.99680E-003	0.00000E+000	3.56999E-003	3.59960E-001	-1.05123E+000	3.57770E+000	10	...........
	3	0.053333	6.02324E-001	5.99492E-003	0.00000E+000	3.61089E-003	3.59960E-001	-1.04559E+000	3.57770E+000	10	...........
	4	0.066667	6.09145E-001	5.99626E-003	0.00000E+000	3.65259E-003	3.59960E-001	-1.05569E+000	3.57770E+000	10	...........
	5	0.08	6.15838E-001	5.99068E-003	0.00000E+000	3.68929E-003	3.59960E-001	-1.05111E+000	3.57770E+000	10	...........
	6	0.093333	6.22341E-001	5.99330E-003	0.00000E+000	3.72987E-003	3.59960E-001	-1.04535E+000	3.57770E+000	10	...........
	7	0.106667	6.28697E-001	5.99395E-003	0.00000E+000	3.76838E-003	3.59960E-001	-1.05535E+000	3.57770E+000	10	...........
	8	0.12	6.34923E-001	5.99614E-003	0.00000E+000	3.80708E-003	3.59960E-001	-1.05139E+000	3.57770E+000	10	...........
	9	0.133333	6.41148E-001	5.99538E-003	0.00000E+000	3.84392E-003	3.59960E-001	-1.04534E+000	3.57770E+000	10	...........
	10	0.146667	6.47270E-001	5.99501E-003	0.00000E+000	3.88039E-003	3.59960E-001	-1.05491E+000	3.57770E+000	10	...........
	11	0.16	6.53417E-001	5.99099E-003	0.00000E+000	3.91461E-003	3.59960E-001	-1.05121E+000	3.57770E+000	10	...........
	12	0.173333	6.59467E-001	5.99261E-003	0.00000E+000	3.95193E-003	3.59960E-001	-1.04543E+000	3.57770E+000	10	...........
	13	0.186667	6.65508E-001	5.99521E-003	0.00000E+000	3.98986E-003	3.59960E-001	-1.05512E+000	3.57770E+000	10	...........
	14	0.2	6.71501E-001	5.99353E-003	0.00000E+000	4.02466E-003	3.59960E-001	-1.05151E+000	3.57770E+000	10	...........
	15	0.213333	6.77435E-001	5.99672E-003	0.00000E+000	4.06239E-003	3.59960E-001	-1.04523E+000	3.57770E+000	10	...........
	16	0.226667	6.83361E-001	5.99517E-003	0.00000E+000	4.09686E-003	3.59960E-001	-1.05487E+000	3.57770E+000	10	...........
	17	0.24	6.89332E-001	5.99432E-003	0.00000E+000	4.13208E-003	3.59960E-001	-1.05178E+000	3.57757E+000	10	...........
	18	0.253333	6.95219E-001	5.99443E-003	0.00000E+000	4.16744E-003	3.59960E-001	-1.04538E+000	3.57750E+000	10	...........
	19	0.266667	7.01087E-001	5.99216E-003	0.00000E+000	4.20103E-003	3.59960E-001	-1.05446E+000	3.57750E+000	10	...........
	20	0.28	7.06954E-001	5.99435E-003	0.00000E+000	4.23774E-003	3.59960E-001	-1.05152E+000	3.57750E+000	10	...........
	21	0.293333	7.12762E-001	5.99230E-003	0.00000E+000	4.27108E-003	3.59960E-001	-1.04460E+000	3.57750E+000	10	...........
	22	0.306667	7.18659E-001	5.99367E-003	0.00000E+000	4.30740E-003	3.59960E-001	-1.05395E+000	3.57750E+000	10	...........
	23	0.32	7.24530E-001	5.99412E-003	0.00000E+000	4.34291E-003	3.59960E-001	-1.05147E+000	3.57750E+000	10	...........
	24	0.333333	7.30357E-001	5.99196E-003	0.00000E+000	4.37627E-003	3.59960E-001	-1.04468E+000	3.57750E+000	10	...........
	25	0.346667	7.36149E-001	5.99475E-003	0.00000E+000	4.41303E-003	3.59960E-001	-1.05335E+000	3.57750E+000	10	...........
	26	0.36	7.41976E-001	5.99404E-003	0.00000E+000	4.44744E-003	3.59960E-001	-1.05146E+000	3.57750E+000	10	...........
	27	0.373333	7.47783E-001	5.99221E-003	0.00000E+000	4.48087E-003	3.59960E-001	-1.04476E+000	3.57750E+000	10	...........
	28	0.386667	7.53617E-001	5.99458E-003	0.00000E+000	4.51762E-003	3.59960E-001	-1.05371E+000	3.57750E+000	10	...........
	29	0.4	7.59416E-001	5.99478E-003	0.00000E+000	4.55254E-003	3.59960E-001	-1.05159E+000	3.57750E+000	10	...........
	30	0.413333	7.65196E-001	5.99536E-003	0.00000E+000	4.58762E-003	3.59960E-001	-1.04437E+000	3.57750E+000	10	...........
	31	0.426667	7.71027E-001	5.99598E-003	0.00000E+000	4.62306E-003	3.59960E-001	-1.05318E+000	3.57750E+000	10	...........
	32	0.44	7.76829E-001	5.99493E-003	0.00000E+000	4.65703E-003	3.59960E-001	-1.05169E+000	3.57750E+000	10	...........
	33	0.453333	7.82612E-001	5.99443E-003	0.00000E+000	4.69131E-003	3.59960E-001	-1.04458E+000	3.57750E+000	10	...........
	34	0.466667	7.88393E-001	5.99488E-003	0.00000E+000	4.72632E-003	3.59960E-001	-1.05311E+000	3.57750E+000	10	...........
	35	0.48	7.94192E-001	5.99538E-003	0.00000E+000	4.76148E-003	3.59960E-001	-1.05173E+000	3.57750E+000	10	...........
	36	0.493333	7.99979E-001	5.99544E-003	0.00000E+000	4.79622E-003	3.59960E-001	-1.04423E+000	3.57750E+000	10	...........
	37	0.506667	8.05755E-001	5.99257E-003	0.00000E+000	4.82854E-003	3.59960E-001	-1.05303E+000	3.57750E+000	10	...........
	38	0.52	8.11518E-001	5.99293E-003	0.00000E+000	4.86337E-003	3.59960E-001	-1.05212E+000	3.57750E+000	10	...........
	39	0.533333	8.17334E-001	5.99447E-003	0.00000E+000	4.89948E-003	3.59960E-001	-1.04464E+000	3.57750E+000	10	...........
	40	0.546667	8.23126E-001	5.99391E-003	0.00000E+000	4.93374E-003	3.59960E-001	-1.05292E+000	3.57750E+000	10	...........
	41	0.56	8.28899E-001	5.99417E-003	0.00000E+000	4.96856E-003	3.59960E-001	-1.05227E+000	3.57750E+000	10	...........
	42	0.573333	8.34629E-001	5.99311E-003	0.00000E+000	5.00203E-003	3.59960E-001	-1.04443E+000	3.57750E+000	10	...........
	43	0.586667	8.40419E-001	5.99469E-003	0.00000E+000	5.03805E-003	3.59960E-001	-1.05274E+000	3.57750E+000	10	...........
	44	0.6	8.46222E-001	5.99894E-003	0.00000E+000	5.07644E-003	3.59960E-001	-1.05229E+000	3.57750E+000	10	...........
	45	0.613333	8.51984E-001	5.99113E-003	0.00000E+000	5.10435E-003	3.59960E-001	-1.04406E+000	3.57750E+000	10	...........
	46	0.626667	8.57739E-001	5.99690E-003	0.00000E+000	5.14377E-003	3.59960E-001	-1.05208E+000	3.57750E+000	10	...........
	47	0.64	8.63478E-001	5.99221E-003	0.00000E+000	5.17414E-003	3.59960E-001	-1.05216E+000	3.57750E+000	10	...........
	48	0.653333	8.69257E-001	5.99366E-003	0.00000E+000	5.21003E-003	3.59960E-001	-1.04394E+000	3.57750E+000	10	...........
	49	0.666667	8.75033E-001	5.99493E-003	0.00000E+000	5.24576E-003	3.59960E-001	-1.05195E+000	3.57750E+000	10	...........
	50	0.68	8.80697E-001	5.99166E-003	0.00000E+000	5.27684E-003	3.59960E-001	-1.05207E+000	3.57750E+000	10	...........
	51	0.693333	8.86404E-001	5.99566E-003	0.00000E+000	5.31458E-003	3.59960E-001	-1.04400E+000	3.57750E+000	10	...........
	52	0.706667	8.92125E-001	5.99195E-003	0.00000E+000	5.34557E-003	3.59960E-001	-1.05173E+000	3.57750E+000	10	...........
	53	0.72	8.97852E-001	5.99432E-003	0.00000E+000	5.38202E-003	3.59960E-001	-1.05229E+000	3.57750E+000	10	...........
	54	0.733333	9.03533E-001	5.99414E-003	0.00000E+000	5.41590E-003	3.59960E-001	-1.04398E+000	3.57750E+000	10	...........
	55	0.746667	9.09252E-001	5.99369E-003	0.00000E+000	5.44977E-003	3.59960E-001	-1.05124E+000	3.57750E+000	10	...........
	56	0.76	9.14898E-001	5.99159E-003	0.00000E+000	5.48169E-003	3.59960E-001	-1.05239E+000	3.57750E+000	10	...........
	57	0.773333	9.20533E-001	5.99108E-003	0.00000E+000	5.51499E-003	3.59960E-001	-1.04397E+000	3.57750E+000	10	...........
	58	0.786667	9.26189E-001	5.99078E-003	0.00000E+000	5.54859E-003	3.59960E-001	-1.05157E+000	3.57750E+000	10	...........
	59	0.8	9.31800E-001	5.99669E-003	0.00000E+000	5.58772E-003	3.59960E-001	-1.05268E+000	3.57750E+000	10	...........
	60	0.813333	9.37403E-001	5.99236E-003	0.00000E+000	5.61726E-003	3.59960E-001	-1.04420E+000	3.57750E+000	10	...........
	61	0.826667	9.42977E-001	5.99537E-003	0.00000E+000	5.65349E-003	3.59960E-001	-1.05153E+000	3.57750E+000	10	...........
	62	0.84	9.48547E-001	5.99733E-003	0.00000E+000	5.68875E-003	3.59960E-001	-1.05320E+000	3.57750E+000	10	...........
	63	0.853333	9.54074E-001	5.99277E-003	0.00000E+000	5.71755E-003	3.59960E-001	-1.04455E+000	3.57750E+000	10	...........
	64	0.866667	9.59563E-001	5.99027E-003	0.00000E+000	5.74804E-003	3.59960E-001	-1.05150E+000	3.57750E+000	10	...........
	65	0.88	9.65040E-001	5.99080E-003	0.00000E+000	5.78136E-003	3.59960E-001	-1.05298E+000	3.57750E+000	10	...........
	66	0.893333	9.70499E-001	5.99615E-003	0.00000E+000	5.81926E-003	3.59960E-001	-1.04428E+000	3.57750E+000	10	...........
	67	0.906667	9.75969E-001	5.99596E-003	0.00000E+000	5.85187E-003	3.59960E-001	-1.05121E+000	3.57750E+000	10	...........
	68	0.92	9.81336E-001	5.99486E-003	0.00000E+000	5.88297E-003	3.59960E-001	-1.05332E+000	3.57750E+000	10	...........
	69	0.933333	9.86703E-001	5.99287E-003	0.00000E+000	5.91318E-003	3.59960E-001	-1.04402E+000	3.57750E+000	10	...........
	70	0.946667	9.92006E-001	6.00147E-003	0.00000E+000	5.95349E-003	3.59960E-001	-1.05049E+000	3.57750E+000	10	...........
	71	0.96	9.97308E-001	5.99148E-003	0.00000E+000	5.97535E-003	3.59960E-001	-1.05287E+000	3.57750E+000	10	...........
	72	0.96167	1.00031E+000	5.99705E-003	0.00000E+000	5.99893E-003	3.59960E-001	-1.05606E+000	3.57750E+000	10	...........
STARTTIMEOFFSET	QUANT	131.4333	Start Time Offset (s)