File: Data/CV_CRGO300517_1/PWRCCD_CRGO300517_1/CHARGE_DISCHARGE/CHARGE_#280.DTA
EXPLAIN
TAG	PWR800_CHARGE
TITLE	LABEL	PWR Cyclic Charge Discharge (Cell) - Charge Step	Test &Identifier
DATE	LABEL	22-6-2017	Date
TIME	LABEL	15:47:07	Time
NOTES	NOTES	3	&Notes...
	supercap test cell
	0.6mg
	6M KOH
PSTAT	PSTAT	IFC5000-01520	Potentiostat
CAPACITY	QUANT	1.00000E-003	Capacity (A-hr)
CELLTYPE	SELECTOR	1	&Cell Type
WORKINGCONNECTION	SELECTOR	0	&Working Lead
MAXCHARGETIME	VARIABLEANDUNITS	1.00000E+002	s	1.00000E+002	second(s)	Max &Charge Time
CHARGECURRENT	QUANT	6.00000E-003	&Charge Current (A)
VOLTAGEFINISH	TWOPARAM	F	1.00000E-003	3.60000E+003	&Voltage Finish	 I (A) < 	Max Time(s)
SAMPLETIME	QUANT	1.00000E-002	Sa&mple Period (s)
CHARGESTOPAT1	MULTIPARAM	4	1.00000E+000	Charge Stop At &1	Voltage > Limit	V
CHARGESTOPAT2	MULTIPARAM	0	0.00000E+000	Charge Stop At &2	None	N/A
AESBHCSELECTOR	TOGGLE	F	Save Both Half Cells
IRCOMP	TOGGLE	F	IR &Measure
EOC	QUANT	0	Open Circuit (V)
SEQUENCER	TOGGLE	TRUE	Run as Sequence
PSTATMODEL	IQUANT	53	Pstat Model
PSTATSECTION	LABEL	IFC5000-01520	Pstat Section
PSTATSERIALNO	LABEL	01520	Pstat Serial Number
CTRLMODE	IQUANT	0	Control Mode
ELECTROMETER	IQUANT	1	RE=0 or CS=1
IESTAB	IQUANT	0	I/E Stability
CASPEED	IQUANT	4	Control Amp Speed
CONVENTION	IQUANT	1	Current Convention
ICHRANGE	IQUANT	2	Ich Range
ICHRANGEMODE	TOGGLE	T	Ich Auto Range
ICHOFFSETENABLE	TOGGLE	F	Ich Offset Enable
ICHOFFSET	QUANT	0	Ich Offset (V)
ICHFILTER	IQUANT	1	Ich Filter
VCHRANGE	IQUANT	2	Vch Range
VCHRANGEMODE	TOGGLE	T	Vch Auto Range
VCHOFFSETENABLE	TOGGLE	F	Vch Offset Enable
VCHOFFSET	QUANT	0	Vch Offset (V)
VCHFILTER	IQUANT	1	Vch Filter
IERANGELOWERLIMIT	IQUANT	9	I/E Range Lower Limit
IERANGEMODE	TOGGLE	F	I/E AutoRange
IERANGE	IQUANT	10	I/E Range
ACHSELECT	IQUANT	1	Ach Select
ACHRANGE	IQUANT	2	Ach Range
ACHOFFSETENABLE	TOGGLE	F	Ach Offset Enable
ACHOFFSET	QUANT	0	Ach Offset (V)
ACHFILTER	IQUANT	1	Ach Filter
CABLEID	IQUANT	14	Cable ID
DCCALDATE	LABEL	20-10-2016	DC Calibration Date
ACCALDATE	LABEL	12/3/2015	AC Calibration Date
FRAMEWORKVERSION	QUANT	7.01	Framework Version
INSTRUMENTVERSION	LABEL	4.00	Instrument Version
CURVE	TABLE	63
	Pt	T	Vf	Im	Vu	Pwr	Sig	Ach	Temp	IERange	Over
	#	s	V	A	V	W	V	V	deg C	#	bits
	0	0.013333	6.14538E-001	5.98858E-003	0.00000E+000	3.68021E-003	3.59960E-001	-1.10374E+000	3.57700E+000	10	...........
	1	0.026667	6.23170E-001	5.99188E-003	0.00000E+000	3.73396E-003	3.59960E-001	-1.11284E+000	3.57700E+000	10	...........
	2	0.04	6.31003E-001	5.99311E-003	0.00000E+000	3.78167E-003	3.59960E-001	-1.10791E+000	3.57700E+000	10	...........
	3	0.053333	6.38504E-001	5.99645E-003	0.00000E+000	3.82876E-003	3.59960E-001	-1.10393E+000	3.57796E+000	10	...........
	4	0.066667	6.45703E-001	5.99026E-003	0.00000E+000	3.86793E-003	3.59960E-001	-1.11273E+000	3.57810E+000	10	...........
	5	0.08	6.52686E-001	5.99369E-003	0.00000E+000	3.91199E-003	3.59960E-001	-1.10774E+000	3.57810E+000	10	...........
	6	0.093333	6.59562E-001	5.99503E-003	0.00000E+000	3.95410E-003	3.59960E-001	-1.10366E+000	3.57810E+000	10	...........
	7	0.106667	6.66344E-001	5.99415E-003	0.00000E+000	3.99417E-003	3.59960E-001	-1.11236E+000	3.57810E+000	10	...........
	8	0.12	6.73081E-001	5.99670E-003	0.00000E+000	4.03626E-003	3.59960E-001	-1.10775E+000	3.57810E+000	10	...........
	9	0.133333	6.79674E-001	5.99410E-003	0.00000E+000	4.07404E-003	3.59960E-001	-1.10343E+000	3.57810E+000	10	...........
	10	0.146667	6.86217E-001	5.99507E-003	0.00000E+000	4.11392E-003	3.59960E-001	-1.11242E+000	3.57810E+000	10	...........
	11	0.16	6.92732E-001	5.98965E-003	0.00000E+000	4.14922E-003	3.59960E-001	-1.10765E+000	3.57810E+000	10	...........
	12	0.173333	6.99202E-001	5.99600E-003	0.00000E+000	4.19241E-003	3.59960E-001	-1.10342E+000	3.57810E+000	10	...........
	13	0.186667	7.05606E-001	5.99264E-003	0.00000E+000	4.22845E-003	3.59960E-001	-1.11234E+000	3.57810E+000	10	...........
	14	0.2	7.12003E-001	5.99287E-003	0.00000E+000	4.26694E-003	3.59960E-001	-1.10764E+000	3.57810E+000	10	...........
	15	0.213333	7.18445E-001	5.99623E-003	0.00000E+000	4.30796E-003	3.59960E-001	-1.10329E+000	3.57810E+000	10	...........
	16	0.226667	7.24802E-001	5.99592E-003	0.00000E+000	4.34586E-003	3.59960E-001	-1.11213E+000	3.57810E+000	10	...........
	17	0.24	7.31153E-001	5.99249E-003	0.00000E+000	4.38143E-003	3.59960E-001	-1.10763E+000	3.57810E+000	10	...........
	18	0.253333	7.37479E-001	5.99492E-003	0.00000E+000	4.42113E-003	3.59960E-001	-1.10349E+000	3.57810E+000	10	...........
	19	0.266667	7.43796E-001	5.99535E-003	0.00000E+000	4.45931E-003	3.59960E-001	-1.11214E+000	3.57810E+000	10	...........
	20	0.28	7.50054E-001	5.99292E-003	0.00000E+000	4.49501E-003	3.59960E-001	-1.10751E+000	3.57810E+000	10	...........
	21	0.293333	7.56310E-001	5.99668E-003	0.00000E+000	4.53535E-003	3.59960E-001	-1.10338E+000	3.57810E+000	10	...........
	22	0.306667	7.62549E-001	5.99415E-003	0.00000E+000	4.57083E-003	3.59960E-001	-1.11216E+000	3.57810E+000	10	...........
	23	0.32	7.68839E-001	5.99332E-003	0.00000E+000	4.60790E-003	3.59960E-001	-1.10789E+000	3.57810E+000	10	...........
	24	0.333333	7.75068E-001	5.99188E-003	0.00000E+000	4.64412E-003	3.59960E-001	-1.10360E+000	3.57810E+000	10	...........
	25	0.346667	7.81297E-001	5.99243E-003	0.00000E+000	4.68186E-003	3.59960E-001	-1.11201E+000	3.57810E+000	10	...........
	26	0.36	7.87528E-001	5.99544E-003	0.00000E+000	4.72158E-003	3.59960E-001	-1.10772E+000	3.57810E+000	10	...........
	27	0.373333	7.93760E-001	5.99350E-003	0.00000E+000	4.75740E-003	3.59960E-001	-1.10339E+000	3.57810E+000	10	...........
	28	0.386667	7.99983E-001	5.99590E-003	0.00000E+000	4.79661E-003	3.59960E-001	-1.11153E+000	3.57810E+000	10	...........
	29	0.4	8.06151E-001	5.99402E-003	0.00000E+000	4.83209E-003	3.59960E-001	-1.10754E+000	3.57810E+000	10	...........
	30	0.413333	8.12325E-001	5.99395E-003	0.00000E+000	4.86903E-003	3.59960E-001	-1.10289E+000	3.57810E+000	10	...........
	31	0.426667	8.18577E-001	5.99599E-003	0.00000E+000	4.90818E-003	3.59960E-001	-1.11098E+000	3.57810E+000	10	...........
	32	0.44	8.24700E-001	5.99060E-003	0.00000E+000	4.94045E-003	3.59960E-001	-1.10705E+000	3.57810E+000	10	...........
	33	0.453333	8.30876E-001	5.99621E-003	0.00000E+000	4.98211E-003	3.59960E-001	-1.10278E+000	3.57810E+000	10	...........
	34	0.466667	8.37012E-001	5.99222E-003	0.00000E+000	5.01556E-003	3.59960E-001	-1.11071E+000	3.57810E+000	10	...........
	35	0.48	8.43127E-001	5.99422E-003	0.00000E+000	5.05389E-003	3.59960E-001	-1.10706E+000	3.57810E+000	10	...........
	36	0.493333	8.49270E-001	5.99763E-003	0.00000E+000	5.09360E-003	3.59960E-001	-1.10268E+000	3.57810E+000	10	...........
	37	0.506667	8.55340E-001	5.99387E-003	0.00000E+000	5.12680E-003	3.59960E-001	-1.11071E+000	3.57810E+000	10	...........
	38	0.52	8.61422E-001	5.99239E-003	0.00000E+000	5.16198E-003	3.59960E-001	-1.10714E+000	3.57810E+000	10	...........
	39	0.533333	8.67537E-001	5.99322E-003	0.00000E+000	5.19934E-003	3.59960E-001	-1.10239E+000	3.57810E+000	10	...........
	40	0.546667	8.73602E-001	5.99092E-003	0.00000E+000	5.23368E-003	3.59960E-001	-1.11048E+000	3.57810E+000	10	...........
	41	0.56	8.79612E-001	5.99824E-003	0.00000E+000	5.27612E-003	3.59960E-001	-1.10699E+000	3.57810E+000	10	...........
	42	0.573333	8.85639E-001	5.99421E-003	0.00000E+000	5.30871E-003	3.59960E-001	-1.10239E+000	3.57810E+000	10	...........
	43	0.586667	8.91669E-001	5.99913E-003	0.00000E+000	5.34924E-003	3.59960E-001	-1.11043E+000	3.57810E+000	10	...........
	44	0.6	8.97651E-001	5.99311E-003	0.00000E+000	5.37973E-003	3.59960E-001	-1.10701E+000	3.57810E+000	10	...........
	45	0.613333	9.03638E-001	5.99623E-003	0.00000E+000	5.41843E-003	3.59960E-001	-1.10236E+000	3.57810E+000	10	...........
	46	0.626667	9.09608E-001	5.99664E-003	0.00000E+000	5.45459E-003	3.59960E-001	-1.11025E+000	3.57810E+000	10	...........
	47	0.64	9.15528E-001	5.99514E-003	0.00000E+000	5.48871E-003	3.59960E-001	-1.10725E+000	3.57810E+000	10	...........
	48	0.653333	9.21437E-001	5.99058E-003	0.00000E+000	5.51994E-003	3.59960E-001	-1.10249E+000	3.57810E+000	10	...........
	49	0.666667	9.27328E-001	5.99284E-003	0.00000E+000	5.55733E-003	3.59960E-001	-1.11050E+000	3.57810E+000	10	...........
	50	0.68	9.33139E-001	5.99420E-003	0.00000E+000	5.59342E-003	3.59960E-001	-1.10725E+000	3.57810E+000	10	...........
	51	0.693333	9.38918E-001	5.99642E-003	0.00000E+000	5.63014E-003	3.59960E-001	-1.10257E+000	3.57810E+000	10	...........
	52	0.706667	9.44722E-001	5.99471E-003	0.00000E+000	5.66334E-003	3.59960E-001	-1.11054E+000	3.57810E+000	10	...........
	53	0.72	9.50547E-001	5.99903E-003	0.00000E+000	5.70236E-003	3.59960E-001	-1.10743E+000	3.57810E+000	10	...........
	54	0.733333	9.56183E-001	5.99155E-003	0.00000E+000	5.72902E-003	3.59960E-001	-1.10252E+000	3.57810E+000	10	...........
	55	0.746667	9.61842E-001	5.99191E-003	0.00000E+000	5.76328E-003	3.59960E-001	-1.10999E+000	3.57810E+000	10	...........
	56	0.76	9.67427E-001	5.99045E-003	0.00000E+000	5.79533E-003	3.59960E-001	-1.10701E+000	3.57810E+000	10	...........
	57	0.773333	9.73090E-001	5.99361E-003	0.00000E+000	5.83233E-003	3.59960E-001	-1.10238E+000	3.57810E+000	10	...........
	58	0.786667	9.78657E-001	5.99389E-003	0.00000E+000	5.86596E-003	3.59960E-001	-1.11005E+000	3.57810E+000	10	...........
	59	0.8	9.84151E-001	5.99558E-003	0.00000E+000	5.90055E-003	3.59960E-001	-1.10733E+000	3.57810E+000	10	...........
	60	0.813333	9.89628E-001	5.99411E-003	0.00000E+000	5.93194E-003	3.59960E-001	-1.10223E+000	3.57810E+000	10	...........
	61	0.826667	9.95076E-001	5.99654E-003	0.00000E+000	5.96702E-003	3.59960E-001	-1.10996E+000	3.57810E+000	10	...........
	62	0.833333	9.99139E-001	5.99705E-003	0.00000E+000	5.99188E-003	3.59960E-001	-1.09983E+000	3.57810E+000	10	...........
STARTTIMEOFFSET	QUANT	508.075	Start Time Offset (s)