File: Data/CV_CRGO300517_1/PWRCCD_CRGO300517_1/CHARGE_DISCHARGE/CHARGE_#752.DTA
EXPLAIN
TAG	PWR800_CHARGE
TITLE	LABEL	PWR Cyclic Charge Discharge (Cell) - Charge Step	Test &Identifier
DATE	LABEL	22-6-2017	Date
TIME	LABEL	16:05:30	Time
NOTES	NOTES	3	&Notes...
	supercap test cell
	0.6mg
	6M KOH
PSTAT	PSTAT	IFC5000-01520	Potentiostat
CAPACITY	QUANT	1.00000E-003	Capacity (A-hr)
CELLTYPE	SELECTOR	1	&Cell Type
WORKINGCONNECTION	SELECTOR	0	&Working Lead
MAXCHARGETIME	VARIABLEANDUNITS	1.00000E+002	s	1.00000E+002	second(s)	Max &Charge Time
CHARGECURRENT	QUANT	6.00000E-003	&Charge Current (A)
VOLTAGEFINISH	TWOPARAM	F	1.00000E-003	3.60000E+003	&Voltage Finish	 I (A) < 	Max Time(s)
SAMPLETIME	QUANT	1.00000E-002	Sa&mple Period (s)
CHARGESTOPAT1	MULTIPARAM	4	1.00000E+000	Charge Stop At &1	Voltage > Limit	V
CHARGESTOPAT2	MULTIPARAM	0	0.00000E+000	Charge Stop At &2	None	N/A
AESBHCSELECTOR	TOGGLE	F	Save Both Half Cells
IRCOMP	TOGGLE	F	IR &Measure
EOC	QUANT	0	Open Circuit (V)
SEQUENCER	TOGGLE	TRUE	Run as Sequence
PSTATMODEL	IQUANT	53	Pstat Model
PSTATSECTION	LABEL	IFC5000-01520	Pstat Section
PSTATSERIALNO	LABEL	01520	Pstat Serial Number
CTRLMODE	IQUANT	0	Control Mode
ELECTROMETER	IQUANT	1	RE=0 or CS=1
IESTAB	IQUANT	0	I/E Stability
CASPEED	IQUANT	4	Control Amp Speed
CONVENTION	IQUANT	1	Current Convention
ICHRANGE	IQUANT	2	Ich Range
ICHRANGEMODE	TOGGLE	T	Ich Auto Range
ICHOFFSETENABLE	TOGGLE	F	Ich Offset Enable
ICHOFFSET	QUANT	0	Ich Offset (V)
ICHFILTER	IQUANT	1	Ich Filter
VCHRANGE	IQUANT	2	Vch Range
VCHRANGEMODE	TOGGLE	T	Vch Auto Range
VCHOFFSETENABLE	TOGGLE	F	Vch Offset Enable
VCHOFFSET	QUANT	0	Vch Offset (V)
VCHFILTER	IQUANT	1	Vch Filter
IERANGELOWERLIMIT	IQUANT	9	I/E Range Lower Limit
IERANGEMODE	TOGGLE	F	I/E AutoRange
IERANGE	IQUANT	10	I/E Range
ACHSELECT	IQUANT	1	Ach Select
ACHRANGE	IQUANT	2	Ach Range
ACHOFFSETENABLE	TOGGLE	F	Ach Offset Enable
ACHOFFSET	QUANT	0	Ach Offset (V)
ACHFILTER	IQUANT	1	Ach Filter
CABLEID	IQUANT	14	Cable ID
DCCALDATE	LABEL	20-10-2016	DC Calibration Date
ACCALDATE	LABEL	12/3/2015	AC Calibration Date
FRAMEWORKVERSION	QUANT	7.01	Framework Version
INSTRUMENTVERSION	LABEL	4.00	Instrument Version
CURVE	TABLE	55
	Pt	T	Vf	Im	Vu	Pwr	Sig	Ach	Temp	IERange	Over
	#	s	V	A	V	W	V	V	deg C	#	bits
	0	0.013333	6.47305E-001	5.99141E-003	0.00000E+000	3.87827E-003	3.59960E-001	-1.15949E+000	3.57660E+000	10	...........
	1	0.026667	6.56333E-001	5.98920E-003	0.00000E+000	3.93091E-003	3.59960E-001	-1.16996E+000	3.57660E+000	10	...........
	2	0.04	6.64705E-001	5.99510E-003	0.00000E+000	3.98497E-003	3.59960E-001	-1.15911E+000	3.57660E+000	10	...........
	3	0.053333	6.72675E-001	5.99625E-003	0.00000E+000	4.03353E-003	3.59960E-001	-1.15922E+000	3.57660E+000	10	...........
	4	0.066667	6.80342E-001	5.99141E-003	0.00000E+000	4.07621E-003	3.59960E-001	-1.16996E+000	3.57660E+000	10	...........
	5	0.08	6.87787E-001	5.99190E-003	0.00000E+000	4.12116E-003	3.59960E-001	-1.15912E+000	3.57660E+000	10	...........
	6	0.093333	6.95132E-001	5.99663E-003	0.00000E+000	4.16845E-003	3.59960E-001	-1.15954E+000	3.57660E+000	10	...........
	7	0.106667	7.02330E-001	5.99722E-003	0.00000E+000	4.21203E-003	3.59960E-001	-1.16993E+000	3.57660E+000	10	...........
	8	0.12	7.09463E-001	5.99384E-003	0.00000E+000	4.25241E-003	3.59960E-001	-1.15893E+000	3.57660E+000	10	...........
	9	0.133333	7.16484E-001	5.98634E-003	0.00000E+000	4.28912E-003	3.59960E-001	-1.15930E+000	3.57660E+000	10	...........
	10	0.146667	7.23500E-001	5.99165E-003	0.00000E+000	4.33496E-003	3.59960E-001	-1.16982E+000	3.57660E+000	10	...........
	11	0.16	7.30458E-001	5.99150E-003	0.00000E+000	4.37654E-003	3.59960E-001	-1.15911E+000	3.57660E+000	10	...........
	12	0.173333	7.37316E-001	5.99359E-003	0.00000E+000	4.41917E-003	3.59960E-001	-1.15965E+000	3.57660E+000	10	...........
	13	0.186667	7.44207E-001	5.99352E-003	0.00000E+000	4.46042E-003	3.59960E-001	-1.16970E+000	3.57660E+000	10	...........
	14	0.2	7.51054E-001	5.99333E-003	0.00000E+000	4.50132E-003	3.59960E-001	-1.15889E+000	3.57660E+000	10	...........
	15	0.213333	7.57826E-001	5.99442E-003	0.00000E+000	4.54272E-003	3.59960E-001	-1.15976E+000	3.57660E+000	10	...........
	16	0.226667	7.64564E-001	5.99248E-003	0.00000E+000	4.58164E-003	3.59960E-001	-1.16998E+000	3.57660E+000	10	...........
	17	0.24	7.71367E-001	5.99550E-003	0.00000E+000	4.62473E-003	3.59960E-001	-1.15885E+000	3.57660E+000	10	...........
	18	0.253333	7.78032E-001	5.98997E-003	0.00000E+000	4.66039E-003	3.59960E-001	-1.15959E+000	3.57660E+000	10	...........
	19	0.266667	7.84734E-001	5.99407E-003	0.00000E+000	4.70376E-003	3.59960E-001	-1.16966E+000	3.57660E+000	10	...........
	20	0.28	7.91417E-001	5.99462E-003	0.00000E+000	4.74424E-003	3.59960E-001	-1.15847E+000	3.57660E+000	10	...........
	21	0.293333	7.98048E-001	5.99501E-003	0.00000E+000	4.78431E-003	3.59960E-001	-1.15947E+000	3.57660E+000	10	...........
	22	0.306667	8.04668E-001	5.99854E-003	0.00000E+000	4.82683E-003	3.59960E-001	-1.16905E+000	3.57660E+000	10	...........
	23	0.32	8.11229E-001	5.99551E-003	0.00000E+000	4.86373E-003	3.59960E-001	-1.15794E+000	3.57660E+000	10	...........
	24	0.333333	8.17844E-001	5.99424E-003	0.00000E+000	4.90235E-003	3.59960E-001	-1.15920E+000	3.57660E+000	10	...........
	25	0.346667	8.24415E-001	5.99164E-003	0.00000E+000	4.93960E-003	3.59960E-001	-1.16912E+000	3.57660E+000	10	...........
	26	0.36	8.30973E-001	5.99445E-003	0.00000E+000	4.98122E-003	3.59960E-001	-1.15801E+000	3.57660E+000	10	...........
	27	0.373333	8.37478E-001	5.99401E-003	0.00000E+000	5.01985E-003	3.59960E-001	-1.15933E+000	3.57660E+000	10	...........
	28	0.386667	8.43954E-001	5.99039E-003	0.00000E+000	5.05561E-003	3.59960E-001	-1.16870E+000	3.57660E+000	10	...........
	29	0.4	8.50454E-001	5.99621E-003	0.00000E+000	5.09950E-003	3.59960E-001	-1.15799E+000	3.57660E+000	10	...........
	30	0.413333	8.56902E-001	5.99186E-003	0.00000E+000	5.13444E-003	3.59960E-001	-1.15958E+000	3.57660E+000	10	...........
	31	0.426667	8.63273E-001	5.99059E-003	0.00000E+000	5.17152E-003	3.59960E-001	-1.16883E+000	3.57660E+000	10	...........
	32	0.44	8.69650E-001	5.99601E-003	0.00000E+000	5.21443E-003	3.59960E-001	-1.15777E+000	3.57660E+000	10	...........
	33	0.453333	8.76034E-001	5.99698E-003	0.00000E+000	5.25356E-003	3.59960E-001	-1.15928E+000	3.57660E+000	10	...........
	34	0.466667	8.82401E-001	5.99381E-003	0.00000E+000	5.28894E-003	3.59960E-001	-1.16865E+000	3.57660E+000	10	...........
	35	0.48	8.88715E-001	5.99331E-003	0.00000E+000	5.32635E-003	3.59960E-001	-1.15754E+000	3.57660E+000	10	...........
	36	0.493333	8.94991E-001	5.99098E-003	0.00000E+000	5.36187E-003	3.59960E-001	-1.15944E+000	3.57660E+000	10	...........
	37	0.506667	9.01201E-001	5.99545E-003	0.00000E+000	5.40311E-003	3.59960E-001	-1.16823E+000	3.57660E+000	10	...........
	38	0.52	9.07385E-001	5.99379E-003	0.00000E+000	5.43867E-003	3.59960E-001	-1.15748E+000	3.57660E+000	10	...........
	39	0.533333	9.13599E-001	5.99123E-003	0.00000E+000	5.47358E-003	3.59960E-001	-1.15944E+000	3.57660E+000	10	...........
	40	0.546667	9.19739E-001	5.99370E-003	0.00000E+000	5.51264E-003	3.59960E-001	-1.16837E+000	3.57660E+000	10	...........
	41	0.56	9.25864E-001	5.99083E-003	0.00000E+000	5.54669E-003	3.59960E-001	-1.15774E+000	3.57660E+000	10	...........
	42	0.573333	9.31908E-001	5.99786E-003	0.00000E+000	5.58945E-003	3.59960E-001	-1.15953E+000	3.57660E+000	10	...........
	43	0.586667	9.37957E-001	5.99679E-003	0.00000E+000	5.62473E-003	3.59960E-001	-1.16824E+000	3.57660E+000	10	...........
	44	0.6	9.43923E-001	5.99477E-003	0.00000E+000	5.65860E-003	3.59960E-001	-1.15734E+000	3.57660E+000	10	...........
	45	0.613333	9.49865E-001	5.99731E-003	0.00000E+000	5.69663E-003	3.59960E-001	-1.15940E+000	3.57660E+000	10	...........
	46	0.626667	9.55774E-001	5.99724E-003	0.00000E+000	5.73201E-003	3.59960E-001	-1.16811E+000	3.57660E+000	10	...........
	47	0.64	9.61586E-001	5.99232E-003	0.00000E+000	5.76213E-003	3.59960E-001	-1.15732E+000	3.57660E+000	10	...........
	48	0.653333	9.67396E-001	5.99466E-003	0.00000E+000	5.79921E-003	3.59960E-001	-1.15940E+000	3.57660E+000	10	...........
	49	0.666667	9.73164E-001	5.99841E-003	0.00000E+000	5.83744E-003	3.59960E-001	-1.16799E+000	3.57660E+000	10	...........
	50	0.68	9.78879E-001	5.99593E-003	0.00000E+000	5.86929E-003	3.59960E-001	-1.15721E+000	3.57660E+000	10	...........
	51	0.693333	9.84513E-001	5.99056E-003	0.00000E+000	5.89778E-003	3.59960E-001	-1.15942E+000	3.57660E+000	10	...........
	52	0.706667	9.90134E-001	5.99156E-003	0.00000E+000	5.93245E-003	3.59960E-001	-1.16784E+000	3.57660E+000	10	...........
	53	0.72	9.95675E-001	5.99215E-003	0.00000E+000	5.96624E-003	3.59960E-001	-1.15710E+000	3.57660E+000	10	...........
	54	0.725	9.99500E-001	5.99184E-003	0.00000E+000	5.98885E-003	3.59960E-001	-1.17050E+000	3.57660E+000	10	...........
STARTTIMEOFFSET	QUANT	1234.978	Start Time Offset (s)