File: Data/CV_CRGO300517_1/PWRCCD_CRGO300517_1/CHARGE_DISCHARGE/CHARGE_#546.DTA
EXPLAIN
TAG	PWR800_CHARGE
TITLE	LABEL	PWR Cyclic Charge Discharge (Cell) - Charge Step	Test &Identifier
DATE	LABEL	22-6-2017	Date
TIME	LABEL	15:57:42	Time
NOTES	NOTES	3	&Notes...
	supercap test cell
	0.6mg
	6M KOH
PSTAT	PSTAT	IFC5000-01520	Potentiostat
CAPACITY	QUANT	1.00000E-003	Capacity (A-hr)
CELLTYPE	SELECTOR	1	&Cell Type
WORKINGCONNECTION	SELECTOR	0	&Working Lead
MAXCHARGETIME	VARIABLEANDUNITS	1.00000E+002	s	1.00000E+002	second(s)	Max &Charge Time
CHARGECURRENT	QUANT	6.00000E-003	&Charge Current (A)
VOLTAGEFINISH	TWOPARAM	F	1.00000E-003	3.60000E+003	&Voltage Finish	 I (A) < 	Max Time(s)
SAMPLETIME	QUANT	1.00000E-002	Sa&mple Period (s)
CHARGESTOPAT1	MULTIPARAM	4	1.00000E+000	Charge Stop At &1	Voltage > Limit	V
CHARGESTOPAT2	MULTIPARAM	0	0.00000E+000	Charge Stop At &2	None	N/A
AESBHCSELECTOR	TOGGLE	F	Save Both Half Cells
IRCOMP	TOGGLE	F	IR &Measure
EOC	QUANT	0	Open Circuit (V)
SEQUENCER	TOGGLE	TRUE	Run as Sequence
PSTATMODEL	IQUANT	53	Pstat Model
PSTATSECTION	LABEL	IFC5000-01520	Pstat Section
PSTATSERIALNO	LABEL	01520	Pstat Serial Number
CTRLMODE	IQUANT	0	Control Mode
ELECTROMETER	IQUANT	1	RE=0 or CS=1
IESTAB	IQUANT	0	I/E Stability
CASPEED	IQUANT	4	Control Amp Speed
CONVENTION	IQUANT	1	Current Convention
ICHRANGE	IQUANT	2	Ich Range
ICHRANGEMODE	TOGGLE	T	Ich Auto Range
ICHOFFSETENABLE	TOGGLE	F	Ich Offset Enable
ICHOFFSET	QUANT	0	Ich Offset (V)
ICHFILTER	IQUANT	1	Ich Filter
VCHRANGE	IQUANT	2	Vch Range
VCHRANGEMODE	TOGGLE	T	Vch Auto Range
VCHOFFSETENABLE	TOGGLE	F	Vch Offset Enable
VCHOFFSET	QUANT	0	Vch Offset (V)
VCHFILTER	IQUANT	1	Vch Filter
IERANGELOWERLIMIT	IQUANT	9	I/E Range Lower Limit
IERANGEMODE	TOGGLE	F	I/E AutoRange
IERANGE	IQUANT	10	I/E Range
ACHSELECT	IQUANT	1	Ach Select
ACHRANGE	IQUANT	2	Ach Range
ACHOFFSETENABLE	TOGGLE	F	Ach Offset Enable
ACHOFFSET	QUANT	0	Ach Offset (V)
ACHFILTER	IQUANT	1	Ach Filter
CABLEID	IQUANT	14	Cable ID
DCCALDATE	LABEL	20-10-2016	DC Calibration Date
ACCALDATE	LABEL	12/3/2015	AC Calibration Date
FRAMEWORKVERSION	QUANT	7.01	Framework Version
INSTRUMENTVERSION	LABEL	4.00	Instrument Version
CURVE	TABLE	58
	Pt	T	Vf	Im	Vu	Pwr	Sig	Ach	Temp	IERange	Over
	#	s	V	A	V	W	V	V	deg C	#	bits
	0	0.013333	6.35059E-001	5.99347E-003	0.00000E+000	3.80621E-003	3.59960E-001	-1.13537E+000	3.57730E+000	10	...........
	1	0.026667	6.44002E-001	5.99531E-003	0.00000E+000	3.86100E-003	3.59960E-001	-1.14056E+000	3.57730E+000	10	...........
	2	0.04	6.52185E-001	5.98979E-003	0.00000E+000	3.90645E-003	3.59960E-001	-1.14305E+000	3.57730E+000	10	...........
	3	0.053333	6.59963E-001	5.99262E-003	0.00000E+000	3.95491E-003	3.59960E-001	-1.13482E+000	3.57730E+000	10	...........
	4	0.066667	6.67487E-001	5.98961E-003	0.00000E+000	3.99799E-003	3.59960E-001	-1.14070E+000	3.57730E+000	10	...........
	5	0.08	6.74786E-001	5.99565E-003	0.00000E+000	4.04578E-003	3.59960E-001	-1.14320E+000	3.57730E+000	10	...........
	6	0.093333	6.81980E-001	5.99579E-003	0.00000E+000	4.08901E-003	3.59960E-001	-1.13486E+000	3.57730E+000	10	...........
	7	0.106667	6.89028E-001	5.99667E-003	0.00000E+000	4.13187E-003	3.59960E-001	-1.14044E+000	3.57730E+000	10	...........
	8	0.12	6.95968E-001	5.99324E-003	0.00000E+000	4.17110E-003	3.59960E-001	-1.14295E+000	3.57724E+000	10	...........
	9	0.133333	7.02833E-001	5.99548E-003	0.00000E+000	4.21382E-003	3.59960E-001	-1.13478E+000	3.57720E+000	10	...........
	10	0.146667	7.09662E-001	5.99463E-003	0.00000E+000	4.25416E-003	3.59960E-001	-1.14066E+000	3.57720E+000	10	...........
	11	0.16	7.16502E-001	5.99183E-003	0.00000E+000	4.29316E-003	3.59960E-001	-1.14318E+000	3.57720E+000	10	...........
	12	0.173333	7.23262E-001	5.99478E-003	0.00000E+000	4.33580E-003	3.59960E-001	-1.13499E+000	3.57720E+000	10	...........
	13	0.186667	7.29952E-001	5.99648E-003	0.00000E+000	4.37714E-003	3.59960E-001	-1.14054E+000	3.57720E+000	10	...........
	14	0.2	7.36597E-001	5.99139E-003	0.00000E+000	4.41324E-003	3.59960E-001	-1.14320E+000	3.57720E+000	10	...........
	15	0.213333	7.43243E-001	5.99143E-003	0.00000E+000	4.45309E-003	3.59960E-001	-1.13497E+000	3.57720E+000	10	...........
	16	0.226667	7.49863E-001	5.99437E-003	0.00000E+000	4.49495E-003	3.59960E-001	-1.14053E+000	3.57720E+000	10	...........
	17	0.24	7.56479E-001	5.99877E-003	0.00000E+000	4.53794E-003	3.59960E-001	-1.14325E+000	3.57720E+000	10	...........
	18	0.253333	7.63040E-001	5.99544E-003	0.00000E+000	4.57476E-003	3.59960E-001	-1.13495E+000	3.57720E+000	10	...........
	19	0.266667	7.69590E-001	5.99118E-003	0.00000E+000	4.61076E-003	3.59960E-001	-1.14070E+000	3.57720E+000	10	...........
	20	0.28	7.76132E-001	5.99092E-003	0.00000E+000	4.64975E-003	3.59960E-001	-1.14352E+000	3.57720E+000	10	...........
	21	0.293333	7.82696E-001	5.99641E-003	0.00000E+000	4.69337E-003	3.59960E-001	-1.13520E+000	3.57720E+000	10	...........
	22	0.306667	7.89162E-001	5.99268E-003	0.00000E+000	4.72919E-003	3.59960E-001	-1.14054E+000	3.57720E+000	10	...........
	23	0.32	7.95635E-001	5.99619E-003	0.00000E+000	4.77078E-003	3.59960E-001	-1.14331E+000	3.57720E+000	10	...........
	24	0.333333	8.02070E-001	5.99654E-003	0.00000E+000	4.80965E-003	3.59960E-001	-1.13508E+000	3.57720E+000	10	...........
	25	0.346667	8.08546E-001	5.99372E-003	0.00000E+000	4.84620E-003	3.59960E-001	-1.14038E+000	3.57720E+000	10	...........
	26	0.36	8.14986E-001	5.99521E-003	0.00000E+000	4.88601E-003	3.59960E-001	-1.14301E+000	3.57720E+000	10	...........
	27	0.373333	8.21437E-001	5.99585E-003	0.00000E+000	4.92521E-003	3.59960E-001	-1.13461E+000	3.57720E+000	10	...........
	28	0.386667	8.27848E-001	5.99268E-003	0.00000E+000	4.96102E-003	3.59960E-001	-1.14024E+000	3.57720E+000	10	...........
	29	0.4	8.34225E-001	5.99518E-003	0.00000E+000	5.00133E-003	3.59960E-001	-1.14313E+000	3.57720E+000	10	...........
	30	0.413333	8.40585E-001	5.99155E-003	0.00000E+000	5.03641E-003	3.59960E-001	-1.13483E+000	3.57720E+000	10	...........
	31	0.426667	8.46941E-001	5.99226E-003	0.00000E+000	5.07509E-003	3.59960E-001	-1.14024E+000	3.57720E+000	10	...........
	32	0.44	8.53280E-001	5.99484E-003	0.00000E+000	5.11528E-003	3.59960E-001	-1.14297E+000	3.57720E+000	10	...........
	33	0.453333	8.59597E-001	5.98728E-003	0.00000E+000	5.14665E-003	3.59960E-001	-1.13455E+000	3.57720E+000	10	...........
	34	0.466667	8.65872E-001	5.99350E-003	0.00000E+000	5.18960E-003	3.59960E-001	-1.14025E+000	3.57720E+000	10	...........
	35	0.48	8.72164E-001	5.99289E-003	0.00000E+000	5.22679E-003	3.59960E-001	-1.14293E+000	3.57720E+000	10	...........
	36	0.493333	8.78409E-001	5.99386E-003	0.00000E+000	5.26506E-003	3.59960E-001	-1.13473E+000	3.57720E+000	10	...........
	37	0.506667	8.84590E-001	5.99052E-003	0.00000E+000	5.29915E-003	3.59960E-001	-1.14004E+000	3.57720E+000	10	...........
	38	0.52	8.90785E-001	5.99442E-003	0.00000E+000	5.33974E-003	3.59960E-001	-1.14282E+000	3.57720E+000	10	...........
	39	0.533333	8.96982E-001	5.99662E-003	0.00000E+000	5.37886E-003	3.59960E-001	-1.13472E+000	3.57720E+000	10	...........
	40	0.546667	9.03102E-001	5.99577E-003	0.00000E+000	5.41479E-003	3.59960E-001	-1.14038E+000	3.57720E+000	10	...........
	41	0.56	9.09228E-001	5.99128E-003	0.00000E+000	5.44744E-003	3.59960E-001	-1.14315E+000	3.57720E+000	10	...........
	42	0.573333	9.15255E-001	5.99268E-003	0.00000E+000	5.48483E-003	3.59960E-001	-1.13471E+000	3.57720E+000	10	...........
	43	0.586667	9.21382E-001	5.99422E-003	0.00000E+000	5.52297E-003	3.59960E-001	-1.14037E+000	3.57720E+000	10	...........
	44	0.6	9.27425E-001	5.99629E-003	0.00000E+000	5.56111E-003	3.59960E-001	-1.14333E+000	3.57720E+000	10	...........
	45	0.613333	9.33394E-001	5.99740E-003	0.00000E+000	5.59794E-003	3.59960E-001	-1.13483E+000	3.57720E+000	10	...........
	46	0.626667	9.39280E-001	5.99298E-003	0.00000E+000	5.62909E-003	3.59960E-001	-1.14036E+000	3.57720E+000	10	...........
	47	0.64	9.45187E-001	5.99090E-003	0.00000E+000	5.66253E-003	3.59960E-001	-1.14287E+000	3.57720E+000	10	...........
	48	0.653333	9.51080E-001	5.99463E-003	0.00000E+000	5.70137E-003	3.59960E-001	-1.13461E+000	3.57720E+000	10	...........
	49	0.666667	9.56872E-001	5.99480E-003	0.00000E+000	5.73626E-003	3.59960E-001	-1.13996E+000	3.57720E+000	10	...........
	50	0.68	9.62671E-001	5.99473E-003	0.00000E+000	5.77096E-003	3.59960E-001	-1.14279E+000	3.57720E+000	10	...........
	51	0.693333	9.68392E-001	5.99439E-003	0.00000E+000	5.80492E-003	3.59960E-001	-1.13443E+000	3.57720E+000	10	...........
	52	0.706667	9.74097E-001	5.99523E-003	0.00000E+000	5.83994E-003	3.59960E-001	-1.13972E+000	3.57720E+000	10	...........
	53	0.72	9.79753E-001	5.99515E-003	0.00000E+000	5.87376E-003	3.59960E-001	-1.14262E+000	3.57720E+000	10	...........
	54	0.733333	9.85304E-001	5.99539E-003	0.00000E+000	5.90728E-003	3.59960E-001	-1.13467E+000	3.57720E+000	10	...........
	55	0.746667	9.90858E-001	5.99185E-003	0.00000E+000	5.93707E-003	3.59960E-001	-1.14009E+000	3.57720E+000	10	...........
	56	0.76	9.96350E-001	5.99189E-003	0.00000E+000	5.97002E-003	3.59960E-001	-1.14260E+000	3.57720E+000	10	...........
	57	0.763333	9.99734E-001	5.98678E-003	0.00000E+000	5.98519E-003	3.59960E-001	-1.14037E+000	3.57720E+000	10	...........
STARTTIMEOFFSET	QUANT	929.4285	Start Time Offset (s)