File: Data/CV_CRGO300517_1/PWRCCD_CRGO300517_1/CHARGE_DISCHARGE/CHARGE_#352.DTA
EXPLAIN
TAG	PWR800_CHARGE
TITLE	LABEL	PWR Cyclic Charge Discharge (Cell) - Charge Step	Test &Identifier
DATE	LABEL	22-6-2017	Date
TIME	LABEL	15:50:03	Time
NOTES	NOTES	3	&Notes...
	supercap test cell
	0.6mg
	6M KOH
PSTAT	PSTAT	IFC5000-01520	Potentiostat
CAPACITY	QUANT	1.00000E-003	Capacity (A-hr)
CELLTYPE	SELECTOR	1	&Cell Type
WORKINGCONNECTION	SELECTOR	0	&Working Lead
MAXCHARGETIME	VARIABLEANDUNITS	1.00000E+002	s	1.00000E+002	second(s)	Max &Charge Time
CHARGECURRENT	QUANT	6.00000E-003	&Charge Current (A)
VOLTAGEFINISH	TWOPARAM	F	1.00000E-003	3.60000E+003	&Voltage Finish	 I (A) < 	Max Time(s)
SAMPLETIME	QUANT	1.00000E-002	Sa&mple Period (s)
CHARGESTOPAT1	MULTIPARAM	4	1.00000E+000	Charge Stop At &1	Voltage > Limit	V
CHARGESTOPAT2	MULTIPARAM	0	0.00000E+000	Charge Stop At &2	None	N/A
AESBHCSELECTOR	TOGGLE	F	Save Both Half Cells
IRCOMP	TOGGLE	F	IR &Measure
EOC	QUANT	0	Open Circuit (V)
SEQUENCER	TOGGLE	TRUE	Run as Sequence
PSTATMODEL	IQUANT	53	Pstat Model
PSTATSECTION	LABEL	IFC5000-01520	Pstat Section
PSTATSERIALNO	LABEL	01520	Pstat Serial Number
CTRLMODE	IQUANT	0	Control Mode
ELECTROMETER	IQUANT	1	RE=0 or CS=1
IESTAB	IQUANT	0	I/E Stability
CASPEED	IQUANT	4	Control Amp Speed
CONVENTION	IQUANT	1	Current Convention
ICHRANGE	IQUANT	2	Ich Range
ICHRANGEMODE	TOGGLE	T	Ich Auto Range
ICHOFFSETENABLE	TOGGLE	F	Ich Offset Enable
ICHOFFSET	QUANT	0	Ich Offset (V)
ICHFILTER	IQUANT	1	Ich Filter
VCHRANGE	IQUANT	2	Vch Range
VCHRANGEMODE	TOGGLE	T	Vch Auto Range
VCHOFFSETENABLE	TOGGLE	F	Vch Offset Enable
VCHOFFSET	QUANT	0	Vch Offset (V)
VCHFILTER	IQUANT	1	Vch Filter
IERANGELOWERLIMIT	IQUANT	9	I/E Range Lower Limit
IERANGEMODE	TOGGLE	F	I/E AutoRange
IERANGE	IQUANT	10	I/E Range
ACHSELECT	IQUANT	1	Ach Select
ACHRANGE	IQUANT	2	Ach Range
ACHOFFSETENABLE	TOGGLE	F	Ach Offset Enable
ACHOFFSET	QUANT	0	Ach Offset (V)
ACHFILTER	IQUANT	1	Ach Filter
CABLEID	IQUANT	14	Cable ID
DCCALDATE	LABEL	20-10-2016	DC Calibration Date
ACCALDATE	LABEL	12/3/2015	AC Calibration Date
FRAMEWORKVERSION	QUANT	7.01	Framework Version
INSTRUMENTVERSION	LABEL	4.00	Instrument Version
CURVE	TABLE	61
	Pt	T	Vf	Im	Vu	Pwr	Sig	Ach	Temp	IERange	Over
	#	s	V	A	V	W	V	V	deg C	#	bits
	0	0.013333	6.20949E-001	5.99671E-003	0.00000E+000	3.72365E-003	3.59960E-001	-1.12865E+000	3.57690E+000	10	...........
	1	0.026667	6.29613E-001	5.99483E-003	0.00000E+000	3.77443E-003	3.59960E-001	-1.11802E+000	3.57690E+000	10	...........
	2	0.04	6.37625E-001	5.99336E-003	0.00000E+000	3.82152E-003	3.59960E-001	-1.11985E+000	3.57690E+000	10	...........
	3	0.053333	6.45193E-001	5.99160E-003	0.00000E+000	3.86574E-003	3.59960E-001	-1.12861E+000	3.57690E+000	10	...........
	4	0.066667	6.52490E-001	5.98946E-003	0.00000E+000	3.90807E-003	3.59960E-001	-1.11785E+000	3.57690E+000	10	...........
	5	0.08	6.59617E-001	5.99639E-003	0.00000E+000	3.95532E-003	3.59960E-001	-1.11940E+000	3.57690E+000	10	...........
	6	0.093333	6.66608E-001	5.99243E-003	0.00000E+000	3.99460E-003	3.59960E-001	-1.12887E+000	3.57690E+000	10	...........
	7	0.106667	6.73423E-001	5.99114E-003	0.00000E+000	4.03457E-003	3.59960E-001	-1.11810E+000	3.57690E+000	10	...........
	8	0.12	6.80177E-001	5.99760E-003	0.00000E+000	4.07943E-003	3.59960E-001	-1.11985E+000	3.57690E+000	10	...........
	9	0.133333	6.86888E-001	5.99363E-003	0.00000E+000	4.11696E-003	3.59960E-001	-1.12895E+000	3.57690E+000	10	...........
	10	0.146667	6.93527E-001	5.99094E-003	0.00000E+000	4.15488E-003	3.59960E-001	-1.11805E+000	3.57690E+000	10	...........
	11	0.16	7.00127E-001	5.99686E-003	0.00000E+000	4.19856E-003	3.59960E-001	-1.11943E+000	3.57690E+000	10	...........
	12	0.173333	7.06659E-001	5.99340E-003	0.00000E+000	4.23529E-003	3.59960E-001	-1.12914E+000	3.57690E+000	10	...........
	13	0.186667	7.13155E-001	5.99189E-003	0.00000E+000	4.27315E-003	3.59960E-001	-1.11826E+000	3.57690E+000	10	...........
	14	0.2	7.19680E-001	5.99312E-003	0.00000E+000	4.31313E-003	3.59960E-001	-1.11894E+000	3.57690E+000	10	...........
	15	0.213333	7.26189E-001	5.99656E-003	0.00000E+000	4.35463E-003	3.59960E-001	-1.12846E+000	3.57690E+000	10	...........
	16	0.226667	7.32588E-001	5.99334E-003	0.00000E+000	4.39065E-003	3.59960E-001	-1.11753E+000	3.57690E+000	10	...........
	17	0.24	7.38961E-001	5.99223E-003	0.00000E+000	4.42802E-003	3.59960E-001	-1.11846E+000	3.57690E+000	10	...........
	18	0.253333	7.45394E-001	5.99493E-003	0.00000E+000	4.46858E-003	3.59960E-001	-1.12866E+000	3.57690E+000	10	...........
	19	0.266667	7.51775E-001	5.99365E-003	0.00000E+000	4.50587E-003	3.59960E-001	-1.11758E+000	3.57690E+000	10	...........
	20	0.28	7.58150E-001	5.99492E-003	0.00000E+000	4.54504E-003	3.59960E-001	-1.11833E+000	3.57690E+000	10	...........
	21	0.293333	7.64477E-001	5.99593E-003	0.00000E+000	4.58375E-003	3.59960E-001	-1.12849E+000	3.57690E+000	10	...........
	22	0.306667	7.70843E-001	5.99354E-003	0.00000E+000	4.62008E-003	3.59960E-001	-1.11766E+000	3.57690E+000	10	...........
	23	0.32	7.77167E-001	5.99598E-003	0.00000E+000	4.65988E-003	3.59960E-001	-1.11818E+000	3.57690E+000	10	...........
	24	0.333333	7.83473E-001	5.98924E-003	0.00000E+000	4.69241E-003	3.59960E-001	-1.12844E+000	3.57690E+000	10	...........
	25	0.346667	7.89795E-001	5.99319E-003	0.00000E+000	4.73339E-003	3.59960E-001	-1.11779E+000	3.57690E+000	10	...........
	26	0.36	7.96109E-001	5.99636E-003	0.00000E+000	4.77375E-003	3.59960E-001	-1.11791E+000	3.57690E+000	10	...........
	27	0.373333	8.02355E-001	5.99019E-003	0.00000E+000	4.80626E-003	3.59960E-001	-1.12836E+000	3.57690E+000	10	...........
	28	0.386667	8.08616E-001	5.98920E-003	0.00000E+000	4.84296E-003	3.59960E-001	-1.11787E+000	3.57690E+000	10	...........
	29	0.4	8.14869E-001	5.99119E-003	0.00000E+000	4.88204E-003	3.59960E-001	-1.11762E+000	3.57690E+000	10	...........
	30	0.413333	8.21142E-001	5.99455E-003	0.00000E+000	4.92238E-003	3.59960E-001	-1.12824E+000	3.57690E+000	10	...........
	31	0.426667	8.27371E-001	5.99565E-003	0.00000E+000	4.96063E-003	3.59960E-001	-1.11773E+000	3.57690E+000	10	...........
	32	0.44	8.33559E-001	5.99038E-003	0.00000E+000	4.99333E-003	3.59960E-001	-1.11757E+000	3.57690E+000	10	...........
	33	0.453333	8.39790E-001	5.99211E-003	0.00000E+000	5.03211E-003	3.59960E-001	-1.12838E+000	3.57690E+000	10	...........
	34	0.466667	8.46017E-001	5.99052E-003	0.00000E+000	5.06808E-003	3.59960E-001	-1.11800E+000	3.57690E+000	10	...........
	35	0.48	8.52174E-001	5.99567E-003	0.00000E+000	5.10935E-003	3.59960E-001	-1.11737E+000	3.57690E+000	10	...........
	36	0.493333	8.58352E-001	5.98822E-003	0.00000E+000	5.14000E-003	3.59960E-001	-1.12828E+000	3.57690E+000	10	...........
	37	0.506667	8.64495E-001	5.99471E-003	0.00000E+000	5.18240E-003	3.59960E-001	-1.11800E+000	3.57690E+000	10	...........
	38	0.52	8.70655E-001	5.99635E-003	0.00000E+000	5.22075E-003	3.59960E-001	-1.11719E+000	3.57690E+000	10	...........
	39	0.533333	8.76781E-001	5.99762E-003	0.00000E+000	5.25860E-003	3.59960E-001	-1.12781E+000	3.57690E+000	10	...........
	40	0.546667	8.82861E-001	5.98955E-003	0.00000E+000	5.28793E-003	3.59960E-001	-1.11758E+000	3.57690E+000	10	...........
	41	0.56	8.88930E-001	5.98898E-003	0.00000E+000	5.32379E-003	3.59960E-001	-1.11681E+000	3.57690E+000	10	...........
	42	0.573333	8.95006E-001	5.99553E-003	0.00000E+000	5.36604E-003	3.59960E-001	-1.12797E+000	3.57690E+000	10	...........
	43	0.586667	9.01042E-001	5.99450E-003	0.00000E+000	5.40130E-003	3.59960E-001	-1.11780E+000	3.57690E+000	10	...........
	44	0.6	9.07012E-001	5.99453E-003	0.00000E+000	5.43711E-003	3.59960E-001	-1.11683E+000	3.57690E+000	10	...........
	45	0.613333	9.12983E-001	5.99421E-003	0.00000E+000	5.47261E-003	3.59960E-001	-1.12780E+000	3.57690E+000	10	...........
	46	0.626667	9.18950E-001	5.99874E-003	0.00000E+000	5.51254E-003	3.59960E-001	-1.11802E+000	3.57690E+000	10	...........
	47	0.64	9.24871E-001	5.98805E-003	0.00000E+000	5.53818E-003	3.59960E-001	-1.11671E+000	3.57690E+000	10	...........
	48	0.653333	9.30762E-001	5.99228E-003	0.00000E+000	5.57739E-003	3.59960E-001	-1.12800E+000	3.57690E+000	10	...........
	49	0.666667	9.36599E-001	5.99534E-003	0.00000E+000	5.61523E-003	3.59960E-001	-1.11796E+000	3.57690E+000	10	...........
	50	0.68	9.42411E-001	5.99700E-003	0.00000E+000	5.65165E-003	3.59960E-001	-1.11656E+000	3.57690E+000	10	...........
	51	0.693333	9.48285E-001	5.99100E-003	0.00000E+000	5.68117E-003	3.59960E-001	-1.12781E+000	3.57690E+000	10	...........
	52	0.706667	9.54062E-001	6.00044E-003	0.00000E+000	5.72479E-003	3.59960E-001	-1.11816E+000	3.57690E+000	10	...........
	53	0.72	9.59789E-001	5.99822E-003	0.00000E+000	5.75703E-003	3.59960E-001	-1.11673E+000	3.57690E+000	10	...........
	54	0.733333	9.65440E-001	5.99238E-003	0.00000E+000	5.78529E-003	3.59960E-001	-1.12782E+000	3.57690E+000	10	...........
	55	0.746667	9.71097E-001	5.99499E-003	0.00000E+000	5.82172E-003	3.59960E-001	-1.11832E+000	3.57690E+000	10	...........
	56	0.76	9.76720E-001	5.99527E-003	0.00000E+000	5.85570E-003	3.59960E-001	-1.11667E+000	3.57690E+000	10	...........
	57	0.773333	9.82265E-001	5.99463E-003	0.00000E+000	5.88831E-003	3.59960E-001	-1.12808E+000	3.57690E+000	10	...........
	58	0.786667	9.87806E-001	5.99323E-003	0.00000E+000	5.92015E-003	3.59960E-001	-1.11878E+000	3.57690E+000	10	...........
	59	0.8	9.93269E-001	5.99569E-003	0.00000E+000	5.95533E-003	3.59960E-001	-1.11665E+000	3.57690E+000	10	...........
	60	0.811667	9.98336E-001	5.98949E-003	0.00000E+000	5.97952E-003	3.59960E-001	-1.12944E+000	3.57769E+000	10	...........
STARTTIMEOFFSET	QUANT	625.8831	Start Time Offset (s)