File: Data/CV_CRGO300517_1/PWRCCD_CRGO300517_1/CHARGE_DISCHARGE/CHARGE_#146.DTA
EXPLAIN
TAG	PWR800_CHARGE
TITLE	LABEL	PWR Cyclic Charge Discharge (Cell) - Charge Step	Test &Identifier
DATE	LABEL	22-6-2017	Date
TIME	LABEL	15:41:31	Time
NOTES	NOTES	3	&Notes...
	supercap test cell
	0.6mg
	6M KOH
PSTAT	PSTAT	IFC5000-01520	Potentiostat
CAPACITY	QUANT	1.00000E-003	Capacity (A-hr)
CELLTYPE	SELECTOR	1	&Cell Type
WORKINGCONNECTION	SELECTOR	0	&Working Lead
MAXCHARGETIME	VARIABLEANDUNITS	1.00000E+002	s	1.00000E+002	second(s)	Max &Charge Time
CHARGECURRENT	QUANT	6.00000E-003	&Charge Current (A)
VOLTAGEFINISH	TWOPARAM	F	1.00000E-003	3.60000E+003	&Voltage Finish	 I (A) < 	Max Time(s)
SAMPLETIME	QUANT	1.00000E-002	Sa&mple Period (s)
CHARGESTOPAT1	MULTIPARAM	4	1.00000E+000	Charge Stop At &1	Voltage > Limit	V
CHARGESTOPAT2	MULTIPARAM	0	0.00000E+000	Charge Stop At &2	None	N/A
AESBHCSELECTOR	TOGGLE	F	Save Both Half Cells
IRCOMP	TOGGLE	F	IR &Measure
EOC	QUANT	0	Open Circuit (V)
SEQUENCER	TOGGLE	TRUE	Run as Sequence
PSTATMODEL	IQUANT	53	Pstat Model
PSTATSECTION	LABEL	IFC5000-01520	Pstat Section
PSTATSERIALNO	LABEL	01520	Pstat Serial Number
CTRLMODE	IQUANT	0	Control Mode
ELECTROMETER	IQUANT	1	RE=0 or CS=1
IESTAB	IQUANT	0	I/E Stability
CASPEED	IQUANT	4	Control Amp Speed
CONVENTION	IQUANT	1	Current Convention
ICHRANGE	IQUANT	2	Ich Range
ICHRANGEMODE	TOGGLE	T	Ich Auto Range
ICHOFFSETENABLE	TOGGLE	F	Ich Offset Enable
ICHOFFSET	QUANT	0	Ich Offset (V)
ICHFILTER	IQUANT	1	Ich Filter
VCHRANGE	IQUANT	2	Vch Range
VCHRANGEMODE	TOGGLE	T	Vch Auto Range
VCHOFFSETENABLE	TOGGLE	F	Vch Offset Enable
VCHOFFSET	QUANT	0	Vch Offset (V)
VCHFILTER	IQUANT	1	Vch Filter
IERANGELOWERLIMIT	IQUANT	9	I/E Range Lower Limit
IERANGEMODE	TOGGLE	F	I/E AutoRange
IERANGE	IQUANT	10	I/E Range
ACHSELECT	IQUANT	1	Ach Select
ACHRANGE	IQUANT	2	Ach Range
ACHOFFSETENABLE	TOGGLE	F	Ach Offset Enable
ACHOFFSET	QUANT	0	Ach Offset (V)
ACHFILTER	IQUANT	1	Ach Filter
CABLEID	IQUANT	14	Cable ID
DCCALDATE	LABEL	20-10-2016	DC Calibration Date
ACCALDATE	LABEL	12/3/2015	AC Calibration Date
FRAMEWORKVERSION	QUANT	7.01	Framework Version
INSTRUMENTVERSION	LABEL	4.00	Instrument Version
CURVE	TABLE	68
	Pt	T	Vf	Im	Vu	Pwr	Sig	Ach	Temp	IERange	Over
	#	s	V	A	V	W	V	V	deg C	#	bits
	0	0.013333	5.97737E-001	5.99697E-003	0.00000E+000	3.58461E-003	3.59960E-001	-1.08576E+000	3.57710E+000	10	...........
	1	0.026667	6.06081E-001	5.99258E-003	0.00000E+000	3.63199E-003	3.59960E-001	-1.08890E+000	3.57710E+000	10	...........
	2	0.04	6.13814E-001	5.99681E-003	0.00000E+000	3.68092E-003	3.59960E-001	-1.09511E+000	3.57710E+000	10	...........
	3	0.053333	6.21094E-001	5.99238E-003	0.00000E+000	3.72183E-003	3.59960E-001	-1.08493E+000	3.57710E+000	10	...........
	4	0.066667	6.28098E-001	5.99768E-003	0.00000E+000	3.76713E-003	3.59960E-001	-1.08881E+000	3.57710E+000	10	...........
	5	0.08	6.34856E-001	5.99490E-003	0.00000E+000	3.80590E-003	3.59960E-001	-1.09531E+000	3.57710E+000	10	...........
	6	0.093333	6.41584E-001	5.99286E-003	0.00000E+000	3.84493E-003	3.59960E-001	-1.08517E+000	3.57710E+000	10	...........
	7	0.106667	6.48134E-001	5.99099E-003	0.00000E+000	3.88296E-003	3.59960E-001	-1.08890E+000	3.57710E+000	10	...........
	8	0.12	6.54591E-001	5.99331E-003	0.00000E+000	3.92317E-003	3.59960E-001	-1.09494E+000	3.57710E+000	10	...........
	9	0.133333	6.60980E-001	5.99367E-003	0.00000E+000	3.96169E-003	3.59960E-001	-1.08502E+000	3.57710E+000	10	...........
	10	0.146667	6.67359E-001	5.99043E-003	0.00000E+000	3.99777E-003	3.59960E-001	-1.08901E+000	3.57710E+000	10	...........
	11	0.16	6.73666E-001	5.99930E-003	0.00000E+000	4.04152E-003	3.59960E-001	-1.09502E+000	3.57710E+000	10	...........
	12	0.173333	6.79903E-001	5.99534E-003	0.00000E+000	4.07625E-003	3.59960E-001	-1.08475E+000	3.57710E+000	10	...........
	13	0.186667	6.86112E-001	5.99022E-003	0.00000E+000	4.10996E-003	3.59960E-001	-1.08876E+000	3.57710E+000	10	...........
	14	0.2	6.92321E-001	5.99416E-003	0.00000E+000	4.14988E-003	3.59960E-001	-1.09478E+000	3.57710E+000	10	...........
	15	0.213333	6.98449E-001	5.99512E-003	0.00000E+000	4.18728E-003	3.59960E-001	-1.08491E+000	3.57710E+000	10	...........
	16	0.226667	7.04611E-001	5.99298E-003	0.00000E+000	4.22272E-003	3.59960E-001	-1.08877E+000	3.57710E+000	10	...........
	17	0.24	7.10703E-001	5.98982E-003	0.00000E+000	4.25698E-003	3.59960E-001	-1.09470E+000	3.57710E+000	10	...........
	18	0.253333	7.16818E-001	5.99311E-003	0.00000E+000	4.29597E-003	3.59960E-001	-1.08466E+000	3.57710E+000	10	...........
	19	0.266667	7.22880E-001	5.99393E-003	0.00000E+000	4.33289E-003	3.59960E-001	-1.08894E+000	3.57710E+000	10	...........
	20	0.28	7.28951E-001	5.99320E-003	0.00000E+000	4.36875E-003	3.59960E-001	-1.09468E+000	3.57710E+000	10	...........
	21	0.293333	7.35046E-001	5.99202E-003	0.00000E+000	4.40441E-003	3.59960E-001	-1.08465E+000	3.57710E+000	10	...........
	22	0.306667	7.41137E-001	5.99684E-003	0.00000E+000	4.44448E-003	3.59960E-001	-1.08875E+000	3.57710E+000	10	...........
	23	0.32	7.47178E-001	6.00030E-003	0.00000E+000	4.48329E-003	3.59960E-001	-1.09413E+000	3.57710E+000	10	...........
	24	0.333333	7.53194E-001	5.99055E-003	0.00000E+000	4.51204E-003	3.59960E-001	-1.08431E+000	3.57710E+000	10	...........
	25	0.346667	7.59209E-001	5.99287E-003	0.00000E+000	4.54984E-003	3.59960E-001	-1.08835E+000	3.57710E+000	10	...........
	26	0.36	7.65248E-001	5.99351E-003	0.00000E+000	4.58652E-003	3.59960E-001	-1.09357E+000	3.57710E+000	10	...........
	27	0.373333	7.71291E-001	5.99693E-003	0.00000E+000	4.62538E-003	3.59960E-001	-1.08319E+000	3.57710E+000	10	...........
	28	0.386667	7.77303E-001	5.99215E-003	0.00000E+000	4.65772E-003	3.59960E-001	-1.08737E+000	3.57710E+000	10	...........
	29	0.4	7.83290E-001	5.99468E-003	0.00000E+000	4.69557E-003	3.59960E-001	-1.09291E+000	3.57710E+000	10	...........
	30	0.413333	7.89300E-001	5.99270E-003	0.00000E+000	4.73003E-003	3.59960E-001	-1.08273E+000	3.57710E+000	10	...........
	31	0.426667	7.95307E-001	5.99300E-003	0.00000E+000	4.76627E-003	3.59960E-001	-1.08689E+000	3.57710E+000	10	...........
	32	0.44	8.01318E-001	5.99324E-003	0.00000E+000	4.80249E-003	3.59960E-001	-1.09218E+000	3.57710E+000	10	...........
	33	0.453333	8.07295E-001	5.99187E-003	0.00000E+000	4.83721E-003	3.59960E-001	-1.08185E+000	3.57710E+000	10	...........
	34	0.466667	8.13244E-001	5.99103E-003	0.00000E+000	4.87217E-003	3.59960E-001	-1.08618E+000	3.57710E+000	10	...........
	35	0.48	8.19236E-001	5.99871E-003	0.00000E+000	4.91436E-003	3.59960E-001	-1.09155E+000	3.57710E+000	10	...........
	36	0.493333	8.25203E-001	5.99016E-003	0.00000E+000	4.94310E-003	3.59960E-001	-1.08139E+000	3.57710E+000	10	...........
	37	0.506667	8.31135E-001	5.99559E-003	0.00000E+000	4.98314E-003	3.59960E-001	-1.08549E+000	3.57710E+000	10	...........
	38	0.52	8.37096E-001	5.99752E-003	0.00000E+000	5.02050E-003	3.59960E-001	-1.09049E+000	3.57710E+000	10	...........
	39	0.533333	8.43052E-001	5.99464E-003	0.00000E+000	5.05379E-003	3.59960E-001	-1.08073E+000	3.57710E+000	10	...........
	40	0.546667	8.49031E-001	5.99670E-003	0.00000E+000	5.09138E-003	3.59960E-001	-1.08499E+000	3.57710E+000	10	...........
	41	0.56	8.54929E-001	5.99234E-003	0.00000E+000	5.12303E-003	3.59960E-001	-1.09020E+000	3.57710E+000	10	...........
	42	0.573333	8.60866E-001	5.99362E-003	0.00000E+000	5.15971E-003	3.59960E-001	-1.08014E+000	3.57710E+000	10	...........
	43	0.586667	8.66718E-001	5.99693E-003	0.00000E+000	5.19765E-003	3.59960E-001	-1.08444E+000	3.57710E+000	10	...........
	44	0.6	8.72651E-001	5.99722E-003	0.00000E+000	5.23348E-003	3.59960E-001	-1.08956E+000	3.57710E+000	10	...........
	45	0.613333	8.78522E-001	5.99270E-003	0.00000E+000	5.26471E-003	3.59960E-001	-1.07992E+000	3.57710E+000	10	...........
	46	0.626667	8.84404E-001	5.99914E-003	0.00000E+000	5.30566E-003	3.59960E-001	-1.08435E+000	3.57710E+000	10	...........
	47	0.64	8.90270E-001	5.99185E-003	0.00000E+000	5.33436E-003	3.59960E-001	-1.08895E+000	3.57710E+000	10	...........
	48	0.653333	8.96101E-001	5.99470E-003	0.00000E+000	5.37185E-003	3.59960E-001	-1.07902E+000	3.57710E+000	10	...........
	49	0.666667	9.01970E-001	6.00074E-003	0.00000E+000	5.41249E-003	3.59960E-001	-1.08364E+000	3.57710E+000	10	...........
	50	0.68	9.07791E-001	5.99476E-003	0.00000E+000	5.44199E-003	3.59960E-001	-1.08840E+000	3.57710E+000	10	...........
	51	0.693333	9.13585E-001	5.99424E-003	0.00000E+000	5.47624E-003	3.59960E-001	-1.07864E+000	3.57710E+000	10	...........
	52	0.706667	9.19358E-001	5.99688E-003	0.00000E+000	5.51328E-003	3.59960E-001	-1.08316E+000	3.57710E+000	10	...........
	53	0.72	9.25159E-001	5.99667E-003	0.00000E+000	5.54787E-003	3.59960E-001	-1.08792E+000	3.57710E+000	10	...........
	54	0.733333	9.30877E-001	5.99199E-003	0.00000E+000	5.57780E-003	3.59960E-001	-1.07835E+000	3.57710E+000	10	...........
	55	0.746667	9.36608E-001	5.99165E-003	0.00000E+000	5.61183E-003	3.59960E-001	-1.08317E+000	3.57710E+000	10	...........
	56	0.76	9.42234E-001	5.99471E-003	0.00000E+000	5.64842E-003	3.59960E-001	-1.08781E+000	3.57710E+000	10	...........
	57	0.773333	9.47893E-001	5.99423E-003	0.00000E+000	5.68189E-003	3.59960E-001	-1.07812E+000	3.57710E+000	10	...........
	58	0.786667	9.53528E-001	5.99143E-003	0.00000E+000	5.71300E-003	3.59960E-001	-1.08266E+000	3.57710E+000	10	...........
	59	0.8	9.59089E-001	5.99116E-003	0.00000E+000	5.74606E-003	3.59960E-001	-1.08722E+000	3.57710E+000	10	...........
	60	0.813333	9.64635E-001	5.99100E-003	0.00000E+000	5.77912E-003	3.59960E-001	-1.07782E+000	3.57710E+000	10	...........
	61	0.826667	9.70178E-001	5.99399E-003	0.00000E+000	5.81524E-003	3.59960E-001	-1.08279E+000	3.57710E+000	10	...........
	62	0.84	9.75744E-001	5.99701E-003	0.00000E+000	5.85155E-003	3.59960E-001	-1.08703E+000	3.57710E+000	10	...........
	63	0.853333	9.81197E-001	5.99363E-003	0.00000E+000	5.88094E-003	3.59960E-001	-1.07758E+000	3.57710E+000	10	...........
	64	0.866667	9.86580E-001	5.99382E-003	0.00000E+000	5.91339E-003	3.59960E-001	-1.08250E+000	3.57710E+000	10	...........
	65	0.88	9.91967E-001	5.99292E-003	0.00000E+000	5.94478E-003	3.59960E-001	-1.08708E+000	3.57710E+000	10	...........
	66	0.893333	9.97347E-001	5.99220E-003	0.00000E+000	5.97630E-003	3.59960E-001	-1.07763E+000	3.57710E+000	10	...........
	67	0.895	1.00033E+000	5.99304E-003	0.00000E+000	5.99504E-003	3.59960E-001	-1.09300E+000	3.57710E+000	10	...........
STARTTIMEOFFSET	QUANT	278.4951	Start Time Offset (s)