File: Data/CV_CRGO300517_1/PWRCCD_CRGO300517_1/CHARGE_DISCHARGE/CHARGE_#970.DTA
EXPLAIN
TAG	PWR800_CHARGE
TITLE	LABEL	PWR Cyclic Charge Discharge (Cell) - Charge Step	Test &Identifier
DATE	LABEL	22-6-2017	Date
TIME	LABEL	16:13:33	Time
NOTES	NOTES	3	&Notes...
	supercap test cell
	0.6mg
	6M KOH
PSTAT	PSTAT	IFC5000-01520	Potentiostat
CAPACITY	QUANT	1.00000E-003	Capacity (A-hr)
CELLTYPE	SELECTOR	1	&Cell Type
WORKINGCONNECTION	SELECTOR	0	&Working Lead
MAXCHARGETIME	VARIABLEANDUNITS	1.00000E+002	s	1.00000E+002	second(s)	Max &Charge Time
CHARGECURRENT	QUANT	6.00000E-003	&Charge Current (A)
VOLTAGEFINISH	TWOPARAM	F	1.00000E-003	3.60000E+003	&Voltage Finish	 I (A) < 	Max Time(s)
SAMPLETIME	QUANT	1.00000E-002	Sa&mple Period (s)
CHARGESTOPAT1	MULTIPARAM	4	1.00000E+000	Charge Stop At &1	Voltage > Limit	V
CHARGESTOPAT2	MULTIPARAM	0	0.00000E+000	Charge Stop At &2	None	N/A
AESBHCSELECTOR	TOGGLE	F	Save Both Half Cells
IRCOMP	TOGGLE	F	IR &Measure
EOC	QUANT	0	Open Circuit (V)
SEQUENCER	TOGGLE	TRUE	Run as Sequence
PSTATMODEL	IQUANT	53	Pstat Model
PSTATSECTION	LABEL	IFC5000-01520	Pstat Section
PSTATSERIALNO	LABEL	01520	Pstat Serial Number
CTRLMODE	IQUANT	0	Control Mode
ELECTROMETER	IQUANT	1	RE=0 or CS=1
IESTAB	IQUANT	0	I/E Stability
CASPEED	IQUANT	4	Control Amp Speed
CONVENTION	IQUANT	1	Current Convention
ICHRANGE	IQUANT	2	Ich Range
ICHRANGEMODE	TOGGLE	T	Ich Auto Range
ICHOFFSETENABLE	TOGGLE	F	Ich Offset Enable
ICHOFFSET	QUANT	0	Ich Offset (V)
ICHFILTER	IQUANT	1	Ich Filter
VCHRANGE	IQUANT	2	Vch Range
VCHRANGEMODE	TOGGLE	T	Vch Auto Range
VCHOFFSETENABLE	TOGGLE	F	Vch Offset Enable
VCHOFFSET	QUANT	0	Vch Offset (V)
VCHFILTER	IQUANT	1	Vch Filter
IERANGELOWERLIMIT	IQUANT	9	I/E Range Lower Limit
IERANGEMODE	TOGGLE	F	I/E AutoRange
IERANGE	IQUANT	10	I/E Range
ACHSELECT	IQUANT	1	Ach Select
ACHRANGE	IQUANT	2	Ach Range
ACHOFFSETENABLE	TOGGLE	F	Ach Offset Enable
ACHOFFSET	QUANT	0	Ach Offset (V)
ACHFILTER	IQUANT	1	Ach Filter
CABLEID	IQUANT	14	Cable ID
DCCALDATE	LABEL	20-10-2016	DC Calibration Date
ACCALDATE	LABEL	12/3/2015	AC Calibration Date
FRAMEWORKVERSION	QUANT	7.01	Framework Version
INSTRUMENTVERSION	LABEL	4.00	Instrument Version
CURVE	TABLE	53
	Pt	T	Vf	Im	Vu	Pwr	Sig	Ach	Temp	IERange	Over
	#	s	V	A	V	W	V	V	deg C	#	bits
	0	0.013333	6.55762E-001	5.99147E-003	0.00000E+000	3.92897E-003	3.59960E-001	-1.16085E+000	3.57660E+000	10	...........
	1	0.026667	6.65056E-001	5.99425E-003	0.00000E+000	3.98651E-003	3.59960E-001	-1.16568E+000	3.57660E+000	10	...........
	2	0.04	6.73648E-001	5.99446E-003	0.00000E+000	4.03816E-003	3.59960E-001	-1.16901E+000	3.57660E+000	10	...........
	3	0.053333	6.81803E-001	5.99586E-003	0.00000E+000	4.08799E-003	3.59960E-001	-1.16066E+000	3.57660E+000	10	...........
	4	0.066667	6.89647E-001	5.99391E-003	0.00000E+000	4.13368E-003	3.59960E-001	-1.16591E+000	3.57660E+000	10	...........
	5	0.08	6.97308E-001	5.99400E-003	0.00000E+000	4.17967E-003	3.59960E-001	-1.16953E+000	3.57660E+000	10	...........
	6	0.093333	7.04811E-001	5.99068E-003	0.00000E+000	4.22230E-003	3.59960E-001	-1.16092E+000	3.57708E+000	10	...........
	7	0.106667	7.12178E-001	5.99503E-003	0.00000E+000	4.26953E-003	3.59960E-001	-1.16608E+000	3.57720E+000	10	...........
	8	0.12	7.19483E-001	5.99603E-003	0.00000E+000	4.31404E-003	3.59960E-001	-1.16963E+000	3.57720E+000	10	...........
	9	0.133333	7.26680E-001	5.99403E-003	0.00000E+000	4.35574E-003	3.59960E-001	-1.16114E+000	3.57720E+000	10	...........
	10	0.146667	7.33808E-001	5.99260E-003	0.00000E+000	4.39742E-003	3.59960E-001	-1.16644E+000	3.57720E+000	10	...........
	11	0.16	7.40869E-001	5.99345E-003	0.00000E+000	4.44036E-003	3.59960E-001	-1.16992E+000	3.57720E+000	10	...........
	12	0.173333	7.48001E-001	5.99140E-003	0.00000E+000	4.48157E-003	3.59960E-001	-1.16128E+000	3.57720E+000	10	...........
	13	0.186667	7.54960E-001	5.99232E-003	0.00000E+000	4.52396E-003	3.59960E-001	-1.16662E+000	3.57720E+000	10	...........
	14	0.2	7.61896E-001	5.99347E-003	0.00000E+000	4.56640E-003	3.59960E-001	-1.17018E+000	3.57720E+000	10	...........
	15	0.213333	7.68835E-001	5.99720E-003	0.00000E+000	4.61086E-003	3.59960E-001	-1.16181E+000	3.57720E+000	10	...........
	16	0.226667	7.75737E-001	5.99335E-003	0.00000E+000	4.64927E-003	3.59960E-001	-1.16703E+000	3.57720E+000	10	...........
	17	0.24	7.82581E-001	5.99023E-003	0.00000E+000	4.68784E-003	3.59960E-001	-1.17043E+000	3.57720E+000	10	...........
	18	0.253333	7.89360E-001	5.99676E-003	0.00000E+000	4.73360E-003	3.59960E-001	-1.16206E+000	3.57720E+000	10	...........
	19	0.266667	7.96189E-001	5.99414E-003	0.00000E+000	4.77246E-003	3.59960E-001	-1.16712E+000	3.57720E+000	10	...........
	20	0.28	8.02951E-001	5.99648E-003	0.00000E+000	4.81488E-003	3.59960E-001	-1.17074E+000	3.57720E+000	10	...........
	21	0.293333	8.09632E-001	5.99367E-003	0.00000E+000	4.85267E-003	3.59960E-001	-1.16234E+000	3.57720E+000	10	...........
	22	0.306667	8.16359E-001	5.99497E-003	0.00000E+000	4.89405E-003	3.59960E-001	-1.16730E+000	3.57720E+000	10	...........
	23	0.32	8.23062E-001	5.98920E-003	0.00000E+000	4.92949E-003	3.59960E-001	-1.17079E+000	3.57720E+000	10	...........
	24	0.333333	8.29694E-001	5.99276E-003	0.00000E+000	4.97215E-003	3.59960E-001	-1.16227E+000	3.57720E+000	10	...........
	25	0.346667	8.36350E-001	5.99301E-003	0.00000E+000	5.01225E-003	3.59960E-001	-1.16729E+000	3.57720E+000	10	...........
	26	0.36	8.42963E-001	5.99386E-003	0.00000E+000	5.05261E-003	3.59960E-001	-1.17096E+000	3.57720E+000	10	...........
	27	0.373333	8.49556E-001	5.99099E-003	0.00000E+000	5.08968E-003	3.59960E-001	-1.16222E+000	3.57720E+000	10	...........
	28	0.386667	8.56105E-001	5.99537E-003	0.00000E+000	5.13266E-003	3.59960E-001	-1.16740E+000	3.57720E+000	10	...........
	29	0.4	8.62623E-001	5.99249E-003	0.00000E+000	5.16926E-003	3.59960E-001	-1.17106E+000	3.57720E+000	10	...........
	30	0.413333	8.69116E-001	5.99370E-003	0.00000E+000	5.20922E-003	3.59960E-001	-1.16271E+000	3.57720E+000	10	...........
	31	0.426667	8.75592E-001	5.99205E-003	0.00000E+000	5.24659E-003	3.59960E-001	-1.16774E+000	3.57720E+000	10	...........
	32	0.44	8.82050E-001	5.99484E-003	0.00000E+000	5.28775E-003	3.59960E-001	-1.17140E+000	3.57720E+000	10	...........
	33	0.453333	8.88480E-001	5.99053E-003	0.00000E+000	5.32246E-003	3.59960E-001	-1.16262E+000	3.57720E+000	10	...........
	34	0.466667	8.94879E-001	5.99130E-003	0.00000E+000	5.36149E-003	3.59960E-001	-1.16791E+000	3.57720E+000	10	...........
	35	0.48	9.01215E-001	5.98899E-003	0.00000E+000	5.39737E-003	3.59960E-001	-1.17171E+000	3.57720E+000	10	...........
	36	0.493333	9.07512E-001	5.99088E-003	0.00000E+000	5.43680E-003	3.59960E-001	-1.16309E+000	3.57720E+000	10	...........
	37	0.506667	9.13722E-001	5.99434E-003	0.00000E+000	5.47717E-003	3.59960E-001	-1.16795E+000	3.57720E+000	10	...........
	38	0.52	9.19929E-001	5.99287E-003	0.00000E+000	5.51302E-003	3.59960E-001	-1.17174E+000	3.57720E+000	10	...........
	39	0.533333	9.26122E-001	5.99366E-003	0.00000E+000	5.55085E-003	3.59960E-001	-1.16314E+000	3.57720E+000	10	...........
	40	0.546667	9.32224E-001	5.99476E-003	0.00000E+000	5.58846E-003	3.59960E-001	-1.16839E+000	3.57720E+000	10	...........
	41	0.56	9.38307E-001	5.99319E-003	0.00000E+000	5.62345E-003	3.59960E-001	-1.17217E+000	3.57720E+000	10	...........
	42	0.573333	9.44357E-001	5.99628E-003	0.00000E+000	5.66263E-003	3.59960E-001	-1.16336E+000	3.57720E+000	10	...........
	43	0.586667	9.50347E-001	5.99014E-003	0.00000E+000	5.69271E-003	3.59960E-001	-1.16848E+000	3.57720E+000	10	...........
	44	0.6	9.56263E-001	5.99247E-003	0.00000E+000	5.73037E-003	3.59960E-001	-1.17237E+000	3.57720E+000	10	...........
	45	0.613333	9.62111E-001	5.99410E-003	0.00000E+000	5.76700E-003	3.59960E-001	-1.16378E+000	3.57720E+000	10	...........
	46	0.626667	9.67911E-001	5.99312E-003	0.00000E+000	5.80081E-003	3.59960E-001	-1.16886E+000	3.57720E+000	10	...........
	47	0.64	9.73736E-001	5.99277E-003	0.00000E+000	5.83537E-003	3.59960E-001	-1.17258E+000	3.57720E+000	10	...........
	48	0.653333	9.79470E-001	5.99328E-003	0.00000E+000	5.87024E-003	3.59960E-001	-1.16381E+000	3.57720E+000	10	...........
	49	0.666667	9.85136E-001	5.99732E-003	0.00000E+000	5.90817E-003	3.59960E-001	-1.16866E+000	3.57720E+000	10	...........
	50	0.68	9.90754E-001	5.99585E-003	0.00000E+000	5.94041E-003	3.59960E-001	-1.17262E+000	3.57720E+000	10	...........
	51	0.693333	9.96329E-001	5.99526E-003	0.00000E+000	5.97325E-003	3.59960E-001	-1.16389E+000	3.57720E+000	10	...........
	52	0.696667	9.99809E-001	5.99483E-003	0.00000E+000	5.99369E-003	3.59960E-001	-1.17859E+000	3.57720E+000	10	...........
STARTTIMEOFFSET	QUANT	1543.77	Start Time Offset (s)