File: Data/CV_CRGO300517_1/PWRCCD_CRGO300517_1/CHARGE_DISCHARGE/CHARGE_#516.DTA
EXPLAIN
TAG	PWR800_CHARGE
TITLE	LABEL	PWR Cyclic Charge Discharge (Cell) - Charge Step	Test &Identifier
DATE	LABEL	22-6-2017	Date
TIME	LABEL	15:56:32	Time
NOTES	NOTES	3	&Notes...
	supercap test cell
	0.6mg
	6M KOH
PSTAT	PSTAT	IFC5000-01520	Potentiostat
CAPACITY	QUANT	1.00000E-003	Capacity (A-hr)
CELLTYPE	SELECTOR	1	&Cell Type
WORKINGCONNECTION	SELECTOR	0	&Working Lead
MAXCHARGETIME	VARIABLEANDUNITS	1.00000E+002	s	1.00000E+002	second(s)	Max &Charge Time
CHARGECURRENT	QUANT	6.00000E-003	&Charge Current (A)
VOLTAGEFINISH	TWOPARAM	F	1.00000E-003	3.60000E+003	&Voltage Finish	 I (A) < 	Max Time(s)
SAMPLETIME	QUANT	1.00000E-002	Sa&mple Period (s)
CHARGESTOPAT1	MULTIPARAM	4	1.00000E+000	Charge Stop At &1	Voltage > Limit	V
CHARGESTOPAT2	MULTIPARAM	0	0.00000E+000	Charge Stop At &2	None	N/A
AESBHCSELECTOR	TOGGLE	F	Save Both Half Cells
IRCOMP	TOGGLE	F	IR &Measure
EOC	QUANT	0	Open Circuit (V)
SEQUENCER	TOGGLE	TRUE	Run as Sequence
PSTATMODEL	IQUANT	53	Pstat Model
PSTATSECTION	LABEL	IFC5000-01520	Pstat Section
PSTATSERIALNO	LABEL	01520	Pstat Serial Number
CTRLMODE	IQUANT	0	Control Mode
ELECTROMETER	IQUANT	1	RE=0 or CS=1
IESTAB	IQUANT	0	I/E Stability
CASPEED	IQUANT	4	Control Amp Speed
CONVENTION	IQUANT	1	Current Convention
ICHRANGE	IQUANT	2	Ich Range
ICHRANGEMODE	TOGGLE	T	Ich Auto Range
ICHOFFSETENABLE	TOGGLE	F	Ich Offset Enable
ICHOFFSET	QUANT	0	Ich Offset (V)
ICHFILTER	IQUANT	1	Ich Filter
VCHRANGE	IQUANT	2	Vch Range
VCHRANGEMODE	TOGGLE	T	Vch Auto Range
VCHOFFSETENABLE	TOGGLE	F	Vch Offset Enable
VCHOFFSET	QUANT	0	Vch Offset (V)
VCHFILTER	IQUANT	1	Vch Filter
IERANGELOWERLIMIT	IQUANT	9	I/E Range Lower Limit
IERANGEMODE	TOGGLE	F	I/E AutoRange
IERANGE	IQUANT	10	I/E Range
ACHSELECT	IQUANT	1	Ach Select
ACHRANGE	IQUANT	2	Ach Range
ACHOFFSETENABLE	TOGGLE	F	Ach Offset Enable
ACHOFFSET	QUANT	0	Ach Offset (V)
ACHFILTER	IQUANT	1	Ach Filter
CABLEID	IQUANT	14	Cable ID
DCCALDATE	LABEL	20-10-2016	DC Calibration Date
ACCALDATE	LABEL	12/3/2015	AC Calibration Date
FRAMEWORKVERSION	QUANT	7.01	Framework Version
INSTRUMENTVERSION	LABEL	4.00	Instrument Version
CURVE	TABLE	58
	Pt	T	Vf	Im	Vu	Pwr	Sig	Ach	Temp	IERange	Over
	#	s	V	A	V	W	V	V	deg C	#	bits
	0	0.013333	6.32885E-001	5.99370E-003	0.00000E+000	3.79332E-003	3.59960E-001	-1.12609E+000	3.57780E+000	10	...........
	1	0.026667	6.41789E-001	5.99136E-003	0.00000E+000	3.84519E-003	3.59960E-001	-1.12429E+000	3.57780E+000	10	...........
	2	0.04	6.49941E-001	5.98883E-003	0.00000E+000	3.89238E-003	3.59960E-001	-1.13499E+000	3.57780E+000	10	...........
	3	0.053333	6.57684E-001	5.99402E-003	0.00000E+000	3.94217E-003	3.59960E-001	-1.12594E+000	3.57780E+000	10	...........
	4	0.066667	6.65131E-001	5.99479E-003	0.00000E+000	3.98732E-003	3.59960E-001	-1.12388E+000	3.57780E+000	10	...........
	5	0.08	6.72430E-001	5.99322E-003	0.00000E+000	4.03002E-003	3.59960E-001	-1.13514E+000	3.57780E+000	10	...........
	6	0.093333	6.79602E-001	5.99415E-003	0.00000E+000	4.07363E-003	3.59960E-001	-1.12606E+000	3.57780E+000	10	...........
	7	0.106667	6.86603E-001	5.99077E-003	0.00000E+000	4.11328E-003	3.59960E-001	-1.12371E+000	3.57780E+000	10	...........
	8	0.12	6.93549E-001	5.99566E-003	0.00000E+000	4.15829E-003	3.59960E-001	-1.13433E+000	3.57780E+000	10	...........
	9	0.133333	7.00397E-001	5.99633E-003	0.00000E+000	4.19981E-003	3.59960E-001	-1.12525E+000	3.57780E+000	10	...........
	10	0.146667	7.07166E-001	5.99286E-003	0.00000E+000	4.23795E-003	3.59960E-001	-1.12373E+000	3.57780E+000	10	...........
	11	0.16	7.13907E-001	5.99685E-003	0.00000E+000	4.28119E-003	3.59960E-001	-1.13471E+000	3.57780E+000	10	...........
	12	0.173333	7.20671E-001	5.98813E-003	0.00000E+000	4.31547E-003	3.59960E-001	-1.12515E+000	3.57780E+000	10	...........
	13	0.186667	7.27318E-001	5.99175E-003	0.00000E+000	4.35791E-003	3.59960E-001	-1.12323E+000	3.57780E+000	10	...........
	14	0.2	7.33928E-001	5.99334E-003	0.00000E+000	4.39868E-003	3.59960E-001	-1.13413E+000	3.57780E+000	10	...........
	15	0.213333	7.40564E-001	5.99472E-003	0.00000E+000	4.43948E-003	3.59960E-001	-1.12528E+000	3.57780E+000	10	...........
	16	0.226667	7.47174E-001	5.99312E-003	0.00000E+000	4.47791E-003	3.59960E-001	-1.12357E+000	3.57780E+000	10	...........
	17	0.24	7.53759E-001	5.99328E-003	0.00000E+000	4.51749E-003	3.59960E-001	-1.13467E+000	3.57780E+000	10	...........
	18	0.253333	7.60297E-001	5.99767E-003	0.00000E+000	4.56001E-003	3.59960E-001	-1.12518E+000	3.57780E+000	10	...........
	19	0.266667	7.66810E-001	5.99400E-003	0.00000E+000	4.59626E-003	3.59960E-001	-1.12388E+000	3.57780E+000	10	...........
	20	0.28	7.73355E-001	6.00059E-003	0.00000E+000	4.64059E-003	3.59960E-001	-1.13505E+000	3.57780E+000	10	...........
	21	0.293333	7.79853E-001	5.99422E-003	0.00000E+000	4.67461E-003	3.59960E-001	-1.12552E+000	3.57780E+000	10	...........
	22	0.306667	7.86302E-001	5.99552E-003	0.00000E+000	4.71429E-003	3.59960E-001	-1.12371E+000	3.57780E+000	10	...........
	23	0.32	7.92761E-001	5.99232E-003	0.00000E+000	4.75048E-003	3.59960E-001	-1.13471E+000	3.57780E+000	10	...........
	24	0.333333	7.99214E-001	5.99440E-003	0.00000E+000	4.79080E-003	3.59960E-001	-1.12544E+000	3.57780E+000	10	...........
	25	0.346667	8.05653E-001	5.99622E-003	0.00000E+000	4.83088E-003	3.59960E-001	-1.12419E+000	3.57780E+000	10	...........
	26	0.36	8.12051E-001	5.99848E-003	0.00000E+000	4.87107E-003	3.59960E-001	-1.13498E+000	3.57780E+000	10	...........
	27	0.373333	8.18461E-001	5.99223E-003	0.00000E+000	4.90440E-003	3.59960E-001	-1.12575E+000	3.57780E+000	10	...........
	28	0.386667	8.24858E-001	5.99222E-003	0.00000E+000	4.94273E-003	3.59960E-001	-1.12413E+000	3.57780E+000	10	...........
	29	0.4	8.31185E-001	5.99707E-003	0.00000E+000	4.98467E-003	3.59960E-001	-1.13509E+000	3.57780E+000	10	...........
	30	0.413333	8.37486E-001	5.99435E-003	0.00000E+000	5.02019E-003	3.59960E-001	-1.12583E+000	3.57780E+000	10	...........
	31	0.426667	8.43834E-001	5.99179E-003	0.00000E+000	5.05607E-003	3.59960E-001	-1.12449E+000	3.57780E+000	10	...........
	32	0.44	8.50121E-001	5.99701E-003	0.00000E+000	5.09819E-003	3.59960E-001	-1.13506E+000	3.57780E+000	10	...........
	33	0.453333	8.56423E-001	5.99619E-003	0.00000E+000	5.13528E-003	3.59960E-001	-1.12580E+000	3.57780E+000	10	...........
	34	0.466667	8.62767E-001	5.99389E-003	0.00000E+000	5.17133E-003	3.59960E-001	-1.12444E+000	3.57717E+000	10	...........
	35	0.48	8.69008E-001	5.99569E-003	0.00000E+000	5.21030E-003	3.59960E-001	-1.13536E+000	3.57680E+000	10	...........
	36	0.493333	8.75268E-001	5.98689E-003	0.00000E+000	5.24013E-003	3.59960E-001	-1.12620E+000	3.57680E+000	10	...........
	37	0.506667	8.81506E-001	5.99513E-003	0.00000E+000	5.28474E-003	3.59960E-001	-1.12462E+000	3.57680E+000	10	...........
	38	0.52	8.87707E-001	5.99804E-003	0.00000E+000	5.32450E-003	3.59960E-001	-1.13556E+000	3.57680E+000	10	...........
	39	0.533333	8.93846E-001	5.99628E-003	0.00000E+000	5.35975E-003	3.59960E-001	-1.12649E+000	3.57680E+000	10	...........
	40	0.546667	8.99942E-001	5.98998E-003	0.00000E+000	5.39064E-003	3.59960E-001	-1.12502E+000	3.57680E+000	10	...........
	41	0.56	9.06028E-001	5.99350E-003	0.00000E+000	5.43028E-003	3.59960E-001	-1.13603E+000	3.57680E+000	10	...........
	42	0.573333	9.12105E-001	5.99547E-003	0.00000E+000	5.46850E-003	3.59960E-001	-1.12667E+000	3.57680E+000	10	...........
	43	0.586667	9.18194E-001	5.99839E-003	0.00000E+000	5.50768E-003	3.59960E-001	-1.12541E+000	3.57680E+000	10	...........
	44	0.6	9.24246E-001	5.99362E-003	0.00000E+000	5.53958E-003	3.59960E-001	-1.13612E+000	3.57680E+000	10	...........
	45	0.613333	9.30237E-001	5.99028E-003	0.00000E+000	5.57238E-003	3.59960E-001	-1.12681E+000	3.57680E+000	10	...........
	46	0.626667	9.36153E-001	5.99329E-003	0.00000E+000	5.61064E-003	3.59960E-001	-1.12569E+000	3.57680E+000	10	...........
	47	0.64	9.42076E-001	5.99691E-003	0.00000E+000	5.64955E-003	3.59960E-001	-1.13659E+000	3.57680E+000	10	...........
	48	0.653333	9.47956E-001	5.99231E-003	0.00000E+000	5.68045E-003	3.59960E-001	-1.12719E+000	3.57680E+000	10	...........
	49	0.666667	9.53808E-001	5.99397E-003	0.00000E+000	5.71710E-003	3.59960E-001	-1.12630E+000	3.57680E+000	10	...........
	50	0.68	9.59547E-001	5.99704E-003	0.00000E+000	5.75443E-003	3.59960E-001	-1.13719E+000	3.57680E+000	10	...........
	51	0.693333	9.65296E-001	5.99598E-003	0.00000E+000	5.78790E-003	3.59960E-001	-1.12802E+000	3.57680E+000	10	...........
	52	0.706667	9.71013E-001	5.99382E-003	0.00000E+000	5.82008E-003	3.59960E-001	-1.12669E+000	3.57680E+000	10	...........
	53	0.72	9.76727E-001	5.99588E-003	0.00000E+000	5.85633E-003	3.59960E-001	-1.13759E+000	3.57680E+000	10	...........
	54	0.733333	9.82317E-001	5.99252E-003	0.00000E+000	5.88656E-003	3.59960E-001	-1.12800E+000	3.57680E+000	10	...........
	55	0.746667	9.87875E-001	6.00018E-003	0.00000E+000	5.92742E-003	3.59960E-001	-1.12685E+000	3.57680E+000	10	...........
	56	0.76	9.93359E-001	5.99624E-003	0.00000E+000	5.95642E-003	3.59960E-001	-1.13737E+000	3.57680E+000	10	...........
	57	0.771667	9.98495E-001	5.99275E-003	0.00000E+000	5.98373E-003	3.59960E-001	-1.12611E+000	3.57680E+000	10	...........
STARTTIMEOFFSET	QUANT	883.6085	Start Time Offset (s)