File: Data/CV_CRGO300517_1/PWRCCD_CRGO300517_1/CHARGE_DISCHARGE/CHARGE_#996.DTA
EXPLAIN
TAG	PWR800_CHARGE
TITLE	LABEL	PWR Cyclic Charge Discharge (Cell) - Charge Step	Test &Identifier
DATE	LABEL	22-6-2017	Date
TIME	LABEL	16:14:29	Time
NOTES	NOTES	3	&Notes...
	supercap test cell
	0.6mg
	6M KOH
PSTAT	PSTAT	IFC5000-01520	Potentiostat
CAPACITY	QUANT	1.00000E-003	Capacity (A-hr)
CELLTYPE	SELECTOR	1	&Cell Type
WORKINGCONNECTION	SELECTOR	0	&Working Lead
MAXCHARGETIME	VARIABLEANDUNITS	1.00000E+002	s	1.00000E+002	second(s)	Max &Charge Time
CHARGECURRENT	QUANT	6.00000E-003	&Charge Current (A)
VOLTAGEFINISH	TWOPARAM	F	1.00000E-003	3.60000E+003	&Voltage Finish	 I (A) < 	Max Time(s)
SAMPLETIME	QUANT	1.00000E-002	Sa&mple Period (s)
CHARGESTOPAT1	MULTIPARAM	4	1.00000E+000	Charge Stop At &1	Voltage > Limit	V
CHARGESTOPAT2	MULTIPARAM	0	0.00000E+000	Charge Stop At &2	None	N/A
AESBHCSELECTOR	TOGGLE	F	Save Both Half Cells
IRCOMP	TOGGLE	F	IR &Measure
EOC	QUANT	0	Open Circuit (V)
SEQUENCER	TOGGLE	TRUE	Run as Sequence
PSTATMODEL	IQUANT	53	Pstat Model
PSTATSECTION	LABEL	IFC5000-01520	Pstat Section
PSTATSERIALNO	LABEL	01520	Pstat Serial Number
CTRLMODE	IQUANT	0	Control Mode
ELECTROMETER	IQUANT	1	RE=0 or CS=1
IESTAB	IQUANT	0	I/E Stability
CASPEED	IQUANT	4	Control Amp Speed
CONVENTION	IQUANT	1	Current Convention
ICHRANGE	IQUANT	2	Ich Range
ICHRANGEMODE	TOGGLE	T	Ich Auto Range
ICHOFFSETENABLE	TOGGLE	F	Ich Offset Enable
ICHOFFSET	QUANT	0	Ich Offset (V)
ICHFILTER	IQUANT	1	Ich Filter
VCHRANGE	IQUANT	2	Vch Range
VCHRANGEMODE	TOGGLE	T	Vch Auto Range
VCHOFFSETENABLE	TOGGLE	F	Vch Offset Enable
VCHOFFSET	QUANT	0	Vch Offset (V)
VCHFILTER	IQUANT	1	Vch Filter
IERANGELOWERLIMIT	IQUANT	9	I/E Range Lower Limit
IERANGEMODE	TOGGLE	F	I/E AutoRange
IERANGE	IQUANT	10	I/E Range
ACHSELECT	IQUANT	1	Ach Select
ACHRANGE	IQUANT	2	Ach Range
ACHOFFSETENABLE	TOGGLE	F	Ach Offset Enable
ACHOFFSET	QUANT	0	Ach Offset (V)
ACHFILTER	IQUANT	1	Ach Filter
CABLEID	IQUANT	14	Cable ID
DCCALDATE	LABEL	20-10-2016	DC Calibration Date
ACCALDATE	LABEL	12/3/2015	AC Calibration Date
FRAMEWORKVERSION	QUANT	7.01	Framework Version
INSTRUMENTVERSION	LABEL	4.00	Instrument Version
CURVE	TABLE	52
	Pt	T	Vf	Im	Vu	Pwr	Sig	Ach	Temp	IERange	Over
	#	s	V	A	V	W	V	V	deg C	#	bits
	0	0.013333	6.57407E-001	5.99434E-003	0.00000E+000	3.94073E-003	3.59960E-001	-1.17902E+000	3.57660E+000	10	...........
	1	0.026667	6.66770E-001	5.99271E-003	0.00000E+000	3.99575E-003	3.59960E-001	-1.17427E+000	3.57660E+000	10	...........
	2	0.04	6.75395E-001	5.98958E-003	0.00000E+000	4.04533E-003	3.59960E-001	-1.18403E+000	3.57660E+000	10	...........
	3	0.053333	6.83545E-001	5.99089E-003	0.00000E+000	4.09504E-003	3.59960E-001	-1.17862E+000	3.57660E+000	10	...........
	4	0.066667	6.91431E-001	5.99140E-003	0.00000E+000	4.14264E-003	3.59960E-001	-1.17427E+000	3.57660E+000	10	...........
	5	0.08	6.99102E-001	5.99466E-003	0.00000E+000	4.19087E-003	3.59960E-001	-1.18429E+000	3.57660E+000	10	...........
	6	0.093333	7.06596E-001	5.98813E-003	0.00000E+000	4.23118E-003	3.59960E-001	-1.17865E+000	3.57660E+000	10	...........
	7	0.106667	7.13964E-001	5.99377E-003	0.00000E+000	4.27934E-003	3.59960E-001	-1.17411E+000	3.57660E+000	10	...........
	8	0.12	7.21327E-001	5.99142E-003	0.00000E+000	4.32178E-003	3.59960E-001	-1.18406E+000	3.57660E+000	10	...........
	9	0.133333	7.28556E-001	5.99084E-003	0.00000E+000	4.36466E-003	3.59960E-001	-1.17846E+000	3.57660E+000	10	...........
	10	0.146667	7.35723E-001	5.99402E-003	0.00000E+000	4.40994E-003	3.59960E-001	-1.17405E+000	3.57660E+000	10	...........
	11	0.16	7.42818E-001	5.99415E-003	0.00000E+000	4.45256E-003	3.59960E-001	-1.18408E+000	3.57660E+000	10	...........
	12	0.173333	7.49839E-001	5.99263E-003	0.00000E+000	4.49351E-003	3.59960E-001	-1.17786E+000	3.57660E+000	10	...........
	13	0.186667	7.56863E-001	5.99227E-003	0.00000E+000	4.53533E-003	3.59960E-001	-1.17345E+000	3.57660E+000	10	...........
	14	0.2	7.63813E-001	5.99302E-003	0.00000E+000	4.57755E-003	3.59960E-001	-1.18389E+000	3.57660E+000	10	...........
	15	0.213333	7.70732E-001	5.98956E-003	0.00000E+000	4.61634E-003	3.59960E-001	-1.17794E+000	3.57660E+000	10	...........
	16	0.226667	7.77638E-001	5.99458E-003	0.00000E+000	4.66162E-003	3.59960E-001	-1.17348E+000	3.57660E+000	10	...........
	17	0.24	7.84499E-001	5.99285E-003	0.00000E+000	4.70139E-003	3.59960E-001	-1.18374E+000	3.57660E+000	10	...........
	18	0.253333	7.91323E-001	5.99352E-003	0.00000E+000	4.74281E-003	3.59960E-001	-1.17761E+000	3.57660E+000	10	...........
	19	0.266667	7.98178E-001	5.99514E-003	0.00000E+000	4.78519E-003	3.59960E-001	-1.17358E+000	3.57660E+000	10	...........
	20	0.28	8.04888E-001	5.99299E-003	0.00000E+000	4.82369E-003	3.59960E-001	-1.18394E+000	3.57660E+000	10	...........
	21	0.293333	8.11643E-001	5.98898E-003	0.00000E+000	4.86092E-003	3.59960E-001	-1.17732E+000	3.57660E+000	10	...........
	22	0.306667	8.18376E-001	5.99124E-003	0.00000E+000	4.90308E-003	3.59960E-001	-1.17317E+000	3.57660E+000	10	...........
	23	0.32	8.25073E-001	5.99225E-003	0.00000E+000	4.94404E-003	3.59960E-001	-1.18360E+000	3.57660E+000	10	...........
	24	0.333333	8.31718E-001	5.98942E-003	0.00000E+000	4.98151E-003	3.59960E-001	-1.17734E+000	3.57660E+000	10	...........
	25	0.346667	8.38322E-001	5.99312E-003	0.00000E+000	5.02417E-003	3.59960E-001	-1.17334E+000	3.57660E+000	10	...........
	26	0.36	8.45015E-001	5.99349E-003	0.00000E+000	5.06459E-003	3.59960E-001	-1.18367E+000	3.57660E+000	10	...........
	27	0.373333	8.51587E-001	5.99249E-003	0.00000E+000	5.10312E-003	3.59960E-001	-1.17679E+000	3.57660E+000	10	...........
	28	0.386667	8.58163E-001	5.99451E-003	0.00000E+000	5.14427E-003	3.59960E-001	-1.17299E+000	3.57660E+000	10	...........
	29	0.4	8.64665E-001	5.99250E-003	0.00000E+000	5.18150E-003	3.59960E-001	-1.18395E+000	3.57660E+000	10	...........
	30	0.413333	8.71179E-001	5.99652E-003	0.00000E+000	5.22405E-003	3.59960E-001	-1.17729E+000	3.57660E+000	10	...........
	31	0.426667	8.77626E-001	5.99890E-003	0.00000E+000	5.26479E-003	3.59960E-001	-1.17326E+000	3.57660E+000	10	...........
	32	0.44	8.84079E-001	5.99244E-003	0.00000E+000	5.29778E-003	3.59960E-001	-1.18379E+000	3.57660E+000	10	...........
	33	0.453333	8.90437E-001	5.99312E-003	0.00000E+000	5.33650E-003	3.59960E-001	-1.17694E+000	3.57660E+000	10	...........
	34	0.466667	8.96796E-001	5.99369E-003	0.00000E+000	5.37511E-003	3.59960E-001	-1.17330E+000	3.57660E+000	10	...........
	35	0.48	9.03121E-001	5.99558E-003	0.00000E+000	5.41473E-003	3.59960E-001	-1.18390E+000	3.57661E+000	10	...........
	36	0.493333	9.09441E-001	5.99471E-003	0.00000E+000	5.45183E-003	3.59960E-001	-1.17647E+000	3.57670E+000	10	...........
	37	0.506667	9.15667E-001	5.99420E-003	0.00000E+000	5.48869E-003	3.59960E-001	-1.17275E+000	3.57670E+000	10	...........
	38	0.52	9.21891E-001	5.99817E-003	0.00000E+000	5.52966E-003	3.59960E-001	-1.18362E+000	3.57670E+000	10	...........
	39	0.533333	9.28049E-001	5.99736E-003	0.00000E+000	5.56584E-003	3.59960E-001	-1.17632E+000	3.57670E+000	10	...........
	40	0.546667	9.34175E-001	5.99417E-003	0.00000E+000	5.59960E-003	3.59960E-001	-1.17293E+000	3.57670E+000	10	...........
	41	0.56	9.40203E-001	5.99383E-003	0.00000E+000	5.63542E-003	3.59960E-001	-1.18347E+000	3.57670E+000	10	...........
	42	0.573333	9.46225E-001	5.99408E-003	0.00000E+000	5.67175E-003	3.59960E-001	-1.17599E+000	3.57670E+000	10	...........
	43	0.586667	9.52244E-001	5.99062E-003	0.00000E+000	5.70453E-003	3.59960E-001	-1.17300E+000	3.57670E+000	10	...........
	44	0.6	9.58162E-001	5.99468E-003	0.00000E+000	5.74387E-003	3.59960E-001	-1.18366E+000	3.57670E+000	10	...........
	45	0.613333	9.64024E-001	5.98958E-003	0.00000E+000	5.77410E-003	3.59960E-001	-1.17631E+000	3.57670E+000	10	...........
	46	0.626667	9.69822E-001	5.98849E-003	0.00000E+000	5.80777E-003	3.59960E-001	-1.17279E+000	3.57670E+000	10	...........
	47	0.64	9.75646E-001	5.99607E-003	0.00000E+000	5.85004E-003	3.59960E-001	-1.18333E+000	3.57670E+000	10	...........
	48	0.653333	9.81328E-001	5.99212E-003	0.00000E+000	5.88024E-003	3.59960E-001	-1.17594E+000	3.57670E+000	10	...........
	49	0.666667	9.86968E-001	5.99880E-003	0.00000E+000	5.92062E-003	3.59960E-001	-1.17285E+000	3.57670E+000	10	...........
	50	0.68	9.92584E-001	5.99487E-003	0.00000E+000	5.95041E-003	3.59960E-001	-1.18386E+000	3.57670E+000	10	...........
	51	0.693333	9.98168E-001	5.99327E-003	0.00000E+000	5.98229E-003	3.59960E-001	-1.17587E+000	3.57670E+000	10	...........
STARTTIMEOFFSET	QUANT	1579.739	Start Time Offset (s)