File: Data/CV_CRGO300517_1/PWRCCD_CRGO300517_1/CHARGE_DISCHARGE/CHARGE_#527.DTA
EXPLAIN
TAG	PWR800_CHARGE
TITLE	LABEL	PWR Cyclic Charge Discharge (Cell) - Charge Step	Test &Identifier
DATE	LABEL	22-6-2017	Date
TIME	LABEL	15:56:58	Time
NOTES	NOTES	3	&Notes...
	supercap test cell
	0.6mg
	6M KOH
PSTAT	PSTAT	IFC5000-01520	Potentiostat
CAPACITY	QUANT	1.00000E-003	Capacity (A-hr)
CELLTYPE	SELECTOR	1	&Cell Type
WORKINGCONNECTION	SELECTOR	0	&Working Lead
MAXCHARGETIME	VARIABLEANDUNITS	1.00000E+002	s	1.00000E+002	second(s)	Max &Charge Time
CHARGECURRENT	QUANT	6.00000E-003	&Charge Current (A)
VOLTAGEFINISH	TWOPARAM	F	1.00000E-003	3.60000E+003	&Voltage Finish	 I (A) < 	Max Time(s)
SAMPLETIME	QUANT	1.00000E-002	Sa&mple Period (s)
CHARGESTOPAT1	MULTIPARAM	4	1.00000E+000	Charge Stop At &1	Voltage > Limit	V
CHARGESTOPAT2	MULTIPARAM	0	0.00000E+000	Charge Stop At &2	None	N/A
AESBHCSELECTOR	TOGGLE	F	Save Both Half Cells
IRCOMP	TOGGLE	F	IR &Measure
EOC	QUANT	0	Open Circuit (V)
SEQUENCER	TOGGLE	TRUE	Run as Sequence
PSTATMODEL	IQUANT	53	Pstat Model
PSTATSECTION	LABEL	IFC5000-01520	Pstat Section
PSTATSERIALNO	LABEL	01520	Pstat Serial Number
CTRLMODE	IQUANT	0	Control Mode
ELECTROMETER	IQUANT	1	RE=0 or CS=1
IESTAB	IQUANT	0	I/E Stability
CASPEED	IQUANT	4	Control Amp Speed
CONVENTION	IQUANT	1	Current Convention
ICHRANGE	IQUANT	2	Ich Range
ICHRANGEMODE	TOGGLE	T	Ich Auto Range
ICHOFFSETENABLE	TOGGLE	F	Ich Offset Enable
ICHOFFSET	QUANT	0	Ich Offset (V)
ICHFILTER	IQUANT	1	Ich Filter
VCHRANGE	IQUANT	2	Vch Range
VCHRANGEMODE	TOGGLE	T	Vch Auto Range
VCHOFFSETENABLE	TOGGLE	F	Vch Offset Enable
VCHOFFSET	QUANT	0	Vch Offset (V)
VCHFILTER	IQUANT	1	Vch Filter
IERANGELOWERLIMIT	IQUANT	9	I/E Range Lower Limit
IERANGEMODE	TOGGLE	F	I/E AutoRange
IERANGE	IQUANT	10	I/E Range
ACHSELECT	IQUANT	1	Ach Select
ACHRANGE	IQUANT	2	Ach Range
ACHOFFSETENABLE	TOGGLE	F	Ach Offset Enable
ACHOFFSET	QUANT	0	Ach Offset (V)
ACHFILTER	IQUANT	1	Ach Filter
CABLEID	IQUANT	14	Cable ID
DCCALDATE	LABEL	20-10-2016	DC Calibration Date
ACCALDATE	LABEL	12/3/2015	AC Calibration Date
FRAMEWORKVERSION	QUANT	7.01	Framework Version
INSTRUMENTVERSION	LABEL	4.00	Instrument Version
CURVE	TABLE	58
	Pt	T	Vf	Im	Vu	Pwr	Sig	Ach	Temp	IERange	Over
	#	s	V	A	V	W	V	V	deg C	#	bits
	0	0.013333	6.33602E-001	5.99542E-003	0.00000E+000	3.79871E-003	3.59960E-001	-1.12639E+000	3.57670E+000	10	...........
	1	0.026667	6.42572E-001	5.99656E-003	0.00000E+000	3.85322E-003	3.59960E-001	-1.13362E+000	3.57670E+000	10	...........
	2	0.04	6.50742E-001	5.99547E-003	0.00000E+000	3.90151E-003	3.59960E-001	-1.13425E+000	3.57670E+000	10	...........
	3	0.053333	6.58531E-001	5.99763E-003	0.00000E+000	3.94963E-003	3.59960E-001	-1.12694E+000	3.57670E+000	10	...........
	4	0.066667	6.66012E-001	5.99256E-003	0.00000E+000	3.99112E-003	3.59960E-001	-1.13373E+000	3.57670E+000	10	...........
	5	0.08	6.73287E-001	5.99498E-003	0.00000E+000	4.03634E-003	3.59960E-001	-1.13406E+000	3.57670E+000	10	...........
	6	0.093333	6.80443E-001	5.99569E-003	0.00000E+000	4.07973E-003	3.59960E-001	-1.12685E+000	3.57670E+000	10	...........
	7	0.106667	6.87470E-001	5.99614E-003	0.00000E+000	4.12216E-003	3.59960E-001	-1.13369E+000	3.57670E+000	10	...........
	8	0.12	6.94411E-001	5.99616E-003	0.00000E+000	4.16380E-003	3.59960E-001	-1.13453E+000	3.57670E+000	10	...........
	9	0.133333	7.01261E-001	5.99570E-003	0.00000E+000	4.20455E-003	3.59960E-001	-1.12657E+000	3.57670E+000	10	...........
	10	0.146667	7.08056E-001	5.99692E-003	0.00000E+000	4.24616E-003	3.59960E-001	-1.13341E+000	3.57670E+000	10	...........
	11	0.16	7.14809E-001	5.99471E-003	0.00000E+000	4.28507E-003	3.59960E-001	-1.13438E+000	3.57670E+000	10	...........
	12	0.173333	7.21629E-001	5.99798E-003	0.00000E+000	4.32832E-003	3.59960E-001	-1.12685E+000	3.57670E+000	10	...........
	13	0.186667	7.28258E-001	5.99078E-003	0.00000E+000	4.36283E-003	3.59960E-001	-1.13343E+000	3.57670E+000	10	...........
	14	0.2	7.34945E-001	5.99510E-003	0.00000E+000	4.40606E-003	3.59960E-001	-1.13501E+000	3.57670E+000	10	...........
	15	0.213333	7.41583E-001	5.99374E-003	0.00000E+000	4.44486E-003	3.59960E-001	-1.12700E+000	3.57670E+000	10	...........
	16	0.226667	7.48210E-001	5.99548E-003	0.00000E+000	4.48588E-003	3.59960E-001	-1.13343E+000	3.57670E+000	10	...........
	17	0.24	7.54802E-001	5.99608E-003	0.00000E+000	4.52585E-003	3.59960E-001	-1.13509E+000	3.57670E+000	10	...........
	18	0.253333	7.61374E-001	5.99540E-003	0.00000E+000	4.56474E-003	3.59960E-001	-1.12734E+000	3.57670E+000	10	...........
	19	0.266667	7.67879E-001	5.99297E-003	0.00000E+000	4.60188E-003	3.59960E-001	-1.13345E+000	3.57670E+000	10	...........
	20	0.28	7.74438E-001	5.99357E-003	0.00000E+000	4.64165E-003	3.59960E-001	-1.13486E+000	3.57670E+000	10	...........
	21	0.293333	7.80929E-001	5.99438E-003	0.00000E+000	4.68118E-003	3.59960E-001	-1.12667E+000	3.57670E+000	10	...........
	22	0.306667	7.87428E-001	5.99730E-003	0.00000E+000	4.72244E-003	3.59960E-001	-1.13314E+000	3.57670E+000	10	...........
	23	0.32	7.93917E-001	5.99425E-003	0.00000E+000	4.75893E-003	3.59960E-001	-1.13534E+000	3.57670E+000	10	...........
	24	0.333333	8.00345E-001	5.98714E-003	0.00000E+000	4.79178E-003	3.59960E-001	-1.12704E+000	3.57670E+000	10	...........
	25	0.346667	8.06770E-001	5.99307E-003	0.00000E+000	4.83503E-003	3.59960E-001	-1.13306E+000	3.57670E+000	10	...........
	26	0.36	8.13209E-001	5.99099E-003	0.00000E+000	4.87192E-003	3.59960E-001	-1.13543E+000	3.57670E+000	10	...........
	27	0.373333	8.19619E-001	5.99858E-003	0.00000E+000	4.91655E-003	3.59960E-001	-1.12747E+000	3.57670E+000	10	...........
	28	0.386667	8.26018E-001	5.99577E-003	0.00000E+000	4.95262E-003	3.59960E-001	-1.13336E+000	3.57670E+000	10	...........
	29	0.4	8.32403E-001	5.99578E-003	0.00000E+000	4.99091E-003	3.59960E-001	-1.13585E+000	3.57670E+000	10	...........
	30	0.413333	8.38747E-001	5.99244E-003	0.00000E+000	5.02614E-003	3.59960E-001	-1.12750E+000	3.57670E+000	10	...........
	31	0.426667	8.45119E-001	5.99458E-003	0.00000E+000	5.06614E-003	3.59960E-001	-1.13340E+000	3.57670E+000	10	...........
	32	0.44	8.51412E-001	5.99441E-003	0.00000E+000	5.10371E-003	3.59960E-001	-1.13593E+000	3.57670E+000	10	...........
	33	0.453333	8.57734E-001	5.99117E-003	0.00000E+000	5.13883E-003	3.59960E-001	-1.12789E+000	3.57670E+000	10	...........
	34	0.466667	8.64016E-001	5.99701E-003	0.00000E+000	5.18152E-003	3.59960E-001	-1.13333E+000	3.57670E+000	10	...........
	35	0.48	8.70310E-001	5.99260E-003	0.00000E+000	5.21542E-003	3.59960E-001	-1.13622E+000	3.57670E+000	10	...........
	36	0.493333	8.76552E-001	5.99476E-003	0.00000E+000	5.25472E-003	3.59960E-001	-1.12792E+000	3.57670E+000	10	...........
	37	0.506667	8.82744E-001	5.99485E-003	0.00000E+000	5.29192E-003	3.59960E-001	-1.13359E+000	3.57670E+000	10	...........
	38	0.52	8.88927E-001	5.99480E-003	0.00000E+000	5.32894E-003	3.59960E-001	-1.13677E+000	3.57670E+000	10	...........
	39	0.533333	8.95078E-001	5.99229E-003	0.00000E+000	5.36356E-003	3.59960E-001	-1.12837E+000	3.57670E+000	10	...........
	40	0.546667	9.01190E-001	5.99134E-003	0.00000E+000	5.39934E-003	3.59960E-001	-1.13371E+000	3.57670E+000	10	...........
	41	0.56	9.07315E-001	5.99020E-003	0.00000E+000	5.43500E-003	3.59960E-001	-1.13718E+000	3.57670E+000	10	...........
	42	0.573333	9.13423E-001	5.99665E-003	0.00000E+000	5.47748E-003	3.59960E-001	-1.12864E+000	3.57670E+000	10	...........
	43	0.586667	9.19463E-001	5.99393E-003	0.00000E+000	5.51119E-003	3.59960E-001	-1.13374E+000	3.57670E+000	10	...........
	44	0.6	9.25531E-001	5.99470E-003	0.00000E+000	5.54828E-003	3.59960E-001	-1.13733E+000	3.57670E+000	10	...........
	45	0.613333	9.31505E-001	5.99216E-003	0.00000E+000	5.58173E-003	3.59960E-001	-1.12829E+000	3.57670E+000	10	...........
	46	0.626667	9.37448E-001	5.99132E-003	0.00000E+000	5.61655E-003	3.59960E-001	-1.13348E+000	3.57670E+000	10	...........
	47	0.64	9.43317E-001	5.99198E-003	0.00000E+000	5.65233E-003	3.59960E-001	-1.13745E+000	3.57670E+000	10	...........
	48	0.653333	9.49219E-001	5.99225E-003	0.00000E+000	5.68795E-003	3.59960E-001	-1.12881E+000	3.57670E+000	10	...........
	49	0.666667	9.55050E-001	5.99646E-003	0.00000E+000	5.72692E-003	3.59960E-001	-1.13367E+000	3.57670E+000	10	...........
	50	0.68	9.60802E-001	5.99962E-003	0.00000E+000	5.76445E-003	3.59960E-001	-1.13777E+000	3.57670E+000	10	...........
	51	0.693333	9.66503E-001	5.99416E-003	0.00000E+000	5.79337E-003	3.59960E-001	-1.12900E+000	3.57670E+000	10	...........
	52	0.706667	9.72216E-001	5.99398E-003	0.00000E+000	5.82744E-003	3.59960E-001	-1.13386E+000	3.57670E+000	10	...........
	53	0.72	9.77911E-001	5.99501E-003	0.00000E+000	5.86259E-003	3.59960E-001	-1.13827E+000	3.57670E+000	10	...........
	54	0.733333	9.83453E-001	5.99069E-003	0.00000E+000	5.89156E-003	3.59960E-001	-1.12910E+000	3.57670E+000	10	...........
	55	0.746667	9.88999E-001	5.99303E-003	0.00000E+000	5.92710E-003	3.59960E-001	-1.13404E+000	3.57670E+000	10	...........
	56	0.76	9.94489E-001	5.99169E-003	0.00000E+000	5.95868E-003	3.59960E-001	-1.13833E+000	3.57670E+000	10	...........
	57	0.768333	9.98988E-001	5.98733E-003	0.00000E+000	5.98127E-003	3.59960E-001	-1.12383E+000	3.57670E+000	10	...........
STARTTIMEOFFSET	QUANT	900.4584	Start Time Offset (s)