File: Data/CV_CRGO300517_1/PWRCCD_CRGO300517_1/CHARGE_DISCHARGE/CHARGE_#924.DTA
EXPLAIN
TAG	PWR800_CHARGE
TITLE	LABEL	PWR Cyclic Charge Discharge (Cell) - Charge Step	Test &Identifier
DATE	LABEL	22-6-2017	Date
TIME	LABEL	16:11:52	Time
NOTES	NOTES	3	&Notes...
	supercap test cell
	0.6mg
	6M KOH
PSTAT	PSTAT	IFC5000-01520	Potentiostat
CAPACITY	QUANT	1.00000E-003	Capacity (A-hr)
CELLTYPE	SELECTOR	1	&Cell Type
WORKINGCONNECTION	SELECTOR	0	&Working Lead
MAXCHARGETIME	VARIABLEANDUNITS	1.00000E+002	s	1.00000E+002	second(s)	Max &Charge Time
CHARGECURRENT	QUANT	6.00000E-003	&Charge Current (A)
VOLTAGEFINISH	TWOPARAM	F	1.00000E-003	3.60000E+003	&Voltage Finish	 I (A) < 	Max Time(s)
SAMPLETIME	QUANT	1.00000E-002	Sa&mple Period (s)
CHARGESTOPAT1	MULTIPARAM	4	1.00000E+000	Charge Stop At &1	Voltage > Limit	V
CHARGESTOPAT2	MULTIPARAM	0	0.00000E+000	Charge Stop At &2	None	N/A
AESBHCSELECTOR	TOGGLE	F	Save Both Half Cells
IRCOMP	TOGGLE	F	IR &Measure
EOC	QUANT	0	Open Circuit (V)
SEQUENCER	TOGGLE	TRUE	Run as Sequence
PSTATMODEL	IQUANT	53	Pstat Model
PSTATSECTION	LABEL	IFC5000-01520	Pstat Section
PSTATSERIALNO	LABEL	01520	Pstat Serial Number
CTRLMODE	IQUANT	0	Control Mode
ELECTROMETER	IQUANT	1	RE=0 or CS=1
IESTAB	IQUANT	0	I/E Stability
CASPEED	IQUANT	4	Control Amp Speed
CONVENTION	IQUANT	1	Current Convention
ICHRANGE	IQUANT	2	Ich Range
ICHRANGEMODE	TOGGLE	T	Ich Auto Range
ICHOFFSETENABLE	TOGGLE	F	Ich Offset Enable
ICHOFFSET	QUANT	0	Ich Offset (V)
ICHFILTER	IQUANT	1	Ich Filter
VCHRANGE	IQUANT	2	Vch Range
VCHRANGEMODE	TOGGLE	T	Vch Auto Range
VCHOFFSETENABLE	TOGGLE	F	Vch Offset Enable
VCHOFFSET	QUANT	0	Vch Offset (V)
VCHFILTER	IQUANT	1	Vch Filter
IERANGELOWERLIMIT	IQUANT	9	I/E Range Lower Limit
IERANGEMODE	TOGGLE	F	I/E AutoRange
IERANGE	IQUANT	10	I/E Range
ACHSELECT	IQUANT	1	Ach Select
ACHRANGE	IQUANT	2	Ach Range
ACHOFFSETENABLE	TOGGLE	F	Ach Offset Enable
ACHOFFSET	QUANT	0	Ach Offset (V)
ACHFILTER	IQUANT	1	Ach Filter
CABLEID	IQUANT	14	Cable ID
DCCALDATE	LABEL	20-10-2016	DC Calibration Date
ACCALDATE	LABEL	12/3/2015	AC Calibration Date
FRAMEWORKVERSION	QUANT	7.01	Framework Version
INSTRUMENTVERSION	LABEL	4.00	Instrument Version
CURVE	TABLE	53
	Pt	T	Vf	Im	Vu	Pwr	Sig	Ach	Temp	IERange	Over
	#	s	V	A	V	W	V	V	deg C	#	bits
	0	0.013333	6.54062E-001	5.99642E-003	0.00000E+000	3.92203E-003	3.59960E-001	-1.18298E+000	3.57640E+000	10	...........
	1	0.026667	6.63357E-001	5.99232E-003	0.00000E+000	3.97505E-003	3.59960E-001	-1.17490E+000	3.57640E+000	10	...........
	2	0.04	6.71910E-001	5.99340E-003	0.00000E+000	4.02702E-003	3.59960E-001	-1.17161E+000	3.57640E+000	10	...........
	3	0.053333	6.80034E-001	5.99365E-003	0.00000E+000	4.07589E-003	3.59960E-001	-1.18237E+000	3.57640E+000	10	...........
	4	0.066667	6.87832E-001	5.99043E-003	0.00000E+000	4.12041E-003	3.59960E-001	-1.17438E+000	3.57640E+000	10	...........
	5	0.08	6.95453E-001	5.99379E-003	0.00000E+000	4.16840E-003	3.59960E-001	-1.17137E+000	3.57640E+000	10	...........
	6	0.093333	7.02899E-001	5.99123E-003	0.00000E+000	4.21123E-003	3.59960E-001	-1.18232E+000	3.57640E+000	10	...........
	7	0.106667	7.10236E-001	5.99207E-003	0.00000E+000	4.25578E-003	3.59960E-001	-1.17415E+000	3.57640E+000	10	...........
	8	0.12	7.17547E-001	6.00150E-003	0.00000E+000	4.30636E-003	3.59960E-001	-1.17113E+000	3.57640E+000	10	...........
	9	0.133333	7.24676E-001	5.99695E-003	0.00000E+000	4.34585E-003	3.59960E-001	-1.18242E+000	3.57660E+000	10	...........
	10	0.146667	7.31757E-001	5.99752E-003	0.00000E+000	4.38873E-003	3.59960E-001	-1.17443E+000	3.57660E+000	10	...........
	11	0.16	7.38809E-001	5.99544E-003	0.00000E+000	4.42948E-003	3.59960E-001	-1.17135E+000	3.57660E+000	10	...........
	12	0.173333	7.45855E-001	5.99569E-003	0.00000E+000	4.47192E-003	3.59960E-001	-1.18214E+000	3.57660E+000	10	...........
	13	0.186667	7.52806E-001	5.99190E-003	0.00000E+000	4.51074E-003	3.59960E-001	-1.17417E+000	3.57660E+000	10	...........
	14	0.2	7.59738E-001	5.99270E-003	0.00000E+000	4.55288E-003	3.59960E-001	-1.17105E+000	3.57660E+000	10	...........
	15	0.213333	7.66644E-001	5.99187E-003	0.00000E+000	4.59363E-003	3.59960E-001	-1.18232E+000	3.57660E+000	10	...........
	16	0.226667	7.73492E-001	5.99415E-003	0.00000E+000	4.63642E-003	3.59960E-001	-1.17394E+000	3.57660E+000	10	...........
	17	0.24	7.80350E-001	5.99132E-003	0.00000E+000	4.67533E-003	3.59960E-001	-1.17079E+000	3.57660E+000	10	...........
	18	0.253333	7.87125E-001	5.99060E-003	0.00000E+000	4.71535E-003	3.59960E-001	-1.18192E+000	3.57660E+000	10	...........
	19	0.266667	7.93947E-001	5.99310E-003	0.00000E+000	4.75820E-003	3.59960E-001	-1.17385E+000	3.57660E+000	10	...........
	20	0.28	8.00722E-001	5.99389E-003	0.00000E+000	4.79943E-003	3.59960E-001	-1.17115E+000	3.57660E+000	10	...........
	21	0.293333	8.07432E-001	5.99263E-003	0.00000E+000	4.83864E-003	3.59960E-001	-1.18214E+000	3.57660E+000	10	...........
	22	0.306667	8.14109E-001	5.99737E-003	0.00000E+000	4.88251E-003	3.59960E-001	-1.17397E+000	3.57660E+000	10	...........
	23	0.32	8.20805E-001	5.99438E-003	0.00000E+000	4.92021E-003	3.59960E-001	-1.17093E+000	3.57660E+000	10	...........
	24	0.333333	8.27481E-001	5.99274E-003	0.00000E+000	4.95888E-003	3.59960E-001	-1.18217E+000	3.57660E+000	10	...........
	25	0.346667	8.34066E-001	5.98992E-003	0.00000E+000	4.99599E-003	3.59960E-001	-1.17388E+000	3.57660E+000	10	...........
	26	0.36	8.40628E-001	5.99174E-003	0.00000E+000	5.03682E-003	3.59960E-001	-1.17085E+000	3.57660E+000	10	...........
	27	0.373333	8.47225E-001	5.99681E-003	0.00000E+000	5.08064E-003	3.59960E-001	-1.18168E+000	3.57660E+000	10	...........
	28	0.386667	8.53734E-001	5.99305E-003	0.00000E+000	5.11647E-003	3.59960E-001	-1.17329E+000	3.57660E+000	10	...........
	29	0.4	8.60235E-001	5.99757E-003	0.00000E+000	5.15932E-003	3.59960E-001	-1.17069E+000	3.57660E+000	10	...........
	30	0.413333	8.66703E-001	5.99517E-003	0.00000E+000	5.19603E-003	3.59960E-001	-1.18168E+000	3.57660E+000	10	...........
	31	0.426667	8.73180E-001	5.99446E-003	0.00000E+000	5.23424E-003	3.59960E-001	-1.17322E+000	3.57660E+000	10	...........
	32	0.44	8.79646E-001	5.99256E-003	0.00000E+000	5.27133E-003	3.59960E-001	-1.17030E+000	3.57660E+000	10	...........
	33	0.453333	8.86069E-001	5.99148E-003	0.00000E+000	5.30886E-003	3.59960E-001	-1.18146E+000	3.57660E+000	10	...........
	34	0.466667	8.92410E-001	5.99241E-003	0.00000E+000	5.34769E-003	3.59960E-001	-1.17336E+000	3.57660E+000	10	...........
	35	0.48	8.98754E-001	5.99260E-003	0.00000E+000	5.38588E-003	3.59960E-001	-1.17047E+000	3.57660E+000	10	...........
	36	0.493333	9.05048E-001	5.99398E-003	0.00000E+000	5.42484E-003	3.59960E-001	-1.18127E+000	3.57660E+000	10	...........
	37	0.506667	9.11332E-001	5.99429E-003	0.00000E+000	5.46279E-003	3.59960E-001	-1.17294E+000	3.57660E+000	10	...........
	38	0.52	9.17543E-001	5.99227E-003	0.00000E+000	5.49817E-003	3.59960E-001	-1.17043E+000	3.57660E+000	10	...........
	39	0.533333	9.23755E-001	5.99491E-003	0.00000E+000	5.53782E-003	3.59960E-001	-1.18164E+000	3.57660E+000	10	...........
	40	0.546667	9.29888E-001	5.99162E-003	0.00000E+000	5.57154E-003	3.59960E-001	-1.17332E+000	3.57660E+000	10	...........
	41	0.56	9.35944E-001	5.99595E-003	0.00000E+000	5.61187E-003	3.59960E-001	-1.17029E+000	3.57660E+000	10	...........
	42	0.573333	9.41972E-001	5.99715E-003	0.00000E+000	5.64915E-003	3.59960E-001	-1.18135E+000	3.57660E+000	10	...........
	43	0.586667	9.47986E-001	5.98931E-003	0.00000E+000	5.67778E-003	3.59960E-001	-1.17303E+000	3.57660E+000	10	...........
	44	0.6	9.53956E-001	5.99173E-003	0.00000E+000	5.71584E-003	3.59960E-001	-1.17040E+000	3.57660E+000	10	...........
	45	0.613333	9.59799E-001	5.99086E-003	0.00000E+000	5.75002E-003	3.59960E-001	-1.18180E+000	3.57660E+000	10	...........
	46	0.626667	9.65631E-001	5.99071E-003	0.00000E+000	5.78482E-003	3.59960E-001	-1.17312E+000	3.57660E+000	10	...........
	47	0.64	9.71471E-001	5.99200E-003	0.00000E+000	5.82105E-003	3.59960E-001	-1.17044E+000	3.57660E+000	10	...........
	48	0.653333	9.77244E-001	5.99690E-003	0.00000E+000	5.86044E-003	3.59960E-001	-1.18160E+000	3.57660E+000	10	...........
	49	0.666667	9.82904E-001	5.99386E-003	0.00000E+000	5.89139E-003	3.59960E-001	-1.17310E+000	3.57660E+000	10	...........
	50	0.68	9.88516E-001	5.99346E-003	0.00000E+000	5.92463E-003	3.59960E-001	-1.17048E+000	3.57660E+000	10	...........
	51	0.693333	9.94093E-001	5.99379E-003	0.00000E+000	5.95839E-003	3.59960E-001	-1.18142E+000	3.57660E+000	10	...........
	52	0.703333	9.98947E-001	5.98905E-003	0.00000E+000	5.98274E-003	3.59960E-001	-1.16862E+000	3.57660E+000	10	...........
STARTTIMEOFFSET	QUANT	1479.696	Start Time Offset (s)