File: Data/CV_CRGO300517_1/PWRCCD_CRGO300517_1/CHARGE_DISCHARGE/CHARGE_#158.DTA
EXPLAIN
TAG	PWR800_CHARGE
TITLE	LABEL	PWR Cyclic Charge Discharge (Cell) - Charge Step	Test &Identifier
DATE	LABEL	22-6-2017	Date
TIME	LABEL	15:42:01	Time
NOTES	NOTES	3	&Notes...
	supercap test cell
	0.6mg
	6M KOH
PSTAT	PSTAT	IFC5000-01520	Potentiostat
CAPACITY	QUANT	1.00000E-003	Capacity (A-hr)
CELLTYPE	SELECTOR	1	&Cell Type
WORKINGCONNECTION	SELECTOR	0	&Working Lead
MAXCHARGETIME	VARIABLEANDUNITS	1.00000E+002	s	1.00000E+002	second(s)	Max &Charge Time
CHARGECURRENT	QUANT	6.00000E-003	&Charge Current (A)
VOLTAGEFINISH	TWOPARAM	F	1.00000E-003	3.60000E+003	&Voltage Finish	 I (A) < 	Max Time(s)
SAMPLETIME	QUANT	1.00000E-002	Sa&mple Period (s)
CHARGESTOPAT1	MULTIPARAM	4	1.00000E+000	Charge Stop At &1	Voltage > Limit	V
CHARGESTOPAT2	MULTIPARAM	0	0.00000E+000	Charge Stop At &2	None	N/A
AESBHCSELECTOR	TOGGLE	F	Save Both Half Cells
IRCOMP	TOGGLE	F	IR &Measure
EOC	QUANT	0	Open Circuit (V)
SEQUENCER	TOGGLE	TRUE	Run as Sequence
PSTATMODEL	IQUANT	53	Pstat Model
PSTATSECTION	LABEL	IFC5000-01520	Pstat Section
PSTATSERIALNO	LABEL	01520	Pstat Serial Number
CTRLMODE	IQUANT	0	Control Mode
ELECTROMETER	IQUANT	1	RE=0 or CS=1
IESTAB	IQUANT	0	I/E Stability
CASPEED	IQUANT	4	Control Amp Speed
CONVENTION	IQUANT	1	Current Convention
ICHRANGE	IQUANT	2	Ich Range
ICHRANGEMODE	TOGGLE	T	Ich Auto Range
ICHOFFSETENABLE	TOGGLE	F	Ich Offset Enable
ICHOFFSET	QUANT	0	Ich Offset (V)
ICHFILTER	IQUANT	1	Ich Filter
VCHRANGE	IQUANT	2	Vch Range
VCHRANGEMODE	TOGGLE	T	Vch Auto Range
VCHOFFSETENABLE	TOGGLE	F	Vch Offset Enable
VCHOFFSET	QUANT	0	Vch Offset (V)
VCHFILTER	IQUANT	1	Vch Filter
IERANGELOWERLIMIT	IQUANT	9	I/E Range Lower Limit
IERANGEMODE	TOGGLE	F	I/E AutoRange
IERANGE	IQUANT	10	I/E Range
ACHSELECT	IQUANT	1	Ach Select
ACHRANGE	IQUANT	2	Ach Range
ACHOFFSETENABLE	TOGGLE	F	Ach Offset Enable
ACHOFFSET	QUANT	0	Ach Offset (V)
ACHFILTER	IQUANT	1	Ach Filter
CABLEID	IQUANT	14	Cable ID
DCCALDATE	LABEL	20-10-2016	DC Calibration Date
ACCALDATE	LABEL	12/3/2015	AC Calibration Date
FRAMEWORKVERSION	QUANT	7.01	Framework Version
INSTRUMENTVERSION	LABEL	4.00	Instrument Version
CURVE	TABLE	67
	Pt	T	Vf	Im	Vu	Pwr	Sig	Ach	Temp	IERange	Over
	#	s	V	A	V	W	V	V	deg C	#	bits
	0	0.013333	5.99787E-001	6.00006E-003	0.00000E+000	3.59876E-003	3.59960E-001	-1.07192E+000	3.57760E+000	10	...........
	1	0.026667	6.08155E-001	5.99370E-003	0.00000E+000	3.64510E-003	3.59960E-001	-1.08256E+000	3.57760E+000	10	...........
	2	0.04	6.15902E-001	5.99294E-003	0.00000E+000	3.69106E-003	3.59960E-001	-1.07690E+000	3.57760E+000	10	...........
	3	0.053333	6.23216E-001	5.99448E-003	0.00000E+000	3.73586E-003	3.59960E-001	-1.07208E+000	3.57760E+000	10	...........
	4	0.066667	6.30191E-001	5.99207E-003	0.00000E+000	3.77615E-003	3.59960E-001	-1.08235E+000	3.57760E+000	10	...........
	5	0.08	6.37020E-001	5.99260E-003	0.00000E+000	3.81741E-003	3.59960E-001	-1.07701E+000	3.57760E+000	10	...........
	6	0.093333	6.43705E-001	5.99078E-003	0.00000E+000	3.85629E-003	3.59960E-001	-1.07195E+000	3.57760E+000	10	...........
	7	0.106667	6.50275E-001	5.99494E-003	0.00000E+000	3.89836E-003	3.59960E-001	-1.08234E+000	3.57760E+000	10	...........
	8	0.12	6.56797E-001	5.99358E-003	0.00000E+000	3.93657E-003	3.59960E-001	-1.07671E+000	3.57760E+000	10	...........
	9	0.133333	6.63213E-001	5.99162E-003	0.00000E+000	3.97372E-003	3.59960E-001	-1.07191E+000	3.57760E+000	10	...........
	10	0.146667	6.69633E-001	5.99617E-003	0.00000E+000	4.01523E-003	3.59960E-001	-1.08206E+000	3.57760E+000	10	...........
	11	0.16	6.75939E-001	5.99718E-003	0.00000E+000	4.05373E-003	3.59960E-001	-1.07670E+000	3.57760E+000	10	...........
	12	0.173333	6.82228E-001	5.99172E-003	0.00000E+000	4.08771E-003	3.59960E-001	-1.07162E+000	3.57760E+000	10	...........
	13	0.186667	6.88430E-001	5.99473E-003	0.00000E+000	4.12695E-003	3.59960E-001	-1.08162E+000	3.57760E+000	10	...........
	14	0.2	6.94671E-001	5.99400E-003	0.00000E+000	4.16386E-003	3.59960E-001	-1.07649E+000	3.57760E+000	10	...........
	15	0.213333	7.00830E-001	5.99738E-003	0.00000E+000	4.20314E-003	3.59960E-001	-1.07169E+000	3.57760E+000	10	...........
	16	0.226667	7.06977E-001	5.99731E-003	0.00000E+000	4.23996E-003	3.59960E-001	-1.08172E+000	3.57760E+000	10	...........
	17	0.24	7.13109E-001	5.99707E-003	0.00000E+000	4.27656E-003	3.59960E-001	-1.07687E+000	3.57760E+000	10	...........
	18	0.253333	7.19281E-001	5.99485E-003	0.00000E+000	4.31198E-003	3.59960E-001	-1.07156E+000	3.57760E+000	10	...........
	19	0.266667	7.25420E-001	5.99877E-003	0.00000E+000	4.35163E-003	3.59960E-001	-1.08145E+000	3.57760E+000	10	...........
	20	0.28	7.31483E-001	5.99517E-003	0.00000E+000	4.38537E-003	3.59960E-001	-1.07681E+000	3.57760E+000	10	...........
	21	0.293333	7.37557E-001	5.99040E-003	0.00000E+000	4.41826E-003	3.59960E-001	-1.07171E+000	3.57760E+000	10	...........
	22	0.306667	7.43673E-001	5.99626E-003	0.00000E+000	4.45926E-003	3.59960E-001	-1.08135E+000	3.57760E+000	10	...........
	23	0.32	7.49741E-001	5.99148E-003	0.00000E+000	4.49206E-003	3.59960E-001	-1.07692E+000	3.57760E+000	10	...........
	24	0.333333	7.55849E-001	5.99347E-003	0.00000E+000	4.53015E-003	3.59960E-001	-1.07166E+000	3.57817E+000	10	...........
	25	0.346667	7.61920E-001	5.99666E-003	0.00000E+000	4.56897E-003	3.59960E-001	-1.08130E+000	3.57820E+000	10	...........
	26	0.36	7.68001E-001	5.99845E-003	0.00000E+000	4.60682E-003	3.59960E-001	-1.07719E+000	3.57820E+000	10	...........
	27	0.373333	7.74013E-001	5.99426E-003	0.00000E+000	4.63964E-003	3.59960E-001	-1.07182E+000	3.57820E+000	10	...........
	28	0.386667	7.80081E-001	5.99247E-003	0.00000E+000	4.67461E-003	3.59960E-001	-1.08131E+000	3.57820E+000	10	...........
	29	0.4	7.86110E-001	5.99544E-003	0.00000E+000	4.71307E-003	3.59960E-001	-1.07717E+000	3.57820E+000	10	...........
	30	0.413333	7.92132E-001	5.99299E-003	0.00000E+000	4.74724E-003	3.59960E-001	-1.07200E+000	3.57820E+000	10	...........
	31	0.426667	7.98163E-001	5.99241E-003	0.00000E+000	4.78292E-003	3.59960E-001	-1.08126E+000	3.57820E+000	10	...........
	32	0.44	8.04175E-001	5.99589E-003	0.00000E+000	4.82175E-003	3.59960E-001	-1.07719E+000	3.57820E+000	10	...........
	33	0.453333	8.10188E-001	5.99092E-003	0.00000E+000	4.85377E-003	3.59960E-001	-1.07173E+000	3.57820E+000	10	...........
	34	0.466667	8.16184E-001	5.99582E-003	0.00000E+000	4.89369E-003	3.59960E-001	-1.08077E+000	3.57820E+000	10	...........
	35	0.48	8.22174E-001	5.99753E-003	0.00000E+000	4.93101E-003	3.59960E-001	-1.07727E+000	3.57820E+000	10	...........
	36	0.493333	8.28160E-001	5.99452E-003	0.00000E+000	4.96443E-003	3.59960E-001	-1.07131E+000	3.57820E+000	10	...........
	37	0.506667	8.34114E-001	5.99741E-003	0.00000E+000	5.00252E-003	3.59960E-001	-1.08081E+000	3.57820E+000	10	...........
	38	0.52	8.40085E-001	5.99628E-003	0.00000E+000	5.03739E-003	3.59960E-001	-1.07698E+000	3.57820E+000	10	...........
	39	0.533333	8.46083E-001	5.99387E-003	0.00000E+000	5.07132E-003	3.59960E-001	-1.07150E+000	3.57820E+000	10	...........
	40	0.546667	8.52044E-001	5.99189E-003	0.00000E+000	5.10536E-003	3.59960E-001	-1.08071E+000	3.57820E+000	10	...........
	41	0.56	8.57996E-001	5.99265E-003	0.00000E+000	5.14168E-003	3.59960E-001	-1.07731E+000	3.57820E+000	10	...........
	42	0.573333	8.63900E-001	5.99326E-003	0.00000E+000	5.17758E-003	3.59960E-001	-1.07150E+000	3.57820E+000	10	...........
	43	0.586667	8.69852E-001	5.99353E-003	0.00000E+000	5.21349E-003	3.59960E-001	-1.08052E+000	3.57820E+000	10	...........
	44	0.6	8.75746E-001	5.99628E-003	0.00000E+000	5.25122E-003	3.59960E-001	-1.07723E+000	3.57820E+000	10	...........
	45	0.613333	8.81624E-001	5.99572E-003	0.00000E+000	5.28597E-003	3.59960E-001	-1.07144E+000	3.57820E+000	10	...........
	46	0.626667	8.87471E-001	5.99344E-003	0.00000E+000	5.31900E-003	3.59960E-001	-1.08050E+000	3.57820E+000	10	...........
	47	0.64	8.93393E-001	5.99525E-003	0.00000E+000	5.35612E-003	3.59960E-001	-1.07737E+000	3.57820E+000	10	...........
	48	0.653333	8.99228E-001	5.99271E-003	0.00000E+000	5.38881E-003	3.59960E-001	-1.07116E+000	3.57820E+000	10	...........
	49	0.666667	9.05093E-001	5.99433E-003	0.00000E+000	5.42543E-003	3.59960E-001	-1.08024E+000	3.57820E+000	10	...........
	50	0.68	9.10962E-001	5.99419E-003	0.00000E+000	5.46048E-003	3.59960E-001	-1.07763E+000	3.57820E+000	10	...........
	51	0.693333	9.16747E-001	5.99402E-003	0.00000E+000	5.49500E-003	3.59960E-001	-1.07163E+000	3.57820E+000	10	...........
	52	0.706667	9.22597E-001	5.99416E-003	0.00000E+000	5.53019E-003	3.59960E-001	-1.08033E+000	3.57820E+000	10	...........
	53	0.72	9.28337E-001	5.99524E-003	0.00000E+000	5.56561E-003	3.59960E-001	-1.07760E+000	3.57820E+000	10	...........
	54	0.733333	9.34028E-001	5.99648E-003	0.00000E+000	5.60088E-003	3.59960E-001	-1.07132E+000	3.57820E+000	10	...........
	55	0.746667	9.39723E-001	5.99665E-003	0.00000E+000	5.63519E-003	3.59960E-001	-1.08025E+000	3.57820E+000	10	...........
	56	0.76	9.45387E-001	5.99514E-003	0.00000E+000	5.66773E-003	3.59960E-001	-1.07759E+000	3.57820E+000	10	...........
	57	0.773333	9.51052E-001	5.99592E-003	0.00000E+000	5.70243E-003	3.59960E-001	-1.07132E+000	3.57820E+000	10	...........
	58	0.786667	9.56679E-001	5.99414E-003	0.00000E+000	5.73447E-003	3.59960E-001	-1.07965E+000	3.57820E+000	10	...........
	59	0.8	9.62215E-001	5.98994E-003	0.00000E+000	5.76361E-003	3.59960E-001	-1.07727E+000	3.57820E+000	10	...........
	60	0.813333	9.67763E-001	5.99233E-003	0.00000E+000	5.79916E-003	3.59960E-001	-1.07102E+000	3.57820E+000	10	...........
	61	0.826667	9.73345E-001	5.99474E-003	0.00000E+000	5.83495E-003	3.59960E-001	-1.07977E+000	3.57820E+000	10	...........
	62	0.84	9.78817E-001	5.99189E-003	0.00000E+000	5.86497E-003	3.59960E-001	-1.07750E+000	3.57820E+000	10	...........
	63	0.853333	9.84274E-001	5.99396E-003	0.00000E+000	5.89970E-003	3.59960E-001	-1.07090E+000	3.57820E+000	10	...........
	64	0.866667	9.89671E-001	5.99422E-003	0.00000E+000	5.93231E-003	3.59960E-001	-1.07947E+000	3.57820E+000	10	...........
	65	0.88	9.95062E-001	5.99376E-003	0.00000E+000	5.96416E-003	3.59960E-001	-1.07754E+000	3.57820E+000	10	...........
	66	0.886667	9.99106E-001	6.00095E-003	0.00000E+000	5.99558E-003	3.59960E-001	-1.07289E+000	3.57820E+000	10	...........
STARTTIMEOFFSET	QUANT	299.7667	Start Time Offset (s)