File: Data/CV_CRGO300517_1/PWRCCD_CRGO300517_1/CHARGE_DISCHARGE/CHARGE_#304.DTA
EXPLAIN
TAG	PWR800_CHARGE
TITLE	LABEL	PWR Cyclic Charge Discharge (Cell) - Charge Step	Test &Identifier
DATE	LABEL	22-6-2017	Date
TIME	LABEL	15:48:05	Time
NOTES	NOTES	3	&Notes...
	supercap test cell
	0.6mg
	6M KOH
PSTAT	PSTAT	IFC5000-01520	Potentiostat
CAPACITY	QUANT	1.00000E-003	Capacity (A-hr)
CELLTYPE	SELECTOR	1	&Cell Type
WORKINGCONNECTION	SELECTOR	0	&Working Lead
MAXCHARGETIME	VARIABLEANDUNITS	1.00000E+002	s	1.00000E+002	second(s)	Max &Charge Time
CHARGECURRENT	QUANT	6.00000E-003	&Charge Current (A)
VOLTAGEFINISH	TWOPARAM	F	1.00000E-003	3.60000E+003	&Voltage Finish	 I (A) < 	Max Time(s)
SAMPLETIME	QUANT	1.00000E-002	Sa&mple Period (s)
CHARGESTOPAT1	MULTIPARAM	4	1.00000E+000	Charge Stop At &1	Voltage > Limit	V
CHARGESTOPAT2	MULTIPARAM	0	0.00000E+000	Charge Stop At &2	None	N/A
AESBHCSELECTOR	TOGGLE	F	Save Both Half Cells
IRCOMP	TOGGLE	F	IR &Measure
EOC	QUANT	0	Open Circuit (V)
SEQUENCER	TOGGLE	TRUE	Run as Sequence
PSTATMODEL	IQUANT	53	Pstat Model
PSTATSECTION	LABEL	IFC5000-01520	Pstat Section
PSTATSERIALNO	LABEL	01520	Pstat Serial Number
CTRLMODE	IQUANT	0	Control Mode
ELECTROMETER	IQUANT	1	RE=0 or CS=1
IESTAB	IQUANT	0	I/E Stability
CASPEED	IQUANT	4	Control Amp Speed
CONVENTION	IQUANT	1	Current Convention
ICHRANGE	IQUANT	2	Ich Range
ICHRANGEMODE	TOGGLE	T	Ich Auto Range
ICHOFFSETENABLE	TOGGLE	F	Ich Offset Enable
ICHOFFSET	QUANT	0	Ich Offset (V)
ICHFILTER	IQUANT	1	Ich Filter
VCHRANGE	IQUANT	2	Vch Range
VCHRANGEMODE	TOGGLE	T	Vch Auto Range
VCHOFFSETENABLE	TOGGLE	F	Vch Offset Enable
VCHOFFSET	QUANT	0	Vch Offset (V)
VCHFILTER	IQUANT	1	Vch Filter
IERANGELOWERLIMIT	IQUANT	9	I/E Range Lower Limit
IERANGEMODE	TOGGLE	F	I/E AutoRange
IERANGE	IQUANT	10	I/E Range
ACHSELECT	IQUANT	1	Ach Select
ACHRANGE	IQUANT	2	Ach Range
ACHOFFSETENABLE	TOGGLE	F	Ach Offset Enable
ACHOFFSET	QUANT	0	Ach Offset (V)
ACHFILTER	IQUANT	1	Ach Filter
CABLEID	IQUANT	14	Cable ID
DCCALDATE	LABEL	20-10-2016	DC Calibration Date
ACCALDATE	LABEL	12/3/2015	AC Calibration Date
FRAMEWORKVERSION	QUANT	7.01	Framework Version
INSTRUMENTVERSION	LABEL	4.00	Instrument Version
CURVE	TABLE	62
	Pt	T	Vf	Im	Vu	Pwr	Sig	Ach	Temp	IERange	Over
	#	s	V	A	V	W	V	V	deg C	#	bits
	0	0.013333	6.16676E-001	5.99201E-003	0.00000E+000	3.69513E-003	3.59960E-001	-1.11510E+000	3.57790E+000	10	...........
	1	0.026667	6.25307E-001	5.99398E-003	0.00000E+000	3.74808E-003	3.59960E-001	-1.10520E+000	3.57790E+000	10	...........
	2	0.04	6.33235E-001	5.99309E-003	0.00000E+000	3.79503E-003	3.59960E-001	-1.10528E+000	3.57790E+000	10	...........
	3	0.053333	6.40755E-001	5.99576E-003	0.00000E+000	3.84181E-003	3.59960E-001	-1.11520E+000	3.57790E+000	10	...........
	4	0.066667	6.47971E-001	5.99229E-003	0.00000E+000	3.88283E-003	3.59960E-001	-1.10478E+000	3.57790E+000	10	...........
	5	0.08	6.55028E-001	5.99842E-003	0.00000E+000	3.92913E-003	3.59960E-001	-1.10427E+000	3.57790E+000	10	...........
	6	0.093333	6.61900E-001	5.99406E-003	0.00000E+000	3.96747E-003	3.59960E-001	-1.11441E+000	3.57790E+000	10	...........
	7	0.106667	6.68724E-001	5.99435E-003	0.00000E+000	4.00857E-003	3.59960E-001	-1.10483E+000	3.57790E+000	10	...........
	8	0.12	6.75414E-001	5.99561E-003	0.00000E+000	4.04952E-003	3.59960E-001	-1.10462E+000	3.57790E+000	10	...........
	9	0.133333	6.82061E-001	5.99365E-003	0.00000E+000	4.08803E-003	3.59960E-001	-1.11433E+000	3.57790E+000	10	...........
	10	0.146667	6.88659E-001	5.99287E-003	0.00000E+000	4.12705E-003	3.59960E-001	-1.10461E+000	3.57790E+000	10	...........
	11	0.16	6.95201E-001	5.99440E-003	0.00000E+000	4.16731E-003	3.59960E-001	-1.10424E+000	3.57790E+000	10	...........
	12	0.173333	7.01721E-001	5.99684E-003	0.00000E+000	4.20811E-003	3.59960E-001	-1.11477E+000	3.57790E+000	10	...........
	13	0.186667	7.08164E-001	5.99300E-003	0.00000E+000	4.24402E-003	3.59960E-001	-1.10509E+000	3.57790E+000	10	...........
	14	0.2	7.14580E-001	5.99103E-003	0.00000E+000	4.28107E-003	3.59960E-001	-1.10399E+000	3.57790E+000	10	...........
	15	0.213333	7.21057E-001	5.99358E-003	0.00000E+000	4.32172E-003	3.59960E-001	-1.11421E+000	3.57790E+000	10	...........
	16	0.226667	7.27436E-001	5.99418E-003	0.00000E+000	4.36038E-003	3.59960E-001	-1.10472E+000	3.57790E+000	10	...........
	17	0.24	7.33751E-001	5.99035E-003	0.00000E+000	4.39542E-003	3.59960E-001	-1.10422E+000	3.57790E+000	10	...........
	18	0.253333	7.40098E-001	5.99432E-003	0.00000E+000	4.43639E-003	3.59960E-001	-1.11437E+000	3.57790E+000	10	...........
	19	0.266667	7.46441E-001	5.99629E-003	0.00000E+000	4.47588E-003	3.59960E-001	-1.10474E+000	3.57790E+000	10	...........
	20	0.28	7.52740E-001	5.99239E-003	0.00000E+000	4.51072E-003	3.59960E-001	-1.10405E+000	3.57790E+000	10	...........
	21	0.293333	7.59085E-001	5.99451E-003	0.00000E+000	4.55034E-003	3.59960E-001	-1.11450E+000	3.57790E+000	10	...........
	22	0.306667	7.65331E-001	5.99134E-003	0.00000E+000	4.58536E-003	3.59960E-001	-1.10519E+000	3.57790E+000	10	...........
	23	0.32	7.71622E-001	5.99728E-003	0.00000E+000	4.62763E-003	3.59960E-001	-1.10426E+000	3.57790E+000	10	...........
	24	0.333333	7.77904E-001	5.99308E-003	0.00000E+000	4.66204E-003	3.59960E-001	-1.11440E+000	3.57790E+000	10	...........
	25	0.346667	7.84158E-001	5.99783E-003	0.00000E+000	4.70324E-003	3.59960E-001	-1.10496E+000	3.57703E+000	10	...........
	26	0.36	7.90411E-001	5.99329E-003	0.00000E+000	4.73717E-003	3.59960E-001	-1.10433E+000	3.57690E+000	10	...........
	27	0.373333	7.96665E-001	5.98919E-003	0.00000E+000	4.77138E-003	3.59960E-001	-1.11482E+000	3.57690E+000	10	...........
	28	0.386667	8.02886E-001	5.99674E-003	0.00000E+000	4.81470E-003	3.59960E-001	-1.10482E+000	3.57690E+000	10	...........
	29	0.4	8.09100E-001	5.99412E-003	0.00000E+000	4.84984E-003	3.59960E-001	-1.10355E+000	3.57690E+000	10	...........
	30	0.413333	8.15311E-001	5.99405E-003	0.00000E+000	4.88702E-003	3.59960E-001	-1.11418E+000	3.57690E+000	10	...........
	31	0.426667	8.21535E-001	5.99219E-003	0.00000E+000	4.92279E-003	3.59960E-001	-1.10485E+000	3.57690E+000	10	...........
	32	0.44	8.27698E-001	5.99756E-003	0.00000E+000	4.96416E-003	3.59960E-001	-1.10385E+000	3.57690E+000	10	...........
	33	0.453333	8.33886E-001	5.99028E-003	0.00000E+000	4.99521E-003	3.59960E-001	-1.11413E+000	3.57690E+000	10	...........
	34	0.466667	8.40011E-001	5.99976E-003	0.00000E+000	5.03986E-003	3.59960E-001	-1.10465E+000	3.57690E+000	10	...........
	35	0.48	8.46210E-001	5.99368E-003	0.00000E+000	5.07191E-003	3.59960E-001	-1.10356E+000	3.57690E+000	10	...........
	36	0.493333	8.52387E-001	5.99471E-003	0.00000E+000	5.10981E-003	3.59960E-001	-1.11416E+000	3.57690E+000	10	...........
	37	0.506667	8.58494E-001	5.99229E-003	0.00000E+000	5.14435E-003	3.59960E-001	-1.10498E+000	3.57690E+000	10	...........
	38	0.52	8.64585E-001	5.99604E-003	0.00000E+000	5.18409E-003	3.59960E-001	-1.10368E+000	3.57690E+000	10	...........
	39	0.533333	8.70700E-001	5.99417E-003	0.00000E+000	5.21912E-003	3.59960E-001	-1.11405E+000	3.57690E+000	10	...........
	40	0.546667	8.76737E-001	5.99389E-003	0.00000E+000	5.25506E-003	3.59960E-001	-1.10486E+000	3.57690E+000	10	...........
	41	0.56	8.82802E-001	5.98987E-003	0.00000E+000	5.28787E-003	3.59960E-001	-1.10370E+000	3.57690E+000	10	...........
	42	0.573333	8.88847E-001	5.99589E-003	0.00000E+000	5.32942E-003	3.59960E-001	-1.11426E+000	3.57690E+000	10	...........
	43	0.586667	8.94834E-001	5.99511E-003	0.00000E+000	5.36462E-003	3.59960E-001	-1.10488E+000	3.57690E+000	10	...........
	44	0.6	9.00820E-001	5.98808E-003	0.00000E+000	5.39418E-003	3.59960E-001	-1.10333E+000	3.57690E+000	10	...........
	45	0.613333	9.06783E-001	5.98904E-003	0.00000E+000	5.43076E-003	3.59960E-001	-1.11409E+000	3.57690E+000	10	...........
	46	0.626667	9.12735E-001	5.99559E-003	0.00000E+000	5.47238E-003	3.59960E-001	-1.10524E+000	3.57690E+000	10	...........
	47	0.64	9.18645E-001	5.99426E-003	0.00000E+000	5.50660E-003	3.59960E-001	-1.10353E+000	3.57690E+000	10	...........
	48	0.653333	9.24630E-001	5.99639E-003	0.00000E+000	5.54444E-003	3.59960E-001	-1.11425E+000	3.57690E+000	10	...........
	49	0.666667	9.30501E-001	5.99280E-003	0.00000E+000	5.57631E-003	3.59960E-001	-1.10520E+000	3.57690E+000	10	...........
	50	0.68	9.36324E-001	5.99391E-003	0.00000E+000	5.61224E-003	3.59960E-001	-1.10356E+000	3.57690E+000	10	...........
	51	0.693333	9.42134E-001	5.99439E-003	0.00000E+000	5.64751E-003	3.59960E-001	-1.11415E+000	3.57690E+000	10	...........
	52	0.706667	9.47897E-001	5.99582E-003	0.00000E+000	5.68342E-003	3.59960E-001	-1.10505E+000	3.57690E+000	10	...........
	53	0.72	9.53639E-001	5.99193E-003	0.00000E+000	5.71414E-003	3.59960E-001	-1.10307E+000	3.57690E+000	10	...........
	54	0.733333	9.59358E-001	5.99153E-003	0.00000E+000	5.74802E-003	3.59960E-001	-1.11365E+000	3.57690E+000	10	...........
	55	0.746667	9.65015E-001	5.99580E-003	0.00000E+000	5.78604E-003	3.59960E-001	-1.10491E+000	3.57690E+000	10	...........
	56	0.76	9.70651E-001	5.99350E-003	0.00000E+000	5.81759E-003	3.59960E-001	-1.10310E+000	3.57690E+000	10	...........
	57	0.773333	9.76241E-001	5.99795E-003	0.00000E+000	5.85545E-003	3.59960E-001	-1.11371E+000	3.57690E+000	10	...........
	58	0.786667	9.81765E-001	5.99481E-003	0.00000E+000	5.88550E-003	3.59960E-001	-1.10497E+000	3.57690E+000	10	...........
	59	0.8	9.87254E-001	5.99878E-003	0.00000E+000	5.92232E-003	3.59960E-001	-1.10298E+000	3.57690E+000	10	...........
	60	0.813333	9.92702E-001	5.99277E-003	0.00000E+000	5.94904E-003	3.59960E-001	-1.11366E+000	3.57690E+000	10	...........
	61	0.826667	9.98141E-001	5.99802E-003	0.00000E+000	5.98686E-003	3.59960E-001	-1.10493E+000	3.57690E+000	10	...........
STARTTIMEOFFSET	QUANT	547.7183	Start Time Offset (s)