File: Data/CV_CRGO300517_1/PWRCCD_CRGO300517_1/CHARGE_DISCHARGE/CHARGE_#676.DTA
EXPLAIN
TAG	PWR800_CHARGE
TITLE	LABEL	PWR Cyclic Charge Discharge (Cell) - Charge Step	Test &Identifier
DATE	LABEL	22-6-2017	Date
TIME	LABEL	16:02:39	Time
NOTES	NOTES	3	&Notes...
	supercap test cell
	0.6mg
	6M KOH
PSTAT	PSTAT	IFC5000-01520	Potentiostat
CAPACITY	QUANT	1.00000E-003	Capacity (A-hr)
CELLTYPE	SELECTOR	1	&Cell Type
WORKINGCONNECTION	SELECTOR	0	&Working Lead
MAXCHARGETIME	VARIABLEANDUNITS	1.00000E+002	s	1.00000E+002	second(s)	Max &Charge Time
CHARGECURRENT	QUANT	6.00000E-003	&Charge Current (A)
VOLTAGEFINISH	TWOPARAM	F	1.00000E-003	3.60000E+003	&Voltage Finish	 I (A) < 	Max Time(s)
SAMPLETIME	QUANT	1.00000E-002	Sa&mple Period (s)
CHARGESTOPAT1	MULTIPARAM	4	1.00000E+000	Charge Stop At &1	Voltage > Limit	V
CHARGESTOPAT2	MULTIPARAM	0	0.00000E+000	Charge Stop At &2	None	N/A
AESBHCSELECTOR	TOGGLE	F	Save Both Half Cells
IRCOMP	TOGGLE	F	IR &Measure
EOC	QUANT	0	Open Circuit (V)
SEQUENCER	TOGGLE	TRUE	Run as Sequence
PSTATMODEL	IQUANT	53	Pstat Model
PSTATSECTION	LABEL	IFC5000-01520	Pstat Section
PSTATSERIALNO	LABEL	01520	Pstat Serial Number
CTRLMODE	IQUANT	0	Control Mode
ELECTROMETER	IQUANT	1	RE=0 or CS=1
IESTAB	IQUANT	0	I/E Stability
CASPEED	IQUANT	4	Control Amp Speed
CONVENTION	IQUANT	1	Current Convention
ICHRANGE	IQUANT	2	Ich Range
ICHRANGEMODE	TOGGLE	T	Ich Auto Range
ICHOFFSETENABLE	TOGGLE	F	Ich Offset Enable
ICHOFFSET	QUANT	0	Ich Offset (V)
ICHFILTER	IQUANT	1	Ich Filter
VCHRANGE	IQUANT	2	Vch Range
VCHRANGEMODE	TOGGLE	T	Vch Auto Range
VCHOFFSETENABLE	TOGGLE	F	Vch Offset Enable
VCHOFFSET	QUANT	0	Vch Offset (V)
VCHFILTER	IQUANT	1	Vch Filter
IERANGELOWERLIMIT	IQUANT	9	I/E Range Lower Limit
IERANGEMODE	TOGGLE	F	I/E AutoRange
IERANGE	IQUANT	10	I/E Range
ACHSELECT	IQUANT	1	Ach Select
ACHRANGE	IQUANT	2	Ach Range
ACHOFFSETENABLE	TOGGLE	F	Ach Offset Enable
ACHOFFSET	QUANT	0	Ach Offset (V)
ACHFILTER	IQUANT	1	Ach Filter
CABLEID	IQUANT	14	Cable ID
DCCALDATE	LABEL	20-10-2016	DC Calibration Date
ACCALDATE	LABEL	12/3/2015	AC Calibration Date
FRAMEWORKVERSION	QUANT	7.01	Framework Version
INSTRUMENTVERSION	LABEL	4.00	Instrument Version
CURVE	TABLE	56
	Pt	T	Vf	Im	Vu	Pwr	Sig	Ach	Temp	IERange	Over
	#	s	V	A	V	W	V	V	deg C	#	bits
	0	0.013333	6.41500E-001	5.99642E-003	0.00000E+000	3.84670E-003	3.59960E-001	-1.16111E+000	3.57790E+000	10	...........
	1	0.026667	6.50590E-001	5.99132E-003	0.00000E+000	3.89789E-003	3.59960E-001	-1.15463E+000	3.57790E+000	10	...........
	2	0.04	6.58938E-001	5.99672E-003	0.00000E+000	3.95147E-003	3.59960E-001	-1.15049E+000	3.57790E+000	10	...........
	3	0.053333	6.66860E-001	5.99264E-003	0.00000E+000	3.99625E-003	3.59960E-001	-1.16109E+000	3.57790E+000	10	...........
	4	0.066667	6.74509E-001	5.99536E-003	0.00000E+000	4.04392E-003	3.59960E-001	-1.15470E+000	3.57790E+000	10	...........
	5	0.08	6.81889E-001	5.99266E-003	0.00000E+000	4.08633E-003	3.59960E-001	-1.15071E+000	3.57790E+000	10	...........
	6	0.093333	6.89179E-001	5.99341E-003	0.00000E+000	4.13053E-003	3.59960E-001	-1.16115E+000	3.57790E+000	10	...........
	7	0.106667	6.96328E-001	5.99774E-003	0.00000E+000	4.17640E-003	3.59960E-001	-1.15467E+000	3.57790E+000	10	...........
	8	0.12	7.03406E-001	5.99272E-003	0.00000E+000	4.21531E-003	3.59960E-001	-1.15049E+000	3.57790E+000	10	...........
	9	0.133333	7.10363E-001	5.99285E-003	0.00000E+000	4.25710E-003	3.59960E-001	-1.16129E+000	3.57790E+000	10	...........
	10	0.146667	7.17308E-001	5.99568E-003	0.00000E+000	4.30075E-003	3.59960E-001	-1.15451E+000	3.57790E+000	10	...........
	11	0.16	7.24243E-001	5.99553E-003	0.00000E+000	4.34222E-003	3.59960E-001	-1.15038E+000	3.57790E+000	10	...........
	12	0.173333	7.31032E-001	5.99159E-003	0.00000E+000	4.38004E-003	3.59960E-001	-1.16082E+000	3.57790E+000	10	...........
	13	0.186667	7.37841E-001	5.99168E-003	0.00000E+000	4.42091E-003	3.59960E-001	-1.15382E+000	3.57790E+000	10	...........
	14	0.2	7.44636E-001	5.99387E-003	0.00000E+000	4.46325E-003	3.59960E-001	-1.15012E+000	3.57790E+000	10	...........
	15	0.213333	7.51375E-001	5.99579E-003	0.00000E+000	4.50509E-003	3.59960E-001	-1.16084E+000	3.57790E+000	10	...........
	16	0.226667	7.58116E-001	5.99644E-003	0.00000E+000	4.54600E-003	3.59960E-001	-1.15385E+000	3.57790E+000	10	...........
	17	0.24	7.64768E-001	5.98870E-003	0.00000E+000	4.57997E-003	3.59960E-001	-1.14985E+000	3.57790E+000	10	...........
	18	0.253333	7.71458E-001	5.99393E-003	0.00000E+000	4.62406E-003	3.59960E-001	-1.16065E+000	3.57790E+000	10	...........
	19	0.266667	7.78083E-001	5.99391E-003	0.00000E+000	4.66376E-003	3.59960E-001	-1.15379E+000	3.57790E+000	10	...........
	20	0.28	7.84744E-001	5.99663E-003	0.00000E+000	4.70582E-003	3.59960E-001	-1.14996E+000	3.57790E+000	10	...........
	21	0.293333	7.91377E-001	5.99664E-003	0.00000E+000	4.74560E-003	3.59960E-001	-1.16059E+000	3.57790E+000	10	...........
	22	0.306667	7.97982E-001	5.99426E-003	0.00000E+000	4.78331E-003	3.59960E-001	-1.15358E+000	3.57790E+000	10	...........
	23	0.32	8.04500E-001	5.99492E-003	0.00000E+000	4.82291E-003	3.59960E-001	-1.14991E+000	3.57790E+000	10	...........
	24	0.333333	8.11072E-001	5.99393E-003	0.00000E+000	4.86150E-003	3.59960E-001	-1.16064E+000	3.57790E+000	10	...........
	25	0.346667	8.17584E-001	5.99459E-003	0.00000E+000	4.90109E-003	3.59960E-001	-1.15360E+000	3.57790E+000	10	...........
	26	0.36	8.24105E-001	5.99042E-003	0.00000E+000	4.93674E-003	3.59960E-001	-1.14987E+000	3.57790E+000	10	...........
	27	0.373333	8.30563E-001	5.99335E-003	0.00000E+000	4.97785E-003	3.59960E-001	-1.16075E+000	3.57790E+000	10	...........
	28	0.386667	8.37019E-001	5.99257E-003	0.00000E+000	5.01589E-003	3.59960E-001	-1.15349E+000	3.57790E+000	10	...........
	29	0.4	8.43506E-001	5.98930E-003	0.00000E+000	5.05201E-003	3.59960E-001	-1.15008E+000	3.57790E+000	10	...........
	30	0.413333	8.49946E-001	5.99235E-003	0.00000E+000	5.09318E-003	3.59960E-001	-1.16111E+000	3.57790E+000	10	...........
	31	0.426667	8.56323E-001	5.99660E-003	0.00000E+000	5.13503E-003	3.59960E-001	-1.15377E+000	3.57790E+000	10	...........
	32	0.44	8.62698E-001	5.99463E-003	0.00000E+000	5.17155E-003	3.59960E-001	-1.15001E+000	3.57790E+000	10	...........
	33	0.453333	8.69104E-001	5.99641E-003	0.00000E+000	5.21151E-003	3.59960E-001	-1.16098E+000	3.57790E+000	10	...........
	34	0.466667	8.75414E-001	5.98901E-003	0.00000E+000	5.24287E-003	3.59960E-001	-1.15361E+000	3.57790E+000	10	...........
	35	0.48	8.81692E-001	5.99584E-003	0.00000E+000	5.28648E-003	3.59960E-001	-1.15016E+000	3.57790E+000	10	...........
	36	0.493333	8.88034E-001	5.99355E-003	0.00000E+000	5.32248E-003	3.59960E-001	-1.16080E+000	3.57790E+000	10	...........
	37	0.506667	8.94249E-001	5.99621E-003	0.00000E+000	5.36210E-003	3.59960E-001	-1.15308E+000	3.57790E+000	10	...........
	38	0.52	9.00426E-001	5.99346E-003	0.00000E+000	5.39666E-003	3.59960E-001	-1.14974E+000	3.57790E+000	10	...........
	39	0.533333	9.06568E-001	5.99128E-003	0.00000E+000	5.43150E-003	3.59960E-001	-1.16084E+000	3.57790E+000	10	...........
	40	0.546667	9.12729E-001	5.99369E-003	0.00000E+000	5.47061E-003	3.59960E-001	-1.15295E+000	3.57790E+000	10	...........
	41	0.56	9.18840E-001	5.99354E-003	0.00000E+000	5.50711E-003	3.59960E-001	-1.14987E+000	3.57790E+000	10	...........
	42	0.573333	9.24965E-001	5.99720E-003	0.00000E+000	5.54720E-003	3.59960E-001	-1.16068E+000	3.57790E+000	10	...........
	43	0.586667	9.31031E-001	5.99619E-003	0.00000E+000	5.58264E-003	3.59960E-001	-1.15310E+000	3.57790E+000	10	...........
	44	0.6	9.37009E-001	5.99096E-003	0.00000E+000	5.61359E-003	3.59960E-001	-1.14988E+000	3.57790E+000	10	...........
	45	0.613333	9.42989E-001	5.99575E-003	0.00000E+000	5.65393E-003	3.59960E-001	-1.16075E+000	3.57790E+000	10	...........
	46	0.626667	9.48928E-001	5.99284E-003	0.00000E+000	5.68677E-003	3.59960E-001	-1.15301E+000	3.57790E+000	10	...........
	47	0.64	9.54793E-001	5.99160E-003	0.00000E+000	5.72074E-003	3.59960E-001	-1.14962E+000	3.57790E+000	10	...........
	48	0.653333	9.60607E-001	5.99179E-003	0.00000E+000	5.75575E-003	3.59960E-001	-1.16087E+000	3.57790E+000	10	...........
	49	0.666667	9.66379E-001	5.99738E-003	0.00000E+000	5.79574E-003	3.59960E-001	-1.15292E+000	3.57790E+000	10	...........
	50	0.68	9.72124E-001	5.99111E-003	0.00000E+000	5.82410E-003	3.59960E-001	-1.14995E+000	3.57790E+000	10	...........
	51	0.693333	9.77814E-001	5.99529E-003	0.00000E+000	5.86228E-003	3.59960E-001	-1.16087E+000	3.57790E+000	10	...........
	52	0.706667	9.83432E-001	5.99294E-003	0.00000E+000	5.89364E-003	3.59960E-001	-1.15303E+000	3.57790E+000	10	...........
	53	0.72	9.89039E-001	5.99499E-003	0.00000E+000	5.92928E-003	3.59960E-001	-1.15008E+000	3.57790E+000	10	...........
	54	0.733333	9.94557E-001	5.99508E-003	0.00000E+000	5.96245E-003	3.59960E-001	-1.16126E+000	3.57780E+000	10	...........
	55	0.741667	9.99078E-001	5.99664E-003	0.00000E+000	5.99111E-003	3.59960E-001	-1.14613E+000	3.57780E+000	10	...........
STARTTIMEOFFSET	QUANT	1123.913	Start Time Offset (s)