File: Data/CV_CRGO300517_1/PWRCCD_CRGO300517_1/CHARGE_DISCHARGE/CHARGE_#828.DTA
EXPLAIN
TAG	PWR800_CHARGE
TITLE	LABEL	PWR Cyclic Charge Discharge (Cell) - Charge Step	Test &Identifier
DATE	LABEL	22-6-2017	Date
TIME	LABEL	16:08:19	Time
NOTES	NOTES	3	&Notes...
	supercap test cell
	0.6mg
	6M KOH
PSTAT	PSTAT	IFC5000-01520	Potentiostat
CAPACITY	QUANT	1.00000E-003	Capacity (A-hr)
CELLTYPE	SELECTOR	1	&Cell Type
WORKINGCONNECTION	SELECTOR	0	&Working Lead
MAXCHARGETIME	VARIABLEANDUNITS	1.00000E+002	s	1.00000E+002	second(s)	Max &Charge Time
CHARGECURRENT	QUANT	6.00000E-003	&Charge Current (A)
VOLTAGEFINISH	TWOPARAM	F	1.00000E-003	3.60000E+003	&Voltage Finish	 I (A) < 	Max Time(s)
SAMPLETIME	QUANT	1.00000E-002	Sa&mple Period (s)
CHARGESTOPAT1	MULTIPARAM	4	1.00000E+000	Charge Stop At &1	Voltage > Limit	V
CHARGESTOPAT2	MULTIPARAM	0	0.00000E+000	Charge Stop At &2	None	N/A
AESBHCSELECTOR	TOGGLE	F	Save Both Half Cells
IRCOMP	TOGGLE	F	IR &Measure
EOC	QUANT	0	Open Circuit (V)
SEQUENCER	TOGGLE	TRUE	Run as Sequence
PSTATMODEL	IQUANT	53	Pstat Model
PSTATSECTION	LABEL	IFC5000-01520	Pstat Section
PSTATSERIALNO	LABEL	01520	Pstat Serial Number
CTRLMODE	IQUANT	0	Control Mode
ELECTROMETER	IQUANT	1	RE=0 or CS=1
IESTAB	IQUANT	0	I/E Stability
CASPEED	IQUANT	4	Control Amp Speed
CONVENTION	IQUANT	1	Current Convention
ICHRANGE	IQUANT	2	Ich Range
ICHRANGEMODE	TOGGLE	T	Ich Auto Range
ICHOFFSETENABLE	TOGGLE	F	Ich Offset Enable
ICHOFFSET	QUANT	0	Ich Offset (V)
ICHFILTER	IQUANT	1	Ich Filter
VCHRANGE	IQUANT	2	Vch Range
VCHRANGEMODE	TOGGLE	T	Vch Auto Range
VCHOFFSETENABLE	TOGGLE	F	Vch Offset Enable
VCHOFFSET	QUANT	0	Vch Offset (V)
VCHFILTER	IQUANT	1	Vch Filter
IERANGELOWERLIMIT	IQUANT	9	I/E Range Lower Limit
IERANGEMODE	TOGGLE	F	I/E AutoRange
IERANGE	IQUANT	10	I/E Range
ACHSELECT	IQUANT	1	Ach Select
ACHRANGE	IQUANT	2	Ach Range
ACHOFFSETENABLE	TOGGLE	F	Ach Offset Enable
ACHOFFSET	QUANT	0	Ach Offset (V)
ACHFILTER	IQUANT	1	Ach Filter
CABLEID	IQUANT	14	Cable ID
DCCALDATE	LABEL	20-10-2016	DC Calibration Date
ACCALDATE	LABEL	12/3/2015	AC Calibration Date
FRAMEWORKVERSION	QUANT	7.01	Framework Version
INSTRUMENTVERSION	LABEL	4.00	Instrument Version
CURVE	TABLE	54
	Pt	T	Vf	Im	Vu	Pwr	Sig	Ach	Temp	IERange	Over
	#	s	V	A	V	W	V	V	deg C	#	bits
	0	0.013333	6.49753E-001	5.99157E-003	0.00000E+000	3.89304E-003	3.59960E-001	-1.16234E+000	3.57880E+000	10	...........
	1	0.026667	6.58972E-001	5.99832E-003	0.00000E+000	3.95272E-003	3.59960E-001	-1.17245E+000	3.57880E+000	10	...........
	2	0.04	6.67472E-001	5.99400E-003	0.00000E+000	4.00083E-003	3.59960E-001	-1.16655E+000	3.57880E+000	10	...........
	3	0.053333	6.75481E-001	5.99076E-003	0.00000E+000	4.04665E-003	3.59960E-001	-1.16235E+000	3.57880E+000	10	...........
	4	0.066667	6.83156E-001	5.99556E-003	0.00000E+000	4.09590E-003	3.59960E-001	-1.17262E+000	3.57880E+000	10	...........
	5	0.08	6.90682E-001	5.99226E-003	0.00000E+000	4.13875E-003	3.59960E-001	-1.16664E+000	3.57880E+000	10	...........
	6	0.093333	6.98122E-001	5.99093E-003	0.00000E+000	4.18240E-003	3.59960E-001	-1.16237E+000	3.57880E+000	10	...........
	7	0.106667	7.05368E-001	5.99457E-003	0.00000E+000	4.22838E-003	3.59960E-001	-1.17233E+000	3.57880E+000	10	...........
	8	0.12	7.12523E-001	5.99206E-003	0.00000E+000	4.26948E-003	3.59960E-001	-1.16659E+000	3.57880E+000	10	...........
	9	0.133333	7.19688E-001	5.99305E-003	0.00000E+000	4.31313E-003	3.59960E-001	-1.16214E+000	3.57880E+000	10	...........
	10	0.146667	7.26732E-001	5.99324E-003	0.00000E+000	4.35548E-003	3.59960E-001	-1.17248E+000	3.57880E+000	10	...........
	11	0.16	7.33697E-001	5.99172E-003	0.00000E+000	4.39610E-003	3.59960E-001	-1.16651E+000	3.57880E+000	10	...........
	12	0.173333	7.40631E-001	5.99867E-003	0.00000E+000	4.44280E-003	3.59960E-001	-1.16195E+000	3.57880E+000	10	...........
	13	0.186667	7.47554E-001	5.99330E-003	0.00000E+000	4.48032E-003	3.59960E-001	-1.17192E+000	3.57880E+000	10	...........
	14	0.2	7.54448E-001	5.99738E-003	0.00000E+000	4.52471E-003	3.59960E-001	-1.16598E+000	3.57880E+000	10	...........
	15	0.213333	7.61284E-001	5.99618E-003	0.00000E+000	4.56480E-003	3.59960E-001	-1.16146E+000	3.57880E+000	10	...........
	16	0.226667	7.68099E-001	5.99479E-003	0.00000E+000	4.60460E-003	3.59960E-001	-1.17165E+000	3.57880E+000	10	...........
	17	0.24	7.74870E-001	5.99870E-003	0.00000E+000	4.64821E-003	3.59960E-001	-1.16591E+000	3.57880E+000	10	...........
	18	0.253333	7.81613E-001	5.99325E-003	0.00000E+000	4.68440E-003	3.59960E-001	-1.16149E+000	3.57880E+000	10	...........
	19	0.266667	7.88328E-001	5.99395E-003	0.00000E+000	4.72520E-003	3.59960E-001	-1.17161E+000	3.57880E+000	10	...........
	20	0.28	7.95061E-001	5.99372E-003	0.00000E+000	4.76537E-003	3.59960E-001	-1.16587E+000	3.57880E+000	10	...........
	21	0.293333	8.01706E-001	5.99507E-003	0.00000E+000	4.80628E-003	3.59960E-001	-1.16143E+000	3.57880E+000	10	...........
	22	0.306667	8.08334E-001	5.99464E-003	0.00000E+000	4.84567E-003	3.59960E-001	-1.17160E+000	3.57880E+000	10	...........
	23	0.32	8.14962E-001	5.99597E-003	0.00000E+000	4.88649E-003	3.59960E-001	-1.16600E+000	3.57880E+000	10	...........
	24	0.333333	8.21588E-001	5.99657E-003	0.00000E+000	4.92671E-003	3.59960E-001	-1.16127E+000	3.57880E+000	10	...........
	25	0.346667	8.28134E-001	5.99263E-003	0.00000E+000	4.96270E-003	3.59960E-001	-1.17160E+000	3.57880E+000	10	...........
	26	0.36	8.34695E-001	5.99559E-003	0.00000E+000	5.00449E-003	3.59960E-001	-1.16569E+000	3.57880E+000	10	...........
	27	0.373333	8.41227E-001	5.99372E-003	0.00000E+000	5.04207E-003	3.59960E-001	-1.16136E+000	3.57880E+000	10	...........
	28	0.386667	8.47835E-001	5.99483E-003	0.00000E+000	5.08263E-003	3.59960E-001	-1.17170E+000	3.57880E+000	10	...........
	29	0.4	8.54279E-001	5.99087E-003	0.00000E+000	5.11787E-003	3.59960E-001	-1.16624E+000	3.57880E+000	10	...........
	30	0.413333	8.60708E-001	5.98985E-003	0.00000E+000	5.15551E-003	3.59960E-001	-1.16181E+000	3.57880E+000	10	...........
	31	0.426667	8.67176E-001	5.99282E-003	0.00000E+000	5.19683E-003	3.59960E-001	-1.17169E+000	3.57880E+000	10	...........
	32	0.44	8.73613E-001	5.99549E-003	0.00000E+000	5.23774E-003	3.59960E-001	-1.16596E+000	3.57880E+000	10	...........
	33	0.453333	8.80006E-001	5.99270E-003	0.00000E+000	5.27361E-003	3.59960E-001	-1.16135E+000	3.57880E+000	10	...........
	34	0.466667	8.86333E-001	5.99205E-003	0.00000E+000	5.31095E-003	3.59960E-001	-1.17164E+000	3.57880E+000	10	...........
	35	0.48	8.92653E-001	5.99816E-003	0.00000E+000	5.35428E-003	3.59960E-001	-1.16605E+000	3.57880E+000	10	...........
	36	0.493333	8.98959E-001	5.99736E-003	0.00000E+000	5.39138E-003	3.59960E-001	-1.16127E+000	3.57880E+000	10	...........
	37	0.506667	9.05198E-001	5.98974E-003	0.00000E+000	5.42190E-003	3.59960E-001	-1.17091E+000	3.57880E+000	10	...........
	38	0.52	9.11406E-001	5.99707E-003	0.00000E+000	5.46576E-003	3.59960E-001	-1.16544E+000	3.57880E+000	10	...........
	39	0.533333	9.17557E-001	5.99359E-003	0.00000E+000	5.49946E-003	3.59960E-001	-1.16077E+000	3.57750E+000	10	...........
	40	0.546667	9.23752E-001	5.99694E-003	0.00000E+000	5.53969E-003	3.59960E-001	-1.17114E+000	3.57750E+000	10	...........
	41	0.56	9.29839E-001	5.99268E-003	0.00000E+000	5.57222E-003	3.59960E-001	-1.16556E+000	3.57750E+000	10	...........
	42	0.573333	9.35889E-001	5.99579E-003	0.00000E+000	5.61140E-003	3.59960E-001	-1.16098E+000	3.57750E+000	10	...........
	43	0.586667	9.41876E-001	5.99475E-003	0.00000E+000	5.64631E-003	3.59960E-001	-1.17101E+000	3.57750E+000	10	...........
	44	0.6	9.47832E-001	5.98966E-003	0.00000E+000	5.67719E-003	3.59960E-001	-1.16590E+000	3.57750E+000	10	...........
	45	0.613333	9.53801E-001	5.99720E-003	0.00000E+000	5.72014E-003	3.59960E-001	-1.16132E+000	3.57750E+000	10	...........
	46	0.626667	9.59633E-001	5.99843E-003	0.00000E+000	5.75629E-003	3.59960E-001	-1.17123E+000	3.57750E+000	10	...........
	47	0.64	9.65457E-001	5.99542E-003	0.00000E+000	5.78832E-003	3.59960E-001	-1.16570E+000	3.57750E+000	10	...........
	48	0.653333	9.71237E-001	5.99123E-003	0.00000E+000	5.81890E-003	3.59960E-001	-1.16100E+000	3.57750E+000	10	...........
	49	0.666667	9.77009E-001	5.99313E-003	0.00000E+000	5.85535E-003	3.59960E-001	-1.17127E+000	3.57750E+000	10	...........
	50	0.68	9.82669E-001	5.99633E-003	0.00000E+000	5.89240E-003	3.59960E-001	-1.16584E+000	3.57750E+000	10	...........
	51	0.693333	9.88270E-001	5.99120E-003	0.00000E+000	5.92093E-003	3.59960E-001	-1.16106E+000	3.57750E+000	10	...........
	52	0.706667	9.93810E-001	5.99487E-003	0.00000E+000	5.95776E-003	3.59960E-001	-1.17079E+000	3.57750E+000	10	...........
	53	0.716667	9.98689E-001	5.99120E-003	0.00000E+000	5.98335E-003	3.59960E-001	-1.16215E+000	3.57750E+000	10	...........
STARTTIMEOFFSET	QUANT	1344.147	Start Time Offset (s)