File: Data/CV_CRGO300517_1/PWRCCD_CRGO300517_1/CHARGE_DISCHARGE/CHARGE_#506.DTA
EXPLAIN
TAG	PWR800_CHARGE
TITLE	LABEL	PWR Cyclic Charge Discharge (Cell) - Charge Step	Test &Identifier
DATE	LABEL	22-6-2017	Date
TIME	LABEL	15:56:09	Time
NOTES	NOTES	3	&Notes...
	supercap test cell
	0.6mg
	6M KOH
PSTAT	PSTAT	IFC5000-01520	Potentiostat
CAPACITY	QUANT	1.00000E-003	Capacity (A-hr)
CELLTYPE	SELECTOR	1	&Cell Type
WORKINGCONNECTION	SELECTOR	0	&Working Lead
MAXCHARGETIME	VARIABLEANDUNITS	1.00000E+002	s	1.00000E+002	second(s)	Max &Charge Time
CHARGECURRENT	QUANT	6.00000E-003	&Charge Current (A)
VOLTAGEFINISH	TWOPARAM	F	1.00000E-003	3.60000E+003	&Voltage Finish	 I (A) < 	Max Time(s)
SAMPLETIME	QUANT	1.00000E-002	Sa&mple Period (s)
CHARGESTOPAT1	MULTIPARAM	4	1.00000E+000	Charge Stop At &1	Voltage > Limit	V
CHARGESTOPAT2	MULTIPARAM	0	0.00000E+000	Charge Stop At &2	None	N/A
AESBHCSELECTOR	TOGGLE	F	Save Both Half Cells
IRCOMP	TOGGLE	F	IR &Measure
EOC	QUANT	0	Open Circuit (V)
SEQUENCER	TOGGLE	TRUE	Run as Sequence
PSTATMODEL	IQUANT	53	Pstat Model
PSTATSECTION	LABEL	IFC5000-01520	Pstat Section
PSTATSERIALNO	LABEL	01520	Pstat Serial Number
CTRLMODE	IQUANT	0	Control Mode
ELECTROMETER	IQUANT	1	RE=0 or CS=1
IESTAB	IQUANT	0	I/E Stability
CASPEED	IQUANT	4	Control Amp Speed
CONVENTION	IQUANT	1	Current Convention
ICHRANGE	IQUANT	2	Ich Range
ICHRANGEMODE	TOGGLE	T	Ich Auto Range
ICHOFFSETENABLE	TOGGLE	F	Ich Offset Enable
ICHOFFSET	QUANT	0	Ich Offset (V)
ICHFILTER	IQUANT	1	Ich Filter
VCHRANGE	IQUANT	2	Vch Range
VCHRANGEMODE	TOGGLE	T	Vch Auto Range
VCHOFFSETENABLE	TOGGLE	F	Vch Offset Enable
VCHOFFSET	QUANT	0	Vch Offset (V)
VCHFILTER	IQUANT	1	Vch Filter
IERANGELOWERLIMIT	IQUANT	9	I/E Range Lower Limit
IERANGEMODE	TOGGLE	F	I/E AutoRange
IERANGE	IQUANT	10	I/E Range
ACHSELECT	IQUANT	1	Ach Select
ACHRANGE	IQUANT	2	Ach Range
ACHOFFSETENABLE	TOGGLE	F	Ach Offset Enable
ACHOFFSET	QUANT	0	Ach Offset (V)
ACHFILTER	IQUANT	1	Ach Filter
CABLEID	IQUANT	14	Cable ID
DCCALDATE	LABEL	20-10-2016	DC Calibration Date
ACCALDATE	LABEL	12/3/2015	AC Calibration Date
FRAMEWORKVERSION	QUANT	7.01	Framework Version
INSTRUMENTVERSION	LABEL	4.00	Instrument Version
CURVE	TABLE	58
	Pt	T	Vf	Im	Vu	Pwr	Sig	Ach	Temp	IERange	Over
	#	s	V	A	V	W	V	V	deg C	#	bits
	0	0.013333	6.32629E-001	5.99550E-003	0.00000E+000	3.79293E-003	3.59960E-001	-1.11729E+000	3.57780E+000	10	...........
	1	0.026667	6.41529E-001	5.99765E-003	0.00000E+000	3.84767E-003	3.59960E-001	-1.11220E+000	3.57780E+000	10	...........
	2	0.04	6.49712E-001	5.99176E-003	0.00000E+000	3.89292E-003	3.59960E-001	-1.10811E+000	3.57780E+000	10	...........
	3	0.053333	6.57482E-001	5.99341E-003	0.00000E+000	3.94056E-003	3.59960E-001	-1.11754E+000	3.57780E+000	10	...........
	4	0.066667	6.64944E-001	5.99301E-003	0.00000E+000	3.98501E-003	3.59960E-001	-1.11151E+000	3.57780E+000	10	...........
	5	0.08	6.72207E-001	5.99352E-003	0.00000E+000	4.02888E-003	3.59960E-001	-1.10708E+000	3.57780E+000	10	...........
	6	0.093333	6.79315E-001	6.00031E-003	0.00000E+000	4.07610E-003	3.59960E-001	-1.11702E+000	3.57780E+000	10	...........
	7	0.106667	6.86382E-001	5.99473E-003	0.00000E+000	4.11467E-003	3.59960E-001	-1.11143E+000	3.57780E+000	10	...........
	8	0.12	6.93302E-001	5.99360E-003	0.00000E+000	4.15538E-003	3.59960E-001	-1.10616E+000	3.57780E+000	10	...........
	9	0.133333	7.00172E-001	5.99319E-003	0.00000E+000	4.19626E-003	3.59960E-001	-1.11579E+000	3.57780E+000	10	...........
	10	0.146667	7.06949E-001	5.99414E-003	0.00000E+000	4.23755E-003	3.59960E-001	-1.10983E+000	3.57780E+000	10	...........
	11	0.16	7.13667E-001	5.98875E-003	0.00000E+000	4.27398E-003	3.59960E-001	-1.10579E+000	3.57780E+000	10	...........
	12	0.173333	7.20489E-001	5.99645E-003	0.00000E+000	4.32038E-003	3.59960E-001	-1.11582E+000	3.57780E+000	10	...........
	13	0.186667	7.27121E-001	5.99517E-003	0.00000E+000	4.35921E-003	3.59960E-001	-1.10974E+000	3.57780E+000	10	...........
	14	0.2	7.33747E-001	5.99472E-003	0.00000E+000	4.39861E-003	3.59960E-001	-1.10504E+000	3.57780E+000	10	...........
	15	0.213333	7.40382E-001	5.99416E-003	0.00000E+000	4.43796E-003	3.59960E-001	-1.11518E+000	3.57780E+000	10	...........
	16	0.226667	7.46982E-001	5.99807E-003	0.00000E+000	4.48045E-003	3.59960E-001	-1.10941E+000	3.57780E+000	10	...........
	17	0.24	7.53565E-001	5.99815E-003	0.00000E+000	4.52000E-003	3.59960E-001	-1.10531E+000	3.57780E+000	10	...........
	18	0.253333	7.60079E-001	5.99538E-003	0.00000E+000	4.55696E-003	3.59960E-001	-1.11484E+000	3.57780E+000	10	...........
	19	0.266667	7.66583E-001	5.99457E-003	0.00000E+000	4.59534E-003	3.59960E-001	-1.10846E+000	3.57780E+000	10	...........
	20	0.28	7.73110E-001	5.99623E-003	0.00000E+000	4.63575E-003	3.59960E-001	-1.10422E+000	3.57780E+000	10	...........
	21	0.293333	7.79610E-001	5.99626E-003	0.00000E+000	4.67475E-003	3.59960E-001	-1.11444E+000	3.57780E+000	10	...........
	22	0.306667	7.86082E-001	5.99344E-003	0.00000E+000	4.71134E-003	3.59960E-001	-1.10818E+000	3.57780E+000	10	...........
	23	0.32	7.92537E-001	5.99552E-003	0.00000E+000	4.75168E-003	3.59960E-001	-1.10406E+000	3.57780E+000	10	...........
	24	0.333333	7.98986E-001	5.99215E-003	0.00000E+000	4.78765E-003	3.59960E-001	-1.11398E+000	3.57780E+000	10	...........
	25	0.346667	8.05403E-001	5.99619E-003	0.00000E+000	4.82935E-003	3.59960E-001	-1.10732E+000	3.57780E+000	10	...........
	26	0.36	8.11847E-001	5.99288E-003	0.00000E+000	4.86530E-003	3.59960E-001	-1.10384E+000	3.57780E+000	10	...........
	27	0.373333	8.18248E-001	5.99311E-003	0.00000E+000	4.90385E-003	3.59960E-001	-1.11445E+000	3.57780E+000	10	...........
	28	0.386667	8.24618E-001	5.99507E-003	0.00000E+000	4.94365E-003	3.59960E-001	-1.10797E+000	3.57780E+000	10	...........
	29	0.4	8.30938E-001	5.99839E-003	0.00000E+000	4.98429E-003	3.59960E-001	-1.10443E+000	3.57780E+000	10	...........
	30	0.413333	8.37291E-001	5.99448E-003	0.00000E+000	5.01913E-003	3.59960E-001	-1.11491E+000	3.57780E+000	10	...........
	31	0.426667	8.43607E-001	5.99163E-003	0.00000E+000	5.05459E-003	3.59960E-001	-1.10847E+000	3.57780E+000	10	...........
	32	0.44	8.49986E-001	5.99569E-003	0.00000E+000	5.09625E-003	3.59960E-001	-1.10514E+000	3.57780E+000	10	...........
	33	0.453333	8.56245E-001	5.99590E-003	0.00000E+000	5.13396E-003	3.59960E-001	-1.11559E+000	3.57780E+000	10	...........
	34	0.466667	8.62513E-001	5.99435E-003	0.00000E+000	5.17021E-003	3.59960E-001	-1.10838E+000	3.57780E+000	10	...........
	35	0.48	8.68767E-001	6.00144E-003	0.00000E+000	5.21385E-003	3.59960E-001	-1.10529E+000	3.57780E+000	10	...........
	36	0.493333	8.75023E-001	5.99706E-003	0.00000E+000	5.24756E-003	3.59960E-001	-1.11602E+000	3.57780E+000	10	...........
	37	0.506667	8.81224E-001	5.99803E-003	0.00000E+000	5.28560E-003	3.59960E-001	-1.10908E+000	3.57780E+000	10	...........
	38	0.52	8.87447E-001	5.99432E-003	0.00000E+000	5.31965E-003	3.59960E-001	-1.10607E+000	3.57780E+000	10	...........
	39	0.533333	8.93587E-001	5.99268E-003	0.00000E+000	5.35498E-003	3.59960E-001	-1.11686E+000	3.57780E+000	10	...........
	40	0.546667	8.99722E-001	5.99259E-003	0.00000E+000	5.39167E-003	3.59960E-001	-1.10961E+000	3.57780E+000	10	...........
	41	0.56	9.05783E-001	5.98953E-003	0.00000E+000	5.42521E-003	3.59960E-001	-1.10701E+000	3.57780E+000	10	...........
	42	0.573333	9.11890E-001	5.99389E-003	0.00000E+000	5.46577E-003	3.59960E-001	-1.11802E+000	3.57780E+000	10	...........
	43	0.586667	9.17906E-001	5.99308E-003	0.00000E+000	5.50109E-003	3.59960E-001	-1.11057E+000	3.57780E+000	10	...........
	44	0.6	9.23980E-001	5.99401E-003	0.00000E+000	5.53834E-003	3.59960E-001	-1.10804E+000	3.57790E+000	10	...........
	45	0.613333	9.29949E-001	5.99869E-003	0.00000E+000	5.57848E-003	3.59960E-001	-1.11856E+000	3.57820E+000	10	...........
	46	0.626667	9.35900E-001	5.99280E-003	0.00000E+000	5.60866E-003	3.59960E-001	-1.11105E+000	3.57820E+000	10	...........
	47	0.64	9.41787E-001	5.99178E-003	0.00000E+000	5.64298E-003	3.59960E-001	-1.10817E+000	3.57820E+000	10	...........
	48	0.653333	9.47667E-001	5.99293E-003	0.00000E+000	5.67930E-003	3.59960E-001	-1.11901E+000	3.57820E+000	10	...........
	49	0.666667	9.53488E-001	5.99178E-003	0.00000E+000	5.71309E-003	3.59960E-001	-1.11145E+000	3.57820E+000	10	...........
	50	0.68	9.59258E-001	5.99263E-003	0.00000E+000	5.74848E-003	3.59960E-001	-1.10892E+000	3.57820E+000	10	...........
	51	0.693333	9.64977E-001	5.99511E-003	0.00000E+000	5.78514E-003	3.59960E-001	-1.11986E+000	3.57820E+000	10	...........
	52	0.706667	9.70682E-001	5.99663E-003	0.00000E+000	5.82082E-003	3.59960E-001	-1.11212E+000	3.57820E+000	10	...........
	53	0.72	9.76397E-001	5.99246E-003	0.00000E+000	5.85101E-003	3.59960E-001	-1.10945E+000	3.57820E+000	10	...........
	54	0.733333	9.82015E-001	5.99107E-003	0.00000E+000	5.88332E-003	3.59960E-001	-1.12036E+000	3.57820E+000	10	...........
	55	0.746667	9.87606E-001	5.99403E-003	0.00000E+000	5.91974E-003	3.59960E-001	-1.11245E+000	3.57820E+000	10	...........
	56	0.76	9.93093E-001	5.99294E-003	0.00000E+000	5.95154E-003	3.59960E-001	-1.11002E+000	3.57820E+000	10	...........
	57	0.771667	9.98222E-001	5.99076E-003	0.00000E+000	5.98011E-003	3.59960E-001	-1.12284E+000	3.57820E+000	10	...........
STARTTIMEOFFSET	QUANT	868.262	Start Time Offset (s)