File: Data/CV_CRGO300517_1/PWRCCD_CRGO300517_1/CHARGE_DISCHARGE/CHARGE_#472.DTA
EXPLAIN
TAG	PWR800_CHARGE
TITLE	LABEL	PWR Cyclic Charge Discharge (Cell) - Charge Step	Test &Identifier
DATE	LABEL	22-6-2017	Date
TIME	LABEL	15:54:49	Time
NOTES	NOTES	3	&Notes...
	supercap test cell
	0.6mg
	6M KOH
PSTAT	PSTAT	IFC5000-01520	Potentiostat
CAPACITY	QUANT	1.00000E-003	Capacity (A-hr)
CELLTYPE	SELECTOR	1	&Cell Type
WORKINGCONNECTION	SELECTOR	0	&Working Lead
MAXCHARGETIME	VARIABLEANDUNITS	1.00000E+002	s	1.00000E+002	second(s)	Max &Charge Time
CHARGECURRENT	QUANT	6.00000E-003	&Charge Current (A)
VOLTAGEFINISH	TWOPARAM	F	1.00000E-003	3.60000E+003	&Voltage Finish	 I (A) < 	Max Time(s)
SAMPLETIME	QUANT	1.00000E-002	Sa&mple Period (s)
CHARGESTOPAT1	MULTIPARAM	4	1.00000E+000	Charge Stop At &1	Voltage > Limit	V
CHARGESTOPAT2	MULTIPARAM	0	0.00000E+000	Charge Stop At &2	None	N/A
AESBHCSELECTOR	TOGGLE	F	Save Both Half Cells
IRCOMP	TOGGLE	F	IR &Measure
EOC	QUANT	0	Open Circuit (V)
SEQUENCER	TOGGLE	TRUE	Run as Sequence
PSTATMODEL	IQUANT	53	Pstat Model
PSTATSECTION	LABEL	IFC5000-01520	Pstat Section
PSTATSERIALNO	LABEL	01520	Pstat Serial Number
CTRLMODE	IQUANT	0	Control Mode
ELECTROMETER	IQUANT	1	RE=0 or CS=1
IESTAB	IQUANT	0	I/E Stability
CASPEED	IQUANT	4	Control Amp Speed
CONVENTION	IQUANT	1	Current Convention
ICHRANGE	IQUANT	2	Ich Range
ICHRANGEMODE	TOGGLE	T	Ich Auto Range
ICHOFFSETENABLE	TOGGLE	F	Ich Offset Enable
ICHOFFSET	QUANT	0	Ich Offset (V)
ICHFILTER	IQUANT	1	Ich Filter
VCHRANGE	IQUANT	2	Vch Range
VCHRANGEMODE	TOGGLE	T	Vch Auto Range
VCHOFFSETENABLE	TOGGLE	F	Vch Offset Enable
VCHOFFSET	QUANT	0	Vch Offset (V)
VCHFILTER	IQUANT	1	Vch Filter
IERANGELOWERLIMIT	IQUANT	9	I/E Range Lower Limit
IERANGEMODE	TOGGLE	F	I/E AutoRange
IERANGE	IQUANT	10	I/E Range
ACHSELECT	IQUANT	1	Ach Select
ACHRANGE	IQUANT	2	Ach Range
ACHOFFSETENABLE	TOGGLE	F	Ach Offset Enable
ACHOFFSET	QUANT	0	Ach Offset (V)
ACHFILTER	IQUANT	1	Ach Filter
CABLEID	IQUANT	14	Cable ID
DCCALDATE	LABEL	20-10-2016	DC Calibration Date
ACCALDATE	LABEL	12/3/2015	AC Calibration Date
FRAMEWORKVERSION	QUANT	7.01	Framework Version
INSTRUMENTVERSION	LABEL	4.00	Instrument Version
CURVE	TABLE	59
	Pt	T	Vf	Im	Vu	Pwr	Sig	Ach	Temp	IERange	Over
	#	s	V	A	V	W	V	V	deg C	#	bits
	0	0.013333	6.29842E-001	5.99495E-003	0.00000E+000	3.77587E-003	3.59960E-001	-1.14232E+000	3.57790E+000	10	...........
	1	0.026667	6.38648E-001	5.99677E-003	0.00000E+000	3.82983E-003	3.59960E-001	-1.15116E+000	3.57790E+000	10	...........
	2	0.04	6.46782E-001	5.99476E-003	0.00000E+000	3.87730E-003	3.59960E-001	-1.14094E+000	3.57790E+000	10	...........
	3	0.053333	6.54446E-001	5.99254E-003	0.00000E+000	3.92180E-003	3.59960E-001	-1.14243E+000	3.57790E+000	10	...........
	4	0.066667	6.61882E-001	5.99237E-003	0.00000E+000	3.96624E-003	3.59960E-001	-1.15108E+000	3.57790E+000	10	...........
	5	0.08	6.69132E-001	5.99323E-003	0.00000E+000	4.01026E-003	3.59960E-001	-1.14062E+000	3.57790E+000	10	...........
	6	0.093333	6.76201E-001	5.99483E-003	0.00000E+000	4.05371E-003	3.59960E-001	-1.14210E+000	3.57790E+000	10	...........
	7	0.106667	6.83179E-001	5.99217E-003	0.00000E+000	4.09373E-003	3.59960E-001	-1.15042E+000	3.57790E+000	10	...........
	8	0.12	6.90092E-001	5.99772E-003	0.00000E+000	4.13898E-003	3.59960E-001	-1.13995E+000	3.57790E+000	10	...........
	9	0.133333	6.96917E-001	5.99704E-003	0.00000E+000	4.17944E-003	3.59960E-001	-1.14137E+000	3.57790E+000	10	...........
	10	0.146667	7.03724E-001	5.98995E-003	0.00000E+000	4.21528E-003	3.59960E-001	-1.14958E+000	3.57790E+000	10	...........
	11	0.16	7.10439E-001	5.99952E-003	0.00000E+000	4.26229E-003	3.59960E-001	-1.13905E+000	3.57790E+000	10	...........
	12	0.173333	7.17126E-001	5.99399E-003	0.00000E+000	4.29844E-003	3.59960E-001	-1.14119E+000	3.57790E+000	10	...........
	13	0.186667	7.23781E-001	5.99538E-003	0.00000E+000	4.33934E-003	3.59960E-001	-1.14927E+000	3.57790E+000	10	...........
	14	0.2	7.30373E-001	5.99708E-003	0.00000E+000	4.38010E-003	3.59960E-001	-1.13897E+000	3.57790E+000	10	...........
	15	0.213333	7.36963E-001	5.99771E-003	0.00000E+000	4.42009E-003	3.59960E-001	-1.14119E+000	3.57790E+000	10	...........
	16	0.226667	7.43559E-001	5.99220E-003	0.00000E+000	4.45555E-003	3.59960E-001	-1.14885E+000	3.57790E+000	10	...........
	17	0.24	7.50109E-001	5.99792E-003	0.00000E+000	4.49910E-003	3.59960E-001	-1.13863E+000	3.57790E+000	10	...........
	18	0.253333	7.56644E-001	5.99229E-003	0.00000E+000	4.53403E-003	3.59960E-001	-1.14128E+000	3.57790E+000	10	...........
	19	0.266667	7.63126E-001	5.99282E-003	0.00000E+000	4.57328E-003	3.59960E-001	-1.14860E+000	3.57790E+000	10	...........
	20	0.28	7.69644E-001	5.99654E-003	0.00000E+000	4.61520E-003	3.59960E-001	-1.13841E+000	3.57790E+000	10	...........
	21	0.293333	7.76075E-001	5.99186E-003	0.00000E+000	4.65013E-003	3.59960E-001	-1.14111E+000	3.57790E+000	10	...........
	22	0.306667	7.82526E-001	5.99168E-003	0.00000E+000	4.68865E-003	3.59960E-001	-1.14807E+000	3.57790E+000	10	...........
	23	0.32	7.88970E-001	5.99512E-003	0.00000E+000	4.72996E-003	3.59960E-001	-1.13823E+000	3.57790E+000	10	...........
	24	0.333333	7.95433E-001	5.98927E-003	0.00000E+000	4.76407E-003	3.59960E-001	-1.14118E+000	3.57790E+000	10	...........
	25	0.346667	8.01853E-001	5.99474E-003	0.00000E+000	4.80690E-003	3.59960E-001	-1.14794E+000	3.57790E+000	10	...........
	26	0.36	8.08187E-001	5.99502E-003	0.00000E+000	4.84510E-003	3.59960E-001	-1.13823E+000	3.57790E+000	10	...........
	27	0.373333	8.14577E-001	5.99861E-003	0.00000E+000	4.88633E-003	3.59960E-001	-1.14136E+000	3.57790E+000	10	...........
	28	0.386667	8.20953E-001	5.99590E-003	0.00000E+000	4.92235E-003	3.59960E-001	-1.14810E+000	3.57790E+000	10	...........
	29	0.4	8.27311E-001	5.99230E-003	0.00000E+000	4.95750E-003	3.59960E-001	-1.13814E+000	3.57790E+000	10	...........
	30	0.413333	8.33604E-001	5.99206E-003	0.00000E+000	4.99500E-003	3.59960E-001	-1.14142E+000	3.57790E+000	10	...........
	31	0.426667	8.39974E-001	6.00045E-003	0.00000E+000	5.04022E-003	3.59960E-001	-1.14779E+000	3.57790E+000	10	...........
	32	0.44	8.46280E-001	5.99251E-003	0.00000E+000	5.07134E-003	3.59960E-001	-1.13763E+000	3.57790E+000	10	...........
	33	0.453333	8.52548E-001	5.99710E-003	0.00000E+000	5.11282E-003	3.59960E-001	-1.14118E+000	3.57790E+000	10	...........
	34	0.466667	8.58803E-001	5.99676E-003	0.00000E+000	5.15004E-003	3.59960E-001	-1.14738E+000	3.57790E+000	10	...........
	35	0.48	8.65042E-001	5.99305E-003	0.00000E+000	5.18424E-003	3.59960E-001	-1.13759E+000	3.57790E+000	10	...........
	36	0.493333	8.71270E-001	5.99552E-003	0.00000E+000	5.22372E-003	3.59960E-001	-1.14124E+000	3.57790E+000	10	...........
	37	0.506667	8.77495E-001	5.99246E-003	0.00000E+000	5.25835E-003	3.59960E-001	-1.14717E+000	3.57790E+000	10	...........
	38	0.52	8.83718E-001	5.99286E-003	0.00000E+000	5.29600E-003	3.59960E-001	-1.13767E+000	3.57790E+000	10	...........
	39	0.533333	8.89854E-001	5.99268E-003	0.00000E+000	5.33261E-003	3.59960E-001	-1.14154E+000	3.57790E+000	10	...........
	40	0.546667	8.95963E-001	5.99469E-003	0.00000E+000	5.37102E-003	3.59960E-001	-1.14714E+000	3.57790E+000	10	...........
	41	0.56	9.02045E-001	5.99206E-003	0.00000E+000	5.40511E-003	3.59960E-001	-1.13767E+000	3.57790E+000	10	...........
	42	0.573333	9.08126E-001	5.99408E-003	0.00000E+000	5.44338E-003	3.59960E-001	-1.14170E+000	3.57790E+000	10	...........
	43	0.586667	9.14189E-001	5.99442E-003	0.00000E+000	5.48003E-003	3.59960E-001	-1.14686E+000	3.57790E+000	10	...........
	44	0.6	9.20260E-001	5.99160E-003	0.00000E+000	5.51383E-003	3.59960E-001	-1.13778E+000	3.57790E+000	10	...........
	45	0.613333	9.26243E-001	5.99294E-003	0.00000E+000	5.55091E-003	3.59960E-001	-1.14189E+000	3.57790E+000	10	...........
	46	0.626667	9.32175E-001	5.99343E-003	0.00000E+000	5.58692E-003	3.59960E-001	-1.14689E+000	3.57790E+000	10	...........
	47	0.64	9.38096E-001	5.99925E-003	0.00000E+000	5.62787E-003	3.59960E-001	-1.13782E+000	3.57790E+000	10	...........
	48	0.653333	9.43986E-001	5.99568E-003	0.00000E+000	5.65984E-003	3.59960E-001	-1.14242E+000	3.57790E+000	10	...........
	49	0.666667	9.49834E-001	5.99735E-003	0.00000E+000	5.69649E-003	3.59960E-001	-1.14725E+000	3.57790E+000	10	...........
	50	0.68	9.55624E-001	5.99848E-003	0.00000E+000	5.73229E-003	3.59960E-001	-1.13851E+000	3.57790E+000	10	...........
	51	0.693333	9.61388E-001	5.99254E-003	0.00000E+000	5.76116E-003	3.59960E-001	-1.14279E+000	3.57790E+000	10	...........
	52	0.706667	9.67096E-001	5.99368E-003	0.00000E+000	5.79646E-003	3.59960E-001	-1.14705E+000	3.57790E+000	10	...........
	53	0.72	9.72805E-001	5.99462E-003	0.00000E+000	5.83159E-003	3.59960E-001	-1.13828E+000	3.57790E+000	10	...........
	54	0.733333	9.78451E-001	5.99556E-003	0.00000E+000	5.86637E-003	3.59960E-001	-1.14316E+000	3.57790E+000	10	...........
	55	0.746667	9.84028E-001	5.99304E-003	0.00000E+000	5.89732E-003	3.59960E-001	-1.14717E+000	3.57790E+000	10	...........
	56	0.76	9.89568E-001	5.99255E-003	0.00000E+000	5.93003E-003	3.59960E-001	-1.13817E+000	3.57790E+000	10	...........
	57	0.773333	9.95025E-001	5.99126E-003	0.00000E+000	5.96145E-003	3.59960E-001	-1.14296E+000	3.57790E+000	10	...........
	58	0.78	9.99136E-001	5.98985E-003	0.00000E+000	5.98467E-003	3.59960E-001	-1.14183E+000	3.57790E+000	10	...........
STARTTIMEOFFSET	QUANT	815.7301	Start Time Offset (s)