File: Data/CV_CRGO300517_1/PWRCCD_CRGO300517_1/CHARGE_DISCHARGE/CHARGE_#303.DTA
EXPLAIN
TAG	PWR800_CHARGE
TITLE	LABEL	PWR Cyclic Charge Discharge (Cell) - Charge Step	Test &Identifier
DATE	LABEL	22-6-2017	Date
TIME	LABEL	15:48:03	Time
NOTES	NOTES	3	&Notes...
	supercap test cell
	0.6mg
	6M KOH
PSTAT	PSTAT	IFC5000-01520	Potentiostat
CAPACITY	QUANT	1.00000E-003	Capacity (A-hr)
CELLTYPE	SELECTOR	1	&Cell Type
WORKINGCONNECTION	SELECTOR	0	&Working Lead
MAXCHARGETIME	VARIABLEANDUNITS	1.00000E+002	s	1.00000E+002	second(s)	Max &Charge Time
CHARGECURRENT	QUANT	6.00000E-003	&Charge Current (A)
VOLTAGEFINISH	TWOPARAM	F	1.00000E-003	3.60000E+003	&Voltage Finish	 I (A) < 	Max Time(s)
SAMPLETIME	QUANT	1.00000E-002	Sa&mple Period (s)
CHARGESTOPAT1	MULTIPARAM	4	1.00000E+000	Charge Stop At &1	Voltage > Limit	V
CHARGESTOPAT2	MULTIPARAM	0	0.00000E+000	Charge Stop At &2	None	N/A
AESBHCSELECTOR	TOGGLE	F	Save Both Half Cells
IRCOMP	TOGGLE	F	IR &Measure
EOC	QUANT	0	Open Circuit (V)
SEQUENCER	TOGGLE	TRUE	Run as Sequence
PSTATMODEL	IQUANT	53	Pstat Model
PSTATSECTION	LABEL	IFC5000-01520	Pstat Section
PSTATSERIALNO	LABEL	01520	Pstat Serial Number
CTRLMODE	IQUANT	0	Control Mode
ELECTROMETER	IQUANT	1	RE=0 or CS=1
IESTAB	IQUANT	0	I/E Stability
CASPEED	IQUANT	4	Control Amp Speed
CONVENTION	IQUANT	1	Current Convention
ICHRANGE	IQUANT	2	Ich Range
ICHRANGEMODE	TOGGLE	T	Ich Auto Range
ICHOFFSETENABLE	TOGGLE	F	Ich Offset Enable
ICHOFFSET	QUANT	0	Ich Offset (V)
ICHFILTER	IQUANT	1	Ich Filter
VCHRANGE	IQUANT	2	Vch Range
VCHRANGEMODE	TOGGLE	T	Vch Auto Range
VCHOFFSETENABLE	TOGGLE	F	Vch Offset Enable
VCHOFFSET	QUANT	0	Vch Offset (V)
VCHFILTER	IQUANT	1	Vch Filter
IERANGELOWERLIMIT	IQUANT	9	I/E Range Lower Limit
IERANGEMODE	TOGGLE	F	I/E AutoRange
IERANGE	IQUANT	10	I/E Range
ACHSELECT	IQUANT	1	Ach Select
ACHRANGE	IQUANT	2	Ach Range
ACHOFFSETENABLE	TOGGLE	F	Ach Offset Enable
ACHOFFSET	QUANT	0	Ach Offset (V)
ACHFILTER	IQUANT	1	Ach Filter
CABLEID	IQUANT	14	Cable ID
DCCALDATE	LABEL	20-10-2016	DC Calibration Date
ACCALDATE	LABEL	12/3/2015	AC Calibration Date
FRAMEWORKVERSION	QUANT	7.01	Framework Version
INSTRUMENTVERSION	LABEL	4.00	Instrument Version
CURVE	TABLE	62
	Pt	T	Vf	Im	Vu	Pwr	Sig	Ach	Temp	IERange	Over
	#	s	V	A	V	W	V	V	deg C	#	bits
	0	0.013333	6.16353E-001	5.99325E-003	0.00000E+000	3.69396E-003	3.59960E-001	-1.10251E+000	3.57690E+000	10	...........
	1	0.026667	6.25022E-001	5.99708E-003	0.00000E+000	3.74830E-003	3.59960E-001	-1.11221E+000	3.57690E+000	10	...........
	2	0.04	6.32903E-001	5.99594E-003	0.00000E+000	3.79485E-003	3.59960E-001	-1.10241E+000	3.57690E+000	10	...........
	3	0.053333	6.40376E-001	6.00049E-003	0.00000E+000	3.84257E-003	3.59960E-001	-1.10259E+000	3.57690E+000	10	...........
	4	0.066667	6.47636E-001	5.99937E-003	0.00000E+000	3.88541E-003	3.59960E-001	-1.11253E+000	3.57690E+000	10	...........
	5	0.08	6.54705E-001	5.99274E-003	0.00000E+000	3.92348E-003	3.59960E-001	-1.10260E+000	3.57690E+000	10	...........
	6	0.093333	6.61595E-001	5.99591E-003	0.00000E+000	3.96686E-003	3.59960E-001	-1.10268E+000	3.57690E+000	10	...........
	7	0.106667	6.68441E-001	5.99361E-003	0.00000E+000	4.00638E-003	3.59960E-001	-1.11240E+000	3.57690E+000	10	...........
	8	0.12	6.75163E-001	5.99666E-003	0.00000E+000	4.04872E-003	3.59960E-001	-1.10264E+000	3.57690E+000	10	...........
	9	0.133333	6.81763E-001	5.99150E-003	0.00000E+000	4.08478E-003	3.59960E-001	-1.10274E+000	3.57690E+000	10	...........
	10	0.146667	6.88319E-001	5.99468E-003	0.00000E+000	4.12625E-003	3.59960E-001	-1.11279E+000	3.57690E+000	10	...........
	11	0.16	6.94854E-001	5.99333E-003	0.00000E+000	4.16449E-003	3.59960E-001	-1.10278E+000	3.57690E+000	10	...........
	12	0.173333	7.01349E-001	5.99122E-003	0.00000E+000	4.20193E-003	3.59960E-001	-1.10279E+000	3.57690E+000	10	...........
	13	0.186667	7.07815E-001	5.99120E-003	0.00000E+000	4.24066E-003	3.59960E-001	-1.11253E+000	3.57690E+000	10	...........
	14	0.2	7.14221E-001	5.99517E-003	0.00000E+000	4.28187E-003	3.59960E-001	-1.10307E+000	3.57690E+000	10	...........
	15	0.213333	7.20657E-001	5.99360E-003	0.00000E+000	4.31933E-003	3.59960E-001	-1.10291E+000	3.57690E+000	10	...........
	16	0.226667	7.27037E-001	5.99566E-003	0.00000E+000	4.35906E-003	3.59960E-001	-1.11284E+000	3.57690E+000	10	...........
	17	0.24	7.33393E-001	5.99681E-003	0.00000E+000	4.39801E-003	3.59960E-001	-1.10305E+000	3.57690E+000	10	...........
	18	0.253333	7.39735E-001	5.99325E-003	0.00000E+000	4.43342E-003	3.59960E-001	-1.10274E+000	3.57690E+000	10	...........
	19	0.266667	7.46108E-001	5.99656E-003	0.00000E+000	4.47408E-003	3.59960E-001	-1.11280E+000	3.57690E+000	10	...........
	20	0.28	7.52389E-001	5.99287E-003	0.00000E+000	4.50897E-003	3.59960E-001	-1.10320E+000	3.57690E+000	10	...........
	21	0.293333	7.58680E-001	5.99191E-003	0.00000E+000	4.54594E-003	3.59960E-001	-1.10281E+000	3.57690E+000	10	...........
	22	0.306667	7.64992E-001	5.99128E-003	0.00000E+000	4.58328E-003	3.59960E-001	-1.11260E+000	3.57690E+000	10	...........
	23	0.32	7.71267E-001	5.99295E-003	0.00000E+000	4.62216E-003	3.59960E-001	-1.10273E+000	3.57690E+000	10	...........
	24	0.333333	7.77583E-001	5.99239E-003	0.00000E+000	4.65958E-003	3.59960E-001	-1.10244E+000	3.57690E+000	10	...........
	25	0.346667	7.83843E-001	5.99762E-003	0.00000E+000	4.70119E-003	3.59960E-001	-1.11222E+000	3.57690E+000	10	...........
	26	0.36	7.90074E-001	5.99568E-003	0.00000E+000	4.73703E-003	3.59960E-001	-1.10243E+000	3.57690E+000	10	...........
	27	0.373333	7.96356E-001	5.99084E-003	0.00000E+000	4.77084E-003	3.59960E-001	-1.10200E+000	3.57690E+000	10	...........
	28	0.386667	8.02584E-001	5.99649E-003	0.00000E+000	4.81269E-003	3.59960E-001	-1.11218E+000	3.57690E+000	10	...........
	29	0.4	8.08735E-001	5.99392E-003	0.00000E+000	4.84749E-003	3.59960E-001	-1.10273E+000	3.57690E+000	10	...........
	30	0.413333	8.14951E-001	5.99396E-003	0.00000E+000	4.88478E-003	3.59960E-001	-1.10202E+000	3.57690E+000	10	...........
	31	0.426667	8.21203E-001	5.99624E-003	0.00000E+000	4.92413E-003	3.59960E-001	-1.11191E+000	3.57690E+000	10	...........
	32	0.44	8.27355E-001	5.98959E-003	0.00000E+000	4.95552E-003	3.59960E-001	-1.10257E+000	3.57690E+000	10	...........
	33	0.453333	8.33545E-001	5.99235E-003	0.00000E+000	4.99489E-003	3.59960E-001	-1.10184E+000	3.57690E+000	10	...........
	34	0.466667	8.39717E-001	5.99346E-003	0.00000E+000	5.03281E-003	3.59960E-001	-1.11235E+000	3.57690E+000	10	...........
	35	0.48	8.45890E-001	5.99754E-003	0.00000E+000	5.07325E-003	3.59960E-001	-1.10280E+000	3.57690E+000	10	...........
	36	0.493333	8.52037E-001	5.99777E-003	0.00000E+000	5.11032E-003	3.59960E-001	-1.10181E+000	3.57690E+000	10	...........
	37	0.506667	8.58128E-001	5.99311E-003	0.00000E+000	5.14286E-003	3.59960E-001	-1.11189E+000	3.57690E+000	10	...........
	38	0.52	8.64233E-001	5.99402E-003	0.00000E+000	5.18023E-003	3.59960E-001	-1.10267E+000	3.57690E+000	10	...........
	39	0.533333	8.70347E-001	5.99464E-003	0.00000E+000	5.21742E-003	3.59960E-001	-1.10198E+000	3.57690E+000	10	...........
	40	0.546667	8.76367E-001	5.99208E-003	0.00000E+000	5.25126E-003	3.59960E-001	-1.11231E+000	3.57690E+000	10	...........
	41	0.56	8.82417E-001	5.99202E-003	0.00000E+000	5.28746E-003	3.59960E-001	-1.10271E+000	3.57690E+000	10	...........
	42	0.573333	8.88419E-001	5.99567E-003	0.00000E+000	5.32667E-003	3.59960E-001	-1.10181E+000	3.57690E+000	10	...........
	43	0.586667	8.94435E-001	5.99530E-003	0.00000E+000	5.36241E-003	3.59960E-001	-1.11226E+000	3.57690E+000	10	...........
	44	0.6	9.00417E-001	5.99668E-003	0.00000E+000	5.39951E-003	3.59960E-001	-1.10305E+000	3.57690E+000	10	...........
	45	0.613333	9.06403E-001	5.99471E-003	0.00000E+000	5.43362E-003	3.59960E-001	-1.10173E+000	3.57690E+000	10	...........
	46	0.626667	9.12344E-001	5.99580E-003	0.00000E+000	5.47024E-003	3.59960E-001	-1.11173E+000	3.57690E+000	10	...........
	47	0.64	9.18296E-001	5.99558E-003	0.00000E+000	5.50571E-003	3.59960E-001	-1.10237E+000	3.57690E+000	10	...........
	48	0.653333	9.24250E-001	5.99216E-003	0.00000E+000	5.53826E-003	3.59960E-001	-1.10159E+000	3.57690E+000	10	...........
	49	0.666667	9.30124E-001	5.99707E-003	0.00000E+000	5.57802E-003	3.59960E-001	-1.11195E+000	3.57690E+000	10	...........
	50	0.68	9.35925E-001	5.99909E-003	0.00000E+000	5.61470E-003	3.59960E-001	-1.10257E+000	3.57690E+000	10	...........
	51	0.693333	9.41724E-001	5.99838E-003	0.00000E+000	5.64882E-003	3.59960E-001	-1.10131E+000	3.57690E+000	10	...........
	52	0.706667	9.47526E-001	5.99016E-003	0.00000E+000	5.67583E-003	3.59960E-001	-1.11178E+000	3.57690E+000	10	...........
	53	0.72	9.53258E-001	5.99605E-003	0.00000E+000	5.71579E-003	3.59960E-001	-1.10279E+000	3.57690E+000	10	...........
	54	0.733333	9.58924E-001	5.99601E-003	0.00000E+000	5.74972E-003	3.59960E-001	-1.10144E+000	3.57690E+000	10	...........
	55	0.746667	9.64556E-001	5.99134E-003	0.00000E+000	5.77898E-003	3.59960E-001	-1.11156E+000	3.57690E+000	10	...........
	56	0.76	9.70198E-001	5.99187E-003	0.00000E+000	5.81330E-003	3.59960E-001	-1.10236E+000	3.57690E+000	10	...........
	57	0.773333	9.75825E-001	5.99631E-003	0.00000E+000	5.85134E-003	3.59960E-001	-1.10091E+000	3.57690E+000	10	...........
	58	0.786667	9.81401E-001	5.99521E-003	0.00000E+000	5.88370E-003	3.59960E-001	-1.11171E+000	3.57690E+000	10	...........
	59	0.8	9.86913E-001	5.99180E-003	0.00000E+000	5.91338E-003	3.59960E-001	-1.10238E+000	3.57690E+000	10	...........
	60	0.813333	9.92364E-001	5.99178E-003	0.00000E+000	5.94602E-003	3.59960E-001	-1.10051E+000	3.57690E+000	10	...........
	61	0.826667	9.97774E-001	5.99362E-003	0.00000E+000	5.98029E-003	3.59960E-001	-1.11070E+000	3.57694E+000	10	...........
STARTTIMEOFFSET	QUANT	546.075	Start Time Offset (s)