File: Data/CV_CRGO300517_1/PWRCCD_CRGO300517_1/CHARGE_DISCHARGE/CHARGE_#733.DTA
EXPLAIN
TAG	PWR800_CHARGE
TITLE	LABEL	PWR Cyclic Charge Discharge (Cell) - Charge Step	Test &Identifier
DATE	LABEL	22-6-2017	Date
TIME	LABEL	16:04:47	Time
NOTES	NOTES	3	&Notes...
	supercap test cell
	0.6mg
	6M KOH
PSTAT	PSTAT	IFC5000-01520	Potentiostat
CAPACITY	QUANT	1.00000E-003	Capacity (A-hr)
CELLTYPE	SELECTOR	1	&Cell Type
WORKINGCONNECTION	SELECTOR	0	&Working Lead
MAXCHARGETIME	VARIABLEANDUNITS	1.00000E+002	s	1.00000E+002	second(s)	Max &Charge Time
CHARGECURRENT	QUANT	6.00000E-003	&Charge Current (A)
VOLTAGEFINISH	TWOPARAM	F	1.00000E-003	3.60000E+003	&Voltage Finish	 I (A) < 	Max Time(s)
SAMPLETIME	QUANT	1.00000E-002	Sa&mple Period (s)
CHARGESTOPAT1	MULTIPARAM	4	1.00000E+000	Charge Stop At &1	Voltage > Limit	V
CHARGESTOPAT2	MULTIPARAM	0	0.00000E+000	Charge Stop At &2	None	N/A
AESBHCSELECTOR	TOGGLE	F	Save Both Half Cells
IRCOMP	TOGGLE	F	IR &Measure
EOC	QUANT	0	Open Circuit (V)
SEQUENCER	TOGGLE	TRUE	Run as Sequence
PSTATMODEL	IQUANT	53	Pstat Model
PSTATSECTION	LABEL	IFC5000-01520	Pstat Section
PSTATSERIALNO	LABEL	01520	Pstat Serial Number
CTRLMODE	IQUANT	0	Control Mode
ELECTROMETER	IQUANT	1	RE=0 or CS=1
IESTAB	IQUANT	0	I/E Stability
CASPEED	IQUANT	4	Control Amp Speed
CONVENTION	IQUANT	1	Current Convention
ICHRANGE	IQUANT	2	Ich Range
ICHRANGEMODE	TOGGLE	T	Ich Auto Range
ICHOFFSETENABLE	TOGGLE	F	Ich Offset Enable
ICHOFFSET	QUANT	0	Ich Offset (V)
ICHFILTER	IQUANT	1	Ich Filter
VCHRANGE	IQUANT	2	Vch Range
VCHRANGEMODE	TOGGLE	T	Vch Auto Range
VCHOFFSETENABLE	TOGGLE	F	Vch Offset Enable
VCHOFFSET	QUANT	0	Vch Offset (V)
VCHFILTER	IQUANT	1	Vch Filter
IERANGELOWERLIMIT	IQUANT	9	I/E Range Lower Limit
IERANGEMODE	TOGGLE	F	I/E AutoRange
IERANGE	IQUANT	10	I/E Range
ACHSELECT	IQUANT	1	Ach Select
ACHRANGE	IQUANT	2	Ach Range
ACHOFFSETENABLE	TOGGLE	F	Ach Offset Enable
ACHOFFSET	QUANT	0	Ach Offset (V)
ACHFILTER	IQUANT	1	Ach Filter
CABLEID	IQUANT	14	Cable ID
DCCALDATE	LABEL	20-10-2016	DC Calibration Date
ACCALDATE	LABEL	12/3/2015	AC Calibration Date
FRAMEWORKVERSION	QUANT	7.01	Framework Version
INSTRUMENTVERSION	LABEL	4.00	Instrument Version
CURVE	TABLE	55
	Pt	T	Vf	Im	Vu	Pwr	Sig	Ach	Temp	IERange	Over
	#	s	V	A	V	W	V	V	deg C	#	bits
	0	0.013333	6.44636E-001	5.98982E-003	0.00000E+000	3.86125E-003	3.59960E-001	-1.15397E+000	3.57780E+000	10	...........
	1	0.026667	6.53754E-001	5.99287E-003	0.00000E+000	3.91786E-003	3.59960E-001	-1.15357E+000	3.57780E+000	10	...........
	2	0.04	6.62177E-001	5.99174E-003	0.00000E+000	3.96759E-003	3.59960E-001	-1.16398E+000	3.57780E+000	10	...........
	3	0.053333	6.70142E-001	5.99101E-003	0.00000E+000	4.01483E-003	3.59960E-001	-1.15385E+000	3.57780E+000	10	...........
	4	0.066667	6.77815E-001	5.99761E-003	0.00000E+000	4.06527E-003	3.59960E-001	-1.15345E+000	3.57780E+000	10	...........
	5	0.08	6.85284E-001	5.99635E-003	0.00000E+000	4.10920E-003	3.59960E-001	-1.16369E+000	3.57780E+000	10	...........
	6	0.093333	6.92652E-001	5.99618E-003	0.00000E+000	4.15326E-003	3.59960E-001	-1.15350E+000	3.57780E+000	10	...........
	7	0.106667	6.99864E-001	5.99548E-003	0.00000E+000	4.19602E-003	3.59960E-001	-1.15314E+000	3.57780E+000	10	...........
	8	0.12	7.06969E-001	5.99311E-003	0.00000E+000	4.23695E-003	3.59960E-001	-1.16372E+000	3.57780E+000	10	...........
	9	0.133333	7.13988E-001	5.98999E-003	0.00000E+000	4.27679E-003	3.59960E-001	-1.15373E+000	3.57780E+000	10	...........
	10	0.146667	7.21025E-001	5.99559E-003	0.00000E+000	4.32296E-003	3.59960E-001	-1.15322E+000	3.57780E+000	10	...........
	11	0.16	7.27937E-001	5.99133E-003	0.00000E+000	4.36131E-003	3.59960E-001	-1.16337E+000	3.57780E+000	10	...........
	12	0.173333	7.34783E-001	5.99492E-003	0.00000E+000	4.40497E-003	3.59960E-001	-1.15340E+000	3.57780E+000	10	...........
	13	0.186667	7.41653E-001	5.99398E-003	0.00000E+000	4.44546E-003	3.59960E-001	-1.15319E+000	3.57780E+000	10	...........
	14	0.2	7.48447E-001	5.99108E-003	0.00000E+000	4.48401E-003	3.59960E-001	-1.16351E+000	3.57780E+000	10	...........
	15	0.213333	7.55253E-001	5.99770E-003	0.00000E+000	4.52979E-003	3.59960E-001	-1.15312E+000	3.57780E+000	10	...........
	16	0.226667	7.62047E-001	5.99661E-003	0.00000E+000	4.56970E-003	3.59960E-001	-1.15263E+000	3.57780E+000	10	...........
	17	0.24	7.68757E-001	5.99510E-003	0.00000E+000	4.60877E-003	3.59960E-001	-1.16306E+000	3.57780E+000	10	...........
	18	0.253333	7.75483E-001	5.99225E-003	0.00000E+000	4.64689E-003	3.59960E-001	-1.15281E+000	3.57780E+000	10	...........
	19	0.266667	7.82172E-001	6.00393E-003	0.00000E+000	4.69611E-003	3.59960E-001	-1.15248E+000	3.57780E+000	10	...........
	20	0.28	7.88805E-001	5.99301E-003	0.00000E+000	4.72731E-003	3.59960E-001	-1.16245E+000	3.57780E+000	10	...........
	21	0.293333	7.95445E-001	5.99565E-003	0.00000E+000	4.76921E-003	3.59960E-001	-1.15242E+000	3.57780E+000	10	...........
	22	0.306667	8.02105E-001	5.99504E-003	0.00000E+000	4.80865E-003	3.59960E-001	-1.15229E+000	3.57780E+000	10	...........
	23	0.32	8.08686E-001	5.99137E-003	0.00000E+000	4.84514E-003	3.59960E-001	-1.16265E+000	3.57780E+000	10	...........
	24	0.333333	8.15266E-001	5.99761E-003	0.00000E+000	4.88964E-003	3.59960E-001	-1.15233E+000	3.57780E+000	10	...........
	25	0.346667	8.21819E-001	5.99301E-003	0.00000E+000	4.92517E-003	3.59960E-001	-1.15221E+000	3.57780E+000	10	...........
	26	0.36	8.28308E-001	5.99995E-003	0.00000E+000	4.96980E-003	3.59960E-001	-1.16235E+000	3.57780E+000	10	...........
	27	0.373333	8.34787E-001	5.99597E-003	0.00000E+000	5.00536E-003	3.59960E-001	-1.15199E+000	3.57780E+000	10	...........
	28	0.386667	8.41284E-001	5.99693E-003	0.00000E+000	5.04512E-003	3.59960E-001	-1.15222E+000	3.57780E+000	10	...........
	29	0.4	8.47773E-001	5.99330E-003	0.00000E+000	5.08096E-003	3.59960E-001	-1.16240E+000	3.57780E+000	10	...........
	30	0.413333	8.54213E-001	5.99625E-003	0.00000E+000	5.12207E-003	3.59960E-001	-1.15200E+000	3.57780E+000	10	...........
	31	0.426667	8.60637E-001	5.99334E-003	0.00000E+000	5.15810E-003	3.59960E-001	-1.15169E+000	3.57780E+000	10	...........
	32	0.44	8.67022E-001	5.98940E-003	0.00000E+000	5.19294E-003	3.59960E-001	-1.16206E+000	3.57780E+000	10	...........
	33	0.453333	8.73448E-001	5.99115E-003	0.00000E+000	5.23296E-003	3.59960E-001	-1.15197E+000	3.57780E+000	10	...........
	34	0.466667	8.79783E-001	5.99562E-003	0.00000E+000	5.27484E-003	3.59960E-001	-1.15201E+000	3.57780E+000	10	...........
	35	0.48	8.86122E-001	5.99305E-003	0.00000E+000	5.31057E-003	3.59960E-001	-1.16188E+000	3.57780E+000	10	...........
	36	0.493333	8.92405E-001	5.99323E-003	0.00000E+000	5.34839E-003	3.59960E-001	-1.15137E+000	3.57780E+000	10	...........
	37	0.506667	8.98635E-001	5.99425E-003	0.00000E+000	5.38664E-003	3.59960E-001	-1.15139E+000	3.57780E+000	10	...........
	38	0.52	9.04858E-001	5.99192E-003	0.00000E+000	5.42184E-003	3.59960E-001	-1.16170E+000	3.57780E+000	10	...........
	39	0.533333	9.11026E-001	5.99386E-003	0.00000E+000	5.46057E-003	3.59960E-001	-1.15149E+000	3.57766E+000	10	...........
	40	0.546667	9.17156E-001	5.99711E-003	0.00000E+000	5.50028E-003	3.59960E-001	-1.15134E+000	3.57670E+000	10	...........
	41	0.56	9.23348E-001	5.99241E-003	0.00000E+000	5.53309E-003	3.59960E-001	-1.16144E+000	3.57670E+000	10	...........
	42	0.573333	9.29390E-001	5.99442E-003	0.00000E+000	5.57115E-003	3.59960E-001	-1.15089E+000	3.57670E+000	10	...........
	43	0.586667	9.35413E-001	5.99482E-003	0.00000E+000	5.60763E-003	3.59960E-001	-1.15160E+000	3.57670E+000	10	...........
	44	0.6	9.41384E-001	5.99342E-003	0.00000E+000	5.64210E-003	3.59960E-001	-1.16142E+000	3.57670E+000	10	...........
	45	0.613333	9.47370E-001	5.99796E-003	0.00000E+000	5.68229E-003	3.59960E-001	-1.15113E+000	3.57670E+000	10	...........
	46	0.626667	9.53293E-001	5.99130E-003	0.00000E+000	5.71146E-003	3.59960E-001	-1.15097E+000	3.57670E+000	10	...........
	47	0.64	9.59130E-001	5.99108E-003	0.00000E+000	5.74622E-003	3.59960E-001	-1.16124E+000	3.57670E+000	10	...........
	48	0.653333	9.64915E-001	5.99057E-003	0.00000E+000	5.78039E-003	3.59960E-001	-1.15078E+000	3.57670E+000	10	...........
	49	0.666667	9.70716E-001	5.99769E-003	0.00000E+000	5.82205E-003	3.59960E-001	-1.15094E+000	3.57670E+000	10	...........
	50	0.68	9.76485E-001	5.99157E-003	0.00000E+000	5.85068E-003	3.59960E-001	-1.16082E+000	3.57670E+000	10	...........
	51	0.693333	9.82135E-001	5.99729E-003	0.00000E+000	5.89014E-003	3.59960E-001	-1.15046E+000	3.57670E+000	10	...........
	52	0.706667	9.87764E-001	5.99622E-003	0.00000E+000	5.92285E-003	3.59960E-001	-1.15067E+000	3.57670E+000	10	...........
	53	0.72	9.93328E-001	5.99241E-003	0.00000E+000	5.95243E-003	3.59960E-001	-1.16092E+000	3.57670E+000	10	...........
	54	0.731667	9.98539E-001	6.00107E-003	0.00000E+000	5.99231E-003	3.59960E-001	-1.14862E+000	3.57670E+000	10	...........
STARTTIMEOFFSET	QUANT	1207.405	Start Time Offset (s)