File: Data/CV_CRGO300517_1/PWRCCD_CRGO300517_1/CHARGE_DISCHARGE/CHARGE_#754.DTA
EXPLAIN
TAG	PWR800_CHARGE
TITLE	LABEL	PWR Cyclic Charge Discharge (Cell) - Charge Step	Test &Identifier
DATE	LABEL	22-6-2017	Date
TIME	LABEL	16:05:34	Time
NOTES	NOTES	3	&Notes...
	supercap test cell
	0.6mg
	6M KOH
PSTAT	PSTAT	IFC5000-01520	Potentiostat
CAPACITY	QUANT	1.00000E-003	Capacity (A-hr)
CELLTYPE	SELECTOR	1	&Cell Type
WORKINGCONNECTION	SELECTOR	0	&Working Lead
MAXCHARGETIME	VARIABLEANDUNITS	1.00000E+002	s	1.00000E+002	second(s)	Max &Charge Time
CHARGECURRENT	QUANT	6.00000E-003	&Charge Current (A)
VOLTAGEFINISH	TWOPARAM	F	1.00000E-003	3.60000E+003	&Voltage Finish	 I (A) < 	Max Time(s)
SAMPLETIME	QUANT	1.00000E-002	Sa&mple Period (s)
CHARGESTOPAT1	MULTIPARAM	4	1.00000E+000	Charge Stop At &1	Voltage > Limit	V
CHARGESTOPAT2	MULTIPARAM	0	0.00000E+000	Charge Stop At &2	None	N/A
AESBHCSELECTOR	TOGGLE	F	Save Both Half Cells
IRCOMP	TOGGLE	F	IR &Measure
EOC	QUANT	0	Open Circuit (V)
SEQUENCER	TOGGLE	TRUE	Run as Sequence
PSTATMODEL	IQUANT	53	Pstat Model
PSTATSECTION	LABEL	IFC5000-01520	Pstat Section
PSTATSERIALNO	LABEL	01520	Pstat Serial Number
CTRLMODE	IQUANT	0	Control Mode
ELECTROMETER	IQUANT	1	RE=0 or CS=1
IESTAB	IQUANT	0	I/E Stability
CASPEED	IQUANT	4	Control Amp Speed
CONVENTION	IQUANT	1	Current Convention
ICHRANGE	IQUANT	2	Ich Range
ICHRANGEMODE	TOGGLE	T	Ich Auto Range
ICHOFFSETENABLE	TOGGLE	F	Ich Offset Enable
ICHOFFSET	QUANT	0	Ich Offset (V)
ICHFILTER	IQUANT	1	Ich Filter
VCHRANGE	IQUANT	2	Vch Range
VCHRANGEMODE	TOGGLE	T	Vch Auto Range
VCHOFFSETENABLE	TOGGLE	F	Vch Offset Enable
VCHOFFSET	QUANT	0	Vch Offset (V)
VCHFILTER	IQUANT	1	Vch Filter
IERANGELOWERLIMIT	IQUANT	9	I/E Range Lower Limit
IERANGEMODE	TOGGLE	F	I/E AutoRange
IERANGE	IQUANT	10	I/E Range
ACHSELECT	IQUANT	1	Ach Select
ACHRANGE	IQUANT	2	Ach Range
ACHOFFSETENABLE	TOGGLE	F	Ach Offset Enable
ACHOFFSET	QUANT	0	Ach Offset (V)
ACHFILTER	IQUANT	1	Ach Filter
CABLEID	IQUANT	14	Cable ID
DCCALDATE	LABEL	20-10-2016	DC Calibration Date
ACCALDATE	LABEL	12/3/2015	AC Calibration Date
FRAMEWORKVERSION	QUANT	7.01	Framework Version
INSTRUMENTVERSION	LABEL	4.00	Instrument Version
CURVE	TABLE	55
	Pt	T	Vf	Im	Vu	Pwr	Sig	Ach	Temp	IERange	Over
	#	s	V	A	V	W	V	V	deg C	#	bits
	0	0.013333	6.46253E-001	5.99073E-003	0.00000E+000	3.87152E-003	3.59960E-001	-1.16710E+000	3.57710E+000	10	...........
	1	0.026667	6.55338E-001	5.99565E-003	0.00000E+000	3.92917E-003	3.59960E-001	-1.15885E+000	3.57710E+000	10	...........
	2	0.04	6.63760E-001	5.99177E-003	0.00000E+000	3.97709E-003	3.59960E-001	-1.16449E+000	3.57710E+000	10	...........
	3	0.053333	6.71708E-001	5.99319E-003	0.00000E+000	4.02567E-003	3.59960E-001	-1.16703E+000	3.57710E+000	10	...........
	4	0.066667	6.79345E-001	5.99407E-003	0.00000E+000	4.07205E-003	3.59960E-001	-1.15845E+000	3.57710E+000	10	...........
	5	0.08	6.86870E-001	5.99300E-003	0.00000E+000	4.11641E-003	3.59960E-001	-1.16441E+000	3.57710E+000	10	...........
	6	0.093333	6.94232E-001	5.99589E-003	0.00000E+000	4.16254E-003	3.59960E-001	-1.16676E+000	3.57710E+000	10	...........
	7	0.106667	7.01439E-001	5.99571E-003	0.00000E+000	4.20562E-003	3.59960E-001	-1.15846E+000	3.57710E+000	10	...........
	8	0.12	7.08569E-001	5.99127E-003	0.00000E+000	4.24522E-003	3.59960E-001	-1.16429E+000	3.57710E+000	10	...........
	9	0.133333	7.15613E-001	5.99802E-003	0.00000E+000	4.29226E-003	3.59960E-001	-1.16648E+000	3.57710E+000	10	...........
	10	0.146667	7.22638E-001	5.99461E-003	0.00000E+000	4.33193E-003	3.59960E-001	-1.15826E+000	3.57710E+000	10	...........
	11	0.16	7.29568E-001	5.99093E-003	0.00000E+000	4.37079E-003	3.59960E-001	-1.16437E+000	3.57710E+000	10	...........
	12	0.173333	7.36429E-001	5.99155E-003	0.00000E+000	4.41235E-003	3.59960E-001	-1.16646E+000	3.57710E+000	10	...........
	13	0.186667	7.43323E-001	5.99400E-003	0.00000E+000	4.45548E-003	3.59960E-001	-1.15791E+000	3.57710E+000	10	...........
	14	0.2	7.50090E-001	5.99773E-003	0.00000E+000	4.49884E-003	3.59960E-001	-1.16440E+000	3.57710E+000	10	...........
	15	0.213333	7.56867E-001	5.99065E-003	0.00000E+000	4.53412E-003	3.59960E-001	-1.16618E+000	3.57710E+000	10	...........
	16	0.226667	7.63645E-001	5.99379E-003	0.00000E+000	4.57713E-003	3.59960E-001	-1.15831E+000	3.57710E+000	10	...........
	17	0.24	7.70443E-001	5.99608E-003	0.00000E+000	4.61963E-003	3.59960E-001	-1.16470E+000	3.57710E+000	10	...........
	18	0.253333	7.77184E-001	5.99136E-003	0.00000E+000	4.65639E-003	3.59960E-001	-1.16616E+000	3.57710E+000	10	...........
	19	0.266667	7.83844E-001	5.99706E-003	0.00000E+000	4.70076E-003	3.59960E-001	-1.15796E+000	3.57710E+000	10	...........
	20	0.28	7.90504E-001	5.99374E-003	0.00000E+000	4.73808E-003	3.59960E-001	-1.16456E+000	3.57710E+000	10	...........
	21	0.293333	7.97174E-001	5.99238E-003	0.00000E+000	4.77697E-003	3.59960E-001	-1.16608E+000	3.57710E+000	10	...........
	22	0.306667	8.03800E-001	5.99179E-003	0.00000E+000	4.81620E-003	3.59960E-001	-1.15809E+000	3.57710E+000	10	...........
	23	0.32	8.10339E-001	5.99176E-003	0.00000E+000	4.85535E-003	3.59960E-001	-1.16430E+000	3.57710E+000	10	...........
	24	0.333333	8.16968E-001	5.99495E-003	0.00000E+000	4.89768E-003	3.59960E-001	-1.16551E+000	3.57710E+000	10	...........
	25	0.346667	8.23559E-001	5.99535E-003	0.00000E+000	4.93752E-003	3.59960E-001	-1.15765E+000	3.57710E+000	10	...........
	26	0.36	8.30080E-001	5.99608E-003	0.00000E+000	4.97722E-003	3.59960E-001	-1.16465E+000	3.57710E+000	10	...........
	27	0.373333	8.36554E-001	5.99240E-003	0.00000E+000	5.01297E-003	3.59960E-001	-1.16558E+000	3.57710E+000	10	...........
	28	0.386667	8.43046E-001	5.98980E-003	0.00000E+000	5.04967E-003	3.59960E-001	-1.15763E+000	3.57710E+000	10	...........
	29	0.4	8.49563E-001	5.99112E-003	0.00000E+000	5.08984E-003	3.59960E-001	-1.16450E+000	3.57710E+000	10	...........
	30	0.413333	8.56013E-001	5.99672E-003	0.00000E+000	5.13327E-003	3.59960E-001	-1.16534E+000	3.57710E+000	10	...........
	31	0.426667	8.62409E-001	5.99155E-003	0.00000E+000	5.16717E-003	3.59960E-001	-1.15767E+000	3.57710E+000	10	...........
	32	0.44	8.68820E-001	5.99136E-003	0.00000E+000	5.20542E-003	3.59960E-001	-1.16482E+000	3.57710E+000	10	...........
	33	0.453333	8.75213E-001	5.98929E-003	0.00000E+000	5.24190E-003	3.59960E-001	-1.16513E+000	3.57710E+000	10	...........
	34	0.466667	8.81521E-001	5.99609E-003	0.00000E+000	5.28568E-003	3.59960E-001	-1.15744E+000	3.57704E+000	10	...........
	35	0.48	8.87856E-001	5.98984E-003	0.00000E+000	5.31812E-003	3.59960E-001	-1.16445E+000	3.57660E+000	10	...........
	36	0.493333	8.94129E-001	5.98976E-003	0.00000E+000	5.35561E-003	3.59960E-001	-1.16512E+000	3.57660E+000	10	...........
	37	0.506667	9.00430E-001	5.99518E-003	0.00000E+000	5.39824E-003	3.59960E-001	-1.15760E+000	3.57660E+000	10	...........
	38	0.52	9.06604E-001	5.99309E-003	0.00000E+000	5.43336E-003	3.59960E-001	-1.16475E+000	3.57660E+000	10	...........
	39	0.533333	9.12838E-001	5.99628E-003	0.00000E+000	5.47364E-003	3.59960E-001	-1.16494E+000	3.57660E+000	10	...........
	40	0.546667	9.18986E-001	5.99657E-003	0.00000E+000	5.51076E-003	3.59960E-001	-1.15753E+000	3.57660E+000	10	...........
	41	0.56	9.25111E-001	5.99368E-003	0.00000E+000	5.54482E-003	3.59960E-001	-1.16477E+000	3.57660E+000	10	...........
	42	0.573333	9.31172E-001	5.99446E-003	0.00000E+000	5.58187E-003	3.59960E-001	-1.16511E+000	3.57660E+000	10	...........
	43	0.586667	9.37208E-001	5.99223E-003	0.00000E+000	5.61596E-003	3.59960E-001	-1.15750E+000	3.57660E+000	10	...........
	44	0.6	9.43165E-001	5.99318E-003	0.00000E+000	5.65256E-003	3.59960E-001	-1.16484E+000	3.57660E+000	10	...........
	45	0.613333	9.49150E-001	5.99757E-003	0.00000E+000	5.69259E-003	3.59960E-001	-1.16493E+000	3.57660E+000	10	...........
	46	0.626667	9.55037E-001	5.99130E-003	0.00000E+000	5.72191E-003	3.59960E-001	-1.15779E+000	3.57660E+000	10	...........
	47	0.64	9.60861E-001	5.99446E-003	0.00000E+000	5.75984E-003	3.59960E-001	-1.16490E+000	3.57660E+000	10	...........
	48	0.653333	9.66640E-001	5.98884E-003	0.00000E+000	5.78905E-003	3.59960E-001	-1.16431E+000	3.57660E+000	10	...........
	49	0.666667	9.72424E-001	5.99716E-003	0.00000E+000	5.83178E-003	3.59960E-001	-1.15723E+000	3.57660E+000	10	...........
	50	0.68	9.78165E-001	5.99358E-003	0.00000E+000	5.86271E-003	3.59960E-001	-1.16460E+000	3.57660E+000	10	...........
	51	0.693333	9.83800E-001	5.99366E-003	0.00000E+000	5.89656E-003	3.59960E-001	-1.16428E+000	3.57660E+000	10	...........
	52	0.706667	9.89420E-001	5.99130E-003	0.00000E+000	5.92791E-003	3.59960E-001	-1.15735E+000	3.57660E+000	10	...........
	53	0.72	9.94990E-001	5.99032E-003	0.00000E+000	5.96030E-003	3.59960E-001	-1.16481E+000	3.57660E+000	10	...........
	54	0.726667	9.99176E-001	5.98895E-003	0.00000E+000	5.98402E-003	3.59960E-001	-1.15653E+000	3.57660E+000	10	...........
STARTTIMEOFFSET	QUANT	1237.869	Start Time Offset (s)