File: Data/CV_CRGO300517_1/PWRCCD_CRGO300517_1/CHARGE_DISCHARGE/CHARGE_#329.DTA
EXPLAIN
TAG	PWR800_CHARGE
TITLE	LABEL	PWR Cyclic Charge Discharge (Cell) - Charge Step	Test &Identifier
DATE	LABEL	22-6-2017	Date
TIME	LABEL	15:49:06	Time
NOTES	NOTES	3	&Notes...
	supercap test cell
	0.6mg
	6M KOH
PSTAT	PSTAT	IFC5000-01520	Potentiostat
CAPACITY	QUANT	1.00000E-003	Capacity (A-hr)
CELLTYPE	SELECTOR	1	&Cell Type
WORKINGCONNECTION	SELECTOR	0	&Working Lead
MAXCHARGETIME	VARIABLEANDUNITS	1.00000E+002	s	1.00000E+002	second(s)	Max &Charge Time
CHARGECURRENT	QUANT	6.00000E-003	&Charge Current (A)
VOLTAGEFINISH	TWOPARAM	F	1.00000E-003	3.60000E+003	&Voltage Finish	 I (A) < 	Max Time(s)
SAMPLETIME	QUANT	1.00000E-002	Sa&mple Period (s)
CHARGESTOPAT1	MULTIPARAM	4	1.00000E+000	Charge Stop At &1	Voltage > Limit	V
CHARGESTOPAT2	MULTIPARAM	0	0.00000E+000	Charge Stop At &2	None	N/A
AESBHCSELECTOR	TOGGLE	F	Save Both Half Cells
IRCOMP	TOGGLE	F	IR &Measure
EOC	QUANT	0	Open Circuit (V)
SEQUENCER	TOGGLE	TRUE	Run as Sequence
PSTATMODEL	IQUANT	53	Pstat Model
PSTATSECTION	LABEL	IFC5000-01520	Pstat Section
PSTATSERIALNO	LABEL	01520	Pstat Serial Number
CTRLMODE	IQUANT	0	Control Mode
ELECTROMETER	IQUANT	1	RE=0 or CS=1
IESTAB	IQUANT	0	I/E Stability
CASPEED	IQUANT	4	Control Amp Speed
CONVENTION	IQUANT	1	Current Convention
ICHRANGE	IQUANT	2	Ich Range
ICHRANGEMODE	TOGGLE	T	Ich Auto Range
ICHOFFSETENABLE	TOGGLE	F	Ich Offset Enable
ICHOFFSET	QUANT	0	Ich Offset (V)
ICHFILTER	IQUANT	1	Ich Filter
VCHRANGE	IQUANT	2	Vch Range
VCHRANGEMODE	TOGGLE	T	Vch Auto Range
VCHOFFSETENABLE	TOGGLE	F	Vch Offset Enable
VCHOFFSET	QUANT	0	Vch Offset (V)
VCHFILTER	IQUANT	1	Vch Filter
IERANGELOWERLIMIT	IQUANT	9	I/E Range Lower Limit
IERANGEMODE	TOGGLE	F	I/E AutoRange
IERANGE	IQUANT	10	I/E Range
ACHSELECT	IQUANT	1	Ach Select
ACHRANGE	IQUANT	2	Ach Range
ACHOFFSETENABLE	TOGGLE	F	Ach Offset Enable
ACHOFFSET	QUANT	0	Ach Offset (V)
ACHFILTER	IQUANT	1	Ach Filter
CABLEID	IQUANT	14	Cable ID
DCCALDATE	LABEL	20-10-2016	DC Calibration Date
ACCALDATE	LABEL	12/3/2015	AC Calibration Date
FRAMEWORKVERSION	QUANT	7.01	Framework Version
INSTRUMENTVERSION	LABEL	4.00	Instrument Version
CURVE	TABLE	62
	Pt	T	Vf	Im	Vu	Pwr	Sig	Ach	Temp	IERange	Over
	#	s	V	A	V	W	V	V	deg C	#	bits
	0	0.013333	6.19522E-001	5.99482E-003	0.00000E+000	3.71393E-003	3.59960E-001	-1.11242E+000	3.57800E+000	10	...........
	1	0.026667	6.28130E-001	5.99166E-003	0.00000E+000	3.76355E-003	3.59960E-001	-1.11735E+000	3.57800E+000	10	...........
	2	0.04	6.36086E-001	5.99500E-003	0.00000E+000	3.81333E-003	3.59960E-001	-1.12003E+000	3.57800E+000	10	...........
	3	0.053333	6.43645E-001	5.99493E-003	0.00000E+000	3.85860E-003	3.59960E-001	-1.11201E+000	3.57800E+000	10	...........
	4	0.066667	6.50954E-001	5.99023E-003	0.00000E+000	3.89937E-003	3.59960E-001	-1.11714E+000	3.57800E+000	10	...........
	5	0.08	6.58020E-001	5.99159E-003	0.00000E+000	3.94259E-003	3.59960E-001	-1.12004E+000	3.57800E+000	10	...........
	6	0.093333	6.64968E-001	5.99205E-003	0.00000E+000	3.98452E-003	3.59960E-001	-1.11159E+000	3.57800E+000	10	...........
	7	0.106667	6.71801E-001	5.99561E-003	0.00000E+000	4.02786E-003	3.59960E-001	-1.11677E+000	3.57800E+000	10	...........
	8	0.12	6.78508E-001	5.99237E-003	0.00000E+000	4.06587E-003	3.59960E-001	-1.11937E+000	3.57800E+000	10	...........
	9	0.133333	6.85176E-001	5.99481E-003	0.00000E+000	4.10750E-003	3.59960E-001	-1.11138E+000	3.57800E+000	10	...........
	10	0.146667	6.91759E-001	5.99203E-003	0.00000E+000	4.14504E-003	3.59960E-001	-1.11640E+000	3.57800E+000	10	...........
	11	0.16	6.98324E-001	5.99837E-003	0.00000E+000	4.18880E-003	3.59960E-001	-1.11978E+000	3.57800E+000	10	...........
	12	0.173333	7.04831E-001	5.99147E-003	0.00000E+000	4.22297E-003	3.59960E-001	-1.11130E+000	3.57800E+000	10	...........
	13	0.186667	7.11312E-001	5.99662E-003	0.00000E+000	4.26547E-003	3.59960E-001	-1.11599E+000	3.57800E+000	10	...........
	14	0.2	7.17855E-001	6.00162E-003	0.00000E+000	4.30829E-003	3.59960E-001	-1.11970E+000	3.57800E+000	10	...........
	15	0.213333	7.24286E-001	5.99367E-003	0.00000E+000	4.34113E-003	3.59960E-001	-1.11144E+000	3.57800E+000	10	...........
	16	0.226667	7.30633E-001	5.99690E-003	0.00000E+000	4.38153E-003	3.59960E-001	-1.11621E+000	3.57800E+000	10	...........
	17	0.24	7.37023E-001	5.99264E-003	0.00000E+000	4.41672E-003	3.59960E-001	-1.11952E+000	3.57800E+000	10	...........
	18	0.253333	7.43383E-001	5.99975E-003	0.00000E+000	4.46011E-003	3.59960E-001	-1.11132E+000	3.57800E+000	10	...........
	19	0.266667	7.49749E-001	5.98781E-003	0.00000E+000	4.48936E-003	3.59960E-001	-1.11618E+000	3.57800E+000	10	...........
	20	0.28	7.56103E-001	5.99508E-003	0.00000E+000	4.53290E-003	3.59960E-001	-1.11973E+000	3.57800E+000	10	...........
	21	0.293333	7.62421E-001	5.99500E-003	0.00000E+000	4.57072E-003	3.59960E-001	-1.11137E+000	3.57800E+000	10	...........
	22	0.306667	7.68760E-001	5.99650E-003	0.00000E+000	4.60987E-003	3.59960E-001	-1.11605E+000	3.57800E+000	10	...........
	23	0.32	7.75068E-001	5.99601E-003	0.00000E+000	4.64732E-003	3.59960E-001	-1.11969E+000	3.57800E+000	10	...........
	24	0.333333	7.81384E-001	5.99452E-003	0.00000E+000	4.68403E-003	3.59960E-001	-1.11131E+000	3.57800E+000	10	...........
	25	0.346667	7.87669E-001	5.99301E-003	0.00000E+000	4.72051E-003	3.59960E-001	-1.11597E+000	3.57800E+000	10	...........
	26	0.36	7.93949E-001	5.99095E-003	0.00000E+000	4.75651E-003	3.59960E-001	-1.11991E+000	3.57800E+000	10	...........
	27	0.373333	8.00263E-001	5.99432E-003	0.00000E+000	4.79703E-003	3.59960E-001	-1.11143E+000	3.57800E+000	10	...........
	28	0.386667	8.06512E-001	5.99538E-003	0.00000E+000	4.83535E-003	3.59960E-001	-1.11598E+000	3.57800E+000	10	...........
	29	0.4	8.12729E-001	5.99452E-003	0.00000E+000	4.87192E-003	3.59960E-001	-1.11995E+000	3.57800E+000	10	...........
	30	0.413333	8.18965E-001	5.99363E-003	0.00000E+000	4.90857E-003	3.59960E-001	-1.11158E+000	3.57800E+000	10	...........
	31	0.426667	8.25186E-001	5.99165E-003	0.00000E+000	4.94423E-003	3.59960E-001	-1.11588E+000	3.57800E+000	10	...........
	32	0.44	8.31402E-001	5.99540E-003	0.00000E+000	4.98458E-003	3.59960E-001	-1.11960E+000	3.57800E+000	10	...........
	33	0.453333	8.37624E-001	5.99577E-003	0.00000E+000	5.02220E-003	3.59960E-001	-1.11106E+000	3.57800E+000	10	...........
	34	0.466667	8.43810E-001	5.99361E-003	0.00000E+000	5.05747E-003	3.59960E-001	-1.11533E+000	3.57800E+000	10	...........
	35	0.48	8.50007E-001	5.99581E-003	0.00000E+000	5.09649E-003	3.59960E-001	-1.11949E+000	3.57725E+000	10	...........
	36	0.493333	8.56178E-001	5.99323E-003	0.00000E+000	5.13127E-003	3.59960E-001	-1.11105E+000	3.57700E+000	10	...........
	37	0.506667	8.62298E-001	5.99271E-003	0.00000E+000	5.16750E-003	3.59960E-001	-1.11515E+000	3.57700E+000	10	...........
	38	0.52	8.68452E-001	5.99609E-003	0.00000E+000	5.20731E-003	3.59960E-001	-1.11963E+000	3.57700E+000	10	...........
	39	0.533333	8.74551E-001	5.99187E-003	0.00000E+000	5.24020E-003	3.59960E-001	-1.11102E+000	3.57700E+000	10	...........
	40	0.546667	8.80582E-001	5.99190E-003	0.00000E+000	5.27636E-003	3.59960E-001	-1.11524E+000	3.57700E+000	10	...........
	41	0.56	8.86682E-001	5.99694E-003	0.00000E+000	5.31738E-003	3.59960E-001	-1.11963E+000	3.57700E+000	10	...........
	42	0.573333	8.92706E-001	5.99425E-003	0.00000E+000	5.35110E-003	3.59960E-001	-1.11080E+000	3.57700E+000	10	...........
	43	0.586667	8.98730E-001	5.99240E-003	0.00000E+000	5.38555E-003	3.59960E-001	-1.11515E+000	3.57700E+000	10	...........
	44	0.6	9.04723E-001	5.99305E-003	0.00000E+000	5.42205E-003	3.59960E-001	-1.11965E+000	3.57700E+000	10	...........
	45	0.613333	9.10695E-001	5.99351E-003	0.00000E+000	5.45826E-003	3.59960E-001	-1.11082E+000	3.57700E+000	10	...........
	46	0.626667	9.16644E-001	5.99399E-003	0.00000E+000	5.49436E-003	3.59960E-001	-1.11516E+000	3.57700E+000	10	...........
	47	0.64	9.22623E-001	5.99428E-003	0.00000E+000	5.53046E-003	3.59960E-001	-1.11954E+000	3.57700E+000	10	...........
	48	0.653333	9.28513E-001	5.99382E-003	0.00000E+000	5.56534E-003	3.59960E-001	-1.11100E+000	3.57700E+000	10	...........
	49	0.666667	9.34336E-001	5.99132E-003	0.00000E+000	5.59790E-003	3.59960E-001	-1.11503E+000	3.57700E+000	10	...........
	50	0.68	9.40143E-001	5.99303E-003	0.00000E+000	5.63431E-003	3.59960E-001	-1.11982E+000	3.57700E+000	10	...........
	51	0.693333	9.45943E-001	5.99420E-003	0.00000E+000	5.67017E-003	3.59960E-001	-1.11095E+000	3.57700E+000	10	...........
	52	0.706667	9.51741E-001	5.99551E-003	0.00000E+000	5.70618E-003	3.59960E-001	-1.11479E+000	3.57700E+000	10	...........
	53	0.72	9.57447E-001	5.99452E-003	0.00000E+000	5.73944E-003	3.59960E-001	-1.11964E+000	3.57700E+000	10	...........
	54	0.733333	9.63104E-001	5.99498E-003	0.00000E+000	5.77379E-003	3.59960E-001	-1.11076E+000	3.57700E+000	10	...........
	55	0.746667	9.68760E-001	5.99302E-003	0.00000E+000	5.80580E-003	3.59960E-001	-1.11474E+000	3.57700E+000	10	...........
	56	0.76	9.74392E-001	5.99323E-003	0.00000E+000	5.83975E-003	3.59960E-001	-1.11920E+000	3.57700E+000	10	...........
	57	0.773333	9.79937E-001	5.99773E-003	0.00000E+000	5.87740E-003	3.59960E-001	-1.11035E+000	3.57700E+000	10	...........
	58	0.786667	9.85422E-001	5.99163E-003	0.00000E+000	5.90429E-003	3.59960E-001	-1.11422E+000	3.57700E+000	10	...........
	59	0.8	9.90921E-001	5.99662E-003	0.00000E+000	5.94217E-003	3.59960E-001	-1.11932E+000	3.57700E+000	10	...........
	60	0.813333	9.96341E-001	5.99500E-003	0.00000E+000	5.97307E-003	3.59960E-001	-1.11063E+000	3.57700E+000	10	...........
	61	0.816667	9.99734E-001	5.98874E-003	0.00000E+000	5.98715E-003	3.59960E-001	-1.12438E+000	3.57700E+000	10	...........
STARTTIMEOFFSET	QUANT	588.6148	Start Time Offset (s)