File: Data/CV_CRGO300517_1/PWRCCD_CRGO300517_1/CHARGE_DISCHARGE/CHARGE_#265.DTA
EXPLAIN
TAG	PWR800_CHARGE
TITLE	LABEL	PWR Cyclic Charge Discharge (Cell) - Charge Step	Test &Identifier
DATE	LABEL	22-6-2017	Date
TIME	LABEL	15:46:30	Time
NOTES	NOTES	3	&Notes...
	supercap test cell
	0.6mg
	6M KOH
PSTAT	PSTAT	IFC5000-01520	Potentiostat
CAPACITY	QUANT	1.00000E-003	Capacity (A-hr)
CELLTYPE	SELECTOR	1	&Cell Type
WORKINGCONNECTION	SELECTOR	0	&Working Lead
MAXCHARGETIME	VARIABLEANDUNITS	1.00000E+002	s	1.00000E+002	second(s)	Max &Charge Time
CHARGECURRENT	QUANT	6.00000E-003	&Charge Current (A)
VOLTAGEFINISH	TWOPARAM	F	1.00000E-003	3.60000E+003	&Voltage Finish	 I (A) < 	Max Time(s)
SAMPLETIME	QUANT	1.00000E-002	Sa&mple Period (s)
CHARGESTOPAT1	MULTIPARAM	4	1.00000E+000	Charge Stop At &1	Voltage > Limit	V
CHARGESTOPAT2	MULTIPARAM	0	0.00000E+000	Charge Stop At &2	None	N/A
AESBHCSELECTOR	TOGGLE	F	Save Both Half Cells
IRCOMP	TOGGLE	F	IR &Measure
EOC	QUANT	0	Open Circuit (V)
SEQUENCER	TOGGLE	TRUE	Run as Sequence
PSTATMODEL	IQUANT	53	Pstat Model
PSTATSECTION	LABEL	IFC5000-01520	Pstat Section
PSTATSERIALNO	LABEL	01520	Pstat Serial Number
CTRLMODE	IQUANT	0	Control Mode
ELECTROMETER	IQUANT	1	RE=0 or CS=1
IESTAB	IQUANT	0	I/E Stability
CASPEED	IQUANT	4	Control Amp Speed
CONVENTION	IQUANT	1	Current Convention
ICHRANGE	IQUANT	2	Ich Range
ICHRANGEMODE	TOGGLE	T	Ich Auto Range
ICHOFFSETENABLE	TOGGLE	F	Ich Offset Enable
ICHOFFSET	QUANT	0	Ich Offset (V)
ICHFILTER	IQUANT	1	Ich Filter
VCHRANGE	IQUANT	2	Vch Range
VCHRANGEMODE	TOGGLE	T	Vch Auto Range
VCHOFFSETENABLE	TOGGLE	F	Vch Offset Enable
VCHOFFSET	QUANT	0	Vch Offset (V)
VCHFILTER	IQUANT	1	Vch Filter
IERANGELOWERLIMIT	IQUANT	9	I/E Range Lower Limit
IERANGEMODE	TOGGLE	F	I/E AutoRange
IERANGE	IQUANT	10	I/E Range
ACHSELECT	IQUANT	1	Ach Select
ACHRANGE	IQUANT	2	Ach Range
ACHOFFSETENABLE	TOGGLE	F	Ach Offset Enable
ACHOFFSET	QUANT	0	Ach Offset (V)
ACHFILTER	IQUANT	1	Ach Filter
CABLEID	IQUANT	14	Cable ID
DCCALDATE	LABEL	20-10-2016	DC Calibration Date
ACCALDATE	LABEL	12/3/2015	AC Calibration Date
FRAMEWORKVERSION	QUANT	7.01	Framework Version
INSTRUMENTVERSION	LABEL	4.00	Instrument Version
CURVE	TABLE	63
	Pt	T	Vf	Im	Vu	Pwr	Sig	Ach	Temp	IERange	Over
	#	s	V	A	V	W	V	V	deg C	#	bits
	0	0.013333	6.12711E-001	5.99358E-003	0.00000E+000	3.67233E-003	3.59960E-001	-1.09979E+000	3.57670E+000	10	...........
	1	0.026667	6.21363E-001	5.99508E-003	0.00000E+000	3.72512E-003	3.59960E-001	-1.10908E+000	3.57670E+000	10	...........
	2	0.04	6.29188E-001	5.99264E-003	0.00000E+000	3.77050E-003	3.59960E-001	-1.10371E+000	3.57670E+000	10	...........
	3	0.053333	6.36661E-001	5.99504E-003	0.00000E+000	3.81681E-003	3.59960E-001	-1.09960E+000	3.57670E+000	10	...........
	4	0.066667	6.43887E-001	5.99375E-003	0.00000E+000	3.85930E-003	3.59960E-001	-1.10877E+000	3.57670E+000	10	...........
	5	0.08	6.50881E-001	5.99732E-003	0.00000E+000	3.90354E-003	3.59960E-001	-1.10384E+000	3.57673E+000	10	...........
	6	0.093333	6.57694E-001	5.99474E-003	0.00000E+000	3.94270E-003	3.59960E-001	-1.09955E+000	3.57690E+000	10	...........
	7	0.106667	6.64487E-001	5.99895E-003	0.00000E+000	3.98623E-003	3.59960E-001	-1.10871E+000	3.57690E+000	10	...........
	8	0.12	6.71187E-001	5.99765E-003	0.00000E+000	4.02555E-003	3.59960E-001	-1.10341E+000	3.57690E+000	10	...........
	9	0.133333	6.77759E-001	5.99429E-003	0.00000E+000	4.06268E-003	3.59960E-001	-1.09926E+000	3.57690E+000	10	...........
	10	0.146667	6.84306E-001	5.99346E-003	0.00000E+000	4.10136E-003	3.59960E-001	-1.10857E+000	3.57690E+000	10	...........
	11	0.16	6.90783E-001	5.99949E-003	0.00000E+000	4.14435E-003	3.59960E-001	-1.10388E+000	3.57690E+000	10	...........
	12	0.173333	6.97207E-001	5.99660E-003	0.00000E+000	4.18087E-003	3.59960E-001	-1.09965E+000	3.57690E+000	10	...........
	13	0.186667	7.03616E-001	5.99400E-003	0.00000E+000	4.21747E-003	3.59960E-001	-1.10858E+000	3.57690E+000	10	...........
	14	0.2	7.09967E-001	5.99710E-003	0.00000E+000	4.25774E-003	3.59960E-001	-1.10380E+000	3.57690E+000	10	...........
	15	0.213333	7.16327E-001	5.98999E-003	0.00000E+000	4.29079E-003	3.59960E-001	-1.09966E+000	3.57690E+000	10	...........
	16	0.226667	7.22690E-001	5.99287E-003	0.00000E+000	4.33099E-003	3.59960E-001	-1.10856E+000	3.57690E+000	10	...........
	17	0.24	7.29001E-001	5.99742E-003	0.00000E+000	4.37213E-003	3.59960E-001	-1.10378E+000	3.57690E+000	10	...........
	18	0.253333	7.35231E-001	5.98897E-003	0.00000E+000	4.40328E-003	3.59960E-001	-1.09952E+000	3.57690E+000	10	...........
	19	0.266667	7.41495E-001	5.99022E-003	0.00000E+000	4.44172E-003	3.59960E-001	-1.10807E+000	3.57690E+000	10	...........
	20	0.28	7.47793E-001	5.99231E-003	0.00000E+000	4.48101E-003	3.59960E-001	-1.10363E+000	3.57690E+000	10	...........
	21	0.293333	7.54101E-001	5.99828E-003	0.00000E+000	4.52330E-003	3.59960E-001	-1.09940E+000	3.57690E+000	10	...........
	22	0.306667	7.60329E-001	5.99672E-003	0.00000E+000	4.55948E-003	3.59960E-001	-1.10813E+000	3.57690E+000	10	...........
	23	0.32	7.66549E-001	5.99125E-003	0.00000E+000	4.59258E-003	3.59960E-001	-1.10353E+000	3.57690E+000	10	...........
	24	0.333333	7.72800E-001	5.99305E-003	0.00000E+000	4.63143E-003	3.59960E-001	-1.09902E+000	3.57690E+000	10	...........
	25	0.346667	7.79006E-001	5.99582E-003	0.00000E+000	4.67078E-003	3.59960E-001	-1.10807E+000	3.57690E+000	10	...........
	26	0.36	7.85223E-001	5.99251E-003	0.00000E+000	4.70546E-003	3.59960E-001	-1.10385E+000	3.57690E+000	10	...........
	27	0.373333	7.91451E-001	5.99663E-003	0.00000E+000	4.74604E-003	3.59960E-001	-1.09917E+000	3.57690E+000	10	...........
	28	0.386667	7.97655E-001	5.99318E-003	0.00000E+000	4.78049E-003	3.59960E-001	-1.10794E+000	3.57690E+000	10	...........
	29	0.4	8.03815E-001	5.99624E-003	0.00000E+000	4.81987E-003	3.59960E-001	-1.10338E+000	3.57690E+000	10	...........
	30	0.413333	8.09927E-001	5.99627E-003	0.00000E+000	4.85655E-003	3.59960E-001	-1.09929E+000	3.57690E+000	10	...........
	31	0.426667	8.16068E-001	5.99299E-003	0.00000E+000	4.89069E-003	3.59960E-001	-1.10776E+000	3.57690E+000	10	...........
	32	0.44	8.22257E-001	5.99764E-003	0.00000E+000	4.93160E-003	3.59960E-001	-1.10372E+000	3.57690E+000	10	...........
	33	0.453333	8.28376E-001	5.99850E-003	0.00000E+000	4.96901E-003	3.59960E-001	-1.09911E+000	3.57690E+000	10	...........
	34	0.466667	8.34454E-001	5.99135E-003	0.00000E+000	4.99951E-003	3.59960E-001	-1.10754E+000	3.57690E+000	10	...........
	35	0.48	8.40620E-001	5.99755E-003	0.00000E+000	5.04166E-003	3.59960E-001	-1.10386E+000	3.57690E+000	10	...........
	36	0.493333	8.46749E-001	5.99510E-003	0.00000E+000	5.07634E-003	3.59960E-001	-1.09931E+000	3.57690E+000	10	...........
	37	0.506667	8.52848E-001	5.99141E-003	0.00000E+000	5.10977E-003	3.59960E-001	-1.10766E+000	3.57690E+000	10	...........
	38	0.52	8.58948E-001	5.99309E-003	0.00000E+000	5.14776E-003	3.59960E-001	-1.10371E+000	3.57690E+000	10	...........
	39	0.533333	8.64978E-001	5.99781E-003	0.00000E+000	5.18797E-003	3.59960E-001	-1.09925E+000	3.57690E+000	10	...........
	40	0.546667	8.71085E-001	5.98918E-003	0.00000E+000	5.21709E-003	3.59960E-001	-1.10762E+000	3.57690E+000	10	...........
	41	0.56	8.77104E-001	5.99136E-003	0.00000E+000	5.25504E-003	3.59960E-001	-1.10396E+000	3.57690E+000	10	...........
	42	0.573333	8.83128E-001	5.99415E-003	0.00000E+000	5.29360E-003	3.59960E-001	-1.09936E+000	3.57690E+000	10	...........
	43	0.586667	8.89144E-001	6.00158E-003	0.00000E+000	5.33627E-003	3.59960E-001	-1.10734E+000	3.57690E+000	10	...........
	44	0.6	8.95086E-001	5.99045E-003	0.00000E+000	5.36197E-003	3.59960E-001	-1.10359E+000	3.57690E+000	10	...........
	45	0.613333	9.01074E-001	5.99590E-003	0.00000E+000	5.40275E-003	3.59960E-001	-1.09899E+000	3.57690E+000	10	...........
	46	0.626667	9.07021E-001	5.99491E-003	0.00000E+000	5.43751E-003	3.59960E-001	-1.10718E+000	3.57690E+000	10	...........
	47	0.64	9.12943E-001	5.99472E-003	0.00000E+000	5.47284E-003	3.59960E-001	-1.10371E+000	3.57690E+000	10	...........
	48	0.653333	9.18833E-001	5.99681E-003	0.00000E+000	5.51006E-003	3.59960E-001	-1.09904E+000	3.57690E+000	10	...........
	49	0.666667	9.24741E-001	5.99415E-003	0.00000E+000	5.54303E-003	3.59960E-001	-1.10731E+000	3.57690E+000	10	...........
	50	0.68	9.30530E-001	5.99787E-003	0.00000E+000	5.58120E-003	3.59960E-001	-1.10382E+000	3.57690E+000	10	...........
	51	0.693333	9.36359E-001	5.99745E-003	0.00000E+000	5.61577E-003	3.59960E-001	-1.09909E+000	3.57690E+000	10	...........
	52	0.706667	9.42151E-001	5.98997E-003	0.00000E+000	5.64346E-003	3.59960E-001	-1.10738E+000	3.57690E+000	10	...........
	53	0.72	9.47911E-001	5.99225E-003	0.00000E+000	5.68012E-003	3.59960E-001	-1.10409E+000	3.57690E+000	10	...........
	54	0.733333	9.53604E-001	5.99774E-003	0.00000E+000	5.71948E-003	3.59960E-001	-1.09908E+000	3.57690E+000	10	...........
	55	0.746667	9.59290E-001	5.99011E-003	0.00000E+000	5.74625E-003	3.59960E-001	-1.10726E+000	3.57690E+000	10	...........
	56	0.76	9.64950E-001	5.99275E-003	0.00000E+000	5.78270E-003	3.59960E-001	-1.10404E+000	3.57690E+000	10	...........
	57	0.773333	9.70556E-001	5.99555E-003	0.00000E+000	5.81902E-003	3.59960E-001	-1.09920E+000	3.57690E+000	10	...........
	58	0.786667	9.76193E-001	5.99860E-003	0.00000E+000	5.85579E-003	3.59960E-001	-1.10695E+000	3.57690E+000	10	...........
	59	0.8	9.81683E-001	5.99227E-003	0.00000E+000	5.88251E-003	3.59960E-001	-1.10439E+000	3.57690E+000	10	...........
	60	0.813333	9.87148E-001	5.99578E-003	0.00000E+000	5.91873E-003	3.59960E-001	-1.09915E+000	3.57690E+000	10	...........
	61	0.826667	9.92570E-001	5.99595E-003	0.00000E+000	5.95140E-003	3.59960E-001	-1.10729E+000	3.57690E+000	10	...........
	62	0.84	9.97993E-001	5.99699E-003	0.00000E+000	5.98496E-003	3.59960E-001	-1.10445E+000	3.57690E+000	10	...........
STARTTIMEOFFSET	QUANT	483.0934	Start Time Offset (s)