File: Data/CV_CRGO300517_1/PWRCCD_CRGO300517_1/CHARGE_DISCHARGE/CHARGE_#259.DTA
EXPLAIN
TAG	PWR800_CHARGE
TITLE	LABEL	PWR Cyclic Charge Discharge (Cell) - Charge Step	Test &Identifier
DATE	LABEL	22-6-2017	Date
TIME	LABEL	15:46:15	Time
NOTES	NOTES	3	&Notes...
	supercap test cell
	0.6mg
	6M KOH
PSTAT	PSTAT	IFC5000-01520	Potentiostat
CAPACITY	QUANT	1.00000E-003	Capacity (A-hr)
CELLTYPE	SELECTOR	1	&Cell Type
WORKINGCONNECTION	SELECTOR	0	&Working Lead
MAXCHARGETIME	VARIABLEANDUNITS	1.00000E+002	s	1.00000E+002	second(s)	Max &Charge Time
CHARGECURRENT	QUANT	6.00000E-003	&Charge Current (A)
VOLTAGEFINISH	TWOPARAM	F	1.00000E-003	3.60000E+003	&Voltage Finish	 I (A) < 	Max Time(s)
SAMPLETIME	QUANT	1.00000E-002	Sa&mple Period (s)
CHARGESTOPAT1	MULTIPARAM	4	1.00000E+000	Charge Stop At &1	Voltage > Limit	V
CHARGESTOPAT2	MULTIPARAM	0	0.00000E+000	Charge Stop At &2	None	N/A
AESBHCSELECTOR	TOGGLE	F	Save Both Half Cells
IRCOMP	TOGGLE	F	IR &Measure
EOC	QUANT	0	Open Circuit (V)
SEQUENCER	TOGGLE	TRUE	Run as Sequence
PSTATMODEL	IQUANT	53	Pstat Model
PSTATSECTION	LABEL	IFC5000-01520	Pstat Section
PSTATSERIALNO	LABEL	01520	Pstat Serial Number
CTRLMODE	IQUANT	0	Control Mode
ELECTROMETER	IQUANT	1	RE=0 or CS=1
IESTAB	IQUANT	0	I/E Stability
CASPEED	IQUANT	4	Control Amp Speed
CONVENTION	IQUANT	1	Current Convention
ICHRANGE	IQUANT	2	Ich Range
ICHRANGEMODE	TOGGLE	T	Ich Auto Range
ICHOFFSETENABLE	TOGGLE	F	Ich Offset Enable
ICHOFFSET	QUANT	0	Ich Offset (V)
ICHFILTER	IQUANT	1	Ich Filter
VCHRANGE	IQUANT	2	Vch Range
VCHRANGEMODE	TOGGLE	T	Vch Auto Range
VCHOFFSETENABLE	TOGGLE	F	Vch Offset Enable
VCHOFFSET	QUANT	0	Vch Offset (V)
VCHFILTER	IQUANT	1	Vch Filter
IERANGELOWERLIMIT	IQUANT	9	I/E Range Lower Limit
IERANGEMODE	TOGGLE	F	I/E AutoRange
IERANGE	IQUANT	10	I/E Range
ACHSELECT	IQUANT	1	Ach Select
ACHRANGE	IQUANT	2	Ach Range
ACHOFFSETENABLE	TOGGLE	F	Ach Offset Enable
ACHOFFSET	QUANT	0	Ach Offset (V)
ACHFILTER	IQUANT	1	Ach Filter
CABLEID	IQUANT	14	Cable ID
DCCALDATE	LABEL	20-10-2016	DC Calibration Date
ACCALDATE	LABEL	12/3/2015	AC Calibration Date
FRAMEWORKVERSION	QUANT	7.01	Framework Version
INSTRUMENTVERSION	LABEL	4.00	Instrument Version
CURVE	TABLE	64
	Pt	T	Vf	Im	Vu	Pwr	Sig	Ach	Temp	IERange	Over
	#	s	V	A	V	W	V	V	deg C	#	bits
	0	0.013333	6.12129E-001	5.99356E-003	0.00000E+000	3.66883E-003	3.59960E-001	-1.10741E+000	3.57700E+000	10	...........
	1	0.026667	6.20672E-001	5.99068E-003	0.00000E+000	3.71825E-003	3.59960E-001	-1.10110E+000	3.57700E+000	10	...........
	2	0.04	6.28507E-001	5.99667E-003	0.00000E+000	3.76895E-003	3.59960E-001	-1.09764E+000	3.57700E+000	10	...........
	3	0.053333	6.35912E-001	5.99239E-003	0.00000E+000	3.81063E-003	3.59960E-001	-1.10720E+000	3.57700E+000	10	...........
	4	0.066667	6.43092E-001	5.99808E-003	0.00000E+000	3.85732E-003	3.59960E-001	-1.10118E+000	3.57700E+000	10	...........
	5	0.08	6.50098E-001	5.99432E-003	0.00000E+000	3.89690E-003	3.59960E-001	-1.09775E+000	3.57700E+000	10	...........
	6	0.093333	6.56957E-001	5.99228E-003	0.00000E+000	3.93667E-003	3.59960E-001	-1.10699E+000	3.57700E+000	10	...........
	7	0.106667	6.63675E-001	5.99743E-003	0.00000E+000	3.98034E-003	3.59960E-001	-1.10084E+000	3.57700E+000	10	...........
	8	0.12	6.70352E-001	5.99523E-003	0.00000E+000	4.01892E-003	3.59960E-001	-1.09738E+000	3.57700E+000	10	...........
	9	0.133333	6.76933E-001	5.99439E-003	0.00000E+000	4.05780E-003	3.59960E-001	-1.10717E+000	3.57700E+000	10	...........
	10	0.146667	6.83417E-001	5.99608E-003	0.00000E+000	4.09782E-003	3.59960E-001	-1.10087E+000	3.57700E+000	10	...........
	11	0.16	6.89869E-001	5.99574E-003	0.00000E+000	4.13628E-003	3.59960E-001	-1.09737E+000	3.57700E+000	10	...........
	12	0.173333	6.96344E-001	5.99370E-003	0.00000E+000	4.17368E-003	3.59960E-001	-1.10682E+000	3.57700E+000	10	...........
	13	0.186667	7.02744E-001	5.99636E-003	0.00000E+000	4.21390E-003	3.59960E-001	-1.10087E+000	3.57700E+000	10	...........
	14	0.2	7.09086E-001	5.99700E-003	0.00000E+000	4.25239E-003	3.59960E-001	-1.09769E+000	3.57700E+000	10	...........
	15	0.213333	7.15440E-001	5.99309E-003	0.00000E+000	4.28770E-003	3.59960E-001	-1.10737E+000	3.57700E+000	10	...........
	16	0.226667	7.21792E-001	5.99256E-003	0.00000E+000	4.32538E-003	3.59960E-001	-1.10083E+000	3.57700E+000	10	...........
	17	0.24	7.28072E-001	5.99178E-003	0.00000E+000	4.36245E-003	3.59960E-001	-1.09735E+000	3.57700E+000	10	...........
	18	0.253333	7.34335E-001	5.99665E-003	0.00000E+000	4.40355E-003	3.59960E-001	-1.10701E+000	3.57700E+000	10	...........
	19	0.266667	7.40626E-001	5.99304E-003	0.00000E+000	4.43860E-003	3.59960E-001	-1.10088E+000	3.57700E+000	10	...........
	20	0.28	7.46890E-001	5.99657E-003	0.00000E+000	4.47878E-003	3.59960E-001	-1.09752E+000	3.57700E+000	10	...........
	21	0.293333	7.53153E-001	5.99338E-003	0.00000E+000	4.51393E-003	3.59960E-001	-1.10682E+000	3.57700E+000	10	...........
	22	0.306667	7.59413E-001	5.99516E-003	0.00000E+000	4.55280E-003	3.59960E-001	-1.10026E+000	3.57700E+000	10	...........
	23	0.32	7.65601E-001	5.99435E-003	0.00000E+000	4.58928E-003	3.59960E-001	-1.09697E+000	3.57700E+000	10	...........
	24	0.333333	7.71825E-001	5.99927E-003	0.00000E+000	4.63038E-003	3.59960E-001	-1.10686E+000	3.57700E+000	10	...........
	25	0.346667	7.78037E-001	5.99739E-003	0.00000E+000	4.66619E-003	3.59960E-001	-1.10037E+000	3.57700E+000	10	...........
	26	0.36	7.84190E-001	5.99134E-003	0.00000E+000	4.69835E-003	3.59960E-001	-1.09704E+000	3.57700E+000	10	...........
	27	0.373333	7.90355E-001	5.99184E-003	0.00000E+000	4.73568E-003	3.59960E-001	-1.10641E+000	3.57700E+000	10	...........
	28	0.386667	7.96573E-001	5.99193E-003	0.00000E+000	4.77301E-003	3.59960E-001	-1.10020E+000	3.57700E+000	10	...........
	29	0.4	8.02755E-001	5.99739E-003	0.00000E+000	4.81443E-003	3.59960E-001	-1.09706E+000	3.57700E+000	10	...........
	30	0.413333	8.08901E-001	5.99435E-003	0.00000E+000	4.84884E-003	3.59960E-001	-1.10661E+000	3.57700E+000	10	...........
	31	0.426667	8.15038E-001	5.99837E-003	0.00000E+000	4.88890E-003	3.59960E-001	-1.10017E+000	3.57700E+000	10	...........
	32	0.44	8.21232E-001	5.99256E-003	0.00000E+000	4.92128E-003	3.59960E-001	-1.09683E+000	3.57700E+000	10	...........
	33	0.453333	8.27356E-001	5.99321E-003	0.00000E+000	4.95852E-003	3.59960E-001	-1.10676E+000	3.57700E+000	10	...........
	34	0.466667	8.33464E-001	6.00020E-003	0.00000E+000	5.00095E-003	3.59960E-001	-1.10024E+000	3.57700E+000	10	...........
	35	0.48	8.39563E-001	5.99784E-003	0.00000E+000	5.03557E-003	3.59960E-001	-1.09693E+000	3.57700E+000	10	...........
	36	0.493333	8.45669E-001	5.98921E-003	0.00000E+000	5.06489E-003	3.59960E-001	-1.10640E+000	3.57700E+000	10	...........
	37	0.506667	8.51808E-001	5.99479E-003	0.00000E+000	5.10641E-003	3.59960E-001	-1.09997E+000	3.57700E+000	10	...........
	38	0.52	8.57860E-001	5.99302E-003	0.00000E+000	5.14117E-003	3.59960E-001	-1.09702E+000	3.57700E+000	10	...........
	39	0.533333	8.63916E-001	5.99338E-003	0.00000E+000	5.17778E-003	3.59960E-001	-1.10692E+000	3.57700E+000	10	...........
	40	0.546667	8.69978E-001	5.99426E-003	0.00000E+000	5.21488E-003	3.59960E-001	-1.10023E+000	3.57700E+000	10	...........
	41	0.56	8.76029E-001	5.99541E-003	0.00000E+000	5.25215E-003	3.59960E-001	-1.09712E+000	3.57700E+000	10	...........
	42	0.573333	8.82025E-001	5.99399E-003	0.00000E+000	5.28685E-003	3.59960E-001	-1.10690E+000	3.57700E+000	10	...........
	43	0.586667	8.88033E-001	5.99745E-003	0.00000E+000	5.32593E-003	3.59960E-001	-1.10017E+000	3.57700E+000	10	...........
	44	0.6	8.93995E-001	5.99107E-003	0.00000E+000	5.35598E-003	3.59960E-001	-1.09705E+000	3.57700E+000	10	...........
	45	0.613333	8.99942E-001	5.99094E-003	0.00000E+000	5.39150E-003	3.59960E-001	-1.10674E+000	3.57700E+000	10	...........
	46	0.626667	9.05859E-001	5.99109E-003	0.00000E+000	5.42708E-003	3.59960E-001	-1.09961E+000	3.57700E+000	10	...........
	47	0.64	9.11780E-001	5.99482E-003	0.00000E+000	5.46596E-003	3.59960E-001	-1.09665E+000	3.57700E+000	10	...........
	48	0.653333	9.17665E-001	5.99455E-003	0.00000E+000	5.50099E-003	3.59960E-001	-1.10625E+000	3.57700E+000	10	...........
	49	0.666667	9.23599E-001	6.00068E-003	0.00000E+000	5.54222E-003	3.59960E-001	-1.09979E+000	3.57700E+000	10	...........
	50	0.68	9.29395E-001	5.99553E-003	0.00000E+000	5.57222E-003	3.59960E-001	-1.09688E+000	3.57700E+000	10	...........
	51	0.693333	9.35200E-001	5.99301E-003	0.00000E+000	5.60466E-003	3.59960E-001	-1.10651E+000	3.57700E+000	10	...........
	52	0.706667	9.40960E-001	5.99224E-003	0.00000E+000	5.63845E-003	3.59960E-001	-1.09966E+000	3.57700E+000	10	...........
	53	0.72	9.46753E-001	5.99165E-003	0.00000E+000	5.67262E-003	3.59960E-001	-1.09643E+000	3.57700E+000	10	...........
	54	0.733333	9.52500E-001	5.99641E-003	0.00000E+000	5.71158E-003	3.59960E-001	-1.10646E+000	3.57700E+000	10	...........
	55	0.746667	9.58197E-001	5.99404E-003	0.00000E+000	5.74347E-003	3.59960E-001	-1.09977E+000	3.57700E+000	10	...........
	56	0.76	9.63802E-001	5.99190E-003	0.00000E+000	5.77501E-003	3.59960E-001	-1.09668E+000	3.57700E+000	10	...........
	57	0.773333	9.69400E-001	5.99732E-003	0.00000E+000	5.81380E-003	3.59960E-001	-1.10645E+000	3.57700E+000	10	...........
	58	0.786667	9.75016E-001	5.99164E-003	0.00000E+000	5.84195E-003	3.59960E-001	-1.09941E+000	3.57700E+000	10	...........
	59	0.8	9.80549E-001	5.99355E-003	0.00000E+000	5.87697E-003	3.59960E-001	-1.09666E+000	3.57700E+000	10	...........
	60	0.813333	9.86023E-001	5.98864E-003	0.00000E+000	5.90493E-003	3.59960E-001	-1.10659E+000	3.57700E+000	10	...........
	61	0.826667	9.91453E-001	5.99759E-003	0.00000E+000	5.94633E-003	3.59960E-001	-1.09957E+000	3.57700E+000	10	...........
	62	0.84	9.96892E-001	5.99123E-003	0.00000E+000	5.97260E-003	3.59960E-001	-1.09675E+000	3.57700E+000	10	...........
	63	0.843333	1.00025E+000	5.99024E-003	0.00000E+000	5.99174E-003	3.59960E-001	-1.10849E+000	3.57700E+000	10	...........
STARTTIMEOFFSET	QUANT	473.0667	Start Time Offset (s)