File: Data/CV_CRGO300517_1/PWRCCD_CRGO300517_1/CHARGE_DISCHARGE/CHARGE_#845.DTA
EXPLAIN
TAG	PWR800_CHARGE
TITLE	LABEL	PWR Cyclic Charge Discharge (Cell) - Charge Step	Test &Identifier
DATE	LABEL	22-6-2017	Date
TIME	LABEL	16:08:57	Time
NOTES	NOTES	3	&Notes...
	supercap test cell
	0.6mg
	6M KOH
PSTAT	PSTAT	IFC5000-01520	Potentiostat
CAPACITY	QUANT	1.00000E-003	Capacity (A-hr)
CELLTYPE	SELECTOR	1	&Cell Type
WORKINGCONNECTION	SELECTOR	0	&Working Lead
MAXCHARGETIME	VARIABLEANDUNITS	1.00000E+002	s	1.00000E+002	second(s)	Max &Charge Time
CHARGECURRENT	QUANT	6.00000E-003	&Charge Current (A)
VOLTAGEFINISH	TWOPARAM	F	1.00000E-003	3.60000E+003	&Voltage Finish	 I (A) < 	Max Time(s)
SAMPLETIME	QUANT	1.00000E-002	Sa&mple Period (s)
CHARGESTOPAT1	MULTIPARAM	4	1.00000E+000	Charge Stop At &1	Voltage > Limit	V
CHARGESTOPAT2	MULTIPARAM	0	0.00000E+000	Charge Stop At &2	None	N/A
AESBHCSELECTOR	TOGGLE	F	Save Both Half Cells
IRCOMP	TOGGLE	F	IR &Measure
EOC	QUANT	0	Open Circuit (V)
SEQUENCER	TOGGLE	TRUE	Run as Sequence
PSTATMODEL	IQUANT	53	Pstat Model
PSTATSECTION	LABEL	IFC5000-01520	Pstat Section
PSTATSERIALNO	LABEL	01520	Pstat Serial Number
CTRLMODE	IQUANT	0	Control Mode
ELECTROMETER	IQUANT	1	RE=0 or CS=1
IESTAB	IQUANT	0	I/E Stability
CASPEED	IQUANT	4	Control Amp Speed
CONVENTION	IQUANT	1	Current Convention
ICHRANGE	IQUANT	2	Ich Range
ICHRANGEMODE	TOGGLE	T	Ich Auto Range
ICHOFFSETENABLE	TOGGLE	F	Ich Offset Enable
ICHOFFSET	QUANT	0	Ich Offset (V)
ICHFILTER	IQUANT	1	Ich Filter
VCHRANGE	IQUANT	2	Vch Range
VCHRANGEMODE	TOGGLE	T	Vch Auto Range
VCHOFFSETENABLE	TOGGLE	F	Vch Offset Enable
VCHOFFSET	QUANT	0	Vch Offset (V)
VCHFILTER	IQUANT	1	Vch Filter
IERANGELOWERLIMIT	IQUANT	9	I/E Range Lower Limit
IERANGEMODE	TOGGLE	F	I/E AutoRange
IERANGE	IQUANT	10	I/E Range
ACHSELECT	IQUANT	1	Ach Select
ACHRANGE	IQUANT	2	Ach Range
ACHOFFSETENABLE	TOGGLE	F	Ach Offset Enable
ACHOFFSET	QUANT	0	Ach Offset (V)
ACHFILTER	IQUANT	1	Ach Filter
CABLEID	IQUANT	14	Cable ID
DCCALDATE	LABEL	20-10-2016	DC Calibration Date
ACCALDATE	LABEL	12/3/2015	AC Calibration Date
FRAMEWORKVERSION	QUANT	7.01	Framework Version
INSTRUMENTVERSION	LABEL	4.00	Instrument Version
CURVE	TABLE	54
	Pt	T	Vf	Im	Vu	Pwr	Sig	Ach	Temp	IERange	Over
	#	s	V	A	V	W	V	V	deg C	#	bits
	0	0.013333	6.50497E-001	5.99311E-003	0.00000E+000	3.89850E-003	3.59960E-001	-1.16472E+000	3.57640E+000	10	...........
	1	0.026667	6.59718E-001	5.99756E-003	0.00000E+000	3.95670E-003	3.59960E-001	-1.17097E+000	3.57640E+000	10	...........
	2	0.04	6.68194E-001	5.99528E-003	0.00000E+000	4.00601E-003	3.59960E-001	-1.17243E+000	3.57640E+000	10	...........
	3	0.053333	6.76279E-001	5.99344E-003	0.00000E+000	4.05324E-003	3.59960E-001	-1.16403E+000	3.57640E+000	10	...........
	4	0.066667	6.84018E-001	5.99507E-003	0.00000E+000	4.10074E-003	3.59960E-001	-1.17024E+000	3.57640E+000	10	...........
	5	0.08	6.91574E-001	5.99736E-003	0.00000E+000	4.14762E-003	3.59960E-001	-1.17221E+000	3.57640E+000	10	...........
	6	0.093333	6.98973E-001	5.99482E-003	0.00000E+000	4.19022E-003	3.59960E-001	-1.16416E+000	3.57640E+000	10	...........
	7	0.106667	7.06247E-001	5.99232E-003	0.00000E+000	4.23206E-003	3.59960E-001	-1.17024E+000	3.57640E+000	10	...........
	8	0.12	7.13454E-001	5.99323E-003	0.00000E+000	4.27589E-003	3.59960E-001	-1.17227E+000	3.57640E+000	10	...........
	9	0.133333	7.20614E-001	5.99273E-003	0.00000E+000	4.31845E-003	3.59960E-001	-1.16418E+000	3.57640E+000	10	...........
	10	0.146667	7.27677E-001	5.98961E-003	0.00000E+000	4.35850E-003	3.59960E-001	-1.16996E+000	3.57640E+000	10	...........
	11	0.16	7.34666E-001	5.99216E-003	0.00000E+000	4.40224E-003	3.59960E-001	-1.17210E+000	3.57640E+000	10	...........
	12	0.173333	7.41621E-001	5.99279E-003	0.00000E+000	4.44438E-003	3.59960E-001	-1.16409E+000	3.57640E+000	10	...........
	13	0.186667	7.48561E-001	5.99387E-003	0.00000E+000	4.48678E-003	3.59960E-001	-1.16988E+000	3.57640E+000	10	...........
	14	0.2	7.55401E-001	5.99780E-003	0.00000E+000	4.53074E-003	3.59960E-001	-1.17206E+000	3.57640E+000	10	...........
	15	0.213333	7.62280E-001	5.99481E-003	0.00000E+000	4.56973E-003	3.59960E-001	-1.16378E+000	3.57640E+000	10	...........
	16	0.226667	7.69070E-001	5.99795E-003	0.00000E+000	4.61284E-003	3.59960E-001	-1.17000E+000	3.57640E+000	10	...........
	17	0.24	7.75856E-001	5.99355E-003	0.00000E+000	4.65013E-003	3.59960E-001	-1.17199E+000	3.57640E+000	10	...........
	18	0.253333	7.82630E-001	5.99538E-003	0.00000E+000	4.69216E-003	3.59960E-001	-1.16410E+000	3.57640E+000	10	...........
	19	0.266667	7.89349E-001	5.99128E-003	0.00000E+000	4.72921E-003	3.59960E-001	-1.16988E+000	3.57640E+000	10	...........
	20	0.28	7.96111E-001	5.99489E-003	0.00000E+000	4.77260E-003	3.59960E-001	-1.17212E+000	3.57640E+000	10	...........
	21	0.293333	8.02794E-001	5.99354E-003	0.00000E+000	4.81158E-003	3.59960E-001	-1.16406E+000	3.57640E+000	10	...........
	22	0.306667	8.09449E-001	5.99077E-003	0.00000E+000	4.84922E-003	3.59960E-001	-1.16990E+000	3.57640E+000	10	...........
	23	0.32	8.16071E-001	5.98796E-003	0.00000E+000	4.88660E-003	3.59960E-001	-1.17230E+000	3.57640E+000	10	...........
	24	0.333333	8.22690E-001	5.99312E-003	0.00000E+000	4.93048E-003	3.59960E-001	-1.16377E+000	3.57640E+000	10	...........
	25	0.346667	8.29298E-001	5.99721E-003	0.00000E+000	4.97348E-003	3.59960E-001	-1.16958E+000	3.57640E+000	10	...........
	26	0.36	8.35865E-001	5.99708E-003	0.00000E+000	5.01274E-003	3.59960E-001	-1.17176E+000	3.57640E+000	10	...........
	27	0.373333	8.42408E-001	5.98983E-003	0.00000E+000	5.04588E-003	3.59960E-001	-1.16340E+000	3.57640E+000	10	...........
	28	0.386667	8.48954E-001	5.99444E-003	0.00000E+000	5.08900E-003	3.59960E-001	-1.16926E+000	3.57640E+000	10	...........
	29	0.4	8.55444E-001	5.99851E-003	0.00000E+000	5.13139E-003	3.59960E-001	-1.17175E+000	3.57640E+000	10	...........
	30	0.413333	8.61900E-001	5.99625E-003	0.00000E+000	5.16817E-003	3.59960E-001	-1.16326E+000	3.57640E+000	10	...........
	31	0.426667	8.68417E-001	5.99474E-003	0.00000E+000	5.20593E-003	3.59960E-001	-1.16905E+000	3.57640E+000	10	...........
	32	0.44	8.74818E-001	5.99002E-003	0.00000E+000	5.24017E-003	3.59960E-001	-1.17181E+000	3.57640E+000	10	...........
	33	0.453333	8.81193E-001	5.99944E-003	0.00000E+000	5.28667E-003	3.59960E-001	-1.16339E+000	3.57640E+000	10	...........
	34	0.466667	8.87529E-001	5.99580E-003	0.00000E+000	5.32145E-003	3.59960E-001	-1.16885E+000	3.57640E+000	10	...........
	35	0.48	8.93818E-001	5.99684E-003	0.00000E+000	5.36008E-003	3.59960E-001	-1.17163E+000	3.57640E+000	10	...........
	36	0.493333	9.00135E-001	5.99608E-003	0.00000E+000	5.39728E-003	3.59960E-001	-1.16341E+000	3.57640E+000	10	...........
	37	0.506667	9.06381E-001	5.99382E-003	0.00000E+000	5.43268E-003	3.59960E-001	-1.16907E+000	3.57640E+000	10	...........
	38	0.52	9.12555E-001	5.99156E-003	0.00000E+000	5.46763E-003	3.59960E-001	-1.17172E+000	3.57640E+000	10	...........
	39	0.533333	9.18753E-001	5.99763E-003	0.00000E+000	5.51034E-003	3.59960E-001	-1.16325E+000	3.57640E+000	10	...........
	40	0.546667	9.24946E-001	5.99574E-003	0.00000E+000	5.54574E-003	3.59960E-001	-1.16881E+000	3.57640E+000	10	...........
	41	0.56	9.31051E-001	5.99131E-003	0.00000E+000	5.57821E-003	3.59960E-001	-1.17149E+000	3.57640E+000	10	...........
	42	0.573333	9.37074E-001	5.99448E-003	0.00000E+000	5.61727E-003	3.59960E-001	-1.16352E+000	3.57640E+000	10	...........
	43	0.586667	9.43088E-001	5.99147E-003	0.00000E+000	5.65048E-003	3.59960E-001	-1.16903E+000	3.57640E+000	10	...........
	44	0.6	9.49070E-001	5.99034E-003	0.00000E+000	5.68525E-003	3.59960E-001	-1.17153E+000	3.57640E+000	10	...........
	45	0.613333	9.54984E-001	5.99496E-003	0.00000E+000	5.72509E-003	3.59960E-001	-1.16311E+000	3.57640E+000	10	...........
	46	0.626667	9.60818E-001	5.99925E-003	0.00000E+000	5.76419E-003	3.59960E-001	-1.16870E+000	3.57640E+000	10	...........
	47	0.64	9.66647E-001	5.99229E-003	0.00000E+000	5.79243E-003	3.59960E-001	-1.17175E+000	3.57640E+000	10	...........
	48	0.653333	9.72441E-001	5.99482E-003	0.00000E+000	5.82961E-003	3.59960E-001	-1.16343E+000	3.57640E+000	10	...........
	49	0.666667	9.78181E-001	5.99677E-003	0.00000E+000	5.86593E-003	3.59960E-001	-1.16867E+000	3.57640E+000	10	...........
	50	0.68	9.83833E-001	5.99352E-003	0.00000E+000	5.89662E-003	3.59960E-001	-1.17145E+000	3.57640E+000	10	...........
	51	0.693333	9.89424E-001	5.99472E-003	0.00000E+000	5.93132E-003	3.59960E-001	-1.16304E+000	3.57640E+000	10	...........
	52	0.706667	9.95010E-001	5.99317E-003	0.00000E+000	5.96326E-003	3.59960E-001	-1.16860E+000	3.57640E+000	10	...........
	53	0.713333	9.99154E-001	5.99031E-003	0.00000E+000	5.98524E-003	3.59960E-001	-1.16592E+000	3.57640E+000	10	...........
STARTTIMEOFFSET	QUANT	1368.341	Start Time Offset (s)