File: Data/CV_CRGO300517_1/PWRCCD_CRGO300517_1/CHARGE_DISCHARGE/CHARGE_#703.DTA
EXPLAIN
TAG	PWR800_CHARGE
TITLE	LABEL	PWR Cyclic Charge Discharge (Cell) - Charge Step	Test &Identifier
DATE	LABEL	22-6-2017	Date
TIME	LABEL	16:03:40	Time
NOTES	NOTES	3	&Notes...
	supercap test cell
	0.6mg
	6M KOH
PSTAT	PSTAT	IFC5000-01520	Potentiostat
CAPACITY	QUANT	1.00000E-003	Capacity (A-hr)
CELLTYPE	SELECTOR	1	&Cell Type
WORKINGCONNECTION	SELECTOR	0	&Working Lead
MAXCHARGETIME	VARIABLEANDUNITS	1.00000E+002	s	1.00000E+002	second(s)	Max &Charge Time
CHARGECURRENT	QUANT	6.00000E-003	&Charge Current (A)
VOLTAGEFINISH	TWOPARAM	F	1.00000E-003	3.60000E+003	&Voltage Finish	 I (A) < 	Max Time(s)
SAMPLETIME	QUANT	1.00000E-002	Sa&mple Period (s)
CHARGESTOPAT1	MULTIPARAM	4	1.00000E+000	Charge Stop At &1	Voltage > Limit	V
CHARGESTOPAT2	MULTIPARAM	0	0.00000E+000	Charge Stop At &2	None	N/A
AESBHCSELECTOR	TOGGLE	F	Save Both Half Cells
IRCOMP	TOGGLE	F	IR &Measure
EOC	QUANT	0	Open Circuit (V)
SEQUENCER	TOGGLE	TRUE	Run as Sequence
PSTATMODEL	IQUANT	53	Pstat Model
PSTATSECTION	LABEL	IFC5000-01520	Pstat Section
PSTATSERIALNO	LABEL	01520	Pstat Serial Number
CTRLMODE	IQUANT	0	Control Mode
ELECTROMETER	IQUANT	1	RE=0 or CS=1
IESTAB	IQUANT	0	I/E Stability
CASPEED	IQUANT	4	Control Amp Speed
CONVENTION	IQUANT	1	Current Convention
ICHRANGE	IQUANT	2	Ich Range
ICHRANGEMODE	TOGGLE	T	Ich Auto Range
ICHOFFSETENABLE	TOGGLE	F	Ich Offset Enable
ICHOFFSET	QUANT	0	Ich Offset (V)
ICHFILTER	IQUANT	1	Ich Filter
VCHRANGE	IQUANT	2	Vch Range
VCHRANGEMODE	TOGGLE	T	Vch Auto Range
VCHOFFSETENABLE	TOGGLE	F	Vch Offset Enable
VCHOFFSET	QUANT	0	Vch Offset (V)
VCHFILTER	IQUANT	1	Vch Filter
IERANGELOWERLIMIT	IQUANT	9	I/E Range Lower Limit
IERANGEMODE	TOGGLE	F	I/E AutoRange
IERANGE	IQUANT	10	I/E Range
ACHSELECT	IQUANT	1	Ach Select
ACHRANGE	IQUANT	2	Ach Range
ACHOFFSETENABLE	TOGGLE	F	Ach Offset Enable
ACHOFFSET	QUANT	0	Ach Offset (V)
ACHFILTER	IQUANT	1	Ach Filter
CABLEID	IQUANT	14	Cable ID
DCCALDATE	LABEL	20-10-2016	DC Calibration Date
ACCALDATE	LABEL	12/3/2015	AC Calibration Date
FRAMEWORKVERSION	QUANT	7.01	Framework Version
INSTRUMENTVERSION	LABEL	4.00	Instrument Version
CURVE	TABLE	56
	Pt	T	Vf	Im	Vu	Pwr	Sig	Ach	Temp	IERange	Over
	#	s	V	A	V	W	V	V	deg C	#	bits
	0	0.013333	6.43243E-001	5.99720E-003	0.00000E+000	3.85766E-003	3.59960E-001	-1.15318E+000	3.57780E+000	10	...........
	1	0.026667	6.52312E-001	5.98983E-003	0.00000E+000	3.90723E-003	3.59960E-001	-1.15346E+000	3.57780E+000	10	...........
	2	0.04	6.60686E-001	5.99160E-003	0.00000E+000	3.95857E-003	3.59960E-001	-1.16350E+000	3.57780E+000	10	...........
	3	0.053333	6.68658E-001	5.99133E-003	0.00000E+000	4.00615E-003	3.59960E-001	-1.15287E+000	3.57780E+000	10	...........
	4	0.066667	6.76272E-001	5.98911E-003	0.00000E+000	4.05027E-003	3.59960E-001	-1.15317E+000	3.57780E+000	10	...........
	5	0.08	6.83691E-001	5.99422E-003	0.00000E+000	4.09819E-003	3.59960E-001	-1.16350E+000	3.57780E+000	10	...........
	6	0.093333	6.90998E-001	5.99124E-003	0.00000E+000	4.13994E-003	3.59960E-001	-1.15303E+000	3.57780E+000	10	...........
	7	0.106667	6.98211E-001	5.99825E-003	0.00000E+000	4.18804E-003	3.59960E-001	-1.15376E+000	3.57780E+000	10	...........
	8	0.12	7.05324E-001	5.99658E-003	0.00000E+000	4.22953E-003	3.59960E-001	-1.16353E+000	3.57780E+000	10	...........
	9	0.133333	7.12315E-001	5.99331E-003	0.00000E+000	4.26913E-003	3.59960E-001	-1.15286E+000	3.57780E+000	10	...........
	10	0.146667	7.19323E-001	5.99289E-003	0.00000E+000	4.31083E-003	3.59960E-001	-1.15380E+000	3.57780E+000	10	...........
	11	0.16	7.26237E-001	5.99314E-003	0.00000E+000	4.35244E-003	3.59960E-001	-1.16373E+000	3.57780E+000	10	...........
	12	0.173333	7.33052E-001	5.99407E-003	0.00000E+000	4.39396E-003	3.59960E-001	-1.15294E+000	3.57780E+000	10	...........
	13	0.186667	7.39874E-001	5.99886E-003	0.00000E+000	4.43840E-003	3.59960E-001	-1.15363E+000	3.57780E+000	10	...........
	14	0.2	7.46692E-001	5.99201E-003	0.00000E+000	4.47418E-003	3.59960E-001	-1.16335E+000	3.57780E+000	10	...........
	15	0.213333	7.53413E-001	5.99440E-003	0.00000E+000	4.51626E-003	3.59960E-001	-1.15295E+000	3.57780E+000	10	...........
	16	0.226667	7.60142E-001	5.99277E-003	0.00000E+000	4.55535E-003	3.59960E-001	-1.15392E+000	3.57780E+000	10	...........
	17	0.24	7.66839E-001	5.99557E-003	0.00000E+000	4.59764E-003	3.59960E-001	-1.16378E+000	3.57780E+000	10	...........
	18	0.253333	7.73533E-001	5.99578E-003	0.00000E+000	4.63794E-003	3.59960E-001	-1.15295E+000	3.57780E+000	10	...........
	19	0.266667	7.80160E-001	5.99328E-003	0.00000E+000	4.67572E-003	3.59960E-001	-1.15408E+000	3.57780E+000	10	...........
	20	0.28	7.86794E-001	5.99185E-003	0.00000E+000	4.71435E-003	3.59960E-001	-1.16379E+000	3.57780E+000	10	...........
	21	0.293333	7.93430E-001	5.99334E-003	0.00000E+000	4.75530E-003	3.59960E-001	-1.15307E+000	3.57780E+000	10	...........
	22	0.306667	8.00065E-001	5.99152E-003	0.00000E+000	4.79360E-003	3.59960E-001	-1.15442E+000	3.57780E+000	10	...........
	23	0.32	8.06597E-001	5.99451E-003	0.00000E+000	4.83516E-003	3.59960E-001	-1.16373E+000	3.57780E+000	10	...........
	24	0.333333	8.13182E-001	5.99393E-003	0.00000E+000	4.87416E-003	3.59960E-001	-1.15289E+000	3.57780E+000	10	...........
	25	0.346667	8.19755E-001	5.99684E-003	0.00000E+000	4.91594E-003	3.59960E-001	-1.15445E+000	3.57780E+000	10	...........
	26	0.36	8.26242E-001	5.99432E-003	0.00000E+000	4.95276E-003	3.59960E-001	-1.16394E+000	3.57780E+000	10	...........
	27	0.373333	8.32773E-001	5.99153E-003	0.00000E+000	4.98958E-003	3.59960E-001	-1.15308E+000	3.57780E+000	10	...........
	28	0.386667	8.39207E-001	5.99086E-003	0.00000E+000	5.02757E-003	3.59960E-001	-1.15466E+000	3.57780E+000	10	...........
	29	0.4	8.45674E-001	5.99491E-003	0.00000E+000	5.06974E-003	3.59960E-001	-1.16408E+000	3.57780E+000	10	...........
	30	0.413333	8.52078E-001	5.99446E-003	0.00000E+000	5.10775E-003	3.59960E-001	-1.15363E+000	3.57780E+000	10	...........
	31	0.426667	8.58484E-001	5.99301E-003	0.00000E+000	5.14490E-003	3.59960E-001	-1.15518E+000	3.57780E+000	10	...........
	32	0.44	8.64854E-001	5.99441E-003	0.00000E+000	5.18429E-003	3.59960E-001	-1.16442E+000	3.57780E+000	10	...........
	33	0.453333	8.71256E-001	5.99301E-003	0.00000E+000	5.22145E-003	3.59960E-001	-1.15362E+000	3.57780E+000	10	...........
	34	0.466667	8.77589E-001	5.99399E-003	0.00000E+000	5.26026E-003	3.59960E-001	-1.15522E+000	3.57780E+000	10	...........
	35	0.48	8.83879E-001	5.99156E-003	0.00000E+000	5.29581E-003	3.59960E-001	-1.16401E+000	3.57780E+000	10	...........
	36	0.493333	8.90141E-001	5.99672E-003	0.00000E+000	5.33793E-003	3.59960E-001	-1.15334E+000	3.57780E+000	10	...........
	37	0.506667	8.96361E-001	5.99241E-003	0.00000E+000	5.37136E-003	3.59960E-001	-1.15483E+000	3.57780E+000	10	...........
	38	0.52	9.02608E-001	5.99937E-003	0.00000E+000	5.41508E-003	3.59960E-001	-1.16366E+000	3.57780E+000	10	...........
	39	0.533333	9.08786E-001	5.99294E-003	0.00000E+000	5.44630E-003	3.59960E-001	-1.15271E+000	3.57780E+000	10	...........
	40	0.546667	9.14924E-001	5.99089E-003	0.00000E+000	5.48121E-003	3.59960E-001	-1.15459E+000	3.57780E+000	10	...........
	41	0.56	9.21096E-001	5.99743E-003	0.00000E+000	5.52421E-003	3.59960E-001	-1.16357E+000	3.57780E+000	10	...........
	42	0.573333	9.27142E-001	5.99667E-003	0.00000E+000	5.55977E-003	3.59960E-001	-1.15295E+000	3.57780E+000	10	...........
	43	0.586667	9.33207E-001	5.98976E-003	0.00000E+000	5.58968E-003	3.59960E-001	-1.15488E+000	3.57780E+000	10	...........
	44	0.6	9.39215E-001	5.99335E-003	0.00000E+000	5.62905E-003	3.59960E-001	-1.16322E+000	3.57780E+000	10	...........
	45	0.613333	9.45149E-001	5.99616E-003	0.00000E+000	5.66726E-003	3.59960E-001	-1.15258E+000	3.57780E+000	10	...........
	46	0.626667	9.51102E-001	5.99282E-003	0.00000E+000	5.69979E-003	3.59960E-001	-1.15493E+000	3.57780E+000	10	...........
	47	0.64	9.56944E-001	5.99309E-003	0.00000E+000	5.73506E-003	3.59960E-001	-1.16332E+000	3.57780E+000	10	...........
	48	0.653333	9.62745E-001	5.99412E-003	0.00000E+000	5.77081E-003	3.59960E-001	-1.15259E+000	3.57780E+000	10	...........
	49	0.666667	9.68507E-001	5.99404E-003	0.00000E+000	5.80527E-003	3.59960E-001	-1.15477E+000	3.57780E+000	10	...........
	50	0.68	9.74272E-001	5.99504E-003	0.00000E+000	5.84080E-003	3.59960E-001	-1.16299E+000	3.57780E+000	10	...........
	51	0.693333	9.79950E-001	5.99435E-003	0.00000E+000	5.87417E-003	3.59960E-001	-1.15259E+000	3.57780E+000	10	...........
	52	0.706667	9.85562E-001	5.99742E-003	0.00000E+000	5.91083E-003	3.59960E-001	-1.15502E+000	3.57780E+000	10	...........
	53	0.72	9.91153E-001	5.98934E-003	0.00000E+000	5.93635E-003	3.59960E-001	-1.16300E+000	3.57780E+000	10	...........
	54	0.733333	9.96648E-001	5.99660E-003	0.00000E+000	5.97650E-003	3.59960E-001	-1.15245E+000	3.57780E+000	10	...........
	55	0.736667	1.00006E+000	5.98094E-003	0.00000E+000	5.98132E-003	3.59960E-001	-1.16680E+000	3.57780E+000	10	...........
STARTTIMEOFFSET	QUANT	1163.622	Start Time Offset (s)