File: Data/CV_CRGO300517_1/PWRCCD_CRGO300517_1/CHARGE_DISCHARGE/CHARGE_#685.DTA
EXPLAIN
TAG	PWR800_CHARGE
TITLE	LABEL	PWR Cyclic Charge Discharge (Cell) - Charge Step	Test &Identifier
DATE	LABEL	22-6-2017	Date
TIME	LABEL	16:02:59	Time
NOTES	NOTES	3	&Notes...
	supercap test cell
	0.6mg
	6M KOH
PSTAT	PSTAT	IFC5000-01520	Potentiostat
CAPACITY	QUANT	1.00000E-003	Capacity (A-hr)
CELLTYPE	SELECTOR	1	&Cell Type
WORKINGCONNECTION	SELECTOR	0	&Working Lead
MAXCHARGETIME	VARIABLEANDUNITS	1.00000E+002	s	1.00000E+002	second(s)	Max &Charge Time
CHARGECURRENT	QUANT	6.00000E-003	&Charge Current (A)
VOLTAGEFINISH	TWOPARAM	F	1.00000E-003	3.60000E+003	&Voltage Finish	 I (A) < 	Max Time(s)
SAMPLETIME	QUANT	1.00000E-002	Sa&mple Period (s)
CHARGESTOPAT1	MULTIPARAM	4	1.00000E+000	Charge Stop At &1	Voltage > Limit	V
CHARGESTOPAT2	MULTIPARAM	0	0.00000E+000	Charge Stop At &2	None	N/A
AESBHCSELECTOR	TOGGLE	F	Save Both Half Cells
IRCOMP	TOGGLE	F	IR &Measure
EOC	QUANT	0	Open Circuit (V)
SEQUENCER	TOGGLE	TRUE	Run as Sequence
PSTATMODEL	IQUANT	53	Pstat Model
PSTATSECTION	LABEL	IFC5000-01520	Pstat Section
PSTATSERIALNO	LABEL	01520	Pstat Serial Number
CTRLMODE	IQUANT	0	Control Mode
ELECTROMETER	IQUANT	1	RE=0 or CS=1
IESTAB	IQUANT	0	I/E Stability
CASPEED	IQUANT	4	Control Amp Speed
CONVENTION	IQUANT	1	Current Convention
ICHRANGE	IQUANT	2	Ich Range
ICHRANGEMODE	TOGGLE	T	Ich Auto Range
ICHOFFSETENABLE	TOGGLE	F	Ich Offset Enable
ICHOFFSET	QUANT	0	Ich Offset (V)
ICHFILTER	IQUANT	1	Ich Filter
VCHRANGE	IQUANT	2	Vch Range
VCHRANGEMODE	TOGGLE	T	Vch Auto Range
VCHOFFSETENABLE	TOGGLE	F	Vch Offset Enable
VCHOFFSET	QUANT	0	Vch Offset (V)
VCHFILTER	IQUANT	1	Vch Filter
IERANGELOWERLIMIT	IQUANT	9	I/E Range Lower Limit
IERANGEMODE	TOGGLE	F	I/E AutoRange
IERANGE	IQUANT	10	I/E Range
ACHSELECT	IQUANT	1	Ach Select
ACHRANGE	IQUANT	2	Ach Range
ACHOFFSETENABLE	TOGGLE	F	Ach Offset Enable
ACHOFFSET	QUANT	0	Ach Offset (V)
ACHFILTER	IQUANT	1	Ach Filter
CABLEID	IQUANT	14	Cable ID
DCCALDATE	LABEL	20-10-2016	DC Calibration Date
ACCALDATE	LABEL	12/3/2015	AC Calibration Date
FRAMEWORKVERSION	QUANT	7.01	Framework Version
INSTRUMENTVERSION	LABEL	4.00	Instrument Version
CURVE	TABLE	56
	Pt	T	Vf	Im	Vu	Pwr	Sig	Ach	Temp	IERange	Over
	#	s	V	A	V	W	V	V	deg C	#	bits
	0	0.013333	6.41780E-001	5.99555E-003	0.00000E+000	3.84783E-003	3.59960E-001	-1.16351E+000	3.57640E+000	10	...........
	1	0.026667	6.50886E-001	5.98997E-003	0.00000E+000	3.89879E-003	3.59960E-001	-1.15741E+000	3.57640E+000	10	...........
	2	0.04	6.59229E-001	5.98846E-003	0.00000E+000	3.94777E-003	3.59960E-001	-1.15299E+000	3.57640E+000	10	...........
	3	0.053333	6.67193E-001	5.99548E-003	0.00000E+000	4.00015E-003	3.59960E-001	-1.16306E+000	3.57640E+000	10	...........
	4	0.066667	6.74831E-001	5.99574E-003	0.00000E+000	4.04611E-003	3.59960E-001	-1.15702E+000	3.57640E+000	10	...........
	5	0.08	6.82247E-001	5.99477E-003	0.00000E+000	4.08991E-003	3.59960E-001	-1.15270E+000	3.57640E+000	10	...........
	6	0.093333	6.89532E-001	5.99482E-003	0.00000E+000	4.13362E-003	3.59960E-001	-1.16300E+000	3.57640E+000	10	...........
	7	0.106667	6.96758E-001	5.99590E-003	0.00000E+000	4.17769E-003	3.59960E-001	-1.15669E+000	3.57640E+000	10	...........
	8	0.12	7.03821E-001	5.99146E-003	0.00000E+000	4.21691E-003	3.59960E-001	-1.15244E+000	3.57640E+000	10	...........
	9	0.133333	7.10817E-001	5.99470E-003	0.00000E+000	4.26113E-003	3.59960E-001	-1.16300E+000	3.57640E+000	10	...........
	10	0.146667	7.17793E-001	5.99900E-003	0.00000E+000	4.30604E-003	3.59960E-001	-1.15685E+000	3.57640E+000	10	...........
	11	0.16	7.24701E-001	5.99180E-003	0.00000E+000	4.34226E-003	3.59960E-001	-1.15234E+000	3.57640E+000	10	...........
	12	0.173333	7.31562E-001	5.99711E-003	0.00000E+000	4.38726E-003	3.59960E-001	-1.16294E+000	3.57640E+000	10	...........
	13	0.186667	7.38342E-001	5.99444E-003	0.00000E+000	4.42595E-003	3.59960E-001	-1.15641E+000	3.57640E+000	10	...........
	14	0.2	7.45151E-001	5.99540E-003	0.00000E+000	4.46748E-003	3.59960E-001	-1.15252E+000	3.57640E+000	10	...........
	15	0.213333	7.51889E-001	5.99286E-003	0.00000E+000	4.50596E-003	3.59960E-001	-1.16298E+000	3.57640E+000	10	...........
	16	0.226667	7.58616E-001	5.99592E-003	0.00000E+000	4.54860E-003	3.59960E-001	-1.15645E+000	3.57640E+000	10	...........
	17	0.24	7.65248E-001	5.99757E-003	0.00000E+000	4.58963E-003	3.59960E-001	-1.15203E+000	3.57640E+000	10	...........
	18	0.253333	7.71940E-001	5.99023E-003	0.00000E+000	4.62410E-003	3.59960E-001	-1.16254E+000	3.57640E+000	10	...........
	19	0.266667	7.78576E-001	5.99472E-003	0.00000E+000	4.66734E-003	3.59960E-001	-1.15619E+000	3.57640E+000	10	...........
	20	0.28	7.85233E-001	5.99517E-003	0.00000E+000	4.70761E-003	3.59960E-001	-1.15209E+000	3.57640E+000	10	...........
	21	0.293333	7.91871E-001	6.00023E-003	0.00000E+000	4.75140E-003	3.59960E-001	-1.16282E+000	3.57640E+000	10	...........
	22	0.306667	7.98483E-001	5.99556E-003	0.00000E+000	4.78736E-003	3.59960E-001	-1.15610E+000	3.57640E+000	10	...........
	23	0.32	8.04997E-001	5.99221E-003	0.00000E+000	4.82371E-003	3.59960E-001	-1.15214E+000	3.57640E+000	10	...........
	24	0.333333	8.11578E-001	5.99713E-003	0.00000E+000	4.86714E-003	3.59960E-001	-1.16287E+000	3.57640E+000	10	...........
	25	0.346667	8.18058E-001	5.99073E-003	0.00000E+000	4.90076E-003	3.59960E-001	-1.15602E+000	3.57640E+000	10	...........
	26	0.36	8.24604E-001	5.99577E-003	0.00000E+000	4.94414E-003	3.59960E-001	-1.15213E+000	3.57640E+000	10	...........
	27	0.373333	8.31053E-001	5.99063E-003	0.00000E+000	4.97853E-003	3.59960E-001	-1.16259E+000	3.57640E+000	10	...........
	28	0.386667	8.37529E-001	5.99520E-003	0.00000E+000	5.02115E-003	3.59960E-001	-1.15568E+000	3.57640E+000	10	...........
	29	0.4	8.43998E-001	5.99086E-003	0.00000E+000	5.05627E-003	3.59960E-001	-1.15174E+000	3.57643E+000	10	...........
	30	0.413333	8.50427E-001	5.99020E-003	0.00000E+000	5.09423E-003	3.59960E-001	-1.16253E+000	3.57660E+000	10	...........
	31	0.426667	8.56840E-001	5.99625E-003	0.00000E+000	5.13783E-003	3.59960E-001	-1.15531E+000	3.57660E+000	10	...........
	32	0.44	8.63218E-001	5.99708E-003	0.00000E+000	5.17679E-003	3.59960E-001	-1.15155E+000	3.57660E+000	10	...........
	33	0.453333	8.69592E-001	5.99284E-003	0.00000E+000	5.21133E-003	3.59960E-001	-1.16229E+000	3.57660E+000	10	...........
	34	0.466667	8.75897E-001	5.99244E-003	0.00000E+000	5.24876E-003	3.59960E-001	-1.15550E+000	3.57660E+000	10	...........
	35	0.48	8.82164E-001	5.99207E-003	0.00000E+000	5.28599E-003	3.59960E-001	-1.15171E+000	3.57660E+000	10	...........
	36	0.493333	8.88448E-001	5.99431E-003	0.00000E+000	5.32563E-003	3.59960E-001	-1.16234E+000	3.57660E+000	10	...........
	37	0.506667	8.94699E-001	5.99360E-003	0.00000E+000	5.36247E-003	3.59960E-001	-1.15502E+000	3.57660E+000	10	...........
	38	0.52	9.00950E-001	5.99748E-003	0.00000E+000	5.40343E-003	3.59960E-001	-1.15151E+000	3.57660E+000	10	...........
	39	0.533333	9.07115E-001	5.99633E-003	0.00000E+000	5.43936E-003	3.59960E-001	-1.16243E+000	3.57660E+000	10	...........
	40	0.546667	9.13247E-001	5.99149E-003	0.00000E+000	5.47171E-003	3.59960E-001	-1.15510E+000	3.57660E+000	10	...........
	41	0.56	9.19379E-001	5.99456E-003	0.00000E+000	5.51128E-003	3.59960E-001	-1.15132E+000	3.57660E+000	10	...........
	42	0.573333	9.25499E-001	5.99536E-003	0.00000E+000	5.54870E-003	3.59960E-001	-1.16224E+000	3.57660E+000	10	...........
	43	0.586667	9.31552E-001	5.99193E-003	0.00000E+000	5.58180E-003	3.59960E-001	-1.15500E+000	3.57660E+000	10	...........
	44	0.6	9.37562E-001	5.99649E-003	0.00000E+000	5.62208E-003	3.59960E-001	-1.15180E+000	3.57660E+000	10	...........
	45	0.613333	9.43457E-001	5.99563E-003	0.00000E+000	5.65662E-003	3.59960E-001	-1.16269E+000	3.57660E+000	10	...........
	46	0.626667	9.49425E-001	5.99851E-003	0.00000E+000	5.69513E-003	3.59960E-001	-1.15502E+000	3.57660E+000	10	...........
	47	0.64	9.55309E-001	5.99427E-003	0.00000E+000	5.72638E-003	3.59960E-001	-1.15135E+000	3.57660E+000	10	...........
	48	0.653333	9.61127E-001	5.99324E-003	0.00000E+000	5.76026E-003	3.59960E-001	-1.16264E+000	3.57660E+000	10	...........
	49	0.666667	9.66938E-001	5.99736E-003	0.00000E+000	5.79907E-003	3.59960E-001	-1.15511E+000	3.57660E+000	10	...........
	50	0.68	9.72688E-001	5.99547E-003	0.00000E+000	5.83172E-003	3.59960E-001	-1.15159E+000	3.57660E+000	10	...........
	51	0.693333	9.78385E-001	5.99522E-003	0.00000E+000	5.86563E-003	3.59960E-001	-1.16232E+000	3.57660E+000	10	...........
	52	0.706667	9.84043E-001	5.99508E-003	0.00000E+000	5.89942E-003	3.59960E-001	-1.15427E+000	3.57660E+000	10	...........
	53	0.72	9.89658E-001	5.99514E-003	0.00000E+000	5.93313E-003	3.59960E-001	-1.15115E+000	3.57660E+000	10	...........
	54	0.733333	9.95157E-001	5.99443E-003	0.00000E+000	5.96540E-003	3.59960E-001	-1.16232E+000	3.57660E+000	10	...........
	55	0.74	9.99319E-001	5.99304E-003	0.00000E+000	5.98896E-003	3.59960E-001	-1.14350E+000	3.57660E+000	10	...........
STARTTIMEOFFSET	QUANT	1137.177	Start Time Offset (s)