File: Data/CV_CRGO300517_1/PWRCCD_CRGO300517_1/CHARGE_DISCHARGE/CHARGE_#782.DTA
EXPLAIN
TAG	PWR800_CHARGE
TITLE	LABEL	PWR Cyclic Charge Discharge (Cell) - Charge Step	Test &Identifier
DATE	LABEL	22-6-2017	Date
TIME	LABEL	16:06:36	Time
NOTES	NOTES	3	&Notes...
	supercap test cell
	0.6mg
	6M KOH
PSTAT	PSTAT	IFC5000-01520	Potentiostat
CAPACITY	QUANT	1.00000E-003	Capacity (A-hr)
CELLTYPE	SELECTOR	1	&Cell Type
WORKINGCONNECTION	SELECTOR	0	&Working Lead
MAXCHARGETIME	VARIABLEANDUNITS	1.00000E+002	s	1.00000E+002	second(s)	Max &Charge Time
CHARGECURRENT	QUANT	6.00000E-003	&Charge Current (A)
VOLTAGEFINISH	TWOPARAM	F	1.00000E-003	3.60000E+003	&Voltage Finish	 I (A) < 	Max Time(s)
SAMPLETIME	QUANT	1.00000E-002	Sa&mple Period (s)
CHARGESTOPAT1	MULTIPARAM	4	1.00000E+000	Charge Stop At &1	Voltage > Limit	V
CHARGESTOPAT2	MULTIPARAM	0	0.00000E+000	Charge Stop At &2	None	N/A
AESBHCSELECTOR	TOGGLE	F	Save Both Half Cells
IRCOMP	TOGGLE	F	IR &Measure
EOC	QUANT	0	Open Circuit (V)
SEQUENCER	TOGGLE	TRUE	Run as Sequence
PSTATMODEL	IQUANT	53	Pstat Model
PSTATSECTION	LABEL	IFC5000-01520	Pstat Section
PSTATSERIALNO	LABEL	01520	Pstat Serial Number
CTRLMODE	IQUANT	0	Control Mode
ELECTROMETER	IQUANT	1	RE=0 or CS=1
IESTAB	IQUANT	0	I/E Stability
CASPEED	IQUANT	4	Control Amp Speed
CONVENTION	IQUANT	1	Current Convention
ICHRANGE	IQUANT	2	Ich Range
ICHRANGEMODE	TOGGLE	T	Ich Auto Range
ICHOFFSETENABLE	TOGGLE	F	Ich Offset Enable
ICHOFFSET	QUANT	0	Ich Offset (V)
ICHFILTER	IQUANT	1	Ich Filter
VCHRANGE	IQUANT	2	Vch Range
VCHRANGEMODE	TOGGLE	T	Vch Auto Range
VCHOFFSETENABLE	TOGGLE	F	Vch Offset Enable
VCHOFFSET	QUANT	0	Vch Offset (V)
VCHFILTER	IQUANT	1	Vch Filter
IERANGELOWERLIMIT	IQUANT	9	I/E Range Lower Limit
IERANGEMODE	TOGGLE	F	I/E AutoRange
IERANGE	IQUANT	10	I/E Range
ACHSELECT	IQUANT	1	Ach Select
ACHRANGE	IQUANT	2	Ach Range
ACHOFFSETENABLE	TOGGLE	F	Ach Offset Enable
ACHOFFSET	QUANT	0	Ach Offset (V)
ACHFILTER	IQUANT	1	Ach Filter
CABLEID	IQUANT	14	Cable ID
DCCALDATE	LABEL	20-10-2016	DC Calibration Date
ACCALDATE	LABEL	12/3/2015	AC Calibration Date
FRAMEWORKVERSION	QUANT	7.01	Framework Version
INSTRUMENTVERSION	LABEL	4.00	Instrument Version
CURVE	TABLE	55
	Pt	T	Vf	Im	Vu	Pwr	Sig	Ach	Temp	IERange	Over
	#	s	V	A	V	W	V	V	deg C	#	bits
	0	0.013333	6.47705E-001	5.99882E-003	0.00000E+000	3.88547E-003	3.59960E-001	-1.16630E+000	3.57640E+000	10	...........
	1	0.026667	6.56866E-001	5.99443E-003	0.00000E+000	3.93754E-003	3.59960E-001	-1.16504E+000	3.57640E+000	10	...........
	2	0.04	6.65302E-001	5.99819E-003	0.00000E+000	3.99061E-003	3.59960E-001	-1.17599E+000	3.57640E+000	10	...........
	3	0.053333	6.73302E-001	5.99682E-003	0.00000E+000	4.03767E-003	3.59960E-001	-1.16583E+000	3.57640E+000	10	...........
	4	0.066667	6.80997E-001	5.99455E-003	0.00000E+000	4.08227E-003	3.59960E-001	-1.16448E+000	3.57640E+000	10	...........
	5	0.08	6.88523E-001	5.99501E-003	0.00000E+000	4.12770E-003	3.59960E-001	-1.17570E+000	3.57640E+000	10	...........
	6	0.093333	6.95924E-001	5.99571E-003	0.00000E+000	4.17256E-003	3.59960E-001	-1.16557E+000	3.57640E+000	10	...........
	7	0.106667	7.03146E-001	5.99536E-003	0.00000E+000	4.21561E-003	3.59960E-001	-1.16455E+000	3.57640E+000	10	...........
	8	0.12	7.10292E-001	5.99190E-003	0.00000E+000	4.25600E-003	3.59960E-001	-1.17579E+000	3.57640E+000	10	...........
	9	0.133333	7.17428E-001	5.99246E-003	0.00000E+000	4.29916E-003	3.59960E-001	-1.16542E+000	3.57640E+000	10	...........
	10	0.146667	7.24462E-001	5.99644E-003	0.00000E+000	4.34419E-003	3.59960E-001	-1.16432E+000	3.57640E+000	10	...........
	11	0.16	7.31396E-001	5.99634E-003	0.00000E+000	4.38570E-003	3.59960E-001	-1.17556E+000	3.57640E+000	10	...........
	12	0.173333	7.38305E-001	5.99237E-003	0.00000E+000	4.42420E-003	3.59960E-001	-1.16532E+000	3.57640E+000	10	...........
	13	0.186667	7.45235E-001	5.99269E-003	0.00000E+000	4.46596E-003	3.59960E-001	-1.16434E+000	3.57640E+000	10	...........
	14	0.2	7.52032E-001	5.99302E-003	0.00000E+000	4.50694E-003	3.59960E-001	-1.17540E+000	3.57640E+000	10	...........
	15	0.213333	7.58877E-001	5.99471E-003	0.00000E+000	4.54925E-003	3.59960E-001	-1.16493E+000	3.57640E+000	10	...........
	16	0.226667	7.65629E-001	5.99195E-003	0.00000E+000	4.58760E-003	3.59960E-001	-1.16416E+000	3.57640E+000	10	...........
	17	0.24	7.72397E-001	5.99665E-003	0.00000E+000	4.63180E-003	3.59960E-001	-1.17560E+000	3.57640E+000	10	...........
	18	0.253333	7.79126E-001	5.99333E-003	0.00000E+000	4.66956E-003	3.59960E-001	-1.16509E+000	3.57640E+000	10	...........
	19	0.266667	7.85856E-001	5.99903E-003	0.00000E+000	4.71437E-003	3.59960E-001	-1.16438E+000	3.57640E+000	10	...........
	20	0.28	7.92518E-001	5.99487E-003	0.00000E+000	4.75104E-003	3.59960E-001	-1.17525E+000	3.57640E+000	10	...........
	21	0.293333	7.99190E-001	5.99709E-003	0.00000E+000	4.79281E-003	3.59960E-001	-1.16494E+000	3.57640E+000	10	...........
	22	0.306667	8.05783E-001	5.99574E-003	0.00000E+000	4.83127E-003	3.59960E-001	-1.16456E+000	3.57648E+000	10	...........
	23	0.32	8.12423E-001	6.00063E-003	0.00000E+000	4.87506E-003	3.59960E-001	-1.17534E+000	3.57700E+000	10	...........
	24	0.333333	8.19037E-001	5.99520E-003	0.00000E+000	4.91029E-003	3.59960E-001	-1.16478E+000	3.57700E+000	10	...........
	25	0.346667	8.25613E-001	5.99260E-003	0.00000E+000	4.94757E-003	3.59960E-001	-1.16432E+000	3.57700E+000	10	...........
	26	0.36	8.32143E-001	5.99768E-003	0.00000E+000	4.99093E-003	3.59960E-001	-1.17521E+000	3.57700E+000	10	...........
	27	0.373333	8.38642E-001	5.99479E-003	0.00000E+000	5.02748E-003	3.59960E-001	-1.16443E+000	3.57700E+000	10	...........
	28	0.386667	8.45198E-001	5.99764E-003	0.00000E+000	5.06919E-003	3.59960E-001	-1.16406E+000	3.57700E+000	10	...........
	29	0.4	8.51659E-001	5.99278E-003	0.00000E+000	5.10381E-003	3.59960E-001	-1.17472E+000	3.57700E+000	10	...........
	30	0.413333	8.58138E-001	5.99575E-003	0.00000E+000	5.14518E-003	3.59960E-001	-1.16443E+000	3.57700E+000	10	...........
	31	0.426667	8.64534E-001	5.99541E-003	0.00000E+000	5.18323E-003	3.59960E-001	-1.16413E+000	3.57700E+000	10	...........
	32	0.44	8.70988E-001	5.99550E-003	0.00000E+000	5.22201E-003	3.59960E-001	-1.17493E+000	3.57700E+000	10	...........
	33	0.453333	8.77322E-001	5.98755E-003	0.00000E+000	5.25302E-003	3.59960E-001	-1.16426E+000	3.57700E+000	10	...........
	34	0.466667	8.83680E-001	5.99697E-003	0.00000E+000	5.29940E-003	3.59960E-001	-1.16395E+000	3.57700E+000	10	...........
	35	0.48	8.89983E-001	5.99571E-003	0.00000E+000	5.33608E-003	3.59960E-001	-1.17472E+000	3.57700E+000	10	...........
	36	0.493333	8.96254E-001	5.99256E-003	0.00000E+000	5.37086E-003	3.59960E-001	-1.16422E+000	3.57700E+000	10	...........
	37	0.506667	9.02509E-001	5.99014E-003	0.00000E+000	5.40616E-003	3.59960E-001	-1.16417E+000	3.57700E+000	10	...........
	38	0.52	9.08773E-001	5.99393E-003	0.00000E+000	5.44712E-003	3.59960E-001	-1.17468E+000	3.57700E+000	10	...........
	39	0.533333	9.14949E-001	5.99035E-003	0.00000E+000	5.48086E-003	3.59960E-001	-1.16401E+000	3.57700E+000	10	...........
	40	0.546667	9.21164E-001	5.99425E-003	0.00000E+000	5.52169E-003	3.59960E-001	-1.16405E+000	3.57700E+000	10	...........
	41	0.56	9.27270E-001	5.99600E-003	0.00000E+000	5.55991E-003	3.59960E-001	-1.17477E+000	3.57700E+000	10	...........
	42	0.573333	9.33317E-001	5.99140E-003	0.00000E+000	5.59188E-003	3.59960E-001	-1.16418E+000	3.57700E+000	10	...........
	43	0.586667	9.39327E-001	5.99022E-003	0.00000E+000	5.62678E-003	3.59960E-001	-1.16434E+000	3.57700E+000	10	...........
	44	0.6	9.45267E-001	5.98924E-003	0.00000E+000	5.66144E-003	3.59960E-001	-1.17480E+000	3.57700E+000	10	...........
	45	0.613333	9.51257E-001	5.99822E-003	0.00000E+000	5.70585E-003	3.59960E-001	-1.16423E+000	3.57700E+000	10	...........
	46	0.626667	9.57126E-001	5.98983E-003	0.00000E+000	5.73302E-003	3.59960E-001	-1.16430E+000	3.57700E+000	10	...........
	47	0.64	9.62933E-001	5.99351E-003	0.00000E+000	5.77135E-003	3.59960E-001	-1.17475E+000	3.57700E+000	10	...........
	48	0.653333	9.68705E-001	5.99505E-003	0.00000E+000	5.80744E-003	3.59960E-001	-1.16402E+000	3.57700E+000	10	...........
	49	0.666667	9.74508E-001	5.98553E-003	0.00000E+000	5.83295E-003	3.59960E-001	-1.16420E+000	3.57700E+000	10	...........
	50	0.68	9.80200E-001	5.99271E-003	0.00000E+000	5.87405E-003	3.59960E-001	-1.17457E+000	3.57700E+000	10	...........
	51	0.693333	9.85805E-001	5.98966E-003	0.00000E+000	5.90464E-003	3.59960E-001	-1.16372E+000	3.57700E+000	10	...........
	52	0.706667	9.91403E-001	5.99233E-003	0.00000E+000	5.94082E-003	3.59960E-001	-1.16409E+000	3.57700E+000	10	...........
	53	0.72	9.96983E-001	5.99684E-003	0.00000E+000	5.97874E-003	3.59960E-001	-1.17443E+000	3.57700E+000	10	...........
	54	0.721667	1.00011E+000	5.98344E-003	0.00000E+000	5.98413E-003	3.59960E-001	-1.15890E+000	3.57700E+000	10	...........
STARTTIMEOFFSET	QUANT	1278.272	Start Time Offset (s)