File: Data/CV_CRGO300517_1/PWRCCD_CRGO300517_1/CHARGE_DISCHARGE/CHARGE_#291.DTA
EXPLAIN
TAG	PWR800_CHARGE
TITLE	LABEL	PWR Cyclic Charge Discharge (Cell) - Charge Step	Test &Identifier
DATE	LABEL	22-6-2017	Date
TIME	LABEL	15:47:34	Time
NOTES	NOTES	3	&Notes...
	supercap test cell
	0.6mg
	6M KOH
PSTAT	PSTAT	IFC5000-01520	Potentiostat
CAPACITY	QUANT	1.00000E-003	Capacity (A-hr)
CELLTYPE	SELECTOR	1	&Cell Type
WORKINGCONNECTION	SELECTOR	0	&Working Lead
MAXCHARGETIME	VARIABLEANDUNITS	1.00000E+002	s	1.00000E+002	second(s)	Max &Charge Time
CHARGECURRENT	QUANT	6.00000E-003	&Charge Current (A)
VOLTAGEFINISH	TWOPARAM	F	1.00000E-003	3.60000E+003	&Voltage Finish	 I (A) < 	Max Time(s)
SAMPLETIME	QUANT	1.00000E-002	Sa&mple Period (s)
CHARGESTOPAT1	MULTIPARAM	4	1.00000E+000	Charge Stop At &1	Voltage > Limit	V
CHARGESTOPAT2	MULTIPARAM	0	0.00000E+000	Charge Stop At &2	None	N/A
AESBHCSELECTOR	TOGGLE	F	Save Both Half Cells
IRCOMP	TOGGLE	F	IR &Measure
EOC	QUANT	0	Open Circuit (V)
SEQUENCER	TOGGLE	TRUE	Run as Sequence
PSTATMODEL	IQUANT	53	Pstat Model
PSTATSECTION	LABEL	IFC5000-01520	Pstat Section
PSTATSERIALNO	LABEL	01520	Pstat Serial Number
CTRLMODE	IQUANT	0	Control Mode
ELECTROMETER	IQUANT	1	RE=0 or CS=1
IESTAB	IQUANT	0	I/E Stability
CASPEED	IQUANT	4	Control Amp Speed
CONVENTION	IQUANT	1	Current Convention
ICHRANGE	IQUANT	2	Ich Range
ICHRANGEMODE	TOGGLE	T	Ich Auto Range
ICHOFFSETENABLE	TOGGLE	F	Ich Offset Enable
ICHOFFSET	QUANT	0	Ich Offset (V)
ICHFILTER	IQUANT	1	Ich Filter
VCHRANGE	IQUANT	2	Vch Range
VCHRANGEMODE	TOGGLE	T	Vch Auto Range
VCHOFFSETENABLE	TOGGLE	F	Vch Offset Enable
VCHOFFSET	QUANT	0	Vch Offset (V)
VCHFILTER	IQUANT	1	Vch Filter
IERANGELOWERLIMIT	IQUANT	9	I/E Range Lower Limit
IERANGEMODE	TOGGLE	F	I/E AutoRange
IERANGE	IQUANT	10	I/E Range
ACHSELECT	IQUANT	1	Ach Select
ACHRANGE	IQUANT	2	Ach Range
ACHOFFSETENABLE	TOGGLE	F	Ach Offset Enable
ACHOFFSET	QUANT	0	Ach Offset (V)
ACHFILTER	IQUANT	1	Ach Filter
CABLEID	IQUANT	14	Cable ID
DCCALDATE	LABEL	20-10-2016	DC Calibration Date
ACCALDATE	LABEL	12/3/2015	AC Calibration Date
FRAMEWORKVERSION	QUANT	7.01	Framework Version
INSTRUMENTVERSION	LABEL	4.00	Instrument Version
CURVE	TABLE	63
	Pt	T	Vf	Im	Vu	Pwr	Sig	Ach	Temp	IERange	Over
	#	s	V	A	V	W	V	V	deg C	#	bits
	0	0.013333	6.15628E-001	5.99417E-003	0.00000E+000	3.69018E-003	3.59960E-001	-1.11508E+000	3.57720E+000	10	...........
	1	0.026667	6.24243E-001	5.98967E-003	0.00000E+000	3.73901E-003	3.59960E-001	-1.10925E+000	3.57720E+000	10	...........
	2	0.04	6.32173E-001	5.99324E-003	0.00000E+000	3.78876E-003	3.59960E-001	-1.10542E+000	3.57720E+000	10	...........
	3	0.053333	6.39661E-001	5.98801E-003	0.00000E+000	3.83030E-003	3.59960E-001	-1.11530E+000	3.57720E+000	10	...........
	4	0.066667	6.46887E-001	5.99292E-003	0.00000E+000	3.87674E-003	3.59960E-001	-1.10948E+000	3.57720E+000	10	...........
	5	0.08	6.53922E-001	5.99795E-003	0.00000E+000	3.92220E-003	3.59960E-001	-1.10537E+000	3.57720E+000	10	...........
	6	0.093333	6.60795E-001	5.99641E-003	0.00000E+000	3.96240E-003	3.59960E-001	-1.11474E+000	3.57720E+000	10	...........
	7	0.106667	6.67635E-001	5.99601E-003	0.00000E+000	4.00315E-003	3.59960E-001	-1.10942E+000	3.57720E+000	10	...........
	8	0.12	6.74342E-001	5.99623E-003	0.00000E+000	4.04351E-003	3.59960E-001	-1.10495E+000	3.57720E+000	10	...........
	9	0.133333	6.80957E-001	5.99627E-003	0.00000E+000	4.08321E-003	3.59960E-001	-1.11415E+000	3.57716E+000	10	...........
	10	0.146667	6.87511E-001	5.99171E-003	0.00000E+000	4.11936E-003	3.59960E-001	-1.10891E+000	3.57690E+000	10	...........
	11	0.16	6.93993E-001	5.99427E-003	0.00000E+000	4.15998E-003	3.59960E-001	-1.10466E+000	3.57690E+000	10	...........
	12	0.173333	7.00475E-001	5.99275E-003	0.00000E+000	4.19777E-003	3.59960E-001	-1.11403E+000	3.57690E+000	10	...........
	13	0.186667	7.06947E-001	5.99622E-003	0.00000E+000	4.23901E-003	3.59960E-001	-1.10914E+000	3.57690E+000	10	...........
	14	0.2	7.13399E-001	5.99297E-003	0.00000E+000	4.27538E-003	3.59960E-001	-1.10447E+000	3.57690E+000	10	...........
	15	0.213333	7.19820E-001	5.99333E-003	0.00000E+000	4.31412E-003	3.59960E-001	-1.11380E+000	3.57690E+000	10	...........
	16	0.226667	7.26187E-001	5.99186E-003	0.00000E+000	4.35121E-003	3.59960E-001	-1.10915E+000	3.57690E+000	10	...........
	17	0.24	7.32515E-001	5.99531E-003	0.00000E+000	4.39166E-003	3.59960E-001	-1.10434E+000	3.57690E+000	10	...........
	18	0.253333	7.38854E-001	5.99594E-003	0.00000E+000	4.43012E-003	3.59960E-001	-1.11343E+000	3.57690E+000	10	...........
	19	0.266667	7.45209E-001	5.99395E-003	0.00000E+000	4.46674E-003	3.59960E-001	-1.10927E+000	3.57690E+000	10	...........
	20	0.28	7.51461E-001	5.99316E-003	0.00000E+000	4.50362E-003	3.59960E-001	-1.10433E+000	3.57690E+000	10	...........
	21	0.293333	7.57796E-001	5.99489E-003	0.00000E+000	4.54290E-003	3.59960E-001	-1.11324E+000	3.57690E+000	10	...........
	22	0.306667	7.64064E-001	5.99632E-003	0.00000E+000	4.58157E-003	3.59960E-001	-1.10927E+000	3.57690E+000	10	...........
	23	0.32	7.70322E-001	5.99134E-003	0.00000E+000	4.61526E-003	3.59960E-001	-1.10455E+000	3.57690E+000	10	...........
	24	0.333333	7.76603E-001	5.99721E-003	0.00000E+000	4.65745E-003	3.59960E-001	-1.11335E+000	3.57690E+000	10	...........
	25	0.346667	7.82829E-001	5.99312E-003	0.00000E+000	4.69159E-003	3.59960E-001	-1.10954E+000	3.57690E+000	10	...........
	26	0.36	7.89046E-001	5.99764E-003	0.00000E+000	4.73241E-003	3.59960E-001	-1.10466E+000	3.57690E+000	10	...........
	27	0.373333	7.95308E-001	5.99812E-003	0.00000E+000	4.77035E-003	3.59960E-001	-1.11306E+000	3.57690E+000	10	...........
	28	0.386667	8.01496E-001	5.98942E-003	0.00000E+000	4.80049E-003	3.59960E-001	-1.10973E+000	3.57690E+000	10	...........
	29	0.4	8.07689E-001	5.99480E-003	0.00000E+000	4.84194E-003	3.59960E-001	-1.10482E+000	3.57690E+000	10	...........
	30	0.413333	8.13870E-001	5.99240E-003	0.00000E+000	4.87704E-003	3.59960E-001	-1.11302E+000	3.57690E+000	10	...........
	31	0.426667	8.20076E-001	5.99001E-003	0.00000E+000	4.91226E-003	3.59960E-001	-1.10968E+000	3.57690E+000	10	...........
	32	0.44	8.26255E-001	5.99771E-003	0.00000E+000	4.95564E-003	3.59960E-001	-1.10426E+000	3.57690E+000	10	...........
	33	0.453333	8.32373E-001	5.99292E-003	0.00000E+000	4.98834E-003	3.59960E-001	-1.11242E+000	3.57690E+000	10	...........
	34	0.466667	8.38537E-001	5.99530E-003	0.00000E+000	5.02728E-003	3.59960E-001	-1.10968E+000	3.57690E+000	10	...........
	35	0.48	8.44687E-001	5.99432E-003	0.00000E+000	5.06332E-003	3.59960E-001	-1.10425E+000	3.57690E+000	10	...........
	36	0.493333	8.50850E-001	5.99357E-003	0.00000E+000	5.09963E-003	3.59960E-001	-1.11212E+000	3.57690E+000	10	...........
	37	0.506667	8.56996E-001	5.99779E-003	0.00000E+000	5.14008E-003	3.59960E-001	-1.10945E+000	3.57690E+000	10	...........
	38	0.52	8.63101E-001	5.99648E-003	0.00000E+000	5.17557E-003	3.59960E-001	-1.10429E+000	3.57690E+000	10	...........
	39	0.533333	8.69181E-001	5.99248E-003	0.00000E+000	5.20854E-003	3.59960E-001	-1.11230E+000	3.57690E+000	10	...........
	40	0.546667	8.75243E-001	5.99296E-003	0.00000E+000	5.24529E-003	3.59960E-001	-1.10999E+000	3.57690E+000	10	...........
	41	0.56	8.81284E-001	5.99178E-003	0.00000E+000	5.28046E-003	3.59960E-001	-1.10397E+000	3.57690E+000	10	...........
	42	0.573333	8.87346E-001	5.99199E-003	0.00000E+000	5.31697E-003	3.59960E-001	-1.11213E+000	3.57690E+000	10	...........
	43	0.586667	8.93342E-001	5.99734E-003	0.00000E+000	5.35767E-003	3.59960E-001	-1.11000E+000	3.57690E+000	10	...........
	44	0.6	8.99343E-001	5.99279E-003	0.00000E+000	5.38957E-003	3.59960E-001	-1.10434E+000	3.57690E+000	10	...........
	45	0.613333	9.05314E-001	5.99422E-003	0.00000E+000	5.42665E-003	3.59960E-001	-1.11200E+000	3.57690E+000	10	...........
	46	0.626667	9.11264E-001	5.99161E-003	0.00000E+000	5.45994E-003	3.59960E-001	-1.11016E+000	3.57690E+000	10	...........
	47	0.64	9.17181E-001	5.99142E-003	0.00000E+000	5.49522E-003	3.59960E-001	-1.10423E+000	3.57690E+000	10	...........
	48	0.653333	9.23134E-001	5.99477E-003	0.00000E+000	5.53398E-003	3.59960E-001	-1.11211E+000	3.57690E+000	10	...........
	49	0.666667	9.28996E-001	5.99421E-003	0.00000E+000	5.56860E-003	3.59960E-001	-1.11035E+000	3.57690E+000	10	...........
	50	0.68	9.34779E-001	5.99169E-003	0.00000E+000	5.60091E-003	3.59960E-001	-1.10420E+000	3.57690E+000	10	...........
	51	0.693333	9.40573E-001	5.99023E-003	0.00000E+000	5.63425E-003	3.59960E-001	-1.11153E+000	3.57690E+000	10	...........
	52	0.706667	9.46354E-001	5.99271E-003	0.00000E+000	5.67122E-003	3.59960E-001	-1.11049E+000	3.57690E+000	10	...........
	53	0.72	9.52076E-001	5.99252E-003	0.00000E+000	5.70533E-003	3.59960E-001	-1.10447E+000	3.57690E+000	10	...........
	54	0.733333	9.57781E-001	5.99539E-003	0.00000E+000	5.74227E-003	3.59960E-001	-1.11167E+000	3.57690E+000	10	...........
	55	0.746667	9.63414E-001	5.99451E-003	0.00000E+000	5.77520E-003	3.59960E-001	-1.11058E+000	3.57690E+000	10	...........
	56	0.76	9.69015E-001	5.99490E-003	0.00000E+000	5.80915E-003	3.59960E-001	-1.10397E+000	3.57690E+000	10	...........
	57	0.773333	9.74678E-001	5.99154E-003	0.00000E+000	5.83982E-003	3.59960E-001	-1.11111E+000	3.57690E+000	10	...........
	58	0.786667	9.80250E-001	5.99943E-003	0.00000E+000	5.88095E-003	3.59960E-001	-1.11046E+000	3.57690E+000	10	...........
	59	0.8	9.85751E-001	5.99306E-003	0.00000E+000	5.90767E-003	3.59960E-001	-1.10405E+000	3.57690E+000	10	...........
	60	0.813333	9.91178E-001	5.99048E-003	0.00000E+000	5.93764E-003	3.59960E-001	-1.11093E+000	3.57690E+000	10	...........
	61	0.826667	9.96611E-001	5.99312E-003	0.00000E+000	5.97282E-003	3.59960E-001	-1.11067E+000	3.57690E+000	10	...........
	62	0.83	9.99979E-001	6.00043E-003	0.00000E+000	6.00030E-003	3.59960E-001	-1.11319E+000	3.57690E+000	10	...........
STARTTIMEOFFSET	QUANT	526.2916	Start Time Offset (s)