File: Data/CV_CRGO300517_1/PWRCCD_CRGO300517_1/CHARGE_DISCHARGE/CHARGE_#859.DTA
EXPLAIN
TAG	PWR800_CHARGE
TITLE	LABEL	PWR Cyclic Charge Discharge (Cell) - Charge Step	Test &Identifier
DATE	LABEL	22-6-2017	Date
TIME	LABEL	16:09:28	Time
NOTES	NOTES	3	&Notes...
	supercap test cell
	0.6mg
	6M KOH
PSTAT	PSTAT	IFC5000-01520	Potentiostat
CAPACITY	QUANT	1.00000E-003	Capacity (A-hr)
CELLTYPE	SELECTOR	1	&Cell Type
WORKINGCONNECTION	SELECTOR	0	&Working Lead
MAXCHARGETIME	VARIABLEANDUNITS	1.00000E+002	s	1.00000E+002	second(s)	Max &Charge Time
CHARGECURRENT	QUANT	6.00000E-003	&Charge Current (A)
VOLTAGEFINISH	TWOPARAM	F	1.00000E-003	3.60000E+003	&Voltage Finish	 I (A) < 	Max Time(s)
SAMPLETIME	QUANT	1.00000E-002	Sa&mple Period (s)
CHARGESTOPAT1	MULTIPARAM	4	1.00000E+000	Charge Stop At &1	Voltage > Limit	V
CHARGESTOPAT2	MULTIPARAM	0	0.00000E+000	Charge Stop At &2	None	N/A
AESBHCSELECTOR	TOGGLE	F	Save Both Half Cells
IRCOMP	TOGGLE	F	IR &Measure
EOC	QUANT	0	Open Circuit (V)
SEQUENCER	TOGGLE	TRUE	Run as Sequence
PSTATMODEL	IQUANT	53	Pstat Model
PSTATSECTION	LABEL	IFC5000-01520	Pstat Section
PSTATSERIALNO	LABEL	01520	Pstat Serial Number
CTRLMODE	IQUANT	0	Control Mode
ELECTROMETER	IQUANT	1	RE=0 or CS=1
IESTAB	IQUANT	0	I/E Stability
CASPEED	IQUANT	4	Control Amp Speed
CONVENTION	IQUANT	1	Current Convention
ICHRANGE	IQUANT	2	Ich Range
ICHRANGEMODE	TOGGLE	T	Ich Auto Range
ICHOFFSETENABLE	TOGGLE	F	Ich Offset Enable
ICHOFFSET	QUANT	0	Ich Offset (V)
ICHFILTER	IQUANT	1	Ich Filter
VCHRANGE	IQUANT	2	Vch Range
VCHRANGEMODE	TOGGLE	T	Vch Auto Range
VCHOFFSETENABLE	TOGGLE	F	Vch Offset Enable
VCHOFFSET	QUANT	0	Vch Offset (V)
VCHFILTER	IQUANT	1	Vch Filter
IERANGELOWERLIMIT	IQUANT	9	I/E Range Lower Limit
IERANGEMODE	TOGGLE	F	I/E AutoRange
IERANGE	IQUANT	10	I/E Range
ACHSELECT	IQUANT	1	Ach Select
ACHRANGE	IQUANT	2	Ach Range
ACHOFFSETENABLE	TOGGLE	F	Ach Offset Enable
ACHOFFSET	QUANT	0	Ach Offset (V)
ACHFILTER	IQUANT	1	Ach Filter
CABLEID	IQUANT	14	Cable ID
DCCALDATE	LABEL	20-10-2016	DC Calibration Date
ACCALDATE	LABEL	12/3/2015	AC Calibration Date
FRAMEWORKVERSION	QUANT	7.01	Framework Version
INSTRUMENTVERSION	LABEL	4.00	Instrument Version
CURVE	TABLE	54
	Pt	T	Vf	Im	Vu	Pwr	Sig	Ach	Temp	IERange	Over
	#	s	V	A	V	W	V	V	deg C	#	bits
	0	0.013333	6.51355E-001	5.99391E-003	0.00000E+000	3.90416E-003	3.59960E-001	-1.15895E+000	3.57670E+000	10	...........
	1	0.026667	6.60590E-001	5.99596E-003	0.00000E+000	3.96087E-003	3.59960E-001	-1.16863E+000	3.57670E+000	10	...........
	2	0.04	6.69087E-001	5.99368E-003	0.00000E+000	4.01029E-003	3.59960E-001	-1.16400E+000	3.57670E+000	10	...........
	3	0.053333	6.77131E-001	5.99392E-003	0.00000E+000	4.05867E-003	3.59960E-001	-1.15897E+000	3.57670E+000	10	...........
	4	0.066667	6.84871E-001	5.99469E-003	0.00000E+000	4.10559E-003	3.59960E-001	-1.16855E+000	3.57670E+000	10	...........
	5	0.08	6.92424E-001	5.99214E-003	0.00000E+000	4.14910E-003	3.59960E-001	-1.16385E+000	3.57670E+000	10	...........
	6	0.093333	6.99821E-001	5.99518E-003	0.00000E+000	4.19555E-003	3.59960E-001	-1.15916E+000	3.57670E+000	10	...........
	7	0.106667	7.07118E-001	5.99251E-003	0.00000E+000	4.23741E-003	3.59960E-001	-1.16916E+000	3.57670E+000	10	...........
	8	0.12	7.14352E-001	5.99382E-003	0.00000E+000	4.28170E-003	3.59960E-001	-1.16384E+000	3.57670E+000	10	...........
	9	0.133333	7.21522E-001	5.99318E-003	0.00000E+000	4.32421E-003	3.59960E-001	-1.15894E+000	3.57670E+000	10	...........
	10	0.146667	7.28556E-001	5.99691E-003	0.00000E+000	4.36909E-003	3.59960E-001	-1.16884E+000	3.57670E+000	10	...........
	11	0.16	7.35546E-001	5.99196E-003	0.00000E+000	4.40736E-003	3.59960E-001	-1.16379E+000	3.57670E+000	10	...........
	12	0.173333	7.42531E-001	5.99015E-003	0.00000E+000	4.44787E-003	3.59960E-001	-1.15905E+000	3.57670E+000	10	...........
	13	0.186667	7.49491E-001	5.99736E-003	0.00000E+000	4.49497E-003	3.59960E-001	-1.16850E+000	3.57670E+000	10	...........
	14	0.2	7.56345E-001	5.99432E-003	0.00000E+000	4.53378E-003	3.59960E-001	-1.16341E+000	3.57670E+000	10	...........
	15	0.213333	7.63201E-001	5.99118E-003	0.00000E+000	4.57248E-003	3.59960E-001	-1.15884E+000	3.57670E+000	10	...........
	16	0.226667	7.70016E-001	5.99353E-003	0.00000E+000	4.61512E-003	3.59960E-001	-1.16881E+000	3.57670E+000	10	...........
	17	0.24	7.76779E-001	5.99789E-003	0.00000E+000	4.65904E-003	3.59960E-001	-1.16373E+000	3.57670E+000	10	...........
	18	0.253333	7.83539E-001	5.99497E-003	0.00000E+000	4.69729E-003	3.59960E-001	-1.15907E+000	3.57670E+000	10	...........
	19	0.266667	7.90308E-001	5.99495E-003	0.00000E+000	4.73785E-003	3.59960E-001	-1.16880E+000	3.57670E+000	10	...........
	20	0.28	7.97059E-001	5.99111E-003	0.00000E+000	4.77527E-003	3.59960E-001	-1.16330E+000	3.57670E+000	10	...........
	21	0.293333	8.03724E-001	5.99294E-003	0.00000E+000	4.81667E-003	3.59960E-001	-1.15902E+000	3.57670E+000	10	...........
	22	0.306667	8.10364E-001	5.99394E-003	0.00000E+000	4.85727E-003	3.59960E-001	-1.16920E+000	3.57670E+000	10	...........
	23	0.32	8.17013E-001	5.99542E-003	0.00000E+000	4.89833E-003	3.59960E-001	-1.16340E+000	3.57670E+000	10	...........
	24	0.333333	8.23653E-001	5.99667E-003	0.00000E+000	4.93917E-003	3.59960E-001	-1.15880E+000	3.57670E+000	10	...........
	25	0.346667	8.30226E-001	5.99325E-003	0.00000E+000	4.97575E-003	3.59960E-001	-1.16895E+000	3.57670E+000	10	...........
	26	0.36	8.36766E-001	5.99571E-003	0.00000E+000	5.01701E-003	3.59960E-001	-1.16337E+000	3.57670E+000	10	...........
	27	0.373333	8.43377E-001	5.99232E-003	0.00000E+000	5.05379E-003	3.59960E-001	-1.15915E+000	3.57670E+000	10	...........
	28	0.386667	8.49956E-001	5.99493E-003	0.00000E+000	5.09543E-003	3.59960E-001	-1.16911E+000	3.57670E+000	10	...........
	29	0.4	8.56426E-001	5.99321E-003	0.00000E+000	5.13274E-003	3.59960E-001	-1.16330E+000	3.57670E+000	10	...........
	30	0.413333	8.62897E-001	5.99688E-003	0.00000E+000	5.17469E-003	3.59960E-001	-1.15912E+000	3.57670E+000	10	...........
	31	0.426667	8.69368E-001	5.99213E-003	0.00000E+000	5.20937E-003	3.59960E-001	-1.16943E+000	3.57670E+000	10	...........
	32	0.44	8.75809E-001	5.99684E-003	0.00000E+000	5.25209E-003	3.59960E-001	-1.16331E+000	3.57670E+000	10	...........
	33	0.453333	8.82169E-001	5.99273E-003	0.00000E+000	5.28660E-003	3.59960E-001	-1.15926E+000	3.57670E+000	10	...........
	34	0.466667	8.88556E-001	5.99294E-003	0.00000E+000	5.32506E-003	3.59960E-001	-1.16946E+000	3.57670E+000	10	...........
	35	0.48	8.94836E-001	5.99236E-003	0.00000E+000	5.36218E-003	3.59960E-001	-1.16356E+000	3.57670E+000	10	...........
	36	0.493333	9.01165E-001	5.99377E-003	0.00000E+000	5.40138E-003	3.59960E-001	-1.15903E+000	3.57670E+000	10	...........
	37	0.506667	9.07376E-001	5.99111E-003	0.00000E+000	5.43619E-003	3.59960E-001	-1.16932E+000	3.57670E+000	10	...........
	38	0.52	9.13635E-001	5.98860E-003	0.00000E+000	5.47139E-003	3.59960E-001	-1.16295E+000	3.57670E+000	10	...........
	39	0.533333	9.19816E-001	5.99595E-003	0.00000E+000	5.51517E-003	3.59960E-001	-1.15896E+000	3.57670E+000	10	...........
	40	0.546667	9.25925E-001	5.99245E-003	0.00000E+000	5.54856E-003	3.59960E-001	-1.16957E+000	3.57670E+000	10	...........
	41	0.56	9.32029E-001	5.99609E-003	0.00000E+000	5.58852E-003	3.59960E-001	-1.16335E+000	3.57670E+000	10	...........
	42	0.573333	9.38071E-001	5.99638E-003	0.00000E+000	5.62503E-003	3.59960E-001	-1.15902E+000	3.57670E+000	10	...........
	43	0.586667	9.44042E-001	5.99427E-003	0.00000E+000	5.65884E-003	3.59960E-001	-1.16954E+000	3.57670E+000	10	...........
	44	0.6	9.50052E-001	5.99579E-003	0.00000E+000	5.69631E-003	3.59960E-001	-1.16324E+000	3.57670E+000	10	...........
	45	0.613333	9.55929E-001	5.99222E-003	0.00000E+000	5.72813E-003	3.59960E-001	-1.15925E+000	3.57670E+000	10	...........
	46	0.626667	9.61759E-001	5.99084E-003	0.00000E+000	5.76174E-003	3.59960E-001	-1.16981E+000	3.57670E+000	10	...........
	47	0.64	9.67566E-001	5.98853E-003	0.00000E+000	5.79430E-003	3.59960E-001	-1.16321E+000	3.57670E+000	10	...........
	48	0.653333	9.73372E-001	5.99391E-003	0.00000E+000	5.83430E-003	3.59960E-001	-1.15935E+000	3.57670E+000	10	...........
	49	0.666667	9.79105E-001	5.99587E-003	0.00000E+000	5.87058E-003	3.59960E-001	-1.16997E+000	3.57670E+000	10	...........
	50	0.68	9.84735E-001	5.99351E-003	0.00000E+000	5.90202E-003	3.59960E-001	-1.16287E+000	3.57670E+000	10	...........
	51	0.693333	9.90357E-001	5.99302E-003	0.00000E+000	5.93523E-003	3.59960E-001	-1.15935E+000	3.57670E+000	10	...........
	52	0.706667	9.95860E-001	5.99044E-003	0.00000E+000	5.96564E-003	3.59960E-001	-1.17001E+000	3.57670E+000	10	...........
	53	0.711667	9.99664E-001	5.99527E-003	0.00000E+000	5.99325E-003	3.59960E-001	-1.14915E+000	3.57670E+000	10	...........
STARTTIMEOFFSET	QUANT	1388.209	Start Time Offset (s)