File: Data/CV_CRGO300517_1/PWRCCD_CRGO300517_1/CHARGE_DISCHARGE/CHARGE_#54.DTA
EXPLAIN
TAG	PWR800_CHARGE
TITLE	LABEL	PWR Cyclic Charge Discharge (Cell) - Charge Step	Test &Identifier
DATE	LABEL	22-6-2017	Date
TIME	LABEL	15:37:27	Time
NOTES	NOTES	3	&Notes...
	supercap test cell
	0.6mg
	6M KOH
PSTAT	PSTAT	IFC5000-01520	Potentiostat
CAPACITY	QUANT	1.00000E-003	Capacity (A-hr)
CELLTYPE	SELECTOR	1	&Cell Type
WORKINGCONNECTION	SELECTOR	0	&Working Lead
MAXCHARGETIME	VARIABLEANDUNITS	1.00000E+002	s	1.00000E+002	second(s)	Max &Charge Time
CHARGECURRENT	QUANT	6.00000E-003	&Charge Current (A)
VOLTAGEFINISH	TWOPARAM	F	1.00000E-003	3.60000E+003	&Voltage Finish	 I (A) < 	Max Time(s)
SAMPLETIME	QUANT	1.00000E-002	Sa&mple Period (s)
CHARGESTOPAT1	MULTIPARAM	4	1.00000E+000	Charge Stop At &1	Voltage > Limit	V
CHARGESTOPAT2	MULTIPARAM	0	0.00000E+000	Charge Stop At &2	None	N/A
AESBHCSELECTOR	TOGGLE	F	Save Both Half Cells
IRCOMP	TOGGLE	F	IR &Measure
EOC	QUANT	0	Open Circuit (V)
SEQUENCER	TOGGLE	TRUE	Run as Sequence
PSTATMODEL	IQUANT	53	Pstat Model
PSTATSECTION	LABEL	IFC5000-01520	Pstat Section
PSTATSERIALNO	LABEL	01520	Pstat Serial Number
CTRLMODE	IQUANT	0	Control Mode
ELECTROMETER	IQUANT	1	RE=0 or CS=1
IESTAB	IQUANT	0	I/E Stability
CASPEED	IQUANT	4	Control Amp Speed
CONVENTION	IQUANT	1	Current Convention
ICHRANGE	IQUANT	2	Ich Range
ICHRANGEMODE	TOGGLE	T	Ich Auto Range
ICHOFFSETENABLE	TOGGLE	F	Ich Offset Enable
ICHOFFSET	QUANT	0	Ich Offset (V)
ICHFILTER	IQUANT	1	Ich Filter
VCHRANGE	IQUANT	2	Vch Range
VCHRANGEMODE	TOGGLE	T	Vch Auto Range
VCHOFFSETENABLE	TOGGLE	F	Vch Offset Enable
VCHOFFSET	QUANT	0	Vch Offset (V)
VCHFILTER	IQUANT	1	Vch Filter
IERANGELOWERLIMIT	IQUANT	9	I/E Range Lower Limit
IERANGEMODE	TOGGLE	F	I/E AutoRange
IERANGE	IQUANT	10	I/E Range
ACHSELECT	IQUANT	1	Ach Select
ACHRANGE	IQUANT	2	Ach Range
ACHOFFSETENABLE	TOGGLE	F	Ach Offset Enable
ACHOFFSET	QUANT	0	Ach Offset (V)
ACHFILTER	IQUANT	1	Ach Filter
CABLEID	IQUANT	14	Cable ID
DCCALDATE	LABEL	20-10-2016	DC Calibration Date
ACCALDATE	LABEL	12/3/2015	AC Calibration Date
FRAMEWORKVERSION	QUANT	7.01	Framework Version
INSTRUMENTVERSION	LABEL	4.00	Instrument Version
CURVE	TABLE	74
	Pt	T	Vf	Im	Vu	Pwr	Sig	Ach	Temp	IERange	Over
	#	s	V	A	V	W	V	V	deg C	#	bits
	0	0.013333	5.75995E-001	5.99308E-003	0.00000E+000	3.45198E-003	3.59960E-001	-1.05175E+000	3.57750E+000	10	...........
	1	0.026667	5.84088E-001	5.99435E-003	0.00000E+000	3.50123E-003	3.59960E-001	-1.04159E+000	3.57750E+000	10	...........
	2	0.04	5.91538E-001	5.99362E-003	0.00000E+000	3.54546E-003	3.59960E-001	-1.03922E+000	3.57750E+000	10	...........
	3	0.053333	5.98563E-001	5.99282E-003	0.00000E+000	3.58708E-003	3.59960E-001	-1.05174E+000	3.57750E+000	10	...........
	4	0.066667	6.05339E-001	5.99198E-003	0.00000E+000	3.62718E-003	3.59960E-001	-1.04174E+000	3.57750E+000	10	...........
	5	0.08	6.11931E-001	5.99128E-003	0.00000E+000	3.66625E-003	3.59960E-001	-1.03938E+000	3.57750E+000	10	...........
	6	0.093333	6.18418E-001	5.99448E-003	0.00000E+000	3.70709E-003	3.59960E-001	-1.05168E+000	3.57750E+000	10	...........
	7	0.106667	6.24736E-001	5.99447E-003	0.00000E+000	3.74496E-003	3.59960E-001	-1.04161E+000	3.57750E+000	10	...........
	8	0.12	6.30986E-001	5.99133E-003	0.00000E+000	3.78045E-003	3.59960E-001	-1.03917E+000	3.57750E+000	10	...........
	9	0.133333	6.37141E-001	5.99236E-003	0.00000E+000	3.81798E-003	3.59960E-001	-1.05151E+000	3.57750E+000	10	...........
	10	0.146667	6.43280E-001	5.99265E-003	0.00000E+000	3.85495E-003	3.59960E-001	-1.04177E+000	3.57750E+000	10	...........
	11	0.16	6.49287E-001	5.99506E-003	0.00000E+000	3.89252E-003	3.59960E-001	-1.03866E+000	3.57750E+000	10	...........
	12	0.173333	6.55302E-001	5.99047E-003	0.00000E+000	3.92557E-003	3.59960E-001	-1.05080E+000	3.57750E+000	10	...........
	13	0.186667	6.61285E-001	5.99307E-003	0.00000E+000	3.96313E-003	3.59960E-001	-1.04130E+000	3.57750E+000	10	...........
	14	0.2	6.67246E-001	5.99131E-003	0.00000E+000	3.99768E-003	3.59960E-001	-1.03855E+000	3.57750E+000	10	...........
	15	0.213333	6.73163E-001	5.99314E-003	0.00000E+000	4.03436E-003	3.59960E-001	-1.05092E+000	3.57750E+000	10	...........
	16	0.226667	6.79034E-001	5.98997E-003	0.00000E+000	4.06740E-003	3.59960E-001	-1.04107E+000	3.57750E+000	10	...........
	17	0.24	6.84905E-001	5.99400E-003	0.00000E+000	4.10532E-003	3.59960E-001	-1.03846E+000	3.57750E+000	10	...........
	18	0.253333	6.90755E-001	5.99636E-003	0.00000E+000	4.14201E-003	3.59960E-001	-1.05075E+000	3.57750E+000	10	...........
	19	0.266667	6.96641E-001	5.99345E-003	0.00000E+000	4.17528E-003	3.59960E-001	-1.04132E+000	3.57750E+000	10	...........
	20	0.28	7.02440E-001	5.99321E-003	0.00000E+000	4.20987E-003	3.59960E-001	-1.03854E+000	3.57750E+000	10	...........
	21	0.293333	7.08244E-001	5.99499E-003	0.00000E+000	4.24591E-003	3.59960E-001	-1.05065E+000	3.57750E+000	10	...........
	22	0.306667	7.14037E-001	5.99264E-003	0.00000E+000	4.27897E-003	3.59960E-001	-1.04131E+000	3.57750E+000	10	...........
	23	0.32	7.19863E-001	5.99412E-003	0.00000E+000	4.31494E-003	3.59960E-001	-1.03839E+000	3.57750E+000	10	...........
	24	0.333333	7.25665E-001	5.99284E-003	0.00000E+000	4.34880E-003	3.59960E-001	-1.05088E+000	3.57750E+000	10	...........
	25	0.346667	7.31427E-001	5.99349E-003	0.00000E+000	4.38380E-003	3.59960E-001	-1.04155E+000	3.57750E+000	10	...........
	26	0.36	7.37192E-001	5.99574E-003	0.00000E+000	4.42001E-003	3.59960E-001	-1.03821E+000	3.57750E+000	10	...........
	27	0.373333	7.43035E-001	5.99860E-003	0.00000E+000	4.45717E-003	3.59960E-001	-1.05053E+000	3.57750E+000	10	...........
	28	0.386667	7.48815E-001	5.99187E-003	0.00000E+000	4.48680E-003	3.59960E-001	-1.04174E+000	3.57750E+000	10	...........
	29	0.4	7.54579E-001	5.99428E-003	0.00000E+000	4.52316E-003	3.59960E-001	-1.03902E+000	3.57750E+000	10	...........
	30	0.413333	7.60337E-001	5.99394E-003	0.00000E+000	4.55741E-003	3.59960E-001	-1.05084E+000	3.57750E+000	10	...........
	31	0.426667	7.66083E-001	5.99352E-003	0.00000E+000	4.59153E-003	3.59960E-001	-1.04182E+000	3.57750E+000	10	...........
	32	0.44	7.71860E-001	5.99619E-003	0.00000E+000	4.62822E-003	3.59960E-001	-1.03855E+000	3.57750E+000	10	...........
	33	0.453333	7.77610E-001	5.99717E-003	0.00000E+000	4.66346E-003	3.59960E-001	-1.05073E+000	3.57750E+000	10	...........
	34	0.466667	7.83380E-001	5.99427E-003	0.00000E+000	4.69579E-003	3.59960E-001	-1.04202E+000	3.57750E+000	10	...........
	35	0.48	7.89114E-001	5.99443E-003	0.00000E+000	4.73028E-003	3.59960E-001	-1.03839E+000	3.57750E+000	10	...........
	36	0.493333	7.94859E-001	5.99338E-003	0.00000E+000	4.76390E-003	3.59960E-001	-1.05028E+000	3.57750E+000	10	...........
	37	0.506667	8.00638E-001	5.99528E-003	0.00000E+000	4.80005E-003	3.59960E-001	-1.04160E+000	3.57750E+000	10	...........
	38	0.52	8.06354E-001	5.99599E-003	0.00000E+000	4.83489E-003	3.59960E-001	-1.03805E+000	3.57750E+000	10	...........
	39	0.533333	8.12053E-001	5.99661E-003	0.00000E+000	4.86956E-003	3.59960E-001	-1.05025E+000	3.57750E+000	10	...........
	40	0.546667	8.17799E-001	5.99318E-003	0.00000E+000	4.90121E-003	3.59960E-001	-1.04176E+000	3.57750E+000	10	...........
	41	0.56	8.23523E-001	5.99549E-003	0.00000E+000	4.93742E-003	3.59960E-001	-1.03797E+000	3.57750E+000	10	...........
	42	0.573333	8.29238E-001	5.99188E-003	0.00000E+000	4.96870E-003	3.59960E-001	-1.04974E+000	3.57750E+000	10	...........
	43	0.586667	8.34992E-001	5.99371E-003	0.00000E+000	5.00470E-003	3.59960E-001	-1.04173E+000	3.57750E+000	10	...........
	44	0.6	8.40715E-001	5.99101E-003	0.00000E+000	5.03673E-003	3.59960E-001	-1.03812E+000	3.57750E+000	10	...........
	45	0.613333	8.46495E-001	5.99342E-003	0.00000E+000	5.07339E-003	3.59960E-001	-1.04989E+000	3.57750E+000	10	...........
	46	0.626667	8.52181E-001	5.99473E-003	0.00000E+000	5.10859E-003	3.59960E-001	-1.04148E+000	3.57750E+000	10	...........
	47	0.64	8.57911E-001	5.99383E-003	0.00000E+000	5.14218E-003	3.59960E-001	-1.03766E+000	3.57750E+000	10	...........
	48	0.653333	8.63631E-001	5.99240E-003	0.00000E+000	5.17523E-003	3.59960E-001	-1.04957E+000	3.57750E+000	10	...........
	49	0.666667	8.69349E-001	5.99504E-003	0.00000E+000	5.21179E-003	3.59960E-001	-1.04183E+000	3.57750E+000	10	...........
	50	0.68	8.75084E-001	5.99570E-003	0.00000E+000	5.24674E-003	3.59960E-001	-1.03793E+000	3.57750E+000	10	...........
	51	0.693333	8.80800E-001	5.99538E-003	0.00000E+000	5.28073E-003	3.59960E-001	-1.04967E+000	3.57750E+000	10	...........
	52	0.706667	8.86523E-001	5.99782E-003	0.00000E+000	5.31721E-003	3.59960E-001	-1.04190E+000	3.57750E+000	10	...........
	53	0.72	8.92207E-001	5.99610E-003	0.00000E+000	5.34976E-003	3.59960E-001	-1.03782E+000	3.57750E+000	10	...........
	54	0.733333	8.97877E-001	5.98996E-003	0.00000E+000	5.37825E-003	3.59960E-001	-1.04973E+000	3.57750E+000	10	...........
	55	0.746667	9.03472E-001	5.99499E-003	0.00000E+000	5.41631E-003	3.59960E-001	-1.04221E+000	3.57750E+000	10	...........
	56	0.76	9.09152E-001	5.99287E-003	0.00000E+000	5.44843E-003	3.59960E-001	-1.03773E+000	3.57750E+000	10	...........
	57	0.773333	9.14809E-001	5.99367E-003	0.00000E+000	5.48306E-003	3.59960E-001	-1.04954E+000	3.57750E+000	10	...........
	58	0.786667	9.20457E-001	5.99318E-003	0.00000E+000	5.51646E-003	3.59960E-001	-1.04219E+000	3.57750E+000	10	...........
	59	0.8	9.26073E-001	5.99258E-003	0.00000E+000	5.54957E-003	3.59960E-001	-1.03773E+000	3.57750E+000	10	...........
	60	0.813333	9.31669E-001	5.99505E-003	0.00000E+000	5.58540E-003	3.59960E-001	-1.04903E+000	3.57750E+000	10	...........
	61	0.826667	9.37196E-001	5.99169E-003	0.00000E+000	5.61539E-003	3.59960E-001	-1.04171E+000	3.57846E+000	10	...........
	62	0.84	9.42718E-001	5.99404E-003	0.00000E+000	5.65069E-003	3.59960E-001	-1.03720E+000	3.57860E+000	10	...........
	63	0.853333	9.48269E-001	5.99415E-003	0.00000E+000	5.68406E-003	3.59960E-001	-1.04888E+000	3.57860E+000	10	...........
	64	0.866667	9.53802E-001	5.99684E-003	0.00000E+000	5.71979E-003	3.59960E-001	-1.04187E+000	3.57860E+000	10	...........
	65	0.88	9.59261E-001	5.99464E-003	0.00000E+000	5.75042E-003	3.59960E-001	-1.03739E+000	3.57860E+000	10	...........
	66	0.893333	9.64691E-001	5.99473E-003	0.00000E+000	5.78306E-003	3.59960E-001	-1.04890E+000	3.57860E+000	10	...........
	67	0.906667	9.70135E-001	5.99088E-003	0.00000E+000	5.81197E-003	3.59960E-001	-1.04171E+000	3.57860E+000	10	...........
	68	0.92	9.75634E-001	5.99754E-003	0.00000E+000	5.85140E-003	3.59960E-001	-1.03738E+000	3.57860E+000	10	...........
	69	0.933333	9.80999E-001	5.99351E-003	0.00000E+000	5.87963E-003	3.59960E-001	-1.04888E+000	3.57860E+000	10	...........
	70	0.946667	9.86333E-001	5.99304E-003	0.00000E+000	5.91113E-003	3.59960E-001	-1.04211E+000	3.57860E+000	10	...........
	71	0.96	9.91657E-001	5.99138E-003	0.00000E+000	5.94140E-003	3.59960E-001	-1.03744E+000	3.57860E+000	10	...........
	72	0.97333	9.96940E-001	5.99569E-003	0.00000E+000	5.97735E-003	3.59960E-001	-1.04855E+000	3.57860E+000	10	...........
	73	0.97667	1.00025E+000	5.99054E-003	0.00000E+000	5.99206E-003	3.59960E-001	-1.02325E+000	3.57860E+000	10	...........
STARTTIMEOFFSET	QUANT	108.3317	Start Time Offset (s)