File: Data/CV_CRGO300517_1/PWRCCD_CRGO300517_1/CHARGE_DISCHARGE/CHARGE_#396.DTA
EXPLAIN
TAG	PWR800_CHARGE
TITLE	LABEL	PWR Cyclic Charge Discharge (Cell) - Charge Step	Test &Identifier
DATE	LABEL	22-6-2017	Date
TIME	LABEL	15:51:49	Time
NOTES	NOTES	3	&Notes...
	supercap test cell
	0.6mg
	6M KOH
PSTAT	PSTAT	IFC5000-01520	Potentiostat
CAPACITY	QUANT	1.00000E-003	Capacity (A-hr)
CELLTYPE	SELECTOR	1	&Cell Type
WORKINGCONNECTION	SELECTOR	0	&Working Lead
MAXCHARGETIME	VARIABLEANDUNITS	1.00000E+002	s	1.00000E+002	second(s)	Max &Charge Time
CHARGECURRENT	QUANT	6.00000E-003	&Charge Current (A)
VOLTAGEFINISH	TWOPARAM	F	1.00000E-003	3.60000E+003	&Voltage Finish	 I (A) < 	Max Time(s)
SAMPLETIME	QUANT	1.00000E-002	Sa&mple Period (s)
CHARGESTOPAT1	MULTIPARAM	4	1.00000E+000	Charge Stop At &1	Voltage > Limit	V
CHARGESTOPAT2	MULTIPARAM	0	0.00000E+000	Charge Stop At &2	None	N/A
AESBHCSELECTOR	TOGGLE	F	Save Both Half Cells
IRCOMP	TOGGLE	F	IR &Measure
EOC	QUANT	0	Open Circuit (V)
SEQUENCER	TOGGLE	TRUE	Run as Sequence
PSTATMODEL	IQUANT	53	Pstat Model
PSTATSECTION	LABEL	IFC5000-01520	Pstat Section
PSTATSERIALNO	LABEL	01520	Pstat Serial Number
CTRLMODE	IQUANT	0	Control Mode
ELECTROMETER	IQUANT	1	RE=0 or CS=1
IESTAB	IQUANT	0	I/E Stability
CASPEED	IQUANT	4	Control Amp Speed
CONVENTION	IQUANT	1	Current Convention
ICHRANGE	IQUANT	2	Ich Range
ICHRANGEMODE	TOGGLE	T	Ich Auto Range
ICHOFFSETENABLE	TOGGLE	F	Ich Offset Enable
ICHOFFSET	QUANT	0	Ich Offset (V)
ICHFILTER	IQUANT	1	Ich Filter
VCHRANGE	IQUANT	2	Vch Range
VCHRANGEMODE	TOGGLE	T	Vch Auto Range
VCHOFFSETENABLE	TOGGLE	F	Vch Offset Enable
VCHOFFSET	QUANT	0	Vch Offset (V)
VCHFILTER	IQUANT	1	Vch Filter
IERANGELOWERLIMIT	IQUANT	9	I/E Range Lower Limit
IERANGEMODE	TOGGLE	F	I/E AutoRange
IERANGE	IQUANT	10	I/E Range
ACHSELECT	IQUANT	1	Ach Select
ACHRANGE	IQUANT	2	Ach Range
ACHOFFSETENABLE	TOGGLE	F	Ach Offset Enable
ACHOFFSET	QUANT	0	Ach Offset (V)
ACHFILTER	IQUANT	1	Ach Filter
CABLEID	IQUANT	14	Cable ID
DCCALDATE	LABEL	20-10-2016	DC Calibration Date
ACCALDATE	LABEL	12/3/2015	AC Calibration Date
FRAMEWORKVERSION	QUANT	7.01	Framework Version
INSTRUMENTVERSION	LABEL	4.00	Instrument Version
CURVE	TABLE	60
	Pt	T	Vf	Im	Vu	Pwr	Sig	Ach	Temp	IERange	Over
	#	s	V	A	V	W	V	V	deg C	#	bits
	0	0.013333	6.24329E-001	5.99565E-003	0.00000E+000	3.74326E-003	3.59960E-001	-1.12207E+000	3.57670E+000	10	...........
	1	0.026667	6.33077E-001	5.99280E-003	0.00000E+000	3.79390E-003	3.59960E-001	-1.13228E+000	3.57670E+000	10	...........
	2	0.04	6.41168E-001	5.99440E-003	0.00000E+000	3.84341E-003	3.59960E-001	-1.12194E+000	3.57670E+000	10	...........
	3	0.053333	6.48828E-001	5.99519E-003	0.00000E+000	3.88985E-003	3.59960E-001	-1.12222E+000	3.57670E+000	10	...........
	4	0.066667	6.56153E-001	5.99300E-003	0.00000E+000	3.93233E-003	3.59960E-001	-1.13236E+000	3.57670E+000	10	...........
	5	0.08	6.63302E-001	5.99243E-003	0.00000E+000	3.97479E-003	3.59960E-001	-1.12171E+000	3.57670E+000	10	...........
	6	0.093333	6.70377E-001	5.99815E-003	0.00000E+000	4.02102E-003	3.59960E-001	-1.12173E+000	3.57670E+000	10	...........
	7	0.106667	6.77266E-001	5.99435E-003	0.00000E+000	4.05977E-003	3.59960E-001	-1.13216E+000	3.57670E+000	10	...........
	8	0.12	6.84043E-001	5.99611E-003	0.00000E+000	4.10160E-003	3.59960E-001	-1.12191E+000	3.57670E+000	10	...........
	9	0.133333	6.90810E-001	5.99235E-003	0.00000E+000	4.13957E-003	3.59960E-001	-1.12179E+000	3.57670E+000	10	...........
	10	0.146667	6.97510E-001	5.99222E-003	0.00000E+000	4.17963E-003	3.59960E-001	-1.13198E+000	3.57670E+000	10	...........
	11	0.16	7.04122E-001	5.99684E-003	0.00000E+000	4.22251E-003	3.59960E-001	-1.12150E+000	3.57670E+000	10	...........
	12	0.173333	7.10722E-001	5.99488E-003	0.00000E+000	4.26069E-003	3.59960E-001	-1.12165E+000	3.57670E+000	10	...........
	13	0.186667	7.17292E-001	5.99284E-003	0.00000E+000	4.29862E-003	3.59960E-001	-1.13226E+000	3.57670E+000	10	...........
	14	0.2	7.23872E-001	5.99181E-003	0.00000E+000	4.33730E-003	3.59960E-001	-1.12168E+000	3.57670E+000	10	...........
	15	0.213333	7.30376E-001	5.99705E-003	0.00000E+000	4.38010E-003	3.59960E-001	-1.12164E+000	3.57670E+000	10	...........
	16	0.226667	7.36827E-001	5.99518E-003	0.00000E+000	4.41741E-003	3.59960E-001	-1.13195E+000	3.57670E+000	10	...........
	17	0.24	7.43325E-001	5.99741E-003	0.00000E+000	4.45803E-003	3.59960E-001	-1.12148E+000	3.57670E+000	10	...........
	18	0.253333	7.49820E-001	5.99026E-003	0.00000E+000	4.49161E-003	3.59960E-001	-1.12175E+000	3.57670E+000	10	...........
	19	0.266667	7.56229E-001	5.99402E-003	0.00000E+000	4.53285E-003	3.59960E-001	-1.13222E+000	3.57670E+000	10	...........
	20	0.28	7.62667E-001	5.99290E-003	0.00000E+000	4.57059E-003	3.59960E-001	-1.12149E+000	3.57670E+000	10	...........
	21	0.293333	7.69097E-001	5.99707E-003	0.00000E+000	4.61233E-003	3.59960E-001	-1.12134E+000	3.57670E+000	10	...........
	22	0.306667	7.75481E-001	5.98933E-003	0.00000E+000	4.64461E-003	3.59960E-001	-1.13143E+000	3.57670E+000	10	...........
	23	0.32	7.81838E-001	5.99295E-003	0.00000E+000	4.68552E-003	3.59960E-001	-1.12111E+000	3.57670E+000	10	...........
	24	0.333333	7.88182E-001	5.99368E-003	0.00000E+000	4.72411E-003	3.59960E-001	-1.12115E+000	3.57670E+000	10	...........
	25	0.346667	7.94556E-001	5.99477E-003	0.00000E+000	4.76318E-003	3.59960E-001	-1.13133E+000	3.57670E+000	10	...........
	26	0.36	8.00883E-001	5.99231E-003	0.00000E+000	4.79914E-003	3.59960E-001	-1.12091E+000	3.57670E+000	10	...........
	27	0.373333	8.07180E-001	5.99559E-003	0.00000E+000	4.83952E-003	3.59960E-001	-1.12074E+000	3.57670E+000	10	...........
	28	0.386667	8.13509E-001	5.99506E-003	0.00000E+000	4.87704E-003	3.59960E-001	-1.13131E+000	3.57670E+000	10	...........
	29	0.4	8.19814E-001	5.99110E-003	0.00000E+000	4.91159E-003	3.59960E-001	-1.12102E+000	3.57670E+000	10	...........
	30	0.413333	8.26070E-001	5.99191E-003	0.00000E+000	4.94974E-003	3.59960E-001	-1.12072E+000	3.57670E+000	10	...........
	31	0.426667	8.32359E-001	5.99647E-003	0.00000E+000	4.99122E-003	3.59960E-001	-1.13111E+000	3.57670E+000	10	...........
	32	0.44	8.38563E-001	5.98785E-003	0.00000E+000	5.02119E-003	3.59960E-001	-1.12055E+000	3.57670E+000	10	...........
	33	0.453333	8.44844E-001	5.99362E-003	0.00000E+000	5.06368E-003	3.59960E-001	-1.12099E+000	3.57670E+000	10	...........
	34	0.466667	8.51070E-001	5.99214E-003	0.00000E+000	5.09973E-003	3.59960E-001	-1.13137E+000	3.57670E+000	10	...........
	35	0.48	8.57275E-001	6.00294E-003	0.00000E+000	5.14617E-003	3.59960E-001	-1.12075E+000	3.57670E+000	10	...........
	36	0.493333	8.63482E-001	5.99683E-003	0.00000E+000	5.17815E-003	3.59960E-001	-1.12029E+000	3.57670E+000	10	...........
	37	0.506667	8.69657E-001	5.99159E-003	0.00000E+000	5.21063E-003	3.59960E-001	-1.13104E+000	3.57670E+000	10	...........
	38	0.52	8.75828E-001	5.99399E-003	0.00000E+000	5.24970E-003	3.59960E-001	-1.12096E+000	3.57670E+000	10	...........
	39	0.533333	8.81954E-001	5.99602E-003	0.00000E+000	5.28822E-003	3.59960E-001	-1.12070E+000	3.57670E+000	10	...........
	40	0.546667	8.88085E-001	5.99415E-003	0.00000E+000	5.32331E-003	3.59960E-001	-1.13116E+000	3.57670E+000	10	...........
	41	0.56	8.94170E-001	5.99340E-003	0.00000E+000	5.35911E-003	3.59960E-001	-1.12067E+000	3.57670E+000	10	...........
	42	0.573333	9.00233E-001	5.99573E-003	0.00000E+000	5.39756E-003	3.59960E-001	-1.12055E+000	3.57670E+000	10	...........
	43	0.586667	9.06239E-001	5.99248E-003	0.00000E+000	5.43062E-003	3.59960E-001	-1.13110E+000	3.57670E+000	10	...........
	44	0.6	9.12248E-001	5.99285E-003	0.00000E+000	5.46697E-003	3.59960E-001	-1.12100E+000	3.57670E+000	10	...........
	45	0.613333	9.18252E-001	5.99954E-003	0.00000E+000	5.50909E-003	3.59960E-001	-1.12037E+000	3.57670E+000	10	...........
	46	0.626667	9.24265E-001	5.99711E-003	0.00000E+000	5.54292E-003	3.59960E-001	-1.13039E+000	3.57670E+000	10	...........
	47	0.64	9.30191E-001	5.99505E-003	0.00000E+000	5.57654E-003	3.59960E-001	-1.12019E+000	3.57670E+000	10	...........
	48	0.653333	9.36062E-001	5.99365E-003	0.00000E+000	5.61042E-003	3.59960E-001	-1.12017E+000	3.57670E+000	10	...........
	49	0.666667	9.41891E-001	5.99724E-003	0.00000E+000	5.64875E-003	3.59960E-001	-1.13085E+000	3.57670E+000	10	...........
	50	0.68	9.47722E-001	5.99289E-003	0.00000E+000	5.67960E-003	3.59960E-001	-1.12038E+000	3.57670E+000	10	...........
	51	0.693333	9.53519E-001	5.99168E-003	0.00000E+000	5.71319E-003	3.59960E-001	-1.11993E+000	3.57670E+000	10	...........
	52	0.706667	9.59261E-001	5.99477E-003	0.00000E+000	5.75055E-003	3.59960E-001	-1.13054E+000	3.57670E+000	10	...........
	53	0.72	9.64972E-001	5.99329E-003	0.00000E+000	5.78336E-003	3.59960E-001	-1.12029E+000	3.57670E+000	10	...........
	54	0.733333	9.70638E-001	5.99408E-003	0.00000E+000	5.81809E-003	3.59960E-001	-1.12012E+000	3.57670E+000	10	...........
	55	0.746667	9.76294E-001	5.99161E-003	0.00000E+000	5.84957E-003	3.59960E-001	-1.13067E+000	3.57670E+000	10	...........
	56	0.76	9.81866E-001	5.99397E-003	0.00000E+000	5.88527E-003	3.59960E-001	-1.12021E+000	3.57670E+000	10	...........
	57	0.773333	9.87388E-001	5.99559E-003	0.00000E+000	5.91997E-003	3.59960E-001	-1.12012E+000	3.57670E+000	10	...........
	58	0.786667	9.92890E-001	5.99343E-003	0.00000E+000	5.95081E-003	3.59960E-001	-1.13071E+000	3.57670E+000	10	...........
	59	0.798333	9.98012E-001	5.99501E-003	0.00000E+000	5.98309E-003	3.59960E-001	-1.11842E+000	3.57670E+000	10	...........
STARTTIMEOFFSET	QUANT	696.3168	Start Time Offset (s)