File: Data/CV_CRGO300517_1/PWRCCD_CRGO300517_1/CHARGE_DISCHARGE/CHARGE_#988.DTA
EXPLAIN
TAG	PWR800_CHARGE
TITLE	LABEL	PWR Cyclic Charge Discharge (Cell) - Charge Step	Test &Identifier
DATE	LABEL	22-6-2017	Date
TIME	LABEL	16:14:12	Time
NOTES	NOTES	3	&Notes...
	supercap test cell
	0.6mg
	6M KOH
PSTAT	PSTAT	IFC5000-01520	Potentiostat
CAPACITY	QUANT	1.00000E-003	Capacity (A-hr)
CELLTYPE	SELECTOR	1	&Cell Type
WORKINGCONNECTION	SELECTOR	0	&Working Lead
MAXCHARGETIME	VARIABLEANDUNITS	1.00000E+002	s	1.00000E+002	second(s)	Max &Charge Time
CHARGECURRENT	QUANT	6.00000E-003	&Charge Current (A)
VOLTAGEFINISH	TWOPARAM	F	1.00000E-003	3.60000E+003	&Voltage Finish	 I (A) < 	Max Time(s)
SAMPLETIME	QUANT	1.00000E-002	Sa&mple Period (s)
CHARGESTOPAT1	MULTIPARAM	4	1.00000E+000	Charge Stop At &1	Voltage > Limit	V
CHARGESTOPAT2	MULTIPARAM	0	0.00000E+000	Charge Stop At &2	None	N/A
AESBHCSELECTOR	TOGGLE	F	Save Both Half Cells
IRCOMP	TOGGLE	F	IR &Measure
EOC	QUANT	0	Open Circuit (V)
SEQUENCER	TOGGLE	TRUE	Run as Sequence
PSTATMODEL	IQUANT	53	Pstat Model
PSTATSECTION	LABEL	IFC5000-01520	Pstat Section
PSTATSERIALNO	LABEL	01520	Pstat Serial Number
CTRLMODE	IQUANT	0	Control Mode
ELECTROMETER	IQUANT	1	RE=0 or CS=1
IESTAB	IQUANT	0	I/E Stability
CASPEED	IQUANT	4	Control Amp Speed
CONVENTION	IQUANT	1	Current Convention
ICHRANGE	IQUANT	2	Ich Range
ICHRANGEMODE	TOGGLE	T	Ich Auto Range
ICHOFFSETENABLE	TOGGLE	F	Ich Offset Enable
ICHOFFSET	QUANT	0	Ich Offset (V)
ICHFILTER	IQUANT	1	Ich Filter
VCHRANGE	IQUANT	2	Vch Range
VCHRANGEMODE	TOGGLE	T	Vch Auto Range
VCHOFFSETENABLE	TOGGLE	F	Vch Offset Enable
VCHOFFSET	QUANT	0	Vch Offset (V)
VCHFILTER	IQUANT	1	Vch Filter
IERANGELOWERLIMIT	IQUANT	9	I/E Range Lower Limit
IERANGEMODE	TOGGLE	F	I/E AutoRange
IERANGE	IQUANT	10	I/E Range
ACHSELECT	IQUANT	1	Ach Select
ACHRANGE	IQUANT	2	Ach Range
ACHOFFSETENABLE	TOGGLE	F	Ach Offset Enable
ACHOFFSET	QUANT	0	Ach Offset (V)
ACHFILTER	IQUANT	1	Ach Filter
CABLEID	IQUANT	14	Cable ID
DCCALDATE	LABEL	20-10-2016	DC Calibration Date
ACCALDATE	LABEL	12/3/2015	AC Calibration Date
FRAMEWORKVERSION	QUANT	7.01	Framework Version
INSTRUMENTVERSION	LABEL	4.00	Instrument Version
CURVE	TABLE	52
	Pt	T	Vf	Im	Vu	Pwr	Sig	Ach	Temp	IERange	Over
	#	s	V	A	V	W	V	V	deg C	#	bits
	0	0.013333	6.56858E-001	5.99228E-003	0.00000E+000	3.93608E-003	3.59960E-001	-1.17388E+000	3.57710E+000	10	...........
	1	0.026667	6.66191E-001	5.98984E-003	0.00000E+000	3.99037E-003	3.59960E-001	-1.18469E+000	3.57710E+000	10	...........
	2	0.04	6.74805E-001	5.99379E-003	0.00000E+000	4.04464E-003	3.59960E-001	-1.17411E+000	3.57710E+000	10	...........
	3	0.053333	6.82932E-001	5.98848E-003	0.00000E+000	4.08972E-003	3.59960E-001	-1.17367E+000	3.57710E+000	10	...........
	4	0.066667	6.90833E-001	5.99636E-003	0.00000E+000	4.14248E-003	3.59960E-001	-1.18478E+000	3.57710E+000	10	...........
	5	0.08	6.98485E-001	5.99114E-003	0.00000E+000	4.18472E-003	3.59960E-001	-1.17403E+000	3.57710E+000	10	...........
	6	0.093333	7.06020E-001	5.99404E-003	0.00000E+000	4.23192E-003	3.59960E-001	-1.17351E+000	3.57710E+000	10	...........
	7	0.106667	7.13387E-001	5.99184E-003	0.00000E+000	4.27450E-003	3.59960E-001	-1.18436E+000	3.57710E+000	10	...........
	8	0.12	7.20747E-001	5.99344E-003	0.00000E+000	4.31975E-003	3.59960E-001	-1.17384E+000	3.57710E+000	10	...........
	9	0.133333	7.27996E-001	5.99283E-003	0.00000E+000	4.36276E-003	3.59960E-001	-1.17371E+000	3.57710E+000	10	...........
	10	0.146667	7.35115E-001	5.99478E-003	0.00000E+000	4.40685E-003	3.59960E-001	-1.18464E+000	3.57710E+000	10	...........
	11	0.16	7.42234E-001	5.99615E-003	0.00000E+000	4.45054E-003	3.59960E-001	-1.17392E+000	3.57710E+000	10	...........
	12	0.173333	7.49275E-001	5.99525E-003	0.00000E+000	4.49209E-003	3.59960E-001	-1.17353E+000	3.57710E+000	10	...........
	13	0.186667	7.56226E-001	5.99297E-003	0.00000E+000	4.53204E-003	3.59960E-001	-1.18442E+000	3.57710E+000	10	...........
	14	0.2	7.63194E-001	5.99701E-003	0.00000E+000	4.57689E-003	3.59960E-001	-1.17390E+000	3.57710E+000	10	...........
	15	0.213333	7.70124E-001	5.99291E-003	0.00000E+000	4.61528E-003	3.59960E-001	-1.17398E+000	3.57710E+000	10	...........
	16	0.226667	7.77027E-001	5.99099E-003	0.00000E+000	4.65515E-003	3.59960E-001	-1.18436E+000	3.57710E+000	10	...........
	17	0.24	7.83903E-001	5.99223E-003	0.00000E+000	4.69732E-003	3.59960E-001	-1.17357E+000	3.57710E+000	10	...........
	18	0.253333	7.90710E-001	5.98911E-003	0.00000E+000	4.73565E-003	3.59960E-001	-1.17339E+000	3.57710E+000	10	...........
	19	0.266667	7.97540E-001	5.98569E-003	0.00000E+000	4.77383E-003	3.59960E-001	-1.18414E+000	3.57710E+000	10	...........
	20	0.28	8.04327E-001	5.98852E-003	0.00000E+000	4.81673E-003	3.59960E-001	-1.17338E+000	3.57710E+000	10	...........
	21	0.293333	8.11047E-001	5.99663E-003	0.00000E+000	4.86355E-003	3.59960E-001	-1.17348E+000	3.57710E+000	10	...........
	22	0.306667	8.17833E-001	5.99494E-003	0.00000E+000	4.90286E-003	3.59960E-001	-1.18394E+000	3.57710E+000	10	...........
	23	0.32	8.24553E-001	5.99471E-003	0.00000E+000	4.94295E-003	3.59960E-001	-1.17312E+000	3.57710E+000	10	...........
	24	0.333333	8.31189E-001	5.99393E-003	0.00000E+000	4.98209E-003	3.59960E-001	-1.17364E+000	3.57710E+000	10	...........
	25	0.346667	8.37781E-001	5.99313E-003	0.00000E+000	5.02094E-003	3.59960E-001	-1.18408E+000	3.57710E+000	10	...........
	26	0.36	8.44441E-001	6.00062E-003	0.00000E+000	5.06718E-003	3.59960E-001	-1.17313E+000	3.57710E+000	10	...........
	27	0.373333	8.51010E-001	5.99010E-003	0.00000E+000	5.09764E-003	3.59960E-001	-1.17339E+000	3.57710E+000	10	...........
	28	0.386667	8.57526E-001	5.99047E-003	0.00000E+000	5.13699E-003	3.59960E-001	-1.18383E+000	3.57710E+000	10	...........
	29	0.4	8.64101E-001	5.98961E-003	0.00000E+000	5.17563E-003	3.59960E-001	-1.17309E+000	3.57710E+000	10	...........
	30	0.413333	8.70624E-001	5.99261E-003	0.00000E+000	5.21731E-003	3.59960E-001	-1.17348E+000	3.57710E+000	10	...........
	31	0.426667	8.77125E-001	5.99352E-003	0.00000E+000	5.25706E-003	3.59960E-001	-1.18387E+000	3.57710E+000	10	...........
	32	0.44	8.83577E-001	5.99398E-003	0.00000E+000	5.29614E-003	3.59960E-001	-1.17278E+000	3.57710E+000	10	...........
	33	0.453333	8.89972E-001	5.98907E-003	0.00000E+000	5.33010E-003	3.59960E-001	-1.17374E+000	3.57710E+000	10	...........
	34	0.466667	8.96319E-001	5.99550E-003	0.00000E+000	5.37388E-003	3.59960E-001	-1.18385E+000	3.57710E+000	10	...........
	35	0.48	9.02595E-001	5.99343E-003	0.00000E+000	5.40964E-003	3.59960E-001	-1.17320E+000	3.57710E+000	10	...........
	36	0.493333	9.08895E-001	5.99131E-003	0.00000E+000	5.44547E-003	3.59960E-001	-1.17370E+000	3.57710E+000	10	...........
	37	0.506667	9.15160E-001	5.99983E-003	0.00000E+000	5.49081E-003	3.59960E-001	-1.18383E+000	3.57710E+000	10	...........
	38	0.52	9.21395E-001	5.99525E-003	0.00000E+000	5.52399E-003	3.59960E-001	-1.17303E+000	3.57710E+000	10	...........
	39	0.533333	9.27563E-001	5.99232E-003	0.00000E+000	5.55826E-003	3.59960E-001	-1.17409E+000	3.57710E+000	10	...........
	40	0.546667	9.33683E-001	5.99479E-003	0.00000E+000	5.59724E-003	3.59960E-001	-1.18406E+000	3.57710E+000	10	...........
	41	0.56	9.39743E-001	5.99059E-003	0.00000E+000	5.62961E-003	3.59960E-001	-1.17270E+000	3.57710E+000	10	...........
	42	0.573333	9.45775E-001	5.99432E-003	0.00000E+000	5.66928E-003	3.59960E-001	-1.17339E+000	3.57710E+000	10	...........
	43	0.586667	9.51781E-001	5.99435E-003	0.00000E+000	5.70531E-003	3.59960E-001	-1.18348E+000	3.57710E+000	10	...........
	44	0.6	9.57703E-001	5.99789E-003	0.00000E+000	5.74420E-003	3.59960E-001	-1.17248E+000	3.57710E+000	10	...........
	45	0.613333	9.63557E-001	5.99263E-003	0.00000E+000	5.77424E-003	3.59960E-001	-1.17370E+000	3.57710E+000	10	...........
	46	0.626667	9.69339E-001	5.99147E-003	0.00000E+000	5.80776E-003	3.59960E-001	-1.18336E+000	3.57710E+000	10	...........
	47	0.64	9.75139E-001	5.99479E-003	0.00000E+000	5.84575E-003	3.59960E-001	-1.17229E+000	3.57710E+000	10	...........
	48	0.653333	9.80858E-001	5.99185E-003	0.00000E+000	5.87716E-003	3.59960E-001	-1.17368E+000	3.57710E+000	10	...........
	49	0.666667	9.86503E-001	5.99075E-003	0.00000E+000	5.90989E-003	3.59960E-001	-1.18359E+000	3.57710E+000	10	...........
	50	0.68	9.92112E-001	5.99299E-003	0.00000E+000	5.94572E-003	3.59960E-001	-1.17266E+000	3.57710E+000	10	...........
	51	0.693333	9.97689E-001	5.99438E-003	0.00000E+000	5.98053E-003	3.59960E-001	-1.17408E+000	3.57710E+000	10	...........
STARTTIMEOFFSET	QUANT	1568.692	Start Time Offset (s)