File: Data/CV_CRGO300517_1/PWRCCD_CRGO300517_1/CHARGE_DISCHARGE/CHARGE_#669.DTA
EXPLAIN
TAG	PWR800_CHARGE
TITLE	LABEL	PWR Cyclic Charge Discharge (Cell) - Charge Step	Test &Identifier
DATE	LABEL	22-6-2017	Date
TIME	LABEL	16:02:23	Time
NOTES	NOTES	3	&Notes...
	supercap test cell
	0.6mg
	6M KOH
PSTAT	PSTAT	IFC5000-01520	Potentiostat
CAPACITY	QUANT	1.00000E-003	Capacity (A-hr)
CELLTYPE	SELECTOR	1	&Cell Type
WORKINGCONNECTION	SELECTOR	0	&Working Lead
MAXCHARGETIME	VARIABLEANDUNITS	1.00000E+002	s	1.00000E+002	second(s)	Max &Charge Time
CHARGECURRENT	QUANT	6.00000E-003	&Charge Current (A)
VOLTAGEFINISH	TWOPARAM	F	1.00000E-003	3.60000E+003	&Voltage Finish	 I (A) < 	Max Time(s)
SAMPLETIME	QUANT	1.00000E-002	Sa&mple Period (s)
CHARGESTOPAT1	MULTIPARAM	4	1.00000E+000	Charge Stop At &1	Voltage > Limit	V
CHARGESTOPAT2	MULTIPARAM	0	0.00000E+000	Charge Stop At &2	None	N/A
AESBHCSELECTOR	TOGGLE	F	Save Both Half Cells
IRCOMP	TOGGLE	F	IR &Measure
EOC	QUANT	0	Open Circuit (V)
SEQUENCER	TOGGLE	TRUE	Run as Sequence
PSTATMODEL	IQUANT	53	Pstat Model
PSTATSECTION	LABEL	IFC5000-01520	Pstat Section
PSTATSERIALNO	LABEL	01520	Pstat Serial Number
CTRLMODE	IQUANT	0	Control Mode
ELECTROMETER	IQUANT	1	RE=0 or CS=1
IESTAB	IQUANT	0	I/E Stability
CASPEED	IQUANT	4	Control Amp Speed
CONVENTION	IQUANT	1	Current Convention
ICHRANGE	IQUANT	2	Ich Range
ICHRANGEMODE	TOGGLE	T	Ich Auto Range
ICHOFFSETENABLE	TOGGLE	F	Ich Offset Enable
ICHOFFSET	QUANT	0	Ich Offset (V)
ICHFILTER	IQUANT	1	Ich Filter
VCHRANGE	IQUANT	2	Vch Range
VCHRANGEMODE	TOGGLE	T	Vch Auto Range
VCHOFFSETENABLE	TOGGLE	F	Vch Offset Enable
VCHOFFSET	QUANT	0	Vch Offset (V)
VCHFILTER	IQUANT	1	Vch Filter
IERANGELOWERLIMIT	IQUANT	9	I/E Range Lower Limit
IERANGEMODE	TOGGLE	F	I/E AutoRange
IERANGE	IQUANT	10	I/E Range
ACHSELECT	IQUANT	1	Ach Select
ACHRANGE	IQUANT	2	Ach Range
ACHOFFSETENABLE	TOGGLE	F	Ach Offset Enable
ACHOFFSET	QUANT	0	Ach Offset (V)
ACHFILTER	IQUANT	1	Ach Filter
CABLEID	IQUANT	14	Cable ID
DCCALDATE	LABEL	20-10-2016	DC Calibration Date
ACCALDATE	LABEL	12/3/2015	AC Calibration Date
FRAMEWORKVERSION	QUANT	7.01	Framework Version
INSTRUMENTVERSION	LABEL	4.00	Instrument Version
CURVE	TABLE	56
	Pt	T	Vf	Im	Vu	Pwr	Sig	Ach	Temp	IERange	Over
	#	s	V	A	V	W	V	V	deg C	#	bits
	0	0.013333	6.41798E-001	5.99428E-003	0.00000E+000	3.84712E-003	3.59960E-001	-1.16054E+000	3.57790E+000	10	...........
	1	0.026667	6.50829E-001	5.99006E-003	0.00000E+000	3.89850E-003	3.59960E-001	-1.15123E+000	3.57790E+000	10	...........
	2	0.04	6.59128E-001	5.99759E-003	0.00000E+000	3.95318E-003	3.59960E-001	-1.15549E+000	3.57790E+000	10	...........
	3	0.053333	6.67036E-001	5.99634E-003	0.00000E+000	3.99977E-003	3.59960E-001	-1.16083E+000	3.57790E+000	10	...........
	4	0.066667	6.74666E-001	5.99648E-003	0.00000E+000	4.04562E-003	3.59960E-001	-1.15116E+000	3.57790E+000	10	...........
	5	0.08	6.82071E-001	5.99532E-003	0.00000E+000	4.08924E-003	3.59960E-001	-1.15521E+000	3.57790E+000	10	...........
	6	0.093333	6.89357E-001	5.99189E-003	0.00000E+000	4.13055E-003	3.59960E-001	-1.16068E+000	3.57790E+000	10	...........
	7	0.106667	6.96502E-001	5.99185E-003	0.00000E+000	4.17334E-003	3.59960E-001	-1.15112E+000	3.57790E+000	10	...........
	8	0.12	7.03556E-001	5.99573E-003	0.00000E+000	4.21833E-003	3.59960E-001	-1.15533E+000	3.57790E+000	10	...........
	9	0.133333	7.10526E-001	5.98718E-003	0.00000E+000	4.25404E-003	3.59960E-001	-1.16042E+000	3.57790E+000	10	...........
	10	0.146667	7.17483E-001	5.99626E-003	0.00000E+000	4.30222E-003	3.59960E-001	-1.15091E+000	3.57790E+000	10	...........
	11	0.16	7.24356E-001	5.99730E-003	0.00000E+000	4.34418E-003	3.59960E-001	-1.15512E+000	3.57790E+000	10	...........
	12	0.173333	7.31176E-001	5.99435E-003	0.00000E+000	4.38293E-003	3.59960E-001	-1.16075E+000	3.57790E+000	10	...........
	13	0.186667	7.37937E-001	5.99647E-003	0.00000E+000	4.42502E-003	3.59960E-001	-1.15129E+000	3.57790E+000	10	...........
	14	0.2	7.44730E-001	5.99601E-003	0.00000E+000	4.46541E-003	3.59960E-001	-1.15525E+000	3.57790E+000	10	...........
	15	0.213333	7.51442E-001	5.99043E-003	0.00000E+000	4.50146E-003	3.59960E-001	-1.16046E+000	3.57790E+000	10	...........
	16	0.226667	7.58166E-001	5.99479E-003	0.00000E+000	4.54505E-003	3.59960E-001	-1.15102E+000	3.57790E+000	10	...........
	17	0.24	7.64798E-001	5.99618E-003	0.00000E+000	4.58587E-003	3.59960E-001	-1.15521E+000	3.57790E+000	10	...........
	18	0.253333	7.71479E-001	5.99680E-003	0.00000E+000	4.62640E-003	3.59960E-001	-1.16049E+000	3.57790E+000	10	...........
	19	0.266667	7.78104E-001	5.99052E-003	0.00000E+000	4.66125E-003	3.59960E-001	-1.15101E+000	3.57790E+000	10	...........
	20	0.28	7.84774E-001	5.99277E-003	0.00000E+000	4.70297E-003	3.59960E-001	-1.15467E+000	3.57790E+000	10	...........
	21	0.293333	7.91364E-001	5.99032E-003	0.00000E+000	4.74052E-003	3.59960E-001	-1.16027E+000	3.57790E+000	10	...........
	22	0.306667	7.97959E-001	5.98901E-003	0.00000E+000	4.77899E-003	3.59960E-001	-1.15072E+000	3.57790E+000	10	...........
	23	0.32	8.04510E-001	5.99192E-003	0.00000E+000	4.82057E-003	3.59960E-001	-1.15480E+000	3.57790E+000	10	...........
	24	0.333333	8.11022E-001	5.99040E-003	0.00000E+000	4.85835E-003	3.59960E-001	-1.16033E+000	3.57790E+000	10	...........
	25	0.346667	8.17549E-001	5.99336E-003	0.00000E+000	4.89987E-003	3.59960E-001	-1.15069E+000	3.57790E+000	10	...........
	26	0.36	8.24049E-001	5.99353E-003	0.00000E+000	4.93896E-003	3.59960E-001	-1.15481E+000	3.57790E+000	10	...........
	27	0.373333	8.30551E-001	5.99261E-003	0.00000E+000	4.97717E-003	3.59960E-001	-1.16030E+000	3.57790E+000	10	...........
	28	0.386667	8.36976E-001	5.99150E-003	0.00000E+000	5.01474E-003	3.59960E-001	-1.15077E+000	3.57790E+000	10	...........
	29	0.4	8.43424E-001	5.99371E-003	0.00000E+000	5.05523E-003	3.59960E-001	-1.15491E+000	3.57790E+000	10	...........
	30	0.413333	8.49861E-001	5.99809E-003	0.00000E+000	5.09754E-003	3.59960E-001	-1.16015E+000	3.57790E+000	10	...........
	31	0.426667	8.56278E-001	5.99332E-003	0.00000E+000	5.13195E-003	3.59960E-001	-1.15060E+000	3.57790E+000	10	...........
	32	0.44	8.62628E-001	5.99382E-003	0.00000E+000	5.17044E-003	3.59960E-001	-1.15459E+000	3.57790E+000	10	...........
	33	0.453333	8.68992E-001	5.98987E-003	0.00000E+000	5.20515E-003	3.59960E-001	-1.16012E+000	3.57790E+000	10	...........
	34	0.466667	8.75358E-001	5.99535E-003	0.00000E+000	5.24807E-003	3.59960E-001	-1.15047E+000	3.57790E+000	10	...........
	35	0.48	8.81648E-001	5.99596E-003	0.00000E+000	5.28633E-003	3.59960E-001	-1.15439E+000	3.57790E+000	10	...........
	36	0.493333	8.87926E-001	5.99441E-003	0.00000E+000	5.32259E-003	3.59960E-001	-1.16014E+000	3.57790E+000	10	...........
	37	0.506667	8.94130E-001	5.99631E-003	0.00000E+000	5.36148E-003	3.59960E-001	-1.15065E+000	3.57790E+000	10	...........
	38	0.52	9.00316E-001	5.99118E-003	0.00000E+000	5.39396E-003	3.59960E-001	-1.15461E+000	3.57790E+000	10	...........
	39	0.533333	9.06514E-001	5.99362E-003	0.00000E+000	5.43331E-003	3.59960E-001	-1.16017E+000	3.57775E+000	10	...........
	40	0.546667	9.12688E-001	5.99016E-003	0.00000E+000	5.46715E-003	3.59960E-001	-1.15043E+000	3.57670E+000	10	...........
	41	0.56	9.18824E-001	5.99056E-003	0.00000E+000	5.50427E-003	3.59960E-001	-1.15464E+000	3.57670E+000	10	...........
	42	0.573333	9.24954E-001	5.99517E-003	0.00000E+000	5.54525E-003	3.59960E-001	-1.16036E+000	3.57670E+000	10	...........
	43	0.586667	9.30915E-001	5.99351E-003	0.00000E+000	5.57945E-003	3.59960E-001	-1.15047E+000	3.57670E+000	10	...........
	44	0.6	9.36869E-001	5.99416E-003	0.00000E+000	5.61574E-003	3.59960E-001	-1.15443E+000	3.57670E+000	10	...........
	45	0.613333	9.42845E-001	6.00029E-003	0.00000E+000	5.65735E-003	3.59960E-001	-1.15984E+000	3.57670E+000	10	...........
	46	0.626667	9.48806E-001	5.99612E-003	0.00000E+000	5.68915E-003	3.59960E-001	-1.15003E+000	3.57670E+000	10	...........
	47	0.64	9.54636E-001	5.99553E-003	0.00000E+000	5.72355E-003	3.59960E-001	-1.15432E+000	3.57670E+000	10	...........
	48	0.653333	9.60454E-001	5.99033E-003	0.00000E+000	5.75344E-003	3.59960E-001	-1.15987E+000	3.57670E+000	10	...........
	49	0.666667	9.66216E-001	5.99172E-003	0.00000E+000	5.78929E-003	3.59960E-001	-1.15022E+000	3.57670E+000	10	...........
	50	0.68	9.71986E-001	5.99818E-003	0.00000E+000	5.83015E-003	3.59960E-001	-1.15433E+000	3.57670E+000	10	...........
	51	0.693333	9.77702E-001	5.99415E-003	0.00000E+000	5.86049E-003	3.59960E-001	-1.15975E+000	3.57670E+000	10	...........
	52	0.706667	9.83359E-001	5.99691E-003	0.00000E+000	5.89712E-003	3.59960E-001	-1.15037E+000	3.57670E+000	10	...........
	53	0.72	9.88954E-001	5.99318E-003	0.00000E+000	5.92697E-003	3.59960E-001	-1.15409E+000	3.57670E+000	10	...........
	54	0.733333	9.94496E-001	5.99038E-003	0.00000E+000	5.95741E-003	3.59960E-001	-1.15986E+000	3.57670E+000	10	...........
	55	0.741667	9.98978E-001	5.98975E-003	0.00000E+000	5.98363E-003	3.59960E-001	-1.14396E+000	3.57670E+000	10	...........
STARTTIMEOFFSET	QUANT	1113.585	Start Time Offset (s)