File: Data/CV_CRGO300517_1/PWRCCD_CRGO300517_1/CHARGE_DISCHARGE/CHARGE_#590.DTA
EXPLAIN
TAG	PWR800_CHARGE
TITLE	LABEL	PWR Cyclic Charge Discharge (Cell) - Charge Step	Test &Identifier
DATE	LABEL	22-6-2017	Date
TIME	LABEL	15:59:23	Time
NOTES	NOTES	3	&Notes...
	supercap test cell
	0.6mg
	6M KOH
PSTAT	PSTAT	IFC5000-01520	Potentiostat
CAPACITY	QUANT	1.00000E-003	Capacity (A-hr)
CELLTYPE	SELECTOR	1	&Cell Type
WORKINGCONNECTION	SELECTOR	0	&Working Lead
MAXCHARGETIME	VARIABLEANDUNITS	1.00000E+002	s	1.00000E+002	second(s)	Max &Charge Time
CHARGECURRENT	QUANT	6.00000E-003	&Charge Current (A)
VOLTAGEFINISH	TWOPARAM	F	1.00000E-003	3.60000E+003	&Voltage Finish	 I (A) < 	Max Time(s)
SAMPLETIME	QUANT	1.00000E-002	Sa&mple Period (s)
CHARGESTOPAT1	MULTIPARAM	4	1.00000E+000	Charge Stop At &1	Voltage > Limit	V
CHARGESTOPAT2	MULTIPARAM	0	0.00000E+000	Charge Stop At &2	None	N/A
AESBHCSELECTOR	TOGGLE	F	Save Both Half Cells
IRCOMP	TOGGLE	F	IR &Measure
EOC	QUANT	0	Open Circuit (V)
SEQUENCER	TOGGLE	TRUE	Run as Sequence
PSTATMODEL	IQUANT	53	Pstat Model
PSTATSECTION	LABEL	IFC5000-01520	Pstat Section
PSTATSERIALNO	LABEL	01520	Pstat Serial Number
CTRLMODE	IQUANT	0	Control Mode
ELECTROMETER	IQUANT	1	RE=0 or CS=1
IESTAB	IQUANT	0	I/E Stability
CASPEED	IQUANT	4	Control Amp Speed
CONVENTION	IQUANT	1	Current Convention
ICHRANGE	IQUANT	2	Ich Range
ICHRANGEMODE	TOGGLE	T	Ich Auto Range
ICHOFFSETENABLE	TOGGLE	F	Ich Offset Enable
ICHOFFSET	QUANT	0	Ich Offset (V)
ICHFILTER	IQUANT	1	Ich Filter
VCHRANGE	IQUANT	2	Vch Range
VCHRANGEMODE	TOGGLE	T	Vch Auto Range
VCHOFFSETENABLE	TOGGLE	F	Vch Offset Enable
VCHOFFSET	QUANT	0	Vch Offset (V)
VCHFILTER	IQUANT	1	Vch Filter
IERANGELOWERLIMIT	IQUANT	9	I/E Range Lower Limit
IERANGEMODE	TOGGLE	F	I/E AutoRange
IERANGE	IQUANT	10	I/E Range
ACHSELECT	IQUANT	1	Ach Select
ACHRANGE	IQUANT	2	Ach Range
ACHOFFSETENABLE	TOGGLE	F	Ach Offset Enable
ACHOFFSET	QUANT	0	Ach Offset (V)
ACHFILTER	IQUANT	1	Ach Filter
CABLEID	IQUANT	14	Cable ID
DCCALDATE	LABEL	20-10-2016	DC Calibration Date
ACCALDATE	LABEL	12/3/2015	AC Calibration Date
FRAMEWORKVERSION	QUANT	7.01	Framework Version
INSTRUMENTVERSION	LABEL	4.00	Instrument Version
CURVE	TABLE	57
	Pt	T	Vf	Im	Vu	Pwr	Sig	Ach	Temp	IERange	Over
	#	s	V	A	V	W	V	V	deg C	#	bits
	0	0.013333	6.38355E-001	5.99744E-003	0.00000E+000	3.82850E-003	3.59960E-001	-1.14485E+000	3.57650E+000	10	...........
	1	0.026667	6.47331E-001	5.99207E-003	0.00000E+000	3.87885E-003	3.59960E-001	-1.15482E+000	3.57650E+000	10	...........
	2	0.04	6.55537E-001	5.99324E-003	0.00000E+000	3.92879E-003	3.59960E-001	-1.14894E+000	3.57650E+000	10	...........
	3	0.053333	6.63375E-001	5.99409E-003	0.00000E+000	3.97633E-003	3.59960E-001	-1.14404E+000	3.57650E+000	10	...........
	4	0.066667	6.70999E-001	5.99577E-003	0.00000E+000	4.02316E-003	3.59960E-001	-1.15429E+000	3.57650E+000	10	...........
	5	0.08	6.78313E-001	5.99590E-003	0.00000E+000	4.06709E-003	3.59960E-001	-1.14883E+000	3.57650E+000	10	...........
	6	0.093333	6.85506E-001	5.99406E-003	0.00000E+000	4.10897E-003	3.59960E-001	-1.14412E+000	3.57650E+000	10	...........
	7	0.106667	6.92595E-001	5.99826E-003	0.00000E+000	4.15436E-003	3.59960E-001	-1.15403E+000	3.57650E+000	10	...........
	8	0.12	6.99598E-001	5.99400E-003	0.00000E+000	4.19339E-003	3.59960E-001	-1.14864E+000	3.57650E+000	10	...........
	9	0.133333	7.06491E-001	5.99859E-003	0.00000E+000	4.23795E-003	3.59960E-001	-1.14401E+000	3.57650E+000	10	...........
	10	0.146667	7.13343E-001	5.99681E-003	0.00000E+000	4.27778E-003	3.59960E-001	-1.15423E+000	3.57650E+000	10	...........
	11	0.16	7.20216E-001	5.98979E-003	0.00000E+000	4.31394E-003	3.59960E-001	-1.14878E+000	3.57650E+000	10	...........
	12	0.173333	7.26966E-001	5.99622E-003	0.00000E+000	4.35905E-003	3.59960E-001	-1.14377E+000	3.57650E+000	10	...........
	13	0.186667	7.33684E-001	5.99219E-003	0.00000E+000	4.39637E-003	3.59960E-001	-1.15366E+000	3.57650E+000	10	...........
	14	0.2	7.40414E-001	5.99600E-003	0.00000E+000	4.43953E-003	3.59960E-001	-1.14836E+000	3.57650E+000	10	...........
	15	0.213333	7.47085E-001	5.99397E-003	0.00000E+000	4.47801E-003	3.59960E-001	-1.14390E+000	3.57650E+000	10	...........
	16	0.226667	7.53762E-001	5.99667E-003	0.00000E+000	4.52006E-003	3.59960E-001	-1.15403E+000	3.57650E+000	10	...........
	17	0.24	7.60372E-001	5.99417E-003	0.00000E+000	4.55779E-003	3.59960E-001	-1.14839E+000	3.57650E+000	10	...........
	18	0.253333	7.66974E-001	6.00078E-003	0.00000E+000	4.60244E-003	3.59960E-001	-1.14387E+000	3.57650E+000	10	...........
	19	0.266667	7.73538E-001	5.99273E-003	0.00000E+000	4.63560E-003	3.59960E-001	-1.15384E+000	3.57650E+000	10	...........
	20	0.28	7.80094E-001	5.99311E-003	0.00000E+000	4.67519E-003	3.59960E-001	-1.14853E+000	3.57650E+000	10	...........
	21	0.293333	7.86608E-001	5.99094E-003	0.00000E+000	4.71252E-003	3.59960E-001	-1.14402E+000	3.57650E+000	10	...........
	22	0.306667	7.93144E-001	5.99144E-003	0.00000E+000	4.75208E-003	3.59960E-001	-1.15389E+000	3.57650E+000	10	...........
	23	0.32	7.99686E-001	5.99503E-003	0.00000E+000	4.79415E-003	3.59960E-001	-1.14833E+000	3.57650E+000	10	...........
	24	0.333333	8.06182E-001	5.99239E-003	0.00000E+000	4.83096E-003	3.59960E-001	-1.14362E+000	3.57650E+000	10	...........
	25	0.346667	8.12606E-001	5.99152E-003	0.00000E+000	4.86874E-003	3.59960E-001	-1.15384E+000	3.57650E+000	10	...........
	26	0.36	8.19090E-001	5.99221E-003	0.00000E+000	4.90815E-003	3.59960E-001	-1.14826E+000	3.57650E+000	10	...........
	27	0.373333	8.25544E-001	5.99769E-003	0.00000E+000	4.95136E-003	3.59960E-001	-1.14333E+000	3.57650E+000	10	...........
	28	0.386667	8.31942E-001	5.98933E-003	0.00000E+000	4.98277E-003	3.59960E-001	-1.15313E+000	3.57650E+000	10	...........
	29	0.4	8.38354E-001	5.99541E-003	0.00000E+000	5.02628E-003	3.59960E-001	-1.14784E+000	3.57650E+000	10	...........
	30	0.413333	8.44729E-001	5.99294E-003	0.00000E+000	5.06241E-003	3.59960E-001	-1.14334E+000	3.57650E+000	10	...........
	31	0.426667	8.51135E-001	5.99393E-003	0.00000E+000	5.10164E-003	3.59960E-001	-1.15327E+000	3.57650E+000	10	...........
	32	0.44	8.57453E-001	5.99344E-003	0.00000E+000	5.13909E-003	3.59960E-001	-1.14796E+000	3.57650E+000	10	...........
	33	0.453333	8.63771E-001	5.99011E-003	0.00000E+000	5.17408E-003	3.59960E-001	-1.14304E+000	3.57650E+000	10	...........
	34	0.466667	8.70117E-001	5.99412E-003	0.00000E+000	5.21558E-003	3.59960E-001	-1.15299E+000	3.57650E+000	10	...........
	35	0.48	8.76415E-001	5.99527E-003	0.00000E+000	5.25434E-003	3.59960E-001	-1.14804E+000	3.57650E+000	10	...........
	36	0.493333	8.82624E-001	5.98820E-003	0.00000E+000	5.28533E-003	3.59960E-001	-1.14307E+000	3.57650E+000	10	...........
	37	0.506667	8.88859E-001	5.99222E-003	0.00000E+000	5.32624E-003	3.59960E-001	-1.15269E+000	3.57650E+000	10	...........
	38	0.52	8.95031E-001	5.99832E-003	0.00000E+000	5.36868E-003	3.59960E-001	-1.14767E+000	3.57650E+000	10	...........
	39	0.533333	9.01221E-001	5.99279E-003	0.00000E+000	5.40083E-003	3.59960E-001	-1.14282E+000	3.57650E+000	10	...........
	40	0.546667	9.07377E-001	5.99896E-003	0.00000E+000	5.44332E-003	3.59960E-001	-1.15296E+000	3.57650E+000	10	...........
	41	0.56	9.13469E-001	5.99576E-003	0.00000E+000	5.47695E-003	3.59960E-001	-1.14782E+000	3.57650E+000	10	...........
	42	0.573333	9.19548E-001	5.99299E-003	0.00000E+000	5.51084E-003	3.59960E-001	-1.14316E+000	3.57650E+000	10	...........
	43	0.586667	9.25619E-001	5.98964E-003	0.00000E+000	5.54412E-003	3.59960E-001	-1.15295E+000	3.57650E+000	10	...........
	44	0.6	9.31619E-001	5.99821E-003	0.00000E+000	5.58805E-003	3.59960E-001	-1.14786E+000	3.57650E+000	10	...........
	45	0.613333	9.37575E-001	5.99240E-003	0.00000E+000	5.61833E-003	3.59960E-001	-1.14315E+000	3.57650E+000	10	...........
	46	0.626667	9.43497E-001	5.99508E-003	0.00000E+000	5.65634E-003	3.59960E-001	-1.15308E+000	3.57650E+000	10	...........
	47	0.64	9.49435E-001	5.99440E-003	0.00000E+000	5.69129E-003	3.59960E-001	-1.14775E+000	3.57650E+000	10	...........
	48	0.653333	9.55279E-001	5.99130E-003	0.00000E+000	5.72336E-003	3.59960E-001	-1.14296E+000	3.57650E+000	10	...........
	49	0.666667	9.61057E-001	5.99310E-003	0.00000E+000	5.75971E-003	3.59960E-001	-1.15290E+000	3.57650E+000	10	...........
	50	0.68	9.66798E-001	5.98956E-003	0.00000E+000	5.79069E-003	3.59960E-001	-1.14750E+000	3.57650E+000	10	...........
	51	0.693333	9.72564E-001	5.99367E-003	0.00000E+000	5.82922E-003	3.59960E-001	-1.14263E+000	3.57650E+000	10	...........
	52	0.706667	9.78233E-001	5.99262E-003	0.00000E+000	5.86218E-003	3.59960E-001	-1.15240E+000	3.57650E+000	10	...........
	53	0.72	9.83818E-001	5.99373E-003	0.00000E+000	5.89674E-003	3.59960E-001	-1.14713E+000	3.57650E+000	10	...........
	54	0.733333	9.89401E-001	5.99182E-003	0.00000E+000	5.92831E-003	3.59960E-001	-1.14256E+000	3.57650E+000	10	...........
	55	0.746667	9.94887E-001	5.99713E-003	0.00000E+000	5.96647E-003	3.59960E-001	-1.15251E+000	3.57650E+000	10	...........
	56	0.753333	9.99036E-001	5.99022E-003	0.00000E+000	5.98445E-003	3.59960E-001	-1.13777E+000	3.57650E+000	10	...........
STARTTIMEOFFSET	QUANT	995.927	Start Time Offset (s)