File: Data/CV_CRGO300517_1/PWRCCD_CRGO300517_1/CHARGE_DISCHARGE/CHARGE_#706.DTA
EXPLAIN
TAG	PWR800_CHARGE
TITLE	LABEL	PWR Cyclic Charge Discharge (Cell) - Charge Step	Test &Identifier
DATE	LABEL	22-6-2017	Date
TIME	LABEL	16:03:47	Time
NOTES	NOTES	3	&Notes...
	supercap test cell
	0.6mg
	6M KOH
PSTAT	PSTAT	IFC5000-01520	Potentiostat
CAPACITY	QUANT	1.00000E-003	Capacity (A-hr)
CELLTYPE	SELECTOR	1	&Cell Type
WORKINGCONNECTION	SELECTOR	0	&Working Lead
MAXCHARGETIME	VARIABLEANDUNITS	1.00000E+002	s	1.00000E+002	second(s)	Max &Charge Time
CHARGECURRENT	QUANT	6.00000E-003	&Charge Current (A)
VOLTAGEFINISH	TWOPARAM	F	1.00000E-003	3.60000E+003	&Voltage Finish	 I (A) < 	Max Time(s)
SAMPLETIME	QUANT	1.00000E-002	Sa&mple Period (s)
CHARGESTOPAT1	MULTIPARAM	4	1.00000E+000	Charge Stop At &1	Voltage > Limit	V
CHARGESTOPAT2	MULTIPARAM	0	0.00000E+000	Charge Stop At &2	None	N/A
AESBHCSELECTOR	TOGGLE	F	Save Both Half Cells
IRCOMP	TOGGLE	F	IR &Measure
EOC	QUANT	0	Open Circuit (V)
SEQUENCER	TOGGLE	TRUE	Run as Sequence
PSTATMODEL	IQUANT	53	Pstat Model
PSTATSECTION	LABEL	IFC5000-01520	Pstat Section
PSTATSERIALNO	LABEL	01520	Pstat Serial Number
CTRLMODE	IQUANT	0	Control Mode
ELECTROMETER	IQUANT	1	RE=0 or CS=1
IESTAB	IQUANT	0	I/E Stability
CASPEED	IQUANT	4	Control Amp Speed
CONVENTION	IQUANT	1	Current Convention
ICHRANGE	IQUANT	2	Ich Range
ICHRANGEMODE	TOGGLE	T	Ich Auto Range
ICHOFFSETENABLE	TOGGLE	F	Ich Offset Enable
ICHOFFSET	QUANT	0	Ich Offset (V)
ICHFILTER	IQUANT	1	Ich Filter
VCHRANGE	IQUANT	2	Vch Range
VCHRANGEMODE	TOGGLE	T	Vch Auto Range
VCHOFFSETENABLE	TOGGLE	F	Vch Offset Enable
VCHOFFSET	QUANT	0	Vch Offset (V)
VCHFILTER	IQUANT	1	Vch Filter
IERANGELOWERLIMIT	IQUANT	9	I/E Range Lower Limit
IERANGEMODE	TOGGLE	F	I/E AutoRange
IERANGE	IQUANT	10	I/E Range
ACHSELECT	IQUANT	1	Ach Select
ACHRANGE	IQUANT	2	Ach Range
ACHOFFSETENABLE	TOGGLE	F	Ach Offset Enable
ACHOFFSET	QUANT	0	Ach Offset (V)
ACHFILTER	IQUANT	1	Ach Filter
CABLEID	IQUANT	14	Cable ID
DCCALDATE	LABEL	20-10-2016	DC Calibration Date
ACCALDATE	LABEL	12/3/2015	AC Calibration Date
FRAMEWORKVERSION	QUANT	7.01	Framework Version
INSTRUMENTVERSION	LABEL	4.00	Instrument Version
CURVE	TABLE	56
	Pt	T	Vf	Im	Vu	Pwr	Sig	Ach	Temp	IERange	Over
	#	s	V	A	V	W	V	V	deg C	#	bits
	0	0.013333	6.43608E-001	5.99217E-003	0.00000E+000	3.85661E-003	3.59960E-001	-1.15923E+000	3.57670E+000	10	...........
	1	0.026667	6.52692E-001	5.99361E-003	0.00000E+000	3.91198E-003	3.59960E-001	-1.15434E+000	3.57680E+000	10	...........
	2	0.04	6.61059E-001	5.99782E-003	0.00000E+000	3.96491E-003	3.59960E-001	-1.14935E+000	3.57690E+000	10	...........
	3	0.053333	6.68993E-001	5.99930E-003	0.00000E+000	4.01349E-003	3.59960E-001	-1.15920E+000	3.57690E+000	10	...........
	4	0.066667	6.76608E-001	5.98981E-003	0.00000E+000	4.05275E-003	3.59960E-001	-1.15435E+000	3.57690E+000	10	...........
	5	0.08	6.84018E-001	5.99439E-003	0.00000E+000	4.10027E-003	3.59960E-001	-1.14914E+000	3.57690E+000	10	...........
	6	0.093333	6.91286E-001	5.99709E-003	0.00000E+000	4.14570E-003	3.59960E-001	-1.15846E+000	3.57690E+000	10	...........
	7	0.106667	6.98506E-001	5.99493E-003	0.00000E+000	4.18749E-003	3.59960E-001	-1.15299E+000	3.57690E+000	10	...........
	8	0.12	7.05589E-001	5.99607E-003	0.00000E+000	4.23076E-003	3.59960E-001	-1.14802E+000	3.57690E+000	10	...........
	9	0.133333	7.12609E-001	5.99466E-003	0.00000E+000	4.27185E-003	3.59960E-001	-1.15790E+000	3.57690E+000	10	...........
	10	0.146667	7.19614E-001	5.99761E-003	0.00000E+000	4.31596E-003	3.59960E-001	-1.15265E+000	3.57690E+000	10	...........
	11	0.16	7.26520E-001	5.99074E-003	0.00000E+000	4.35239E-003	3.59960E-001	-1.14771E+000	3.57690E+000	10	...........
	12	0.173333	7.33392E-001	5.99330E-003	0.00000E+000	4.39544E-003	3.59960E-001	-1.15771E+000	3.57690E+000	10	...........
	13	0.186667	7.40215E-001	5.99102E-003	0.00000E+000	4.43464E-003	3.59960E-001	-1.15239E+000	3.57690E+000	10	...........
	14	0.2	7.47009E-001	5.99862E-003	0.00000E+000	4.48103E-003	3.59960E-001	-1.14782E+000	3.57690E+000	10	...........
	15	0.213333	7.53735E-001	5.99240E-003	0.00000E+000	4.51669E-003	3.59960E-001	-1.15801E+000	3.57690E+000	10	...........
	16	0.226667	7.60492E-001	5.99981E-003	0.00000E+000	4.56281E-003	3.59960E-001	-1.15232E+000	3.57690E+000	10	...........
	17	0.24	7.67158E-001	5.99437E-003	0.00000E+000	4.59862E-003	3.59960E-001	-1.14759E+000	3.57690E+000	10	...........
	18	0.253333	7.73840E-001	5.99549E-003	0.00000E+000	4.63955E-003	3.59960E-001	-1.15787E+000	3.57690E+000	10	...........
	19	0.266667	7.80493E-001	5.99795E-003	0.00000E+000	4.68136E-003	3.59960E-001	-1.15229E+000	3.57690E+000	10	...........
	20	0.28	7.87177E-001	5.99817E-003	0.00000E+000	4.72162E-003	3.59960E-001	-1.14778E+000	3.57690E+000	10	...........
	21	0.293333	7.93814E-001	5.99400E-003	0.00000E+000	4.75812E-003	3.59960E-001	-1.15782E+000	3.57690E+000	10	...........
	22	0.306667	8.00384E-001	5.99330E-003	0.00000E+000	4.79694E-003	3.59960E-001	-1.15201E+000	3.57690E+000	10	...........
	23	0.32	8.06971E-001	5.99338E-003	0.00000E+000	4.83649E-003	3.59960E-001	-1.14728E+000	3.57690E+000	10	...........
	24	0.333333	8.13490E-001	5.99264E-003	0.00000E+000	4.87496E-003	3.59960E-001	-1.15775E+000	3.57690E+000	10	...........
	25	0.346667	8.20057E-001	5.99301E-003	0.00000E+000	4.91461E-003	3.59960E-001	-1.15189E+000	3.57690E+000	10	...........
	26	0.36	8.26587E-001	5.99313E-003	0.00000E+000	4.95385E-003	3.59960E-001	-1.14753E+000	3.57690E+000	10	...........
	27	0.373333	8.33111E-001	5.98951E-003	0.00000E+000	4.98993E-003	3.59960E-001	-1.15792E+000	3.57690E+000	10	...........
	28	0.386667	8.39568E-001	5.99473E-003	0.00000E+000	5.03299E-003	3.59960E-001	-1.15186E+000	3.57690E+000	10	...........
	29	0.4	8.46038E-001	5.99454E-003	0.00000E+000	5.07161E-003	3.59960E-001	-1.14749E+000	3.57690E+000	10	...........
	30	0.413333	8.52458E-001	5.99131E-003	0.00000E+000	5.10734E-003	3.59960E-001	-1.15810E+000	3.57690E+000	10	...........
	31	0.426667	8.58866E-001	5.99280E-003	0.00000E+000	5.14701E-003	3.59960E-001	-1.15181E+000	3.57690E+000	10	...........
	32	0.44	8.65262E-001	5.98971E-003	0.00000E+000	5.18267E-003	3.59960E-001	-1.14731E+000	3.57690E+000	10	...........
	33	0.453333	8.71648E-001	5.99107E-003	0.00000E+000	5.22210E-003	3.59960E-001	-1.15769E+000	3.57690E+000	10	...........
	34	0.466667	8.77943E-001	5.99370E-003	0.00000E+000	5.26212E-003	3.59960E-001	-1.15107E+000	3.57690E+000	10	...........
	35	0.48	8.84261E-001	5.99844E-003	0.00000E+000	5.30419E-003	3.59960E-001	-1.14724E+000	3.57690E+000	10	...........
	36	0.493333	8.90530E-001	5.99486E-003	0.00000E+000	5.33860E-003	3.59960E-001	-1.15775E+000	3.57690E+000	10	...........
	37	0.506667	8.96802E-001	5.99741E-003	0.00000E+000	5.37849E-003	3.59960E-001	-1.15110E+000	3.57690E+000	10	...........
	38	0.52	9.03034E-001	5.99810E-003	0.00000E+000	5.41649E-003	3.59960E-001	-1.14715E+000	3.57690E+000	10	...........
	39	0.533333	9.09202E-001	6.00045E-003	0.00000E+000	5.45562E-003	3.59960E-001	-1.15775E+000	3.57690E+000	10	...........
	40	0.546667	9.15331E-001	5.99427E-003	0.00000E+000	5.48674E-003	3.59960E-001	-1.15087E+000	3.57690E+000	10	...........
	41	0.56	9.21496E-001	5.99992E-003	0.00000E+000	5.52891E-003	3.59960E-001	-1.14710E+000	3.57690E+000	10	...........
	42	0.573333	9.27592E-001	5.99587E-003	0.00000E+000	5.56172E-003	3.59960E-001	-1.15780E+000	3.57690E+000	10	...........
	43	0.586667	9.33583E-001	5.99019E-003	0.00000E+000	5.59234E-003	3.59960E-001	-1.15106E+000	3.57690E+000	10	...........
	44	0.6	9.39545E-001	5.99410E-003	0.00000E+000	5.63173E-003	3.59960E-001	-1.14716E+000	3.57690E+000	10	...........
	45	0.613333	9.45524E-001	5.99056E-003	0.00000E+000	5.66422E-003	3.59960E-001	-1.15791E+000	3.57690E+000	10	...........
	46	0.626667	9.51442E-001	5.99121E-003	0.00000E+000	5.70029E-003	3.59960E-001	-1.15067E+000	3.57690E+000	10	...........
	47	0.64	9.57264E-001	5.99086E-003	0.00000E+000	5.73484E-003	3.59960E-001	-1.14678E+000	3.57690E+000	10	...........
	48	0.653333	9.63080E-001	5.99864E-003	0.00000E+000	5.77717E-003	3.59960E-001	-1.15780E+000	3.57690E+000	10	...........
	49	0.666667	9.68874E-001	5.99692E-003	0.00000E+000	5.81026E-003	3.59960E-001	-1.15073E+000	3.57690E+000	10	...........
	50	0.68	9.74643E-001	5.99079E-003	0.00000E+000	5.83888E-003	3.59960E-001	-1.14724E+000	3.57690E+000	10	...........
	51	0.693333	9.80352E-001	6.00124E-003	0.00000E+000	5.88332E-003	3.59960E-001	-1.15818E+000	3.57690E+000	10	...........
	52	0.706667	9.85975E-001	5.99028E-003	0.00000E+000	5.90626E-003	3.59960E-001	-1.15056E+000	3.57690E+000	10	...........
	53	0.72	9.91563E-001	5.99136E-003	0.00000E+000	5.94081E-003	3.59960E-001	-1.14724E+000	3.57690E+000	10	...........
	54	0.733333	9.97074E-001	5.99639E-003	0.00000E+000	5.97884E-003	3.59960E-001	-1.15799E+000	3.57690E+000	10	...........
	55	0.735	1.00011E+000	5.99563E-003	0.00000E+000	5.99631E-003	3.59960E-001	-1.13534E+000	3.57690E+000	10	...........
STARTTIMEOFFSET	QUANT	1168.022	Start Time Offset (s)