File: Data/CV_CRGO300517_1/PWRCCD_CRGO300517_1/CHARGE_DISCHARGE/CHARGE_#635.DTA
EXPLAIN
TAG	PWR800_CHARGE
TITLE	LABEL	PWR Cyclic Charge Discharge (Cell) - Charge Step	Test &Identifier
DATE	LABEL	22-6-2017	Date
TIME	LABEL	16:01:06	Time
NOTES	NOTES	3	&Notes...
	supercap test cell
	0.6mg
	6M KOH
PSTAT	PSTAT	IFC5000-01520	Potentiostat
CAPACITY	QUANT	1.00000E-003	Capacity (A-hr)
CELLTYPE	SELECTOR	1	&Cell Type
WORKINGCONNECTION	SELECTOR	0	&Working Lead
MAXCHARGETIME	VARIABLEANDUNITS	1.00000E+002	s	1.00000E+002	second(s)	Max &Charge Time
CHARGECURRENT	QUANT	6.00000E-003	&Charge Current (A)
VOLTAGEFINISH	TWOPARAM	F	1.00000E-003	3.60000E+003	&Voltage Finish	 I (A) < 	Max Time(s)
SAMPLETIME	QUANT	1.00000E-002	Sa&mple Period (s)
CHARGESTOPAT1	MULTIPARAM	4	1.00000E+000	Charge Stop At &1	Voltage > Limit	V
CHARGESTOPAT2	MULTIPARAM	0	0.00000E+000	Charge Stop At &2	None	N/A
AESBHCSELECTOR	TOGGLE	F	Save Both Half Cells
IRCOMP	TOGGLE	F	IR &Measure
EOC	QUANT	0	Open Circuit (V)
SEQUENCER	TOGGLE	TRUE	Run as Sequence
PSTATMODEL	IQUANT	53	Pstat Model
PSTATSECTION	LABEL	IFC5000-01520	Pstat Section
PSTATSERIALNO	LABEL	01520	Pstat Serial Number
CTRLMODE	IQUANT	0	Control Mode
ELECTROMETER	IQUANT	1	RE=0 or CS=1
IESTAB	IQUANT	0	I/E Stability
CASPEED	IQUANT	4	Control Amp Speed
CONVENTION	IQUANT	1	Current Convention
ICHRANGE	IQUANT	2	Ich Range
ICHRANGEMODE	TOGGLE	T	Ich Auto Range
ICHOFFSETENABLE	TOGGLE	F	Ich Offset Enable
ICHOFFSET	QUANT	0	Ich Offset (V)
ICHFILTER	IQUANT	1	Ich Filter
VCHRANGE	IQUANT	2	Vch Range
VCHRANGEMODE	TOGGLE	T	Vch Auto Range
VCHOFFSETENABLE	TOGGLE	F	Vch Offset Enable
VCHOFFSET	QUANT	0	Vch Offset (V)
VCHFILTER	IQUANT	1	Vch Filter
IERANGELOWERLIMIT	IQUANT	9	I/E Range Lower Limit
IERANGEMODE	TOGGLE	F	I/E AutoRange
IERANGE	IQUANT	10	I/E Range
ACHSELECT	IQUANT	1	Ach Select
ACHRANGE	IQUANT	2	Ach Range
ACHOFFSETENABLE	TOGGLE	F	Ach Offset Enable
ACHOFFSET	QUANT	0	Ach Offset (V)
ACHFILTER	IQUANT	1	Ach Filter
CABLEID	IQUANT	14	Cable ID
DCCALDATE	LABEL	20-10-2016	DC Calibration Date
ACCALDATE	LABEL	12/3/2015	AC Calibration Date
FRAMEWORKVERSION	QUANT	7.01	Framework Version
INSTRUMENTVERSION	LABEL	4.00	Instrument Version
CURVE	TABLE	56
	Pt	T	Vf	Im	Vu	Pwr	Sig	Ach	Temp	IERange	Over
	#	s	V	A	V	W	V	V	deg C	#	bits
	0	0.013333	6.39927E-001	5.99013E-003	0.00000E+000	3.83325E-003	3.59960E-001	-1.15662E+000	3.57640E+000	10	...........
	1	0.026667	6.48969E-001	5.98808E-003	0.00000E+000	3.88608E-003	3.59960E-001	-1.14711E+000	3.57650E+000	10	...........
	2	0.04	6.57272E-001	5.99614E-003	0.00000E+000	3.94110E-003	3.59960E-001	-1.14549E+000	3.57660E+000	10	...........
	3	0.053333	6.65140E-001	5.99264E-003	0.00000E+000	3.98595E-003	3.59960E-001	-1.15656E+000	3.57660E+000	10	...........
	4	0.066667	6.72722E-001	5.99435E-003	0.00000E+000	4.03253E-003	3.59960E-001	-1.14712E+000	3.57660E+000	10	...........
	5	0.08	6.80093E-001	5.99032E-003	0.00000E+000	4.07397E-003	3.59960E-001	-1.14572E+000	3.57660E+000	10	...........
	6	0.093333	6.87340E-001	5.99429E-003	0.00000E+000	4.12011E-003	3.59960E-001	-1.15666E+000	3.57660E+000	10	...........
	7	0.106667	6.94505E-001	5.99399E-003	0.00000E+000	4.16285E-003	3.59960E-001	-1.14719E+000	3.57660E+000	10	...........
	8	0.12	7.01552E-001	5.99666E-003	0.00000E+000	4.20697E-003	3.59960E-001	-1.14535E+000	3.57660E+000	10	...........
	9	0.133333	7.08527E-001	5.99349E-003	0.00000E+000	4.24655E-003	3.59960E-001	-1.15666E+000	3.57660E+000	10	...........
	10	0.146667	7.15433E-001	5.99417E-003	0.00000E+000	4.28842E-003	3.59960E-001	-1.14746E+000	3.57660E+000	10	...........
	11	0.16	7.22329E-001	5.99693E-003	0.00000E+000	4.33176E-003	3.59960E-001	-1.14543E+000	3.57660E+000	10	...........
	12	0.173333	7.29130E-001	5.99811E-003	0.00000E+000	4.37340E-003	3.59960E-001	-1.15620E+000	3.57660E+000	10	...........
	13	0.186667	7.35903E-001	5.99290E-003	0.00000E+000	4.41019E-003	3.59960E-001	-1.14663E+000	3.57660E+000	10	...........
	14	0.2	7.42664E-001	5.99299E-003	0.00000E+000	4.45078E-003	3.59960E-001	-1.14506E+000	3.57660E+000	10	...........
	15	0.213333	7.49335E-001	5.99401E-003	0.00000E+000	4.49152E-003	3.59960E-001	-1.15636E+000	3.57660E+000	10	...........
	16	0.226667	7.56055E-001	5.99100E-003	0.00000E+000	4.52952E-003	3.59960E-001	-1.14690E+000	3.57660E+000	10	...........
	17	0.24	7.62662E-001	5.99175E-003	0.00000E+000	4.56968E-003	3.59960E-001	-1.14504E+000	3.57660E+000	10	...........
	18	0.253333	7.69306E-001	5.99880E-003	0.00000E+000	4.61491E-003	3.59960E-001	-1.15613E+000	3.57660E+000	10	...........
	19	0.266667	7.75942E-001	5.99177E-003	0.00000E+000	4.64927E-003	3.59960E-001	-1.14670E+000	3.57660E+000	10	...........
	20	0.28	7.82576E-001	5.99772E-003	0.00000E+000	4.69368E-003	3.59960E-001	-1.14523E+000	3.57660E+000	10	...........
	21	0.293333	7.89165E-001	5.99462E-003	0.00000E+000	4.73074E-003	3.59960E-001	-1.15637E+000	3.57660E+000	10	...........
	22	0.306667	7.95755E-001	5.99370E-003	0.00000E+000	4.76951E-003	3.59960E-001	-1.14670E+000	3.57660E+000	10	...........
	23	0.32	8.02325E-001	5.99163E-003	0.00000E+000	4.80723E-003	3.59960E-001	-1.14504E+000	3.57660E+000	10	...........
	24	0.333333	8.08807E-001	5.99391E-003	0.00000E+000	4.84791E-003	3.59960E-001	-1.15613E+000	3.57660E+000	10	...........
	25	0.346667	8.15321E-001	5.99156E-003	0.00000E+000	4.88504E-003	3.59960E-001	-1.14694E+000	3.57660E+000	10	...........
	26	0.36	8.21819E-001	5.99382E-003	0.00000E+000	4.92584E-003	3.59960E-001	-1.14517E+000	3.57660E+000	10	...........
	27	0.373333	8.28253E-001	5.99259E-003	0.00000E+000	4.96338E-003	3.59960E-001	-1.15593E+000	3.57660E+000	10	...........
	28	0.386667	8.34684E-001	5.99192E-003	0.00000E+000	5.00136E-003	3.59960E-001	-1.14649E+000	3.57660E+000	10	...........
	29	0.4	8.41133E-001	5.99482E-003	0.00000E+000	5.04244E-003	3.59960E-001	-1.14512E+000	3.57660E+000	10	...........
	30	0.413333	8.47593E-001	5.99611E-003	0.00000E+000	5.08226E-003	3.59960E-001	-1.15615E+000	3.57660E+000	10	...........
	31	0.426667	8.53941E-001	5.99421E-003	0.00000E+000	5.11870E-003	3.59960E-001	-1.14664E+000	3.57660E+000	10	...........
	32	0.44	8.60306E-001	5.99225E-003	0.00000E+000	5.15517E-003	3.59960E-001	-1.14503E+000	3.57660E+000	10	...........
	33	0.453333	8.66645E-001	5.99394E-003	0.00000E+000	5.19461E-003	3.59960E-001	-1.15610E+000	3.57660E+000	10	...........
	34	0.466667	8.72997E-001	5.99403E-003	0.00000E+000	5.23277E-003	3.59960E-001	-1.14656E+000	3.57660E+000	10	...........
	35	0.48	8.79266E-001	5.99157E-003	0.00000E+000	5.26818E-003	3.59960E-001	-1.14496E+000	3.57660E+000	10	...........
	36	0.493333	8.85553E-001	5.99014E-003	0.00000E+000	5.30459E-003	3.59960E-001	-1.15573E+000	3.57660E+000	10	...........
	37	0.506667	8.91784E-001	5.99277E-003	0.00000E+000	5.34426E-003	3.59960E-001	-1.14607E+000	3.57660E+000	10	...........
	38	0.52	8.98000E-001	5.99323E-003	0.00000E+000	5.38192E-003	3.59960E-001	-1.14434E+000	3.57660E+000	10	...........
	39	0.533333	9.04159E-001	5.99373E-003	0.00000E+000	5.41928E-003	3.59960E-001	-1.15577E+000	3.57660E+000	10	...........
	40	0.546667	9.10286E-001	5.99755E-003	0.00000E+000	5.45948E-003	3.59960E-001	-1.14636E+000	3.57660E+000	10	...........
	41	0.56	9.16374E-001	5.99361E-003	0.00000E+000	5.49239E-003	3.59960E-001	-1.14485E+000	3.57660E+000	10	...........
	42	0.573333	9.22482E-001	5.99691E-003	0.00000E+000	5.53204E-003	3.59960E-001	-1.15565E+000	3.57660E+000	10	...........
	43	0.586667	9.28499E-001	5.99119E-003	0.00000E+000	5.56282E-003	3.59960E-001	-1.14612E+000	3.57660E+000	10	...........
	44	0.6	9.34500E-001	5.99806E-003	0.00000E+000	5.60518E-003	3.59960E-001	-1.14483E+000	3.57660E+000	10	...........
	45	0.613333	9.40428E-001	5.99185E-003	0.00000E+000	5.63491E-003	3.59960E-001	-1.15574E+000	3.57660E+000	10	...........
	46	0.626667	9.46358E-001	5.99459E-003	0.00000E+000	5.67303E-003	3.59960E-001	-1.14624E+000	3.57660E+000	10	...........
	47	0.64	9.52286E-001	5.99688E-003	0.00000E+000	5.71075E-003	3.59960E-001	-1.14473E+000	3.57660E+000	10	...........
	48	0.653333	9.58096E-001	5.99235E-003	0.00000E+000	5.74125E-003	3.59960E-001	-1.15563E+000	3.57660E+000	10	...........
	49	0.666667	9.63861E-001	5.99164E-003	0.00000E+000	5.77511E-003	3.59960E-001	-1.14613E+000	3.57660E+000	10	...........
	50	0.68	9.69609E-001	5.99185E-003	0.00000E+000	5.80975E-003	3.59960E-001	-1.14466E+000	3.57660E+000	10	...........
	51	0.693333	9.75361E-001	5.99320E-003	0.00000E+000	5.84553E-003	3.59960E-001	-1.15575E+000	3.57660E+000	10	...........
	52	0.706667	9.80973E-001	5.99671E-003	0.00000E+000	5.88261E-003	3.59960E-001	-1.14635E+000	3.57660E+000	10	...........
	53	0.72	9.86544E-001	5.98869E-003	0.00000E+000	5.90811E-003	3.59960E-001	-1.14460E+000	3.57660E+000	10	...........
	54	0.733333	9.92115E-001	5.99556E-003	0.00000E+000	5.94829E-003	3.59960E-001	-1.15571E+000	3.57660E+000	10	...........
	55	0.746667	9.97648E-001	5.99823E-003	0.00000E+000	5.98413E-003	3.59960E-001	-1.14618E+000	3.57660E+000	10	...........
STARTTIMEOFFSET	QUANT	1063.192	Start Time Offset (s)