File: Data/CV_CRGO300517_1/PWRCCD_CRGO300517_1/CHARGE_DISCHARGE/CHARGE_#609.DTA
EXPLAIN
TAG	PWR800_CHARGE
TITLE	LABEL	PWR Cyclic Charge Discharge (Cell) - Charge Step	Test &Identifier
DATE	LABEL	22-6-2017	Date
TIME	LABEL	16:00:06	Time
NOTES	NOTES	3	&Notes...
	supercap test cell
	0.6mg
	6M KOH
PSTAT	PSTAT	IFC5000-01520	Potentiostat
CAPACITY	QUANT	1.00000E-003	Capacity (A-hr)
CELLTYPE	SELECTOR	1	&Cell Type
WORKINGCONNECTION	SELECTOR	0	&Working Lead
MAXCHARGETIME	VARIABLEANDUNITS	1.00000E+002	s	1.00000E+002	second(s)	Max &Charge Time
CHARGECURRENT	QUANT	6.00000E-003	&Charge Current (A)
VOLTAGEFINISH	TWOPARAM	F	1.00000E-003	3.60000E+003	&Voltage Finish	 I (A) < 	Max Time(s)
SAMPLETIME	QUANT	1.00000E-002	Sa&mple Period (s)
CHARGESTOPAT1	MULTIPARAM	4	1.00000E+000	Charge Stop At &1	Voltage > Limit	V
CHARGESTOPAT2	MULTIPARAM	0	0.00000E+000	Charge Stop At &2	None	N/A
AESBHCSELECTOR	TOGGLE	F	Save Both Half Cells
IRCOMP	TOGGLE	F	IR &Measure
EOC	QUANT	0	Open Circuit (V)
SEQUENCER	TOGGLE	TRUE	Run as Sequence
PSTATMODEL	IQUANT	53	Pstat Model
PSTATSECTION	LABEL	IFC5000-01520	Pstat Section
PSTATSERIALNO	LABEL	01520	Pstat Serial Number
CTRLMODE	IQUANT	0	Control Mode
ELECTROMETER	IQUANT	1	RE=0 or CS=1
IESTAB	IQUANT	0	I/E Stability
CASPEED	IQUANT	4	Control Amp Speed
CONVENTION	IQUANT	1	Current Convention
ICHRANGE	IQUANT	2	Ich Range
ICHRANGEMODE	TOGGLE	T	Ich Auto Range
ICHOFFSETENABLE	TOGGLE	F	Ich Offset Enable
ICHOFFSET	QUANT	0	Ich Offset (V)
ICHFILTER	IQUANT	1	Ich Filter
VCHRANGE	IQUANT	2	Vch Range
VCHRANGEMODE	TOGGLE	T	Vch Auto Range
VCHOFFSETENABLE	TOGGLE	F	Vch Offset Enable
VCHOFFSET	QUANT	0	Vch Offset (V)
VCHFILTER	IQUANT	1	Vch Filter
IERANGELOWERLIMIT	IQUANT	9	I/E Range Lower Limit
IERANGEMODE	TOGGLE	F	I/E AutoRange
IERANGE	IQUANT	10	I/E Range
ACHSELECT	IQUANT	1	Ach Select
ACHRANGE	IQUANT	2	Ach Range
ACHOFFSETENABLE	TOGGLE	F	Ach Offset Enable
ACHOFFSET	QUANT	0	Ach Offset (V)
ACHFILTER	IQUANT	1	Ach Filter
CABLEID	IQUANT	14	Cable ID
DCCALDATE	LABEL	20-10-2016	DC Calibration Date
ACCALDATE	LABEL	12/3/2015	AC Calibration Date
FRAMEWORKVERSION	QUANT	7.01	Framework Version
INSTRUMENTVERSION	LABEL	4.00	Instrument Version
CURVE	TABLE	57
	Pt	T	Vf	Im	Vu	Pwr	Sig	Ach	Temp	IERange	Over
	#	s	V	A	V	W	V	V	deg C	#	bits
	0	0.013333	6.38372E-001	5.99017E-003	0.00000E+000	3.82396E-003	3.59960E-001	-1.15737E+000	3.57640E+000	10	...........
	1	0.026667	6.47419E-001	5.99555E-003	0.00000E+000	3.88163E-003	3.59960E-001	-1.14712E+000	3.57640E+000	10	...........
	2	0.04	6.55677E-001	5.99270E-003	0.00000E+000	3.92927E-003	3.59960E-001	-1.14919E+000	3.57640E+000	10	...........
	3	0.053333	6.63523E-001	5.98824E-003	0.00000E+000	3.97334E-003	3.59960E-001	-1.15730E+000	3.57640E+000	10	...........
	4	0.066667	6.71124E-001	5.99643E-003	0.00000E+000	4.02435E-003	3.59960E-001	-1.14705E+000	3.57640E+000	10	...........
	5	0.08	6.78476E-001	5.99413E-003	0.00000E+000	4.06687E-003	3.59960E-001	-1.14897E+000	3.57640E+000	10	...........
	6	0.093333	6.85668E-001	5.98993E-003	0.00000E+000	4.10710E-003	3.59960E-001	-1.15742E+000	3.57640E+000	10	...........
	7	0.106667	6.92792E-001	5.99640E-003	0.00000E+000	4.15426E-003	3.59960E-001	-1.14709E+000	3.57640E+000	10	...........
	8	0.12	6.99787E-001	5.99261E-003	0.00000E+000	4.19355E-003	3.59960E-001	-1.14880E+000	3.57640E+000	10	...........
	9	0.133333	7.06716E-001	5.99240E-003	0.00000E+000	4.23493E-003	3.59960E-001	-1.15729E+000	3.57640E+000	10	...........
	10	0.146667	7.13564E-001	5.99586E-003	0.00000E+000	4.27843E-003	3.59960E-001	-1.14655E+000	3.57640E+000	10	...........
	11	0.16	7.20469E-001	5.99234E-003	0.00000E+000	4.31730E-003	3.59960E-001	-1.14828E+000	3.57640E+000	10	...........
	12	0.173333	7.27236E-001	5.99413E-003	0.00000E+000	4.35914E-003	3.59960E-001	-1.15708E+000	3.57640E+000	10	...........
	13	0.186667	7.33964E-001	5.98967E-003	0.00000E+000	4.39621E-003	3.59960E-001	-1.14663E+000	3.57640E+000	10	...........
	14	0.2	7.40719E-001	5.99310E-003	0.00000E+000	4.43921E-003	3.59960E-001	-1.14826E+000	3.57640E+000	10	...........
	15	0.213333	7.47399E-001	5.99682E-003	0.00000E+000	4.48202E-003	3.59960E-001	-1.15719E+000	3.57640E+000	10	...........
	16	0.226667	7.54101E-001	5.99031E-003	0.00000E+000	4.51729E-003	3.59960E-001	-1.14653E+000	3.57640E+000	10	...........
	17	0.24	7.60752E-001	5.99189E-003	0.00000E+000	4.55834E-003	3.59960E-001	-1.14814E+000	3.57640E+000	10	...........
	18	0.253333	7.67363E-001	5.99484E-003	0.00000E+000	4.60022E-003	3.59960E-001	-1.15705E+000	3.57640E+000	10	...........
	19	0.266667	7.73968E-001	5.99747E-003	0.00000E+000	4.64185E-003	3.59960E-001	-1.14637E+000	3.57640E+000	10	...........
	20	0.28	7.80527E-001	5.99348E-003	0.00000E+000	4.67807E-003	3.59960E-001	-1.14784E+000	3.57640E+000	10	...........
	21	0.293333	7.87086E-001	5.99034E-003	0.00000E+000	4.71492E-003	3.59960E-001	-1.15702E+000	3.57640E+000	10	...........
	22	0.306667	7.93696E-001	5.99701E-003	0.00000E+000	4.75981E-003	3.59960E-001	-1.14644E+000	3.57640E+000	10	...........
	23	0.32	8.00226E-001	5.99328E-003	0.00000E+000	4.79598E-003	3.59960E-001	-1.14770E+000	3.57650E+000	10	...........
	24	0.333333	8.06726E-001	5.99438E-003	0.00000E+000	4.83582E-003	3.59960E-001	-1.15697E+000	3.57660E+000	10	...........
	25	0.346667	8.13231E-001	5.99474E-003	0.00000E+000	4.87511E-003	3.59960E-001	-1.14639E+000	3.57660E+000	10	...........
	26	0.36	8.19711E-001	5.99271E-003	0.00000E+000	4.91229E-003	3.59960E-001	-1.14794E+000	3.57660E+000	10	...........
	27	0.373333	8.26133E-001	5.98892E-003	0.00000E+000	4.94765E-003	3.59960E-001	-1.15717E+000	3.57660E+000	10	...........
	28	0.386667	8.32552E-001	5.99058E-003	0.00000E+000	4.98747E-003	3.59960E-001	-1.14659E+000	3.57660E+000	10	...........
	29	0.4	8.38969E-001	5.99721E-003	0.00000E+000	5.03148E-003	3.59960E-001	-1.14752E+000	3.57660E+000	10	...........
	30	0.413333	8.45434E-001	5.99432E-003	0.00000E+000	5.06781E-003	3.59960E-001	-1.15706E+000	3.57660E+000	10	...........
	31	0.426667	8.51813E-001	5.99435E-003	0.00000E+000	5.10607E-003	3.59960E-001	-1.14665E+000	3.57660E+000	10	...........
	32	0.44	8.58190E-001	5.99354E-003	0.00000E+000	5.14360E-003	3.59960E-001	-1.14774E+000	3.57660E+000	10	...........
	33	0.453333	8.64509E-001	5.99556E-003	0.00000E+000	5.18322E-003	3.59960E-001	-1.15685E+000	3.57660E+000	10	...........
	34	0.466667	8.70836E-001	5.99363E-003	0.00000E+000	5.21947E-003	3.59960E-001	-1.14611E+000	3.57660E+000	10	...........
	35	0.48	8.77106E-001	5.99318E-003	0.00000E+000	5.25665E-003	3.59960E-001	-1.14707E+000	3.57660E+000	10	...........
	36	0.493333	8.83428E-001	5.99548E-003	0.00000E+000	5.29658E-003	3.59960E-001	-1.15675E+000	3.57660E+000	10	...........
	37	0.506667	8.89687E-001	5.99113E-003	0.00000E+000	5.33023E-003	3.59960E-001	-1.14627E+000	3.57660E+000	10	...........
	38	0.52	8.95879E-001	5.99172E-003	0.00000E+000	5.36785E-003	3.59960E-001	-1.14687E+000	3.57660E+000	10	...........
	39	0.533333	9.02060E-001	5.99749E-003	0.00000E+000	5.41010E-003	3.59960E-001	-1.15672E+000	3.57660E+000	10	...........
	40	0.546667	9.08189E-001	5.99667E-003	0.00000E+000	5.44611E-003	3.59960E-001	-1.14637E+000	3.57660E+000	10	...........
	41	0.56	9.14309E-001	5.99531E-003	0.00000E+000	5.48157E-003	3.59960E-001	-1.14712E+000	3.57660E+000	10	...........
	42	0.573333	9.20398E-001	5.99445E-003	0.00000E+000	5.51728E-003	3.59960E-001	-1.15685E+000	3.57660E+000	10	...........
	43	0.586667	9.26462E-001	5.99632E-003	0.00000E+000	5.55536E-003	3.59960E-001	-1.14621E+000	3.57660E+000	10	...........
	44	0.6	9.32473E-001	5.99103E-003	0.00000E+000	5.58647E-003	3.59960E-001	-1.14673E+000	3.57660E+000	10	...........
	45	0.613333	9.38404E-001	5.99208E-003	0.00000E+000	5.62299E-003	3.59960E-001	-1.15663E+000	3.57660E+000	10	...........
	46	0.626667	9.44338E-001	5.99807E-003	0.00000E+000	5.66421E-003	3.59960E-001	-1.14617E+000	3.57660E+000	10	...........
	47	0.64	9.50281E-001	5.99598E-003	0.00000E+000	5.69787E-003	3.59960E-001	-1.14664E+000	3.57660E+000	10	...........
	48	0.653333	9.56101E-001	5.99313E-003	0.00000E+000	5.73004E-003	3.59960E-001	-1.15665E+000	3.57660E+000	10	...........
	49	0.666667	9.61869E-001	5.99564E-003	0.00000E+000	5.76702E-003	3.59960E-001	-1.14627E+000	3.57660E+000	10	...........
	50	0.68	9.67616E-001	5.99401E-003	0.00000E+000	5.79990E-003	3.59960E-001	-1.14668E+000	3.57660E+000	10	...........
	51	0.693333	9.73374E-001	5.98990E-003	0.00000E+000	5.83041E-003	3.59960E-001	-1.15707E+000	3.57660E+000	10	...........
	52	0.706667	9.79035E-001	5.99136E-003	0.00000E+000	5.86575E-003	3.59960E-001	-1.14645E+000	3.57660E+000	10	...........
	53	0.72	9.84675E-001	5.99057E-003	0.00000E+000	5.89876E-003	3.59960E-001	-1.14673E+000	3.57660E+000	10	...........
	54	0.733333	9.90197E-001	6.00109E-003	0.00000E+000	5.94226E-003	3.59960E-001	-1.15678E+000	3.57660E+000	10	...........
	55	0.746667	9.95686E-001	5.99667E-003	0.00000E+000	5.97080E-003	3.59960E-001	-1.14642E+000	3.57660E+000	10	...........
	56	0.751667	9.99467E-001	5.98929E-003	0.00000E+000	5.98609E-003	3.59960E-001	-1.15845E+000	3.57660E+000	10	...........
STARTTIMEOFFSET	QUANT	1024.419	Start Time Offset (s)