File: Data/CV_CRGO300517_1/PWRCCD_CRGO300517_1/CHARGE_DISCHARGE/CHARGE_#124.DTA
EXPLAIN
TAG	PWR800_CHARGE
TITLE	LABEL	PWR Cyclic Charge Discharge (Cell) - Charge Step	Test &Identifier
DATE	LABEL	22-6-2017	Date
TIME	LABEL	15:40:34	Time
NOTES	NOTES	3	&Notes...
	supercap test cell
	0.6mg
	6M KOH
PSTAT	PSTAT	IFC5000-01520	Potentiostat
CAPACITY	QUANT	1.00000E-003	Capacity (A-hr)
CELLTYPE	SELECTOR	1	&Cell Type
WORKINGCONNECTION	SELECTOR	0	&Working Lead
MAXCHARGETIME	VARIABLEANDUNITS	1.00000E+002	s	1.00000E+002	second(s)	Max &Charge Time
CHARGECURRENT	QUANT	6.00000E-003	&Charge Current (A)
VOLTAGEFINISH	TWOPARAM	F	1.00000E-003	3.60000E+003	&Voltage Finish	 I (A) < 	Max Time(s)
SAMPLETIME	QUANT	1.00000E-002	Sa&mple Period (s)
CHARGESTOPAT1	MULTIPARAM	4	1.00000E+000	Charge Stop At &1	Voltage > Limit	V
CHARGESTOPAT2	MULTIPARAM	0	0.00000E+000	Charge Stop At &2	None	N/A
AESBHCSELECTOR	TOGGLE	F	Save Both Half Cells
IRCOMP	TOGGLE	F	IR &Measure
EOC	QUANT	0	Open Circuit (V)
SEQUENCER	TOGGLE	TRUE	Run as Sequence
PSTATMODEL	IQUANT	53	Pstat Model
PSTATSECTION	LABEL	IFC5000-01520	Pstat Section
PSTATSERIALNO	LABEL	01520	Pstat Serial Number
CTRLMODE	IQUANT	0	Control Mode
ELECTROMETER	IQUANT	1	RE=0 or CS=1
IESTAB	IQUANT	0	I/E Stability
CASPEED	IQUANT	4	Control Amp Speed
CONVENTION	IQUANT	1	Current Convention
ICHRANGE	IQUANT	2	Ich Range
ICHRANGEMODE	TOGGLE	T	Ich Auto Range
ICHOFFSETENABLE	TOGGLE	F	Ich Offset Enable
ICHOFFSET	QUANT	0	Ich Offset (V)
ICHFILTER	IQUANT	1	Ich Filter
VCHRANGE	IQUANT	2	Vch Range
VCHRANGEMODE	TOGGLE	T	Vch Auto Range
VCHOFFSETENABLE	TOGGLE	F	Vch Offset Enable
VCHOFFSET	QUANT	0	Vch Offset (V)
VCHFILTER	IQUANT	1	Vch Filter
IERANGELOWERLIMIT	IQUANT	9	I/E Range Lower Limit
IERANGEMODE	TOGGLE	F	I/E AutoRange
IERANGE	IQUANT	10	I/E Range
ACHSELECT	IQUANT	1	Ach Select
ACHRANGE	IQUANT	2	Ach Range
ACHOFFSETENABLE	TOGGLE	F	Ach Offset Enable
ACHOFFSET	QUANT	0	Ach Offset (V)
ACHFILTER	IQUANT	1	Ach Filter
CABLEID	IQUANT	14	Cable ID
DCCALDATE	LABEL	20-10-2016	DC Calibration Date
ACCALDATE	LABEL	12/3/2015	AC Calibration Date
FRAMEWORKVERSION	QUANT	7.01	Framework Version
INSTRUMENTVERSION	LABEL	4.00	Instrument Version
CURVE	TABLE	69
	Pt	T	Vf	Im	Vu	Pwr	Sig	Ach	Temp	IERange	Over
	#	s	V	A	V	W	V	V	deg C	#	bits
	0	0.013333	5.93799E-001	5.99286E-003	0.00000E+000	3.55855E-003	3.59960E-001	-1.07537E+000	3.57700E+000	10	...........
	1	0.026667	6.02099E-001	5.99478E-003	0.00000E+000	3.60945E-003	3.59960E-001	-1.07729E+000	3.57700E+000	10	...........
	2	0.04	6.09716E-001	5.99080E-003	0.00000E+000	3.65269E-003	3.59960E-001	-1.06835E+000	3.57700E+000	10	...........
	3	0.053333	6.16981E-001	5.99863E-003	0.00000E+000	3.70104E-003	3.59960E-001	-1.07473E+000	3.57700E+000	10	...........
	4	0.066667	6.23910E-001	5.99589E-003	0.00000E+000	3.74089E-003	3.59960E-001	-1.07669E+000	3.57701E+000	10	...........
	5	0.08	6.30665E-001	5.99735E-003	0.00000E+000	3.78232E-003	3.59960E-001	-1.06842E+000	3.57710E+000	10	...........
	6	0.093333	6.37270E-001	5.99071E-003	0.00000E+000	3.81770E-003	3.59960E-001	-1.07464E+000	3.57710E+000	10	...........
	7	0.106667	6.43809E-001	5.99452E-003	0.00000E+000	3.85932E-003	3.59960E-001	-1.07650E+000	3.57710E+000	10	...........
	8	0.12	6.50231E-001	5.99246E-003	0.00000E+000	3.89648E-003	3.59960E-001	-1.06808E+000	3.57710E+000	10	...........
	9	0.133333	6.56568E-001	5.99388E-003	0.00000E+000	3.93539E-003	3.59960E-001	-1.07463E+000	3.57710E+000	10	...........
	10	0.146667	6.62854E-001	5.99516E-003	0.00000E+000	3.97392E-003	3.59960E-001	-1.07638E+000	3.57710E+000	10	...........
	11	0.16	6.69135E-001	5.99410E-003	0.00000E+000	4.01087E-003	3.59960E-001	-1.06804E+000	3.57710E+000	10	...........
	12	0.173333	6.75344E-001	5.99249E-003	0.00000E+000	4.04699E-003	3.59960E-001	-1.07432E+000	3.57710E+000	10	...........
	13	0.186667	6.81482E-001	5.99559E-003	0.00000E+000	4.08589E-003	3.59960E-001	-1.07615E+000	3.57710E+000	10	...........
	14	0.2	6.87590E-001	5.99453E-003	0.00000E+000	4.12178E-003	3.59960E-001	-1.06772E+000	3.57710E+000	10	...........
	15	0.213333	6.93708E-001	5.98972E-003	0.00000E+000	4.15512E-003	3.59960E-001	-1.07428E+000	3.57710E+000	10	...........
	16	0.226667	6.99813E-001	5.99939E-003	0.00000E+000	4.19845E-003	3.59960E-001	-1.07575E+000	3.57710E+000	10	...........
	17	0.24	7.05844E-001	5.99283E-003	0.00000E+000	4.23000E-003	3.59960E-001	-1.06753E+000	3.57710E+000	10	...........
	18	0.253333	7.11907E-001	5.99611E-003	0.00000E+000	4.26867E-003	3.59960E-001	-1.07411E+000	3.57710E+000	10	...........
	19	0.266667	7.17967E-001	5.99133E-003	0.00000E+000	4.30158E-003	3.59960E-001	-1.07585E+000	3.57710E+000	10	...........
	20	0.28	7.24006E-001	5.99487E-003	0.00000E+000	4.34032E-003	3.59960E-001	-1.06750E+000	3.57710E+000	10	...........
	21	0.293333	7.30015E-001	5.99797E-003	0.00000E+000	4.37861E-003	3.59960E-001	-1.07410E+000	3.57710E+000	10	...........
	22	0.306667	7.35995E-001	5.99567E-003	0.00000E+000	4.41278E-003	3.59960E-001	-1.07556E+000	3.57710E+000	10	...........
	23	0.32	7.42036E-001	5.99830E-003	0.00000E+000	4.45095E-003	3.59960E-001	-1.06741E+000	3.57710E+000	10	...........
	24	0.333333	7.48020E-001	6.00004E-003	0.00000E+000	4.48815E-003	3.59960E-001	-1.07373E+000	3.57710E+000	10	...........
	25	0.346667	7.54013E-001	5.99075E-003	0.00000E+000	4.51710E-003	3.59960E-001	-1.07534E+000	3.57710E+000	10	...........
	26	0.36	7.60018E-001	5.99902E-003	0.00000E+000	4.55936E-003	3.59960E-001	-1.06670E+000	3.57710E+000	10	...........
	27	0.373333	7.65966E-001	5.99438E-003	0.00000E+000	4.59149E-003	3.59960E-001	-1.07306E+000	3.57710E+000	10	...........
	28	0.386667	7.71937E-001	5.99547E-003	0.00000E+000	4.62813E-003	3.59960E-001	-1.07444E+000	3.57710E+000	10	...........
	29	0.4	7.77928E-001	5.99827E-003	0.00000E+000	4.66622E-003	3.59960E-001	-1.06642E+000	3.57710E+000	10	...........
	30	0.413333	7.83923E-001	5.99725E-003	0.00000E+000	4.70138E-003	3.59960E-001	-1.07295E+000	3.57710E+000	10	...........
	31	0.426667	7.89826E-001	5.99600E-003	0.00000E+000	4.73580E-003	3.59960E-001	-1.07420E+000	3.57710E+000	10	...........
	32	0.44	7.95790E-001	5.99282E-003	0.00000E+000	4.76903E-003	3.59960E-001	-1.06604E+000	3.57710E+000	10	...........
	33	0.453333	8.01748E-001	5.99230E-003	0.00000E+000	4.80432E-003	3.59960E-001	-1.07276E+000	3.57710E+000	10	...........
	34	0.466667	8.07679E-001	5.99200E-003	0.00000E+000	4.83961E-003	3.59960E-001	-1.07401E+000	3.57710E+000	10	...........
	35	0.48	8.13609E-001	5.99584E-003	0.00000E+000	4.87827E-003	3.59960E-001	-1.06598E+000	3.57710E+000	10	...........
	36	0.493333	8.19555E-001	5.99439E-003	0.00000E+000	4.91273E-003	3.59960E-001	-1.07246E+000	3.57710E+000	10	...........
	37	0.506667	8.25508E-001	5.99351E-003	0.00000E+000	4.94769E-003	3.59960E-001	-1.07362E+000	3.57710E+000	10	...........
	38	0.52	8.31370E-001	5.99439E-003	0.00000E+000	4.98356E-003	3.59960E-001	-1.06575E+000	3.57710E+000	10	...........
	39	0.533333	8.37324E-001	5.99571E-003	0.00000E+000	5.02035E-003	3.59960E-001	-1.07218E+000	3.57710E+000	10	...........
	40	0.546667	8.43232E-001	5.99310E-003	0.00000E+000	5.05358E-003	3.59960E-001	-1.07351E+000	3.57710E+000	10	...........
	41	0.56	8.49177E-001	5.99470E-003	0.00000E+000	5.09056E-003	3.59960E-001	-1.06521E+000	3.57710E+000	10	...........
	42	0.573333	8.55047E-001	5.99715E-003	0.00000E+000	5.12784E-003	3.59960E-001	-1.07181E+000	3.57710E+000	10	...........
	43	0.586667	8.60930E-001	5.99410E-003	0.00000E+000	5.16050E-003	3.59960E-001	-1.07323E+000	3.57710E+000	10	...........
	44	0.6	8.66822E-001	5.99736E-003	0.00000E+000	5.19864E-003	3.59960E-001	-1.06526E+000	3.57710E+000	10	...........
	45	0.613333	8.72669E-001	5.98950E-003	0.00000E+000	5.22686E-003	3.59960E-001	-1.07197E+000	3.57710E+000	10	...........
	46	0.626667	8.78550E-001	5.99886E-003	0.00000E+000	5.27030E-003	3.59960E-001	-1.07307E+000	3.57710E+000	10	...........
	47	0.64	8.84389E-001	5.99649E-003	0.00000E+000	5.30323E-003	3.59960E-001	-1.06520E+000	3.57710E+000	10	...........
	48	0.653333	8.90216E-001	5.99056E-003	0.00000E+000	5.33289E-003	3.59960E-001	-1.07183E+000	3.57710E+000	10	...........
	49	0.666667	8.96024E-001	5.99337E-003	0.00000E+000	5.37021E-003	3.59960E-001	-1.07306E+000	3.57710E+000	10	...........
	50	0.68	9.01813E-001	5.99728E-003	0.00000E+000	5.40842E-003	3.59960E-001	-1.06482E+000	3.57710E+000	10	...........
	51	0.693333	9.07580E-001	5.98983E-003	0.00000E+000	5.43625E-003	3.59960E-001	-1.07137E+000	3.57710E+000	10	...........
	52	0.706667	9.13347E-001	5.99387E-003	0.00000E+000	5.47449E-003	3.59960E-001	-1.07252E+000	3.57710E+000	10	...........
	53	0.72	9.19105E-001	5.99476E-003	0.00000E+000	5.50982E-003	3.59960E-001	-1.06474E+000	3.57710E+000	10	...........
	54	0.733333	9.24919E-001	5.99095E-003	0.00000E+000	5.54115E-003	3.59960E-001	-1.07155E+000	3.57710E+000	10	...........
	55	0.746667	9.30612E-001	5.99662E-003	0.00000E+000	5.58053E-003	3.59960E-001	-1.07264E+000	3.57710E+000	10	...........
	56	0.76	9.36297E-001	5.99069E-003	0.00000E+000	5.60907E-003	3.59960E-001	-1.06476E+000	3.57710E+000	10	...........
	57	0.773333	9.41963E-001	5.99414E-003	0.00000E+000	5.64625E-003	3.59960E-001	-1.07127E+000	3.57710E+000	10	...........
	58	0.786667	9.47567E-001	5.99301E-003	0.00000E+000	5.67878E-003	3.59960E-001	-1.07219E+000	3.57710E+000	10	...........
	59	0.8	9.53174E-001	5.99441E-003	0.00000E+000	5.71371E-003	3.59960E-001	-1.06461E+000	3.57710E+000	10	...........
	60	0.813333	9.58812E-001	5.99400E-003	0.00000E+000	5.74712E-003	3.59960E-001	-1.07138E+000	3.57710E+000	10	...........
	61	0.826667	9.64342E-001	5.99660E-003	0.00000E+000	5.78277E-003	3.59960E-001	-1.07229E+000	3.57710E+000	10	...........
	62	0.84	9.69860E-001	5.99785E-003	0.00000E+000	5.81708E-003	3.59960E-001	-1.06460E+000	3.57710E+000	10	...........
	63	0.853333	9.75399E-001	5.99748E-003	0.00000E+000	5.84994E-003	3.59960E-001	-1.07108E+000	3.57710E+000	10	...........
	64	0.866667	9.80839E-001	5.99498E-003	0.00000E+000	5.88011E-003	3.59960E-001	-1.07216E+000	3.57710E+000	10	...........
	65	0.88	9.86259E-001	5.99164E-003	0.00000E+000	5.90931E-003	3.59960E-001	-1.06470E+000	3.57710E+000	10	...........
	66	0.893333	9.91668E-001	5.99586E-003	0.00000E+000	5.94590E-003	3.59960E-001	-1.07110E+000	3.57710E+000	10	...........
	67	0.906667	9.96973E-001	5.98871E-003	0.00000E+000	5.97058E-003	3.59960E-001	-1.07207E+000	3.57710E+000	10	...........
	68	0.91	1.00028E+000	5.99909E-003	0.00000E+000	6.00079E-003	3.59960E-001	-1.07245E+000	3.57710E+000	10	...........
STARTTIMEOFFSET	QUANT	239.0367	Start Time Offset (s)