File: Data/CV_CRGO300517_1/PWRCCD_CRGO300517_1/CHARGE_DISCHARGE/CHARGE_#544.DTA
EXPLAIN
TAG	PWR800_CHARGE
TITLE	LABEL	PWR Cyclic Charge Discharge (Cell) - Charge Step	Test &Identifier
DATE	LABEL	22-6-2017	Date
TIME	LABEL	15:57:37	Time
NOTES	NOTES	3	&Notes...
	supercap test cell
	0.6mg
	6M KOH
PSTAT	PSTAT	IFC5000-01520	Potentiostat
CAPACITY	QUANT	1.00000E-003	Capacity (A-hr)
CELLTYPE	SELECTOR	1	&Cell Type
WORKINGCONNECTION	SELECTOR	0	&Working Lead
MAXCHARGETIME	VARIABLEANDUNITS	1.00000E+002	s	1.00000E+002	second(s)	Max &Charge Time
CHARGECURRENT	QUANT	6.00000E-003	&Charge Current (A)
VOLTAGEFINISH	TWOPARAM	F	1.00000E-003	3.60000E+003	&Voltage Finish	 I (A) < 	Max Time(s)
SAMPLETIME	QUANT	1.00000E-002	Sa&mple Period (s)
CHARGESTOPAT1	MULTIPARAM	4	1.00000E+000	Charge Stop At &1	Voltage > Limit	V
CHARGESTOPAT2	MULTIPARAM	0	0.00000E+000	Charge Stop At &2	None	N/A
AESBHCSELECTOR	TOGGLE	F	Save Both Half Cells
IRCOMP	TOGGLE	F	IR &Measure
EOC	QUANT	0	Open Circuit (V)
SEQUENCER	TOGGLE	TRUE	Run as Sequence
PSTATMODEL	IQUANT	53	Pstat Model
PSTATSECTION	LABEL	IFC5000-01520	Pstat Section
PSTATSERIALNO	LABEL	01520	Pstat Serial Number
CTRLMODE	IQUANT	0	Control Mode
ELECTROMETER	IQUANT	1	RE=0 or CS=1
IESTAB	IQUANT	0	I/E Stability
CASPEED	IQUANT	4	Control Amp Speed
CONVENTION	IQUANT	1	Current Convention
ICHRANGE	IQUANT	2	Ich Range
ICHRANGEMODE	TOGGLE	T	Ich Auto Range
ICHOFFSETENABLE	TOGGLE	F	Ich Offset Enable
ICHOFFSET	QUANT	0	Ich Offset (V)
ICHFILTER	IQUANT	1	Ich Filter
VCHRANGE	IQUANT	2	Vch Range
VCHRANGEMODE	TOGGLE	T	Vch Auto Range
VCHOFFSETENABLE	TOGGLE	F	Vch Offset Enable
VCHOFFSET	QUANT	0	Vch Offset (V)
VCHFILTER	IQUANT	1	Vch Filter
IERANGELOWERLIMIT	IQUANT	9	I/E Range Lower Limit
IERANGEMODE	TOGGLE	F	I/E AutoRange
IERANGE	IQUANT	10	I/E Range
ACHSELECT	IQUANT	1	Ach Select
ACHRANGE	IQUANT	2	Ach Range
ACHOFFSETENABLE	TOGGLE	F	Ach Offset Enable
ACHOFFSET	QUANT	0	Ach Offset (V)
ACHFILTER	IQUANT	1	Ach Filter
CABLEID	IQUANT	14	Cable ID
DCCALDATE	LABEL	20-10-2016	DC Calibration Date
ACCALDATE	LABEL	12/3/2015	AC Calibration Date
FRAMEWORKVERSION	QUANT	7.01	Framework Version
INSTRUMENTVERSION	LABEL	4.00	Instrument Version
CURVE	TABLE	58
	Pt	T	Vf	Im	Vu	Pwr	Sig	Ach	Temp	IERange	Over
	#	s	V	A	V	W	V	V	deg C	#	bits
	0	0.013333	6.34501E-001	5.99534E-003	0.00000E+000	3.80405E-003	3.59960E-001	-1.13820E+000	3.57790E+000	10	...........
	1	0.026667	6.43475E-001	5.99279E-003	0.00000E+000	3.85621E-003	3.59960E-001	-1.13578E+000	3.57790E+000	10	...........
	2	0.04	6.51698E-001	5.99714E-003	0.00000E+000	3.90832E-003	3.59960E-001	-1.14704E+000	3.57790E+000	10	...........
	3	0.053333	6.59494E-001	5.99228E-003	0.00000E+000	3.95187E-003	3.59960E-001	-1.13832E+000	3.57790E+000	10	...........
	4	0.066667	6.67026E-001	5.99492E-003	0.00000E+000	3.99877E-003	3.59960E-001	-1.13607E+000	3.57790E+000	10	...........
	5	0.08	6.74366E-001	5.99345E-003	0.00000E+000	4.04178E-003	3.59960E-001	-1.14693E+000	3.57790E+000	10	...........
	6	0.093333	6.81502E-001	5.99604E-003	0.00000E+000	4.08632E-003	3.59960E-001	-1.13843E+000	3.57790E+000	10	...........
	7	0.106667	6.88556E-001	5.99473E-003	0.00000E+000	4.12771E-003	3.59960E-001	-1.13599E+000	3.57790E+000	10	...........
	8	0.12	6.95564E-001	5.98816E-003	0.00000E+000	4.16515E-003	3.59960E-001	-1.14686E+000	3.57790E+000	10	...........
	9	0.133333	7.02421E-001	5.99169E-003	0.00000E+000	4.20870E-003	3.59960E-001	-1.13833E+000	3.57790E+000	10	...........
	10	0.146667	7.09225E-001	5.99861E-003	0.00000E+000	4.25437E-003	3.59960E-001	-1.13568E+000	3.57790E+000	10	...........
	11	0.16	7.16035E-001	5.99585E-003	0.00000E+000	4.29324E-003	3.59960E-001	-1.14633E+000	3.57790E+000	10	...........
	12	0.173333	7.22813E-001	5.98549E-003	0.00000E+000	4.32639E-003	3.59960E-001	-1.13775E+000	3.57790E+000	10	...........
	13	0.186667	7.29513E-001	5.99154E-003	0.00000E+000	4.37090E-003	3.59960E-001	-1.13523E+000	3.57790E+000	10	...........
	14	0.2	7.36116E-001	5.99370E-003	0.00000E+000	4.41206E-003	3.59960E-001	-1.14626E+000	3.57790E+000	10	...........
	15	0.213333	7.42789E-001	5.99223E-003	0.00000E+000	4.45096E-003	3.59960E-001	-1.13753E+000	3.57790E+000	10	...........
	16	0.226667	7.49393E-001	5.99282E-003	0.00000E+000	4.49098E-003	3.59960E-001	-1.13501E+000	3.57790E+000	10	...........
	17	0.24	7.56014E-001	5.99908E-003	0.00000E+000	4.53539E-003	3.59960E-001	-1.14576E+000	3.57790E+000	10	...........
	18	0.253333	7.62577E-001	5.98844E-003	0.00000E+000	4.56665E-003	3.59960E-001	-1.13747E+000	3.57790E+000	10	...........
	19	0.266667	7.69141E-001	5.99517E-003	0.00000E+000	4.61113E-003	3.59960E-001	-1.13456E+000	3.57790E+000	10	...........
	20	0.28	7.75664E-001	5.99109E-003	0.00000E+000	4.64707E-003	3.59960E-001	-1.14568E+000	3.57790E+000	10	...........
	21	0.293333	7.82185E-001	5.99753E-003	0.00000E+000	4.69117E-003	3.59960E-001	-1.13743E+000	3.57790E+000	10	...........
	22	0.306667	7.88700E-001	5.99176E-003	0.00000E+000	4.72570E-003	3.59960E-001	-1.13465E+000	3.57790E+000	10	...........
	23	0.32	7.95192E-001	5.99373E-003	0.00000E+000	4.76617E-003	3.59960E-001	-1.14549E+000	3.57790E+000	10	...........
	24	0.333333	8.01681E-001	5.99644E-003	0.00000E+000	4.80723E-003	3.59960E-001	-1.13736E+000	3.57790E+000	10	...........
	25	0.346667	8.08149E-001	5.99488E-003	0.00000E+000	4.84475E-003	3.59960E-001	-1.13475E+000	3.57790E+000	10	...........
	26	0.36	8.14583E-001	5.99611E-003	0.00000E+000	4.88433E-003	3.59960E-001	-1.14562E+000	3.57790E+000	10	...........
	27	0.373333	8.21033E-001	5.99135E-003	0.00000E+000	4.91910E-003	3.59960E-001	-1.13762E+000	3.57790E+000	10	...........
	28	0.386667	8.27415E-001	5.99474E-003	0.00000E+000	4.96014E-003	3.59960E-001	-1.13460E+000	3.57790E+000	10	...........
	29	0.4	8.33804E-001	5.99148E-003	0.00000E+000	4.99571E-003	3.59960E-001	-1.14544E+000	3.57790E+000	10	...........
	30	0.413333	8.40181E-001	5.99636E-003	0.00000E+000	5.03803E-003	3.59960E-001	-1.13768E+000	3.57790E+000	10	...........
	31	0.426667	8.46561E-001	5.99449E-003	0.00000E+000	5.07470E-003	3.59960E-001	-1.13473E+000	3.57790E+000	10	...........
	32	0.44	8.52870E-001	5.99441E-003	0.00000E+000	5.11245E-003	3.59960E-001	-1.14556E+000	3.57790E+000	10	...........
	33	0.453333	8.59186E-001	5.99544E-003	0.00000E+000	5.15120E-003	3.59960E-001	-1.13753E+000	3.57790E+000	10	...........
	34	0.466667	8.65462E-001	5.99719E-003	0.00000E+000	5.19034E-003	3.59960E-001	-1.13427E+000	3.57790E+000	10	...........
	35	0.48	8.71729E-001	5.99297E-003	0.00000E+000	5.22424E-003	3.59960E-001	-1.14510E+000	3.57790E+000	10	...........
	36	0.493333	8.77949E-001	5.99587E-003	0.00000E+000	5.26406E-003	3.59960E-001	-1.13750E+000	3.57790E+000	10	...........
	37	0.506667	8.84195E-001	5.99622E-003	0.00000E+000	5.30183E-003	3.59960E-001	-1.13432E+000	3.57790E+000	10	...........
	38	0.52	8.90395E-001	5.99102E-003	0.00000E+000	5.33437E-003	3.59960E-001	-1.14503E+000	3.57790E+000	10	...........
	39	0.533333	8.96556E-001	5.99048E-003	0.00000E+000	5.37080E-003	3.59960E-001	-1.13729E+000	3.57790E+000	10	...........
	40	0.546667	9.02734E-001	5.99961E-003	0.00000E+000	5.41605E-003	3.59960E-001	-1.13432E+000	3.57790E+000	10	...........
	41	0.56	9.08794E-001	5.99188E-003	0.00000E+000	5.44539E-003	3.59960E-001	-1.14516E+000	3.57790E+000	10	...........
	42	0.573333	9.14871E-001	5.99571E-003	0.00000E+000	5.48530E-003	3.59960E-001	-1.13744E+000	3.57790E+000	10	...........
	43	0.586667	9.20961E-001	5.99319E-003	0.00000E+000	5.51949E-003	3.59960E-001	-1.13416E+000	3.57790E+000	10	...........
	44	0.6	9.26996E-001	5.99228E-003	0.00000E+000	5.55482E-003	3.59960E-001	-1.14495E+000	3.57790E+000	10	...........
	45	0.613333	9.32969E-001	5.99099E-003	0.00000E+000	5.58941E-003	3.59960E-001	-1.13752E+000	3.57790E+000	10	...........
	46	0.626667	9.38923E-001	5.99350E-003	0.00000E+000	5.62743E-003	3.59960E-001	-1.13441E+000	3.57790E+000	10	...........
	47	0.64	9.44795E-001	5.99475E-003	0.00000E+000	5.66381E-003	3.59960E-001	-1.14496E+000	3.57790E+000	10	...........
	48	0.653333	9.50688E-001	5.99682E-003	0.00000E+000	5.70110E-003	3.59960E-001	-1.13746E+000	3.57790E+000	10	...........
	49	0.666667	9.56494E-001	5.99164E-003	0.00000E+000	5.73097E-003	3.59960E-001	-1.13416E+000	3.57790E+000	10	...........
	50	0.68	9.62256E-001	5.99295E-003	0.00000E+000	5.76675E-003	3.59960E-001	-1.14511E+000	3.57790E+000	10	...........
	51	0.693333	9.67976E-001	5.99372E-003	0.00000E+000	5.80177E-003	3.59960E-001	-1.13790E+000	3.57790E+000	10	...........
	52	0.706667	9.73715E-001	5.99031E-003	0.00000E+000	5.83286E-003	3.59960E-001	-1.13436E+000	3.57790E+000	10	...........
	53	0.72	9.79384E-001	5.99179E-003	0.00000E+000	5.86826E-003	3.59960E-001	-1.14505E+000	3.57790E+000	10	...........
	54	0.733333	9.84958E-001	5.99231E-003	0.00000E+000	5.90218E-003	3.59960E-001	-1.13787E+000	3.57790E+000	10	...........
	55	0.746667	9.90509E-001	5.99431E-003	0.00000E+000	5.93742E-003	3.59960E-001	-1.13447E+000	3.57790E+000	10	...........
	56	0.76	9.96034E-001	5.99178E-003	0.00000E+000	5.96801E-003	3.59960E-001	-1.14512E+000	3.57790E+000	10	...........
	57	0.765	9.99811E-001	5.98951E-003	0.00000E+000	5.98837E-003	3.59960E-001	-1.12373E+000	3.57790E+000	10	...........
STARTTIMEOFFSET	QUANT	926.3869	Start Time Offset (s)