File: Data/CV_CRGO300517_1/PWRCCD_CRGO300517_1/CHARGE_DISCHARGE/CHARGE_#371.DTA
EXPLAIN
TAG	PWR800_CHARGE
TITLE	LABEL	PWR Cyclic Charge Discharge (Cell) - Charge Step	Test &Identifier
DATE	LABEL	22-6-2017	Date
TIME	LABEL	15:50:49	Time
NOTES	NOTES	3	&Notes...
	supercap test cell
	0.6mg
	6M KOH
PSTAT	PSTAT	IFC5000-01520	Potentiostat
CAPACITY	QUANT	1.00000E-003	Capacity (A-hr)
CELLTYPE	SELECTOR	1	&Cell Type
WORKINGCONNECTION	SELECTOR	0	&Working Lead
MAXCHARGETIME	VARIABLEANDUNITS	1.00000E+002	s	1.00000E+002	second(s)	Max &Charge Time
CHARGECURRENT	QUANT	6.00000E-003	&Charge Current (A)
VOLTAGEFINISH	TWOPARAM	F	1.00000E-003	3.60000E+003	&Voltage Finish	 I (A) < 	Max Time(s)
SAMPLETIME	QUANT	1.00000E-002	Sa&mple Period (s)
CHARGESTOPAT1	MULTIPARAM	4	1.00000E+000	Charge Stop At &1	Voltage > Limit	V
CHARGESTOPAT2	MULTIPARAM	0	0.00000E+000	Charge Stop At &2	None	N/A
AESBHCSELECTOR	TOGGLE	F	Save Both Half Cells
IRCOMP	TOGGLE	F	IR &Measure
EOC	QUANT	0	Open Circuit (V)
SEQUENCER	TOGGLE	TRUE	Run as Sequence
PSTATMODEL	IQUANT	53	Pstat Model
PSTATSECTION	LABEL	IFC5000-01520	Pstat Section
PSTATSERIALNO	LABEL	01520	Pstat Serial Number
CTRLMODE	IQUANT	0	Control Mode
ELECTROMETER	IQUANT	1	RE=0 or CS=1
IESTAB	IQUANT	0	I/E Stability
CASPEED	IQUANT	4	Control Amp Speed
CONVENTION	IQUANT	1	Current Convention
ICHRANGE	IQUANT	2	Ich Range
ICHRANGEMODE	TOGGLE	T	Ich Auto Range
ICHOFFSETENABLE	TOGGLE	F	Ich Offset Enable
ICHOFFSET	QUANT	0	Ich Offset (V)
ICHFILTER	IQUANT	1	Ich Filter
VCHRANGE	IQUANT	2	Vch Range
VCHRANGEMODE	TOGGLE	T	Vch Auto Range
VCHOFFSETENABLE	TOGGLE	F	Vch Offset Enable
VCHOFFSET	QUANT	0	Vch Offset (V)
VCHFILTER	IQUANT	1	Vch Filter
IERANGELOWERLIMIT	IQUANT	9	I/E Range Lower Limit
IERANGEMODE	TOGGLE	F	I/E AutoRange
IERANGE	IQUANT	10	I/E Range
ACHSELECT	IQUANT	1	Ach Select
ACHRANGE	IQUANT	2	Ach Range
ACHOFFSETENABLE	TOGGLE	F	Ach Offset Enable
ACHOFFSET	QUANT	0	Ach Offset (V)
ACHFILTER	IQUANT	1	Ach Filter
CABLEID	IQUANT	14	Cable ID
DCCALDATE	LABEL	20-10-2016	DC Calibration Date
ACCALDATE	LABEL	12/3/2015	AC Calibration Date
FRAMEWORKVERSION	QUANT	7.01	Framework Version
INSTRUMENTVERSION	LABEL	4.00	Instrument Version
CURVE	TABLE	61
	Pt	T	Vf	Im	Vu	Pwr	Sig	Ach	Temp	IERange	Over
	#	s	V	A	V	W	V	V	deg C	#	bits
	0	0.013333	6.22527E-001	5.99777E-003	0.00000E+000	3.73377E-003	3.59960E-001	-1.12348E+000	3.57680E+000	10	...........
	1	0.026667	6.31231E-001	5.99597E-003	0.00000E+000	3.78485E-003	3.59960E-001	-1.11584E+000	3.57680E+000	10	...........
	2	0.04	6.39227E-001	5.99274E-003	0.00000E+000	3.83072E-003	3.59960E-001	-1.12292E+000	3.57680E+000	10	...........
	3	0.053333	6.46830E-001	5.99297E-003	0.00000E+000	3.87643E-003	3.59960E-001	-1.12274E+000	3.57680E+000	10	...........
	4	0.066667	6.54115E-001	5.99282E-003	0.00000E+000	3.91999E-003	3.59960E-001	-1.11478E+000	3.57680E+000	10	...........
	5	0.08	6.61281E-001	5.99445E-003	0.00000E+000	3.96402E-003	3.59960E-001	-1.12219E+000	3.57680E+000	10	...........
	6	0.093333	6.68305E-001	5.99292E-003	0.00000E+000	4.00510E-003	3.59960E-001	-1.12250E+000	3.57680E+000	10	...........
	7	0.106667	6.75176E-001	5.99737E-003	0.00000E+000	4.04928E-003	3.59960E-001	-1.11503E+000	3.57680E+000	10	...........
	8	0.12	6.81923E-001	5.99916E-003	0.00000E+000	4.09097E-003	3.59960E-001	-1.12208E+000	3.57680E+000	10	...........
	9	0.133333	6.88649E-001	5.99343E-003	0.00000E+000	4.12737E-003	3.59960E-001	-1.12223E+000	3.57680E+000	10	...........
	10	0.146667	6.95310E-001	5.99269E-003	0.00000E+000	4.16677E-003	3.59960E-001	-1.11507E+000	3.57680E+000	10	...........
	11	0.16	7.01884E-001	5.99417E-003	0.00000E+000	4.20721E-003	3.59960E-001	-1.12242E+000	3.57680E+000	10	...........
	12	0.173333	7.08437E-001	5.99231E-003	0.00000E+000	4.24518E-003	3.59960E-001	-1.12214E+000	3.57680E+000	10	...........
	13	0.186667	7.14976E-001	5.99860E-003	0.00000E+000	4.28886E-003	3.59960E-001	-1.11471E+000	3.57680E+000	10	...........
	14	0.2	7.21517E-001	5.99227E-003	0.00000E+000	4.32353E-003	3.59960E-001	-1.12210E+000	3.57680E+000	10	...........
	15	0.213333	7.27998E-001	5.99963E-003	0.00000E+000	4.36772E-003	3.59960E-001	-1.12213E+000	3.57680E+000	10	...........
	16	0.226667	7.34448E-001	5.99338E-003	0.00000E+000	4.40183E-003	3.59960E-001	-1.11480E+000	3.57680E+000	10	...........
	17	0.24	7.40877E-001	5.99449E-003	0.00000E+000	4.44118E-003	3.59960E-001	-1.12194E+000	3.57680E+000	10	...........
	18	0.253333	7.47297E-001	5.99416E-003	0.00000E+000	4.47941E-003	3.59960E-001	-1.12188E+000	3.57680E+000	10	...........
	19	0.266667	7.53717E-001	5.99851E-003	0.00000E+000	4.52117E-003	3.59960E-001	-1.11482E+000	3.57680E+000	10	...........
	20	0.28	7.60137E-001	5.99322E-003	0.00000E+000	4.55566E-003	3.59960E-001	-1.12252E+000	3.57680E+000	10	...........
	21	0.293333	7.66540E-001	5.99288E-003	0.00000E+000	4.59379E-003	3.59960E-001	-1.12230E+000	3.57680E+000	10	...........
	22	0.306667	7.72896E-001	5.99495E-003	0.00000E+000	4.63347E-003	3.59960E-001	-1.11469E+000	3.57680E+000	10	...........
	23	0.32	7.79236E-001	5.98829E-003	0.00000E+000	4.66629E-003	3.59960E-001	-1.12220E+000	3.57680E+000	10	...........
	24	0.333333	7.85611E-001	5.99468E-003	0.00000E+000	4.70948E-003	3.59960E-001	-1.12205E+000	3.57680E+000	10	...........
	25	0.346667	7.91923E-001	5.99742E-003	0.00000E+000	4.74950E-003	3.59960E-001	-1.11495E+000	3.57680E+000	10	...........
	26	0.36	7.98234E-001	5.99616E-003	0.00000E+000	4.78634E-003	3.59960E-001	-1.12249E+000	3.57680E+000	10	...........
	27	0.373333	8.04513E-001	5.99447E-003	0.00000E+000	4.82263E-003	3.59960E-001	-1.12198E+000	3.57680E+000	10	...........
	28	0.386667	8.10774E-001	5.99565E-003	0.00000E+000	4.86112E-003	3.59960E-001	-1.11421E+000	3.57680E+000	10	...........
	29	0.4	8.17093E-001	5.99489E-003	0.00000E+000	4.89838E-003	3.59960E-001	-1.12174E+000	3.57680E+000	10	...........
	30	0.413333	8.23330E-001	5.99550E-003	0.00000E+000	4.93628E-003	3.59960E-001	-1.12162E+000	3.57680E+000	10	...........
	31	0.426667	8.29566E-001	5.98996E-003	0.00000E+000	4.96907E-003	3.59960E-001	-1.11452E+000	3.57680E+000	10	...........
	32	0.44	8.35801E-001	5.99353E-003	0.00000E+000	5.00940E-003	3.59960E-001	-1.12202E+000	3.57680E+000	10	...........
	33	0.453333	8.41992E-001	5.99175E-003	0.00000E+000	5.04500E-003	3.59960E-001	-1.12157E+000	3.57680E+000	10	...........
	34	0.466667	8.48254E-001	5.99452E-003	0.00000E+000	5.08488E-003	3.59960E-001	-1.11439E+000	3.57680E+000	10	...........
	35	0.48	8.54446E-001	5.99269E-003	0.00000E+000	5.12043E-003	3.59960E-001	-1.12223E+000	3.57680E+000	10	...........
	36	0.493333	8.60635E-001	5.99529E-003	0.00000E+000	5.15976E-003	3.59960E-001	-1.12180E+000	3.57680E+000	10	...........
	37	0.506667	8.66766E-001	5.99237E-003	0.00000E+000	5.19399E-003	3.59960E-001	-1.11455E+000	3.57680E+000	10	...........
	38	0.52	8.72988E-001	5.99461E-003	0.00000E+000	5.23322E-003	3.59960E-001	-1.12200E+000	3.57680E+000	10	...........
	39	0.533333	8.79123E-001	5.99621E-003	0.00000E+000	5.27141E-003	3.59960E-001	-1.12150E+000	3.57680E+000	10	...........
	40	0.546667	8.85243E-001	5.99611E-003	0.00000E+000	5.30801E-003	3.59960E-001	-1.11449E+000	3.57680E+000	10	...........
	41	0.56	8.91309E-001	5.99560E-003	0.00000E+000	5.34393E-003	3.59960E-001	-1.12203E+000	3.57680E+000	10	...........
	42	0.573333	8.97367E-001	5.99505E-003	0.00000E+000	5.37976E-003	3.59960E-001	-1.12163E+000	3.57680E+000	10	...........
	43	0.586667	9.03382E-001	5.99770E-003	0.00000E+000	5.41822E-003	3.59960E-001	-1.11429E+000	3.57680E+000	10	...........
	44	0.6	9.09394E-001	5.99506E-003	0.00000E+000	5.45188E-003	3.59960E-001	-1.12237E+000	3.57680E+000	10	...........
	45	0.613333	9.15451E-001	5.99816E-003	0.00000E+000	5.49103E-003	3.59960E-001	-1.12169E+000	3.57680E+000	10	...........
	46	0.626667	9.21434E-001	5.99486E-003	0.00000E+000	5.52386E-003	3.59960E-001	-1.11478E+000	3.57680E+000	10	...........
	47	0.64	9.27380E-001	5.99222E-003	0.00000E+000	5.55706E-003	3.59960E-001	-1.12240E+000	3.57680E+000	10	...........
	48	0.653333	9.33282E-001	5.99469E-003	0.00000E+000	5.59473E-003	3.59960E-001	-1.12151E+000	3.57680E+000	10	...........
	49	0.666667	9.39139E-001	5.98811E-003	0.00000E+000	5.62366E-003	3.59960E-001	-1.11449E+000	3.57680E+000	10	...........
	50	0.68	9.44980E-001	5.99543E-003	0.00000E+000	5.66556E-003	3.59960E-001	-1.12246E+000	3.57680E+000	10	...........
	51	0.693333	9.50793E-001	5.99308E-003	0.00000E+000	5.69818E-003	3.59960E-001	-1.12151E+000	3.57680E+000	10	...........
	52	0.706667	9.56585E-001	5.99711E-003	0.00000E+000	5.73675E-003	3.59960E-001	-1.11377E+000	3.57680E+000	10	...........
	53	0.72	9.62281E-001	5.99257E-003	0.00000E+000	5.76654E-003	3.59960E-001	-1.12160E+000	3.57680E+000	10	...........
	54	0.733333	9.67952E-001	5.99337E-003	0.00000E+000	5.80130E-003	3.59960E-001	-1.12060E+000	3.57680E+000	10	...........
	55	0.746667	9.73609E-001	5.99399E-003	0.00000E+000	5.83580E-003	3.59960E-001	-1.11379E+000	3.57680E+000	10	...........
	56	0.76	9.79189E-001	5.99340E-003	0.00000E+000	5.86867E-003	3.59960E-001	-1.12157E+000	3.57680E+000	10	...........
	57	0.773333	9.84712E-001	5.99734E-003	0.00000E+000	5.90565E-003	3.59960E-001	-1.12064E+000	3.57680E+000	10	...........
	58	0.786667	9.90192E-001	5.98978E-003	0.00000E+000	5.93103E-003	3.59960E-001	-1.11370E+000	3.57680E+000	10	...........
	59	0.8	9.95657E-001	5.99440E-003	0.00000E+000	5.96836E-003	3.59960E-001	-1.12168E+000	3.57680E+000	10	...........
	60	0.805	9.99440E-001	5.99045E-003	0.00000E+000	5.98710E-003	3.59960E-001	-1.10807E+000	3.57680E+000	10	...........
STARTTIMEOFFSET	QUANT	656.4365	Start Time Offset (s)