File: Data/CV_CRGO300517_1/PWRCCD_CRGO300517_1/CHARGE_DISCHARGE/CHARGE_#508.DTA
EXPLAIN
TAG	PWR800_CHARGE
TITLE	LABEL	PWR Cyclic Charge Discharge (Cell) - Charge Step	Test &Identifier
DATE	LABEL	22-6-2017	Date
TIME	LABEL	15:56:14	Time
NOTES	NOTES	3	&Notes...
	supercap test cell
	0.6mg
	6M KOH
PSTAT	PSTAT	IFC5000-01520	Potentiostat
CAPACITY	QUANT	1.00000E-003	Capacity (A-hr)
CELLTYPE	SELECTOR	1	&Cell Type
WORKINGCONNECTION	SELECTOR	0	&Working Lead
MAXCHARGETIME	VARIABLEANDUNITS	1.00000E+002	s	1.00000E+002	second(s)	Max &Charge Time
CHARGECURRENT	QUANT	6.00000E-003	&Charge Current (A)
VOLTAGEFINISH	TWOPARAM	F	1.00000E-003	3.60000E+003	&Voltage Finish	 I (A) < 	Max Time(s)
SAMPLETIME	QUANT	1.00000E-002	Sa&mple Period (s)
CHARGESTOPAT1	MULTIPARAM	4	1.00000E+000	Charge Stop At &1	Voltage > Limit	V
CHARGESTOPAT2	MULTIPARAM	0	0.00000E+000	Charge Stop At &2	None	N/A
AESBHCSELECTOR	TOGGLE	F	Save Both Half Cells
IRCOMP	TOGGLE	F	IR &Measure
EOC	QUANT	0	Open Circuit (V)
SEQUENCER	TOGGLE	TRUE	Run as Sequence
PSTATMODEL	IQUANT	53	Pstat Model
PSTATSECTION	LABEL	IFC5000-01520	Pstat Section
PSTATSERIALNO	LABEL	01520	Pstat Serial Number
CTRLMODE	IQUANT	0	Control Mode
ELECTROMETER	IQUANT	1	RE=0 or CS=1
IESTAB	IQUANT	0	I/E Stability
CASPEED	IQUANT	4	Control Amp Speed
CONVENTION	IQUANT	1	Current Convention
ICHRANGE	IQUANT	2	Ich Range
ICHRANGEMODE	TOGGLE	T	Ich Auto Range
ICHOFFSETENABLE	TOGGLE	F	Ich Offset Enable
ICHOFFSET	QUANT	0	Ich Offset (V)
ICHFILTER	IQUANT	1	Ich Filter
VCHRANGE	IQUANT	2	Vch Range
VCHRANGEMODE	TOGGLE	T	Vch Auto Range
VCHOFFSETENABLE	TOGGLE	F	Vch Offset Enable
VCHOFFSET	QUANT	0	Vch Offset (V)
VCHFILTER	IQUANT	1	Vch Filter
IERANGELOWERLIMIT	IQUANT	9	I/E Range Lower Limit
IERANGEMODE	TOGGLE	F	I/E AutoRange
IERANGE	IQUANT	10	I/E Range
ACHSELECT	IQUANT	1	Ach Select
ACHRANGE	IQUANT	2	Ach Range
ACHOFFSETENABLE	TOGGLE	F	Ach Offset Enable
ACHOFFSET	QUANT	0	Ach Offset (V)
ACHFILTER	IQUANT	1	Ach Filter
CABLEID	IQUANT	14	Cable ID
DCCALDATE	LABEL	20-10-2016	DC Calibration Date
ACCALDATE	LABEL	12/3/2015	AC Calibration Date
FRAMEWORKVERSION	QUANT	7.01	Framework Version
INSTRUMENTVERSION	LABEL	4.00	Instrument Version
CURVE	TABLE	58
	Pt	T	Vf	Im	Vu	Pwr	Sig	Ach	Temp	IERange	Over
	#	s	V	A	V	W	V	V	deg C	#	bits
	0	0.013333	6.32608E-001	5.99273E-003	0.00000E+000	3.79105E-003	3.59960E-001	-1.11776E+000	3.57670E+000	10	...........
	1	0.026667	6.41491E-001	5.99220E-003	0.00000E+000	3.84394E-003	3.59960E-001	-1.10834E+000	3.57670E+000	10	...........
	2	0.04	6.49713E-001	5.99477E-003	0.00000E+000	3.89488E-003	3.59960E-001	-1.11052E+000	3.57670E+000	10	...........
	3	0.053333	6.57464E-001	5.99431E-003	0.00000E+000	3.94104E-003	3.59960E-001	-1.11668E+000	3.57670E+000	10	...........
	4	0.066667	6.64948E-001	5.99171E-003	0.00000E+000	3.98417E-003	3.59960E-001	-1.10650E+000	3.57670E+000	10	...........
	5	0.08	6.72228E-001	5.99709E-003	0.00000E+000	4.03141E-003	3.59960E-001	-1.10977E+000	3.57670E+000	10	...........
	6	0.093333	6.79359E-001	5.99082E-003	0.00000E+000	4.06992E-003	3.59960E-001	-1.11638E+000	3.57670E+000	10	...........
	7	0.106667	6.86372E-001	5.99092E-003	0.00000E+000	4.11200E-003	3.59960E-001	-1.10613E+000	3.57670E+000	10	...........
	8	0.12	6.93301E-001	5.99559E-003	0.00000E+000	4.15674E-003	3.59960E-001	-1.10904E+000	3.57670E+000	10	...........
	9	0.133333	7.00169E-001	5.99142E-003	0.00000E+000	4.19501E-003	3.59960E-001	-1.11520E+000	3.57670E+000	10	...........
	10	0.146667	7.06987E-001	5.99483E-003	0.00000E+000	4.23827E-003	3.59960E-001	-1.10543E+000	3.57670E+000	10	...........
	11	0.16	7.13704E-001	5.99121E-003	0.00000E+000	4.27596E-003	3.59960E-001	-1.10904E+000	3.57670E+000	10	...........
	12	0.173333	7.20456E-001	5.99236E-003	0.00000E+000	4.31723E-003	3.59960E-001	-1.11536E+000	3.57670E+000	10	...........
	13	0.186667	7.27122E-001	5.99342E-003	0.00000E+000	4.35794E-003	3.59960E-001	-1.10546E+000	3.57670E+000	10	...........
	14	0.2	7.33762E-001	5.99213E-003	0.00000E+000	4.39680E-003	3.59960E-001	-1.10865E+000	3.57670E+000	10	...........
	15	0.213333	7.40360E-001	5.99140E-003	0.00000E+000	4.43580E-003	3.59960E-001	-1.11462E+000	3.57670E+000	10	...........
	16	0.226667	7.47008E-001	5.99517E-003	0.00000E+000	4.47844E-003	3.59960E-001	-1.10515E+000	3.57670E+000	10	...........
	17	0.24	7.53545E-001	5.99325E-003	0.00000E+000	4.51618E-003	3.59960E-001	-1.10914E+000	3.57670E+000	10	...........
	18	0.253333	7.60088E-001	5.99564E-003	0.00000E+000	4.55721E-003	3.59960E-001	-1.11504E+000	3.57670E+000	10	...........
	19	0.266667	7.66651E-001	5.99141E-003	0.00000E+000	4.59333E-003	3.59960E-001	-1.10572E+000	3.57670E+000	10	...........
	20	0.28	7.73160E-001	5.99396E-003	0.00000E+000	4.63429E-003	3.59960E-001	-1.10973E+000	3.57670E+000	10	...........
	21	0.293333	7.79651E-001	5.99081E-003	0.00000E+000	4.67074E-003	3.59960E-001	-1.11558E+000	3.57670E+000	10	...........
	22	0.306667	7.86179E-001	5.99314E-003	0.00000E+000	4.71168E-003	3.59960E-001	-1.10643E+000	3.57670E+000	10	...........
	23	0.32	7.92630E-001	5.99803E-003	0.00000E+000	4.75421E-003	3.59960E-001	-1.11018E+000	3.57670E+000	10	...........
	24	0.333333	7.99136E-001	5.99882E-003	0.00000E+000	4.79387E-003	3.59960E-001	-1.11545E+000	3.57670E+000	10	...........
	25	0.346667	8.05546E-001	5.99401E-003	0.00000E+000	4.82845E-003	3.59960E-001	-1.10638E+000	3.57670E+000	10	...........
	26	0.36	8.11916E-001	5.99264E-003	0.00000E+000	4.86552E-003	3.59960E-001	-1.11028E+000	3.57670E+000	10	...........
	27	0.373333	8.18358E-001	5.98946E-003	0.00000E+000	4.90153E-003	3.59960E-001	-1.11586E+000	3.57670E+000	10	...........
	28	0.386667	8.24763E-001	5.99794E-003	0.00000E+000	4.94688E-003	3.59960E-001	-1.10672E+000	3.57670E+000	10	...........
	29	0.4	8.31105E-001	5.99495E-003	0.00000E+000	4.98243E-003	3.59960E-001	-1.11110E+000	3.57670E+000	10	...........
	30	0.413333	8.37449E-001	5.99297E-003	0.00000E+000	5.01880E-003	3.59960E-001	-1.11628E+000	3.57670E+000	10	...........
	31	0.426667	8.43779E-001	5.99224E-003	0.00000E+000	5.05612E-003	3.59960E-001	-1.10757E+000	3.57670E+000	10	...........
	32	0.44	8.50080E-001	5.99078E-003	0.00000E+000	5.09264E-003	3.59960E-001	-1.11192E+000	3.57670E+000	10	...........
	33	0.453333	8.56375E-001	5.99237E-003	0.00000E+000	5.13172E-003	3.59960E-001	-1.11671E+000	3.57670E+000	10	...........
	34	0.466667	8.62688E-001	5.99299E-003	0.00000E+000	5.17008E-003	3.59960E-001	-1.10810E+000	3.57670E+000	10	...........
	35	0.48	8.68982E-001	5.99797E-003	0.00000E+000	5.21213E-003	3.59960E-001	-1.11267E+000	3.57670E+000	10	...........
	36	0.493333	8.75214E-001	5.99195E-003	0.00000E+000	5.24423E-003	3.59960E-001	-1.11730E+000	3.57670E+000	10	...........
	37	0.506667	8.81438E-001	5.99857E-003	0.00000E+000	5.28736E-003	3.59960E-001	-1.10895E+000	3.57670E+000	10	...........
	38	0.52	8.87581E-001	5.99672E-003	0.00000E+000	5.32258E-003	3.59960E-001	-1.11326E+000	3.57670E+000	10	...........
	39	0.533333	8.93767E-001	5.99162E-003	0.00000E+000	5.35512E-003	3.59960E-001	-1.11769E+000	3.57670E+000	10	...........
	40	0.546667	8.99897E-001	5.99375E-003	0.00000E+000	5.39376E-003	3.59960E-001	-1.10908E+000	3.57670E+000	10	...........
	41	0.56	9.05995E-001	5.99261E-003	0.00000E+000	5.42928E-003	3.59960E-001	-1.11359E+000	3.57670E+000	10	...........
	42	0.573333	9.12071E-001	5.99161E-003	0.00000E+000	5.46478E-003	3.59960E-001	-1.11791E+000	3.57670E+000	10	...........
	43	0.586667	9.18129E-001	5.99290E-003	0.00000E+000	5.50226E-003	3.59960E-001	-1.10928E+000	3.57670E+000	10	...........
	44	0.6	9.24196E-001	5.98824E-003	0.00000E+000	5.53431E-003	3.59960E-001	-1.11420E+000	3.57670E+000	10	...........
	45	0.613333	9.30154E-001	5.99753E-003	0.00000E+000	5.57862E-003	3.59960E-001	-1.11816E+000	3.57670E+000	10	...........
	46	0.626667	9.36065E-001	6.00096E-003	0.00000E+000	5.61729E-003	3.59960E-001	-1.10967E+000	3.57670E+000	10	...........
	47	0.64	9.41996E-001	5.99658E-003	0.00000E+000	5.64875E-003	3.59960E-001	-1.11470E+000	3.57670E+000	10	...........
	48	0.653333	9.47896E-001	5.99655E-003	0.00000E+000	5.68410E-003	3.59960E-001	-1.11877E+000	3.57670E+000	10	...........
	49	0.666667	9.53732E-001	5.99905E-003	0.00000E+000	5.72148E-003	3.59960E-001	-1.11009E+000	3.57670E+000	10	...........
	50	0.68	9.59516E-001	5.99604E-003	0.00000E+000	5.75330E-003	3.59960E-001	-1.11473E+000	3.57670E+000	10	...........
	51	0.693333	9.65224E-001	5.99646E-003	0.00000E+000	5.78793E-003	3.59960E-001	-1.11831E+000	3.57670E+000	10	...........
	52	0.706667	9.70934E-001	5.99409E-003	0.00000E+000	5.81987E-003	3.59960E-001	-1.11021E+000	3.57670E+000	10	...........
	53	0.72	9.76645E-001	5.99545E-003	0.00000E+000	5.85543E-003	3.59960E-001	-1.11549E+000	3.57670E+000	10	...........
	54	0.733333	9.82271E-001	5.99082E-003	0.00000E+000	5.88461E-003	3.59960E-001	-1.11859E+000	3.57670E+000	10	...........
	55	0.746667	9.87844E-001	5.99452E-003	0.00000E+000	5.92166E-003	3.59960E-001	-1.11031E+000	3.57670E+000	10	...........
	56	0.76	9.93345E-001	5.99530E-003	0.00000E+000	5.95541E-003	3.59960E-001	-1.11571E+000	3.57670E+000	10	...........
	57	0.771667	9.98469E-001	5.99480E-003	0.00000E+000	5.98563E-003	3.59960E-001	-1.11815E+000	3.57670E+000	10	...........
STARTTIMEOFFSET	QUANT	871.3336	Start Time Offset (s)