File: Data/CV_CRGO300517_1/PWRCCD_CRGO300517_1/CHARGE_DISCHARGE/CHARGE_#244.DTA
EXPLAIN
TAG	PWR800_CHARGE
TITLE	LABEL	PWR Cyclic Charge Discharge (Cell) - Charge Step	Test &Identifier
DATE	LABEL	22-6-2017	Date
TIME	LABEL	15:45:38	Time
NOTES	NOTES	3	&Notes...
	supercap test cell
	0.6mg
	6M KOH
PSTAT	PSTAT	IFC5000-01520	Potentiostat
CAPACITY	QUANT	1.00000E-003	Capacity (A-hr)
CELLTYPE	SELECTOR	1	&Cell Type
WORKINGCONNECTION	SELECTOR	0	&Working Lead
MAXCHARGETIME	VARIABLEANDUNITS	1.00000E+002	s	1.00000E+002	second(s)	Max &Charge Time
CHARGECURRENT	QUANT	6.00000E-003	&Charge Current (A)
VOLTAGEFINISH	TWOPARAM	F	1.00000E-003	3.60000E+003	&Voltage Finish	 I (A) < 	Max Time(s)
SAMPLETIME	QUANT	1.00000E-002	Sa&mple Period (s)
CHARGESTOPAT1	MULTIPARAM	4	1.00000E+000	Charge Stop At &1	Voltage > Limit	V
CHARGESTOPAT2	MULTIPARAM	0	0.00000E+000	Charge Stop At &2	None	N/A
AESBHCSELECTOR	TOGGLE	F	Save Both Half Cells
IRCOMP	TOGGLE	F	IR &Measure
EOC	QUANT	0	Open Circuit (V)
SEQUENCER	TOGGLE	TRUE	Run as Sequence
PSTATMODEL	IQUANT	53	Pstat Model
PSTATSECTION	LABEL	IFC5000-01520	Pstat Section
PSTATSERIALNO	LABEL	01520	Pstat Serial Number
CTRLMODE	IQUANT	0	Control Mode
ELECTROMETER	IQUANT	1	RE=0 or CS=1
IESTAB	IQUANT	0	I/E Stability
CASPEED	IQUANT	4	Control Amp Speed
CONVENTION	IQUANT	1	Current Convention
ICHRANGE	IQUANT	2	Ich Range
ICHRANGEMODE	TOGGLE	T	Ich Auto Range
ICHOFFSETENABLE	TOGGLE	F	Ich Offset Enable
ICHOFFSET	QUANT	0	Ich Offset (V)
ICHFILTER	IQUANT	1	Ich Filter
VCHRANGE	IQUANT	2	Vch Range
VCHRANGEMODE	TOGGLE	T	Vch Auto Range
VCHOFFSETENABLE	TOGGLE	F	Vch Offset Enable
VCHOFFSET	QUANT	0	Vch Offset (V)
VCHFILTER	IQUANT	1	Vch Filter
IERANGELOWERLIMIT	IQUANT	9	I/E Range Lower Limit
IERANGEMODE	TOGGLE	F	I/E AutoRange
IERANGE	IQUANT	10	I/E Range
ACHSELECT	IQUANT	1	Ach Select
ACHRANGE	IQUANT	2	Ach Range
ACHOFFSETENABLE	TOGGLE	F	Ach Offset Enable
ACHOFFSET	QUANT	0	Ach Offset (V)
ACHFILTER	IQUANT	1	Ach Filter
CABLEID	IQUANT	14	Cable ID
DCCALDATE	LABEL	20-10-2016	DC Calibration Date
ACCALDATE	LABEL	12/3/2015	AC Calibration Date
FRAMEWORKVERSION	QUANT	7.01	Framework Version
INSTRUMENTVERSION	LABEL	4.00	Instrument Version
CURVE	TABLE	64
	Pt	T	Vf	Im	Vu	Pwr	Sig	Ach	Temp	IERange	Over
	#	s	V	A	V	W	V	V	deg C	#	bits
	0	0.013333	6.11249E-001	5.99250E-003	0.00000E+000	3.66291E-003	3.59960E-001	-1.08424E+000	3.57700E+000	10	...........
	1	0.026667	6.19828E-001	5.99496E-003	0.00000E+000	3.71585E-003	3.59960E-001	-1.07846E+000	3.57700E+000	10	...........
	2	0.04	6.27668E-001	5.99567E-003	0.00000E+000	3.76329E-003	3.59960E-001	-1.08547E+000	3.57700E+000	10	...........
	3	0.053333	6.35084E-001	5.99353E-003	0.00000E+000	3.80640E-003	3.59960E-001	-1.08545E+000	3.57700E+000	10	...........
	4	0.066667	6.42260E-001	5.99310E-003	0.00000E+000	3.84913E-003	3.59960E-001	-1.07951E+000	3.57700E+000	10	...........
	5	0.08	6.49241E-001	5.99491E-003	0.00000E+000	3.89214E-003	3.59960E-001	-1.08642E+000	3.57700E+000	10	...........
	6	0.093333	6.56073E-001	5.98907E-003	0.00000E+000	3.92927E-003	3.59960E-001	-1.08659E+000	3.57700E+000	10	...........
	7	0.106667	6.62763E-001	5.99328E-003	0.00000E+000	3.97212E-003	3.59960E-001	-1.08066E+000	3.57700E+000	10	...........
	8	0.12	6.69392E-001	5.99521E-003	0.00000E+000	4.01314E-003	3.59960E-001	-1.08736E+000	3.57700E+000	10	...........
	9	0.133333	6.75977E-001	5.99933E-003	0.00000E+000	4.05541E-003	3.59960E-001	-1.08754E+000	3.57700E+000	10	...........
	10	0.146667	6.82463E-001	5.99412E-003	0.00000E+000	4.09076E-003	3.59960E-001	-1.08140E+000	3.57700E+000	10	...........
	11	0.16	6.88886E-001	5.99039E-003	0.00000E+000	4.12670E-003	3.59960E-001	-1.08784E+000	3.57700E+000	10	...........
	12	0.173333	6.95328E-001	5.99717E-003	0.00000E+000	4.17000E-003	3.59960E-001	-1.08843E+000	3.57700E+000	10	...........
	13	0.186667	7.01674E-001	5.99522E-003	0.00000E+000	4.20669E-003	3.59960E-001	-1.08230E+000	3.57700E+000	10	...........
	14	0.2	7.08015E-001	5.99388E-003	0.00000E+000	4.24375E-003	3.59960E-001	-1.08834E+000	3.57700E+000	10	...........
	15	0.213333	7.14333E-001	5.99726E-003	0.00000E+000	4.28405E-003	3.59960E-001	-1.08883E+000	3.57700E+000	10	...........
	16	0.226667	7.20653E-001	5.99754E-003	0.00000E+000	4.32214E-003	3.59960E-001	-1.08268E+000	3.57700E+000	10	...........
	17	0.24	7.26913E-001	5.99183E-003	0.00000E+000	4.35554E-003	3.59960E-001	-1.08905E+000	3.57700E+000	10	...........
	18	0.253333	7.33249E-001	5.99417E-003	0.00000E+000	4.39522E-003	3.59960E-001	-1.08971E+000	3.57700E+000	10	...........
	19	0.266667	7.39514E-001	5.99619E-003	0.00000E+000	4.43427E-003	3.59960E-001	-1.08329E+000	3.57700E+000	10	...........
	20	0.28	7.45771E-001	5.99283E-003	0.00000E+000	4.46928E-003	3.59960E-001	-1.08972E+000	3.57700E+000	10	...........
	21	0.293333	7.51996E-001	5.99215E-003	0.00000E+000	4.50608E-003	3.59960E-001	-1.09045E+000	3.57700E+000	10	...........
	22	0.306667	7.58207E-001	5.99497E-003	0.00000E+000	4.54543E-003	3.59960E-001	-1.08392E+000	3.57700E+000	10	...........
	23	0.32	7.64411E-001	5.99537E-003	0.00000E+000	4.58292E-003	3.59960E-001	-1.09025E+000	3.57700E+000	10	...........
	24	0.333333	7.70639E-001	5.99309E-003	0.00000E+000	4.61851E-003	3.59960E-001	-1.09110E+000	3.57700E+000	10	...........
	25	0.346667	7.76829E-001	5.99484E-003	0.00000E+000	4.65697E-003	3.59960E-001	-1.08448E+000	3.57700E+000	10	...........
	26	0.36	7.83014E-001	5.99294E-003	0.00000E+000	4.69255E-003	3.59960E-001	-1.09074E+000	3.57700E+000	10	...........
	27	0.373333	7.89179E-001	5.99782E-003	0.00000E+000	4.73335E-003	3.59960E-001	-1.09182E+000	3.57700E+000	10	...........
	28	0.386667	7.95363E-001	5.99629E-003	0.00000E+000	4.76923E-003	3.59960E-001	-1.08525E+000	3.57700E+000	10	...........
	29	0.4	8.01501E-001	5.99134E-003	0.00000E+000	4.80206E-003	3.59960E-001	-1.09119E+000	3.57700E+000	10	...........
	30	0.413333	8.07633E-001	5.99443E-003	0.00000E+000	4.84130E-003	3.59960E-001	-1.09249E+000	3.57700E+000	10	...........
	31	0.426667	8.13759E-001	5.99614E-003	0.00000E+000	4.87941E-003	3.59960E-001	-1.08595E+000	3.57700E+000	10	...........
	32	0.44	8.19892E-001	5.99177E-003	0.00000E+000	4.91261E-003	3.59960E-001	-1.09197E+000	3.57700E+000	10	...........
	33	0.453333	8.26036E-001	5.99403E-003	0.00000E+000	4.95129E-003	3.59960E-001	-1.09329E+000	3.57700E+000	10	...........
	34	0.466667	8.32132E-001	5.99785E-003	0.00000E+000	4.99100E-003	3.59960E-001	-1.08641E+000	3.57700E+000	10	...........
	35	0.48	8.38183E-001	5.99362E-003	0.00000E+000	5.02375E-003	3.59960E-001	-1.09210E+000	3.57700E+000	10	...........
	36	0.493333	8.44300E-001	6.00005E-003	0.00000E+000	5.06584E-003	3.59960E-001	-1.09372E+000	3.57700E+000	10	...........
	37	0.506667	8.50370E-001	5.99464E-003	0.00000E+000	5.09766E-003	3.59960E-001	-1.08696E+000	3.57700E+000	10	...........
	38	0.52	8.56430E-001	5.99463E-003	0.00000E+000	5.13398E-003	3.59960E-001	-1.09231E+000	3.57700E+000	10	...........
	39	0.533333	8.62553E-001	5.99259E-003	0.00000E+000	5.16893E-003	3.59960E-001	-1.09387E+000	3.57700E+000	10	...........
	40	0.546667	8.68605E-001	5.99264E-003	0.00000E+000	5.20524E-003	3.59960E-001	-1.08687E+000	3.57700E+000	10	...........
	41	0.56	8.74631E-001	5.99205E-003	0.00000E+000	5.24083E-003	3.59960E-001	-1.09271E+000	3.57700E+000	10	...........
	42	0.573333	8.80616E-001	5.99341E-003	0.00000E+000	5.27789E-003	3.59960E-001	-1.09455E+000	3.57700E+000	10	...........
	43	0.586667	8.86641E-001	5.99290E-003	0.00000E+000	5.31355E-003	3.59960E-001	-1.08755E+000	3.57700E+000	10	...........
	44	0.6	8.92525E-001	5.98973E-003	0.00000E+000	5.34599E-003	3.59960E-001	-1.09287E+000	3.57700E+000	10	...........
	45	0.613333	8.98528E-001	5.99059E-003	0.00000E+000	5.38271E-003	3.59960E-001	-1.09481E+000	3.57700E+000	10	...........
	46	0.626667	9.04440E-001	5.99567E-003	0.00000E+000	5.42272E-003	3.59960E-001	-1.08796E+000	3.57700E+000	10	...........
	47	0.64	9.10346E-001	5.99342E-003	0.00000E+000	5.45608E-003	3.59960E-001	-1.09329E+000	3.57700E+000	10	...........
	48	0.653333	9.16259E-001	5.99383E-003	0.00000E+000	5.49191E-003	3.59960E-001	-1.09543E+000	3.57700E+000	10	...........
	49	0.666667	9.22158E-001	5.99035E-003	0.00000E+000	5.52405E-003	3.59960E-001	-1.08837E+000	3.57700E+000	10	...........
	50	0.68	9.27980E-001	5.99283E-003	0.00000E+000	5.56123E-003	3.59960E-001	-1.09336E+000	3.57700E+000	10	...........
	51	0.693333	9.33771E-001	5.99232E-003	0.00000E+000	5.59545E-003	3.59960E-001	-1.09577E+000	3.57700E+000	10	...........
	52	0.706667	9.39544E-001	5.99676E-003	0.00000E+000	5.63422E-003	3.59960E-001	-1.08887E+000	3.57700E+000	10	...........
	53	0.72	9.45276E-001	5.99052E-003	0.00000E+000	5.66269E-003	3.59960E-001	-1.09392E+000	3.57700E+000	10	...........
	54	0.733333	9.51008E-001	5.99699E-003	0.00000E+000	5.70319E-003	3.59960E-001	-1.09648E+000	3.57700E+000	10	...........
	55	0.746667	9.56652E-001	5.99031E-003	0.00000E+000	5.73064E-003	3.59960E-001	-1.08917E+000	3.57700E+000	10	...........
	56	0.76	9.62299E-001	5.99318E-003	0.00000E+000	5.76723E-003	3.59960E-001	-1.09463E+000	3.57700E+000	10	...........
	57	0.773333	9.67887E-001	5.99233E-003	0.00000E+000	5.79990E-003	3.59960E-001	-1.09718E+000	3.57700E+000	10	...........
	58	0.786667	9.73499E-001	5.99132E-003	0.00000E+000	5.83254E-003	3.59960E-001	-1.09003E+000	3.57700E+000	10	...........
	59	0.8	9.79023E-001	5.99322E-003	0.00000E+000	5.86750E-003	3.59960E-001	-1.09485E+000	3.57700E+000	10	...........
	60	0.813333	9.84517E-001	5.99204E-003	0.00000E+000	5.89926E-003	3.59960E-001	-1.09781E+000	3.57700E+000	10	...........
	61	0.826667	9.89975E-001	5.99579E-003	0.00000E+000	5.93569E-003	3.59960E-001	-1.09082E+000	3.57700E+000	10	...........
	62	0.84	9.95397E-001	5.99518E-003	0.00000E+000	5.96758E-003	3.59960E-001	-1.09564E+000	3.57700E+000	10	...........
	63	0.846667	9.99446E-001	5.99604E-003	0.00000E+000	5.99272E-003	3.59960E-001	-1.09439E+000	3.57700E+000	10	...........
STARTTIMEOFFSET	QUANT	447.8684	Start Time Offset (s)