File: Data/CV_CRGO300517_1/PWRCCD_CRGO300517_1/CHARGE_DISCHARGE/CHARGE_#410.DTA
EXPLAIN
TAG	PWR800_CHARGE
TITLE	LABEL	PWR Cyclic Charge Discharge (Cell) - Charge Step	Test &Identifier
DATE	LABEL	22-6-2017	Date
TIME	LABEL	15:52:22	Time
NOTES	NOTES	3	&Notes...
	supercap test cell
	0.6mg
	6M KOH
PSTAT	PSTAT	IFC5000-01520	Potentiostat
CAPACITY	QUANT	1.00000E-003	Capacity (A-hr)
CELLTYPE	SELECTOR	1	&Cell Type
WORKINGCONNECTION	SELECTOR	0	&Working Lead
MAXCHARGETIME	VARIABLEANDUNITS	1.00000E+002	s	1.00000E+002	second(s)	Max &Charge Time
CHARGECURRENT	QUANT	6.00000E-003	&Charge Current (A)
VOLTAGEFINISH	TWOPARAM	F	1.00000E-003	3.60000E+003	&Voltage Finish	 I (A) < 	Max Time(s)
SAMPLETIME	QUANT	1.00000E-002	Sa&mple Period (s)
CHARGESTOPAT1	MULTIPARAM	4	1.00000E+000	Charge Stop At &1	Voltage > Limit	V
CHARGESTOPAT2	MULTIPARAM	0	0.00000E+000	Charge Stop At &2	None	N/A
AESBHCSELECTOR	TOGGLE	F	Save Both Half Cells
IRCOMP	TOGGLE	F	IR &Measure
EOC	QUANT	0	Open Circuit (V)
SEQUENCER	TOGGLE	TRUE	Run as Sequence
PSTATMODEL	IQUANT	53	Pstat Model
PSTATSECTION	LABEL	IFC5000-01520	Pstat Section
PSTATSERIALNO	LABEL	01520	Pstat Serial Number
CTRLMODE	IQUANT	0	Control Mode
ELECTROMETER	IQUANT	1	RE=0 or CS=1
IESTAB	IQUANT	0	I/E Stability
CASPEED	IQUANT	4	Control Amp Speed
CONVENTION	IQUANT	1	Current Convention
ICHRANGE	IQUANT	2	Ich Range
ICHRANGEMODE	TOGGLE	T	Ich Auto Range
ICHOFFSETENABLE	TOGGLE	F	Ich Offset Enable
ICHOFFSET	QUANT	0	Ich Offset (V)
ICHFILTER	IQUANT	1	Ich Filter
VCHRANGE	IQUANT	2	Vch Range
VCHRANGEMODE	TOGGLE	T	Vch Auto Range
VCHOFFSETENABLE	TOGGLE	F	Vch Offset Enable
VCHOFFSET	QUANT	0	Vch Offset (V)
VCHFILTER	IQUANT	1	Vch Filter
IERANGELOWERLIMIT	IQUANT	9	I/E Range Lower Limit
IERANGEMODE	TOGGLE	F	I/E AutoRange
IERANGE	IQUANT	10	I/E Range
ACHSELECT	IQUANT	1	Ach Select
ACHRANGE	IQUANT	2	Ach Range
ACHOFFSETENABLE	TOGGLE	F	Ach Offset Enable
ACHOFFSET	QUANT	0	Ach Offset (V)
ACHFILTER	IQUANT	1	Ach Filter
CABLEID	IQUANT	14	Cable ID
DCCALDATE	LABEL	20-10-2016	DC Calibration Date
ACCALDATE	LABEL	12/3/2015	AC Calibration Date
FRAMEWORKVERSION	QUANT	7.01	Framework Version
INSTRUMENTVERSION	LABEL	4.00	Instrument Version
CURVE	TABLE	60
	Pt	T	Vf	Im	Vu	Pwr	Sig	Ach	Temp	IERange	Over
	#	s	V	A	V	W	V	V	deg C	#	bits
	0	0.013333	6.25912E-001	5.99279E-003	0.00000E+000	3.75096E-003	3.59960E-001	-1.12591E+000	3.57670E+000	10	...........
	1	0.026667	6.34644E-001	5.99304E-003	0.00000E+000	3.80345E-003	3.59960E-001	-1.13344E+000	3.57670E+000	10	...........
	2	0.04	6.42738E-001	5.99722E-003	0.00000E+000	3.85464E-003	3.59960E-001	-1.13143E+000	3.57670E+000	10	...........
	3	0.053333	6.50362E-001	6.00201E-003	0.00000E+000	3.90348E-003	3.59960E-001	-1.12511E+000	3.57670E+000	10	...........
	4	0.066667	6.57691E-001	5.99831E-003	0.00000E+000	3.94503E-003	3.59960E-001	-1.13327E+000	3.57670E+000	10	...........
	5	0.08	6.64891E-001	5.99341E-003	0.00000E+000	3.98496E-003	3.59960E-001	-1.13133E+000	3.57670E+000	10	...........
	6	0.093333	6.71950E-001	5.99712E-003	0.00000E+000	4.02977E-003	3.59960E-001	-1.12508E+000	3.57670E+000	10	...........
	7	0.106667	6.78894E-001	5.99473E-003	0.00000E+000	4.06979E-003	3.59960E-001	-1.13306E+000	3.57670E+000	10	...........
	8	0.12	6.85704E-001	5.99352E-003	0.00000E+000	4.10978E-003	3.59960E-001	-1.13126E+000	3.57670E+000	10	...........
	9	0.133333	6.92444E-001	5.99368E-003	0.00000E+000	4.15029E-003	3.59960E-001	-1.12519E+000	3.57670E+000	10	...........
	10	0.146667	6.99143E-001	5.99179E-003	0.00000E+000	4.18912E-003	3.59960E-001	-1.13293E+000	3.57670E+000	10	...........
	11	0.16	7.05824E-001	5.99364E-003	0.00000E+000	4.23045E-003	3.59960E-001	-1.13080E+000	3.57670E+000	10	...........
	12	0.173333	7.12430E-001	5.99407E-003	0.00000E+000	4.27036E-003	3.59960E-001	-1.12483E+000	3.57670E+000	10	...........
	13	0.186667	7.19043E-001	5.99644E-003	0.00000E+000	4.31170E-003	3.59960E-001	-1.13308E+000	3.57670E+000	10	...........
	14	0.2	7.25584E-001	5.99568E-003	0.00000E+000	4.35037E-003	3.59960E-001	-1.13095E+000	3.57670E+000	10	...........
	15	0.213333	7.32102E-001	5.99771E-003	0.00000E+000	4.39094E-003	3.59960E-001	-1.12477E+000	3.57670E+000	10	...........
	16	0.226667	7.38602E-001	5.99636E-003	0.00000E+000	4.42892E-003	3.59960E-001	-1.13275E+000	3.57670E+000	10	...........
	17	0.24	7.45075E-001	5.99331E-003	0.00000E+000	4.46546E-003	3.59960E-001	-1.13042E+000	3.57670E+000	10	...........
	18	0.253333	7.51515E-001	5.99138E-003	0.00000E+000	4.50261E-003	3.59960E-001	-1.12468E+000	3.57670E+000	10	...........
	19	0.266667	7.58030E-001	5.99333E-003	0.00000E+000	4.54312E-003	3.59960E-001	-1.13287E+000	3.57670E+000	10	...........
	20	0.28	7.64438E-001	5.99235E-003	0.00000E+000	4.58078E-003	3.59960E-001	-1.13068E+000	3.57670E+000	10	...........
	21	0.293333	7.70876E-001	5.99289E-003	0.00000E+000	4.61978E-003	3.59960E-001	-1.12446E+000	3.57670E+000	10	...........
	22	0.306667	7.77214E-001	5.99376E-003	0.00000E+000	4.65844E-003	3.59960E-001	-1.13254E+000	3.57670E+000	10	...........
	23	0.32	7.83605E-001	5.99366E-003	0.00000E+000	4.69666E-003	3.59960E-001	-1.13053E+000	3.57670E+000	10	...........
	24	0.333333	7.90009E-001	5.99342E-003	0.00000E+000	4.73485E-003	3.59960E-001	-1.12483E+000	3.57670E+000	10	...........
	25	0.346667	7.96406E-001	5.99238E-003	0.00000E+000	4.77237E-003	3.59960E-001	-1.13282E+000	3.57670E+000	10	...........
	26	0.36	8.02700E-001	5.98996E-003	0.00000E+000	4.80814E-003	3.59960E-001	-1.13010E+000	3.57670E+000	10	...........
	27	0.373333	8.09066E-001	6.00201E-003	0.00000E+000	4.85602E-003	3.59960E-001	-1.12407E+000	3.57670E+000	10	...........
	28	0.386667	8.15368E-001	5.99222E-003	0.00000E+000	4.88586E-003	3.59960E-001	-1.13223E+000	3.57670E+000	10	...........
	29	0.4	8.21687E-001	5.98875E-003	0.00000E+000	4.92088E-003	3.59960E-001	-1.13000E+000	3.57670E+000	10	...........
	30	0.413333	8.28003E-001	5.99196E-003	0.00000E+000	4.96136E-003	3.59960E-001	-1.12418E+000	3.57670E+000	10	...........
	31	0.426667	8.34323E-001	5.99726E-003	0.00000E+000	5.00365E-003	3.59960E-001	-1.13228E+000	3.57670E+000	10	...........
	32	0.44	8.40589E-001	5.99686E-003	0.00000E+000	5.04089E-003	3.59960E-001	-1.12961E+000	3.57670E+000	10	...........
	33	0.453333	8.46856E-001	5.99413E-003	0.00000E+000	5.07616E-003	3.59960E-001	-1.12408E+000	3.57670E+000	10	...........
	34	0.466667	8.53108E-001	5.99663E-003	0.00000E+000	5.11577E-003	3.59960E-001	-1.13228E+000	3.57670E+000	10	...........
	35	0.48	8.59288E-001	5.99539E-003	0.00000E+000	5.15177E-003	3.59960E-001	-1.12964E+000	3.57670E+000	10	...........
	36	0.493333	8.65479E-001	5.99491E-003	0.00000E+000	5.18847E-003	3.59960E-001	-1.12378E+000	3.57670E+000	10	...........
	37	0.506667	8.71697E-001	5.99474E-003	0.00000E+000	5.22559E-003	3.59960E-001	-1.13202E+000	3.57670E+000	10	...........
	38	0.52	8.77816E-001	5.99596E-003	0.00000E+000	5.26335E-003	3.59960E-001	-1.12953E+000	3.57670E+000	10	...........
	39	0.533333	8.83946E-001	5.99460E-003	0.00000E+000	5.29891E-003	3.59960E-001	-1.12391E+000	3.57670E+000	10	...........
	40	0.546667	8.90063E-001	5.99295E-003	0.00000E+000	5.33410E-003	3.59960E-001	-1.13182E+000	3.57670E+000	10	...........
	41	0.56	8.96143E-001	5.99557E-003	0.00000E+000	5.37289E-003	3.59960E-001	-1.12905E+000	3.57670E+000	10	...........
	42	0.573333	9.02202E-001	5.99079E-003	0.00000E+000	5.40490E-003	3.59960E-001	-1.12369E+000	3.57670E+000	10	...........
	43	0.586667	9.08230E-001	5.99270E-003	0.00000E+000	5.44275E-003	3.59960E-001	-1.13209E+000	3.57670E+000	10	...........
	44	0.6	9.14245E-001	5.99330E-003	0.00000E+000	5.47934E-003	3.59960E-001	-1.12964E+000	3.57670E+000	10	...........
	45	0.613333	9.20295E-001	5.99454E-003	0.00000E+000	5.51674E-003	3.59960E-001	-1.12393E+000	3.57670E+000	10	...........
	46	0.626667	9.26240E-001	5.99705E-003	0.00000E+000	5.55471E-003	3.59960E-001	-1.13191E+000	3.57670E+000	10	...........
	47	0.64	9.32195E-001	5.99308E-003	0.00000E+000	5.58672E-003	3.59960E-001	-1.12933E+000	3.57670E+000	10	...........
	48	0.653333	9.38077E-001	5.99627E-003	0.00000E+000	5.62497E-003	3.59960E-001	-1.12375E+000	3.57670E+000	10	...........
	49	0.666667	9.43964E-001	5.99581E-003	0.00000E+000	5.65984E-003	3.59960E-001	-1.13203E+000	3.57670E+000	10	...........
	50	0.68	9.49782E-001	5.99131E-003	0.00000E+000	5.69044E-003	3.59960E-001	-1.12898E+000	3.57670E+000	10	...........
	51	0.693333	9.55574E-001	5.99866E-003	0.00000E+000	5.73216E-003	3.59960E-001	-1.12322E+000	3.57670E+000	10	...........
	52	0.706667	9.61308E-001	5.99417E-003	0.00000E+000	5.76224E-003	3.59960E-001	-1.13154E+000	3.57670E+000	10	...........
	53	0.72	9.66995E-001	5.99629E-003	0.00000E+000	5.79839E-003	3.59960E-001	-1.12900E+000	3.57670E+000	10	...........
	54	0.733333	9.72653E-001	5.99531E-003	0.00000E+000	5.83136E-003	3.59960E-001	-1.12347E+000	3.57670E+000	10	...........
	55	0.746667	9.78311E-001	5.99822E-003	0.00000E+000	5.86813E-003	3.59960E-001	-1.13152E+000	3.57670E+000	10	...........
	56	0.76	9.83858E-001	5.99334E-003	0.00000E+000	5.89660E-003	3.59960E-001	-1.12875E+000	3.57670E+000	10	...........
	57	0.773333	9.89373E-001	5.99367E-003	0.00000E+000	5.92997E-003	3.59960E-001	-1.12343E+000	3.57670E+000	10	...........
	58	0.786667	9.94833E-001	5.99355E-003	0.00000E+000	5.96258E-003	3.59960E-001	-1.13185E+000	3.57670E+000	10	...........
	59	0.795	9.99296E-001	5.99528E-003	0.00000E+000	5.99105E-003	3.59960E-001	-1.12378E+000	3.57670E+000	10	...........
STARTTIMEOFFSET	QUANT	718.5218	Start Time Offset (s)