File: Data/CV_CRGO300517_1/PWRCCD_CRGO300517_1/CHARGE_DISCHARGE/CHARGE_#812.DTA
EXPLAIN
TAG	PWR800_CHARGE
TITLE	LABEL	PWR Cyclic Charge Discharge (Cell) - Charge Step	Test &Identifier
DATE	LABEL	22-6-2017	Date
TIME	LABEL	16:07:44	Time
NOTES	NOTES	3	&Notes...
	supercap test cell
	0.6mg
	6M KOH
PSTAT	PSTAT	IFC5000-01520	Potentiostat
CAPACITY	QUANT	1.00000E-003	Capacity (A-hr)
CELLTYPE	SELECTOR	1	&Cell Type
WORKINGCONNECTION	SELECTOR	0	&Working Lead
MAXCHARGETIME	VARIABLEANDUNITS	1.00000E+002	s	1.00000E+002	second(s)	Max &Charge Time
CHARGECURRENT	QUANT	6.00000E-003	&Charge Current (A)
VOLTAGEFINISH	TWOPARAM	F	1.00000E-003	3.60000E+003	&Voltage Finish	 I (A) < 	Max Time(s)
SAMPLETIME	QUANT	1.00000E-002	Sa&mple Period (s)
CHARGESTOPAT1	MULTIPARAM	4	1.00000E+000	Charge Stop At &1	Voltage > Limit	V
CHARGESTOPAT2	MULTIPARAM	0	0.00000E+000	Charge Stop At &2	None	N/A
AESBHCSELECTOR	TOGGLE	F	Save Both Half Cells
IRCOMP	TOGGLE	F	IR &Measure
EOC	QUANT	0	Open Circuit (V)
SEQUENCER	TOGGLE	TRUE	Run as Sequence
PSTATMODEL	IQUANT	53	Pstat Model
PSTATSECTION	LABEL	IFC5000-01520	Pstat Section
PSTATSERIALNO	LABEL	01520	Pstat Serial Number
CTRLMODE	IQUANT	0	Control Mode
ELECTROMETER	IQUANT	1	RE=0 or CS=1
IESTAB	IQUANT	0	I/E Stability
CASPEED	IQUANT	4	Control Amp Speed
CONVENTION	IQUANT	1	Current Convention
ICHRANGE	IQUANT	2	Ich Range
ICHRANGEMODE	TOGGLE	T	Ich Auto Range
ICHOFFSETENABLE	TOGGLE	F	Ich Offset Enable
ICHOFFSET	QUANT	0	Ich Offset (V)
ICHFILTER	IQUANT	1	Ich Filter
VCHRANGE	IQUANT	2	Vch Range
VCHRANGEMODE	TOGGLE	T	Vch Auto Range
VCHOFFSETENABLE	TOGGLE	F	Vch Offset Enable
VCHOFFSET	QUANT	0	Vch Offset (V)
VCHFILTER	IQUANT	1	Vch Filter
IERANGELOWERLIMIT	IQUANT	9	I/E Range Lower Limit
IERANGEMODE	TOGGLE	F	I/E AutoRange
IERANGE	IQUANT	10	I/E Range
ACHSELECT	IQUANT	1	Ach Select
ACHRANGE	IQUANT	2	Ach Range
ACHOFFSETENABLE	TOGGLE	F	Ach Offset Enable
ACHOFFSET	QUANT	0	Ach Offset (V)
ACHFILTER	IQUANT	1	Ach Filter
CABLEID	IQUANT	14	Cable ID
DCCALDATE	LABEL	20-10-2016	DC Calibration Date
ACCALDATE	LABEL	12/3/2015	AC Calibration Date
FRAMEWORKVERSION	QUANT	7.01	Framework Version
INSTRUMENTVERSION	LABEL	4.00	Instrument Version
CURVE	TABLE	54
	Pt	T	Vf	Im	Vu	Pwr	Sig	Ach	Temp	IERange	Over
	#	s	V	A	V	W	V	V	deg C	#	bits
	0	0.013333	6.49323E-001	5.99454E-003	0.00000E+000	3.89239E-003	3.59960E-001	-1.16720E+000	3.57680E+000	10	...........
	1	0.026667	6.58502E-001	5.99153E-003	0.00000E+000	3.94543E-003	3.59960E-001	-1.17058E+000	3.57676E+000	10	...........
	2	0.04	6.66967E-001	5.99212E-003	0.00000E+000	3.99655E-003	3.59960E-001	-1.16204E+000	3.57670E+000	10	...........
	3	0.053333	6.74969E-001	5.99444E-003	0.00000E+000	4.04606E-003	3.59960E-001	-1.16715E+000	3.57670E+000	10	...........
	4	0.066667	6.82734E-001	5.99827E-003	0.00000E+000	4.09522E-003	3.59960E-001	-1.17015E+000	3.57670E+000	10	...........
	5	0.08	6.90231E-001	5.99370E-003	0.00000E+000	4.13703E-003	3.59960E-001	-1.16166E+000	3.57670E+000	10	...........
	6	0.093333	6.97632E-001	5.99193E-003	0.00000E+000	4.18017E-003	3.59960E-001	-1.16689E+000	3.57670E+000	10	...........
	7	0.106667	7.04914E-001	5.99396E-003	0.00000E+000	4.22522E-003	3.59960E-001	-1.16982E+000	3.57670E+000	10	...........
	8	0.12	7.12031E-001	5.99932E-003	0.00000E+000	4.27170E-003	3.59960E-001	-1.16122E+000	3.57670E+000	10	...........
	9	0.133333	7.19176E-001	5.98906E-003	0.00000E+000	4.30719E-003	3.59960E-001	-1.16629E+000	3.57670E+000	10	...........
	10	0.146667	7.26247E-001	5.99524E-003	0.00000E+000	4.35402E-003	3.59960E-001	-1.16957E+000	3.57670E+000	10	...........
	11	0.16	7.33194E-001	5.99363E-003	0.00000E+000	4.39450E-003	3.59960E-001	-1.16115E+000	3.57670E+000	10	...........
	12	0.173333	7.40130E-001	5.99347E-003	0.00000E+000	4.43595E-003	3.59960E-001	-1.16665E+000	3.57670E+000	10	...........
	13	0.186667	7.47098E-001	5.99417E-003	0.00000E+000	4.47823E-003	3.59960E-001	-1.16941E+000	3.57670E+000	10	...........
	14	0.2	7.53938E-001	5.98954E-003	0.00000E+000	4.51574E-003	3.59960E-001	-1.16092E+000	3.57670E+000	10	...........
	15	0.213333	7.60753E-001	5.99367E-003	0.00000E+000	4.55970E-003	3.59960E-001	-1.16643E+000	3.57670E+000	10	...........
	16	0.226667	7.67556E-001	5.99090E-003	0.00000E+000	4.59835E-003	3.59960E-001	-1.16949E+000	3.57670E+000	10	...........
	17	0.24	7.74321E-001	5.99389E-003	0.00000E+000	4.64119E-003	3.59960E-001	-1.16097E+000	3.57670E+000	10	...........
	18	0.253333	7.81051E-001	5.99642E-003	0.00000E+000	4.68351E-003	3.59960E-001	-1.16626E+000	3.57670E+000	10	...........
	19	0.266667	7.87774E-001	5.99309E-003	0.00000E+000	4.72120E-003	3.59960E-001	-1.16934E+000	3.57670E+000	10	...........
	20	0.28	7.94498E-001	5.99195E-003	0.00000E+000	4.76059E-003	3.59960E-001	-1.16091E+000	3.57670E+000	10	...........
	21	0.293333	8.01157E-001	5.99909E-003	0.00000E+000	4.80621E-003	3.59960E-001	-1.16664E+000	3.57670E+000	10	...........
	22	0.306667	8.07803E-001	5.99302E-003	0.00000E+000	4.84118E-003	3.59960E-001	-1.16966E+000	3.57670E+000	10	...........
	23	0.32	8.14408E-001	5.99235E-003	0.00000E+000	4.88022E-003	3.59960E-001	-1.16085E+000	3.57670E+000	10	...........
	24	0.333333	8.21039E-001	5.99749E-003	0.00000E+000	4.92418E-003	3.59960E-001	-1.16631E+000	3.57670E+000	10	...........
	25	0.346667	8.27631E-001	5.99616E-003	0.00000E+000	4.96261E-003	3.59960E-001	-1.16936E+000	3.57670E+000	10	...........
	26	0.36	8.34149E-001	5.99249E-003	0.00000E+000	4.99863E-003	3.59960E-001	-1.16121E+000	3.57670E+000	10	...........
	27	0.373333	8.40685E-001	5.99043E-003	0.00000E+000	5.03607E-003	3.59960E-001	-1.16632E+000	3.57670E+000	10	...........
	28	0.386667	8.47205E-001	5.99148E-003	0.00000E+000	5.07601E-003	3.59960E-001	-1.16922E+000	3.57670E+000	10	...........
	29	0.4	8.53670E-001	5.99406E-003	0.00000E+000	5.11695E-003	3.59960E-001	-1.16088E+000	3.57670E+000	10	...........
	30	0.413333	8.60130E-001	5.99524E-003	0.00000E+000	5.15669E-003	3.59960E-001	-1.16615E+000	3.57670E+000	10	...........
	31	0.426667	8.66588E-001	5.99516E-003	0.00000E+000	5.19533E-003	3.59960E-001	-1.16908E+000	3.57670E+000	10	...........
	32	0.44	8.73011E-001	5.99187E-003	0.00000E+000	5.23097E-003	3.59960E-001	-1.16056E+000	3.57670E+000	10	...........
	33	0.453333	8.79389E-001	5.99881E-003	0.00000E+000	5.27529E-003	3.59960E-001	-1.16598E+000	3.57670E+000	10	...........
	34	0.466667	8.85739E-001	5.99529E-003	0.00000E+000	5.31027E-003	3.59960E-001	-1.16886E+000	3.57670E+000	10	...........
	35	0.48	8.92058E-001	5.99671E-003	0.00000E+000	5.34941E-003	3.59960E-001	-1.16056E+000	3.57670E+000	10	...........
	36	0.493333	8.98315E-001	5.99495E-003	0.00000E+000	5.38535E-003	3.59960E-001	-1.16618E+000	3.57670E+000	10	...........
	37	0.506667	9.04529E-001	5.99204E-003	0.00000E+000	5.41997E-003	3.59960E-001	-1.16880E+000	3.57670E+000	10	...........
	38	0.52	9.10770E-001	5.99447E-003	0.00000E+000	5.45958E-003	3.59960E-001	-1.16041E+000	3.57670E+000	10	...........
	39	0.533333	9.16953E-001	5.99282E-003	0.00000E+000	5.49514E-003	3.59960E-001	-1.16616E+000	3.57670E+000	10	...........
	40	0.546667	9.23128E-001	5.99419E-003	0.00000E+000	5.53340E-003	3.59960E-001	-1.16882E+000	3.57670E+000	10	...........
	41	0.56	9.29227E-001	5.99139E-003	0.00000E+000	5.56736E-003	3.59960E-001	-1.16073E+000	3.57670E+000	10	...........
	42	0.573333	9.35253E-001	5.99217E-003	0.00000E+000	5.60420E-003	3.59960E-001	-1.16595E+000	3.57670E+000	10	...........
	43	0.586667	9.41276E-001	5.99285E-003	0.00000E+000	5.64093E-003	3.59960E-001	-1.16890E+000	3.57670E+000	10	...........
	44	0.6	9.47222E-001	5.98991E-003	0.00000E+000	5.67378E-003	3.59960E-001	-1.16033E+000	3.57670E+000	10	...........
	45	0.613333	9.53155E-001	5.98839E-003	0.00000E+000	5.70786E-003	3.59960E-001	-1.16599E+000	3.57670E+000	10	...........
	46	0.626667	9.59063E-001	5.99409E-003	0.00000E+000	5.74871E-003	3.59960E-001	-1.16914E+000	3.57670E+000	10	...........
	47	0.64	9.64872E-001	5.99322E-003	0.00000E+000	5.78269E-003	3.59960E-001	-1.16077E+000	3.57670E+000	10	...........
	48	0.653333	9.70661E-001	5.99416E-003	0.00000E+000	5.81829E-003	3.59960E-001	-1.16637E+000	3.57670E+000	10	...........
	49	0.666667	9.76428E-001	5.99058E-003	0.00000E+000	5.84937E-003	3.59960E-001	-1.16881E+000	3.57670E+000	10	...........
	50	0.68	9.82076E-001	5.99447E-003	0.00000E+000	5.88703E-003	3.59960E-001	-1.16074E+000	3.57670E+000	10	...........
	51	0.693333	9.87699E-001	5.99040E-003	0.00000E+000	5.91672E-003	3.59960E-001	-1.16626E+000	3.57670E+000	10	...........
	52	0.706667	9.93281E-001	5.99197E-003	0.00000E+000	5.95171E-003	3.59960E-001	-1.16889E+000	3.57670E+000	10	...........
	53	0.718333	9.98469E-001	5.99404E-003	0.00000E+000	5.98487E-003	3.59960E-001	-1.15860E+000	3.57670E+000	10	...........
STARTTIMEOFFSET	QUANT	1321.307	Start Time Offset (s)