File: Data/CV_CRGO300517_1/PWRCCD_CRGO300517_1/CHARGE_DISCHARGE/CHARGE_#864.DTA
EXPLAIN
TAG	PWR800_CHARGE
TITLE	LABEL	PWR Cyclic Charge Discharge (Cell) - Charge Step	Test &Identifier
DATE	LABEL	22-6-2017	Date
TIME	LABEL	16:09:39	Time
NOTES	NOTES	3	&Notes...
	supercap test cell
	0.6mg
	6M KOH
PSTAT	PSTAT	IFC5000-01520	Potentiostat
CAPACITY	QUANT	1.00000E-003	Capacity (A-hr)
CELLTYPE	SELECTOR	1	&Cell Type
WORKINGCONNECTION	SELECTOR	0	&Working Lead
MAXCHARGETIME	VARIABLEANDUNITS	1.00000E+002	s	1.00000E+002	second(s)	Max &Charge Time
CHARGECURRENT	QUANT	6.00000E-003	&Charge Current (A)
VOLTAGEFINISH	TWOPARAM	F	1.00000E-003	3.60000E+003	&Voltage Finish	 I (A) < 	Max Time(s)
SAMPLETIME	QUANT	1.00000E-002	Sa&mple Period (s)
CHARGESTOPAT1	MULTIPARAM	4	1.00000E+000	Charge Stop At &1	Voltage > Limit	V
CHARGESTOPAT2	MULTIPARAM	0	0.00000E+000	Charge Stop At &2	None	N/A
AESBHCSELECTOR	TOGGLE	F	Save Both Half Cells
IRCOMP	TOGGLE	F	IR &Measure
EOC	QUANT	0	Open Circuit (V)
SEQUENCER	TOGGLE	TRUE	Run as Sequence
PSTATMODEL	IQUANT	53	Pstat Model
PSTATSECTION	LABEL	IFC5000-01520	Pstat Section
PSTATSERIALNO	LABEL	01520	Pstat Serial Number
CTRLMODE	IQUANT	0	Control Mode
ELECTROMETER	IQUANT	1	RE=0 or CS=1
IESTAB	IQUANT	0	I/E Stability
CASPEED	IQUANT	4	Control Amp Speed
CONVENTION	IQUANT	1	Current Convention
ICHRANGE	IQUANT	2	Ich Range
ICHRANGEMODE	TOGGLE	T	Ich Auto Range
ICHOFFSETENABLE	TOGGLE	F	Ich Offset Enable
ICHOFFSET	QUANT	0	Ich Offset (V)
ICHFILTER	IQUANT	1	Ich Filter
VCHRANGE	IQUANT	2	Vch Range
VCHRANGEMODE	TOGGLE	T	Vch Auto Range
VCHOFFSETENABLE	TOGGLE	F	Vch Offset Enable
VCHOFFSET	QUANT	0	Vch Offset (V)
VCHFILTER	IQUANT	1	Vch Filter
IERANGELOWERLIMIT	IQUANT	9	I/E Range Lower Limit
IERANGEMODE	TOGGLE	F	I/E AutoRange
IERANGE	IQUANT	10	I/E Range
ACHSELECT	IQUANT	1	Ach Select
ACHRANGE	IQUANT	2	Ach Range
ACHOFFSETENABLE	TOGGLE	F	Ach Offset Enable
ACHOFFSET	QUANT	0	Ach Offset (V)
ACHFILTER	IQUANT	1	Ach Filter
CABLEID	IQUANT	14	Cable ID
DCCALDATE	LABEL	20-10-2016	DC Calibration Date
ACCALDATE	LABEL	12/3/2015	AC Calibration Date
FRAMEWORKVERSION	QUANT	7.01	Framework Version
INSTRUMENTVERSION	LABEL	4.00	Instrument Version
CURVE	TABLE	54
	Pt	T	Vf	Im	Vu	Pwr	Sig	Ach	Temp	IERange	Over
	#	s	V	A	V	W	V	V	deg C	#	bits
	0	0.013333	6.51548E-001	5.99515E-003	0.00000E+000	3.90612E-003	3.59960E-001	-1.16760E+000	3.57770E+000	10	...........
	1	0.026667	6.60756E-001	5.99012E-003	0.00000E+000	3.95801E-003	3.59960E-001	-1.16083E+000	3.57770E+000	10	...........
	2	0.04	6.69351E-001	5.99305E-003	0.00000E+000	4.01145E-003	3.59960E-001	-1.16837E+000	3.57770E+000	10	...........
	3	0.053333	6.77405E-001	5.99752E-003	0.00000E+000	4.06275E-003	3.59960E-001	-1.16700E+000	3.57770E+000	10	...........
	4	0.066667	6.85178E-001	5.99594E-003	0.00000E+000	4.10828E-003	3.59960E-001	-1.16062E+000	3.57770E+000	10	...........
	5	0.08	6.92767E-001	5.98911E-003	0.00000E+000	4.14905E-003	3.59960E-001	-1.16881E+000	3.57770E+000	10	...........
	6	0.093333	7.00171E-001	5.99142E-003	0.00000E+000	4.19502E-003	3.59960E-001	-1.16721E+000	3.57770E+000	10	...........
	7	0.106667	7.07492E-001	5.99849E-003	0.00000E+000	4.24388E-003	3.59960E-001	-1.16079E+000	3.57770E+000	10	...........
	8	0.12	7.14657E-001	5.99053E-003	0.00000E+000	4.28117E-003	3.59960E-001	-1.16877E+000	3.57770E+000	10	...........
	9	0.133333	7.21850E-001	5.99428E-003	0.00000E+000	4.32697E-003	3.59960E-001	-1.16713E+000	3.57770E+000	10	...........
	10	0.146667	7.28884E-001	5.99590E-003	0.00000E+000	4.37031E-003	3.59960E-001	-1.16087E+000	3.57770E+000	10	...........
	11	0.16	7.35853E-001	5.99656E-003	0.00000E+000	4.41258E-003	3.59960E-001	-1.16884E+000	3.57770E+000	10	...........
	12	0.173333	7.42839E-001	5.99206E-003	0.00000E+000	4.45114E-003	3.59960E-001	-1.16720E+000	3.57770E+000	10	...........
	13	0.186667	7.49790E-001	5.99534E-003	0.00000E+000	4.49524E-003	3.59960E-001	-1.16059E+000	3.57770E+000	10	...........
	14	0.2	7.56689E-001	5.99601E-003	0.00000E+000	4.53712E-003	3.59960E-001	-1.16880E+000	3.57770E+000	10	...........
	15	0.213333	7.63532E-001	5.99439E-003	0.00000E+000	4.57690E-003	3.59960E-001	-1.16726E+000	3.57770E+000	10	...........
	16	0.226667	7.70367E-001	5.99554E-003	0.00000E+000	4.61877E-003	3.59960E-001	-1.16092E+000	3.57770E+000	10	...........
	17	0.24	7.77159E-001	5.99044E-003	0.00000E+000	4.65553E-003	3.59960E-001	-1.16878E+000	3.57770E+000	10	...........
	18	0.253333	7.83975E-001	5.99493E-003	0.00000E+000	4.69988E-003	3.59960E-001	-1.16708E+000	3.57770E+000	10	...........
	19	0.266667	7.90738E-001	5.99306E-003	0.00000E+000	4.73894E-003	3.59960E-001	-1.16082E+000	3.57770E+000	10	...........
	20	0.28	7.97447E-001	5.99419E-003	0.00000E+000	4.78004E-003	3.59960E-001	-1.16935E+000	3.57770E+000	10	...........
	21	0.293333	8.04128E-001	5.99536E-003	0.00000E+000	4.82103E-003	3.59960E-001	-1.16721E+000	3.57770E+000	10	...........
	22	0.306667	8.10794E-001	5.99102E-003	0.00000E+000	4.85748E-003	3.59960E-001	-1.16070E+000	3.57770E+000	10	...........
	23	0.32	8.17474E-001	5.99211E-003	0.00000E+000	4.89840E-003	3.59960E-001	-1.16883E+000	3.57770E+000	10	...........
	24	0.333333	8.24133E-001	5.99265E-003	0.00000E+000	4.93874E-003	3.59960E-001	-1.16688E+000	3.57770E+000	10	...........
	25	0.346667	8.30718E-001	5.99162E-003	0.00000E+000	4.97735E-003	3.59960E-001	-1.16072E+000	3.57770E+000	10	...........
	26	0.36	8.37286E-001	5.99693E-003	0.00000E+000	5.02115E-003	3.59960E-001	-1.16883E+000	3.57770E+000	10	...........
	27	0.373333	8.43825E-001	5.99543E-003	0.00000E+000	5.05909E-003	3.59960E-001	-1.16668E+000	3.57770E+000	10	...........
	28	0.386667	8.50402E-001	5.99444E-003	0.00000E+000	5.09768E-003	3.59960E-001	-1.16054E+000	3.57770E+000	10	...........
	29	0.4	8.56874E-001	5.99413E-003	0.00000E+000	5.13621E-003	3.59960E-001	-1.16878E+000	3.57770E+000	10	...........
	30	0.413333	8.63353E-001	5.99446E-003	0.00000E+000	5.17534E-003	3.59960E-001	-1.16695E+000	3.57770E+000	10	...........
	31	0.426667	8.69826E-001	5.99492E-003	0.00000E+000	5.21453E-003	3.59960E-001	-1.16086E+000	3.57770E+000	10	...........
	32	0.44	8.76244E-001	5.99757E-003	0.00000E+000	5.25534E-003	3.59960E-001	-1.16884E+000	3.57770E+000	10	...........
	33	0.453333	8.82627E-001	5.99418E-003	0.00000E+000	5.29062E-003	3.59960E-001	-1.16658E+000	3.57770E+000	10	...........
	34	0.466667	8.88963E-001	5.99937E-003	0.00000E+000	5.33322E-003	3.59960E-001	-1.16089E+000	3.57770E+000	10	...........
	35	0.48	8.95302E-001	5.99609E-003	0.00000E+000	5.36830E-003	3.59960E-001	-1.16915E+000	3.57770E+000	10	...........
	36	0.493333	9.01595E-001	5.99375E-003	0.00000E+000	5.40394E-003	3.59960E-001	-1.16690E+000	3.57770E+000	10	...........
	37	0.506667	9.07850E-001	5.99349E-003	0.00000E+000	5.44119E-003	3.59960E-001	-1.16083E+000	3.57770E+000	10	...........
	38	0.52	9.14053E-001	5.99631E-003	0.00000E+000	5.48094E-003	3.59960E-001	-1.16914E+000	3.57770E+000	10	...........
	39	0.533333	9.20246E-001	5.99169E-003	0.00000E+000	5.51383E-003	3.59960E-001	-1.16672E+000	3.57770E+000	10	...........
	40	0.546667	9.26392E-001	5.99392E-003	0.00000E+000	5.55271E-003	3.59960E-001	-1.16081E+000	3.57770E+000	10	...........
	41	0.56	9.32492E-001	5.99447E-003	0.00000E+000	5.58979E-003	3.59960E-001	-1.16936E+000	3.57770E+000	10	...........
	42	0.573333	9.38509E-001	5.99517E-003	0.00000E+000	5.62652E-003	3.59960E-001	-1.16685E+000	3.57770E+000	10	...........
	43	0.586667	9.44496E-001	5.99059E-003	0.00000E+000	5.65809E-003	3.59960E-001	-1.16086E+000	3.57770E+000	10	...........
	44	0.6	9.50499E-001	5.99862E-003	0.00000E+000	5.70169E-003	3.59960E-001	-1.16940E+000	3.57770E+000	10	...........
	45	0.613333	9.56384E-001	5.99447E-003	0.00000E+000	5.73302E-003	3.59960E-001	-1.16673E+000	3.57770E+000	10	...........
	46	0.626667	9.62261E-001	5.99409E-003	0.00000E+000	5.76788E-003	3.59960E-001	-1.16102E+000	3.57770E+000	10	...........
	47	0.64	9.68063E-001	5.98994E-003	0.00000E+000	5.79864E-003	3.59960E-001	-1.16923E+000	3.57770E+000	10	...........
	48	0.653333	9.73882E-001	5.98963E-003	0.00000E+000	5.83319E-003	3.59960E-001	-1.16632E+000	3.57770E+000	10	...........
	49	0.666667	9.79564E-001	5.99441E-003	0.00000E+000	5.87190E-003	3.59960E-001	-1.16036E+000	3.57770E+000	10	...........
	50	0.68	9.85207E-001	5.99382E-003	0.00000E+000	5.90516E-003	3.59960E-001	-1.16909E+000	3.57770E+000	10	...........
	51	0.693333	9.90812E-001	5.99085E-003	0.00000E+000	5.93581E-003	3.59960E-001	-1.16624E+000	3.57770E+000	10	...........
	52	0.706667	9.96340E-001	5.99310E-003	0.00000E+000	5.97117E-003	3.59960E-001	-1.16028E+000	3.57770E+000	10	...........
	53	0.71	9.99779E-001	5.99579E-003	0.00000E+000	5.99447E-003	3.59960E-001	-1.17452E+000	3.57770E+000	10	...........
STARTTIMEOFFSET	QUANT	1395.287	Start Time Offset (s)