File: Data/CV_CRGO300517_1/PWRCCD_CRGO300517_1/CHARGE_DISCHARGE/CHARGE_#571.DTA
EXPLAIN
TAG	PWR800_CHARGE
TITLE	LABEL	PWR Cyclic Charge Discharge (Cell) - Charge Step	Test &Identifier
DATE	LABEL	22-6-2017	Date
TIME	LABEL	15:58:39	Time
NOTES	NOTES	3	&Notes...
	supercap test cell
	0.6mg
	6M KOH
PSTAT	PSTAT	IFC5000-01520	Potentiostat
CAPACITY	QUANT	1.00000E-003	Capacity (A-hr)
CELLTYPE	SELECTOR	1	&Cell Type
WORKINGCONNECTION	SELECTOR	0	&Working Lead
MAXCHARGETIME	VARIABLEANDUNITS	1.00000E+002	s	1.00000E+002	second(s)	Max &Charge Time
CHARGECURRENT	QUANT	6.00000E-003	&Charge Current (A)
VOLTAGEFINISH	TWOPARAM	F	1.00000E-003	3.60000E+003	&Voltage Finish	 I (A) < 	Max Time(s)
SAMPLETIME	QUANT	1.00000E-002	Sa&mple Period (s)
CHARGESTOPAT1	MULTIPARAM	4	1.00000E+000	Charge Stop At &1	Voltage > Limit	V
CHARGESTOPAT2	MULTIPARAM	0	0.00000E+000	Charge Stop At &2	None	N/A
AESBHCSELECTOR	TOGGLE	F	Save Both Half Cells
IRCOMP	TOGGLE	F	IR &Measure
EOC	QUANT	0	Open Circuit (V)
SEQUENCER	TOGGLE	TRUE	Run as Sequence
PSTATMODEL	IQUANT	53	Pstat Model
PSTATSECTION	LABEL	IFC5000-01520	Pstat Section
PSTATSERIALNO	LABEL	01520	Pstat Serial Number
CTRLMODE	IQUANT	0	Control Mode
ELECTROMETER	IQUANT	1	RE=0 or CS=1
IESTAB	IQUANT	0	I/E Stability
CASPEED	IQUANT	4	Control Amp Speed
CONVENTION	IQUANT	1	Current Convention
ICHRANGE	IQUANT	2	Ich Range
ICHRANGEMODE	TOGGLE	T	Ich Auto Range
ICHOFFSETENABLE	TOGGLE	F	Ich Offset Enable
ICHOFFSET	QUANT	0	Ich Offset (V)
ICHFILTER	IQUANT	1	Ich Filter
VCHRANGE	IQUANT	2	Vch Range
VCHRANGEMODE	TOGGLE	T	Vch Auto Range
VCHOFFSETENABLE	TOGGLE	F	Vch Offset Enable
VCHOFFSET	QUANT	0	Vch Offset (V)
VCHFILTER	IQUANT	1	Vch Filter
IERANGELOWERLIMIT	IQUANT	9	I/E Range Lower Limit
IERANGEMODE	TOGGLE	F	I/E AutoRange
IERANGE	IQUANT	10	I/E Range
ACHSELECT	IQUANT	1	Ach Select
ACHRANGE	IQUANT	2	Ach Range
ACHOFFSETENABLE	TOGGLE	F	Ach Offset Enable
ACHOFFSET	QUANT	0	Ach Offset (V)
ACHFILTER	IQUANT	1	Ach Filter
CABLEID	IQUANT	14	Cable ID
DCCALDATE	LABEL	20-10-2016	DC Calibration Date
ACCALDATE	LABEL	12/3/2015	AC Calibration Date
FRAMEWORKVERSION	QUANT	7.01	Framework Version
INSTRUMENTVERSION	LABEL	4.00	Instrument Version
CURVE	TABLE	57
	Pt	T	Vf	Im	Vu	Pwr	Sig	Ach	Temp	IERange	Over
	#	s	V	A	V	W	V	V	deg C	#	bits
	0	0.013333	6.36876E-001	5.99018E-003	0.00000E+000	3.81500E-003	3.59960E-001	-1.14351E+000	3.57790E+000	10	...........
	1	0.026667	6.45844E-001	5.99360E-003	0.00000E+000	3.87093E-003	3.59960E-001	-1.14332E+000	3.57790E+000	10	...........
	2	0.04	6.54105E-001	5.99231E-003	0.00000E+000	3.91960E-003	3.59960E-001	-1.15385E+000	3.57790E+000	10	...........
	3	0.053333	6.61919E-001	5.99253E-003	0.00000E+000	3.96657E-003	3.59960E-001	-1.14370E+000	3.57790E+000	10	...........
	4	0.066667	6.69457E-001	5.99769E-003	0.00000E+000	4.01520E-003	3.59960E-001	-1.14339E+000	3.57790E+000	10	...........
	5	0.08	6.76771E-001	5.99302E-003	0.00000E+000	4.05590E-003	3.59960E-001	-1.15397E+000	3.57790E+000	10	...........
	6	0.093333	6.83941E-001	5.99701E-003	0.00000E+000	4.10160E-003	3.59960E-001	-1.14366E+000	3.57790E+000	10	...........
	7	0.106667	6.91022E-001	5.99108E-003	0.00000E+000	4.13997E-003	3.59960E-001	-1.14293E+000	3.57790E+000	10	...........
	8	0.12	6.98030E-001	5.99035E-003	0.00000E+000	4.18144E-003	3.59960E-001	-1.15365E+000	3.57790E+000	10	...........
	9	0.133333	7.04926E-001	5.99378E-003	0.00000E+000	4.22517E-003	3.59960E-001	-1.14332E+000	3.57790E+000	10	...........
	10	0.146667	7.11744E-001	5.99912E-003	0.00000E+000	4.26984E-003	3.59960E-001	-1.14286E+000	3.57790E+000	10	...........
	11	0.16	7.18600E-001	5.99650E-003	0.00000E+000	4.30909E-003	3.59960E-001	-1.15321E+000	3.57790E+000	10	...........
	12	0.173333	7.25355E-001	5.99018E-003	0.00000E+000	4.34501E-003	3.59960E-001	-1.14277E+000	3.57790E+000	10	...........
	13	0.186667	7.32039E-001	5.99335E-003	0.00000E+000	4.38737E-003	3.59960E-001	-1.14244E+000	3.57790E+000	10	...........
	14	0.2	7.38704E-001	5.99420E-003	0.00000E+000	4.42794E-003	3.59960E-001	-1.15311E+000	3.57790E+000	10	...........
	15	0.213333	7.45375E-001	5.99474E-003	0.00000E+000	4.46833E-003	3.59960E-001	-1.14286E+000	3.57790E+000	10	...........
	16	0.226667	7.52009E-001	5.99627E-003	0.00000E+000	4.50925E-003	3.59960E-001	-1.14252E+000	3.57790E+000	10	...........
	17	0.24	7.58628E-001	5.99273E-003	0.00000E+000	4.54625E-003	3.59960E-001	-1.15291E+000	3.57790E+000	10	...........
	18	0.253333	7.65207E-001	5.99300E-003	0.00000E+000	4.58589E-003	3.59960E-001	-1.14244E+000	3.57790E+000	10	...........
	19	0.266667	7.71807E-001	5.99388E-003	0.00000E+000	4.62612E-003	3.59960E-001	-1.14238E+000	3.57790E+000	10	...........
	20	0.28	7.78329E-001	5.99384E-003	0.00000E+000	4.66519E-003	3.59960E-001	-1.15296E+000	3.57790E+000	10	...........
	21	0.293333	7.84853E-001	5.99695E-003	0.00000E+000	4.70673E-003	3.59960E-001	-1.14256E+000	3.57790E+000	10	...........
	22	0.306667	7.91397E-001	5.99454E-003	0.00000E+000	4.74406E-003	3.59960E-001	-1.14216E+000	3.57790E+000	10	...........
	23	0.32	7.97907E-001	5.99076E-003	0.00000E+000	4.78006E-003	3.59960E-001	-1.15269E+000	3.57790E+000	10	...........
	24	0.333333	8.04373E-001	5.99284E-003	0.00000E+000	4.82048E-003	3.59960E-001	-1.14246E+000	3.57790E+000	10	...........
	25	0.346667	8.10796E-001	5.99493E-003	0.00000E+000	4.86067E-003	3.59960E-001	-1.14236E+000	3.57790E+000	10	...........
	26	0.36	8.17266E-001	5.99944E-003	0.00000E+000	4.90314E-003	3.59960E-001	-1.15299E+000	3.57790E+000	10	...........
	27	0.373333	8.23713E-001	5.99403E-003	0.00000E+000	4.93736E-003	3.59960E-001	-1.14237E+000	3.57790E+000	10	...........
	28	0.386667	8.30125E-001	5.99171E-003	0.00000E+000	4.97386E-003	3.59960E-001	-1.14221E+000	3.57790E+000	10	...........
	29	0.4	8.36517E-001	5.99327E-003	0.00000E+000	5.01347E-003	3.59960E-001	-1.15271E+000	3.57790E+000	10	...........
	30	0.413333	8.42910E-001	5.98754E-003	0.00000E+000	5.04696E-003	3.59960E-001	-1.14245E+000	3.57790E+000	10	...........
	31	0.426667	8.49306E-001	5.99084E-003	0.00000E+000	5.08805E-003	3.59960E-001	-1.14207E+000	3.57790E+000	10	...........
	32	0.44	8.55582E-001	5.99495E-003	0.00000E+000	5.12917E-003	3.59960E-001	-1.15252E+000	3.57790E+000	10	...........
	33	0.453333	8.61928E-001	5.99212E-003	0.00000E+000	5.16478E-003	3.59960E-001	-1.14197E+000	3.57790E+000	10	...........
	34	0.466667	8.68242E-001	5.99601E-003	0.00000E+000	5.20599E-003	3.59960E-001	-1.14185E+000	3.57790E+000	10	...........
	35	0.48	8.74493E-001	5.99641E-003	0.00000E+000	5.24382E-003	3.59960E-001	-1.15240E+000	3.57790E+000	10	...........
	36	0.493333	8.80746E-001	5.99539E-003	0.00000E+000	5.28041E-003	3.59960E-001	-1.14186E+000	3.57790E+000	10	...........
	37	0.506667	8.87015E-001	6.00023E-003	0.00000E+000	5.32229E-003	3.59960E-001	-1.14185E+000	3.57790E+000	10	...........
	38	0.52	8.93231E-001	5.99426E-003	0.00000E+000	5.35426E-003	3.59960E-001	-1.15215E+000	3.57790E+000	10	...........
	39	0.533333	8.99426E-001	5.99347E-003	0.00000E+000	5.39068E-003	3.59960E-001	-1.14181E+000	3.57720E+000	10	...........
	40	0.546667	9.05555E-001	5.99376E-003	0.00000E+000	5.42768E-003	3.59960E-001	-1.14195E+000	3.57680E+000	10	...........
	41	0.56	9.11631E-001	5.99342E-003	0.00000E+000	5.46379E-003	3.59960E-001	-1.15229E+000	3.57680E+000	10	...........
	42	0.573333	9.17722E-001	5.98905E-003	0.00000E+000	5.49628E-003	3.59960E-001	-1.14166E+000	3.57680E+000	10	...........
	43	0.586667	9.23806E-001	5.99028E-003	0.00000E+000	5.53385E-003	3.59960E-001	-1.14173E+000	3.57680E+000	10	...........
	44	0.6	9.29798E-001	5.99551E-003	0.00000E+000	5.57462E-003	3.59960E-001	-1.15217E+000	3.57680E+000	10	...........
	45	0.613333	9.35771E-001	5.99299E-003	0.00000E+000	5.60807E-003	3.59960E-001	-1.14168E+000	3.57680E+000	10	...........
	46	0.626667	9.41700E-001	5.99659E-003	0.00000E+000	5.64699E-003	3.59960E-001	-1.14198E+000	3.57680E+000	10	...........
	47	0.64	9.47622E-001	5.99524E-003	0.00000E+000	5.68122E-003	3.59960E-001	-1.15207E+000	3.57680E+000	10	...........
	48	0.653333	9.53461E-001	5.99206E-003	0.00000E+000	5.71319E-003	3.59960E-001	-1.14156E+000	3.57680E+000	10	...........
	49	0.666667	9.59264E-001	5.99116E-003	0.00000E+000	5.74711E-003	3.59960E-001	-1.14180E+000	3.57680E+000	10	...........
	50	0.68	9.64999E-001	5.99553E-003	0.00000E+000	5.78568E-003	3.59960E-001	-1.15232E+000	3.57680E+000	10	...........
	51	0.693333	9.70752E-001	5.99399E-003	0.00000E+000	5.81868E-003	3.59960E-001	-1.14174E+000	3.57680E+000	10	...........
	52	0.706667	9.76434E-001	5.99063E-003	0.00000E+000	5.84946E-003	3.59960E-001	-1.14177E+000	3.57680E+000	10	...........
	53	0.72	9.82025E-001	5.99234E-003	0.00000E+000	5.88463E-003	3.59960E-001	-1.15202E+000	3.57680E+000	10	...........
	54	0.733333	9.87628E-001	5.99803E-003	0.00000E+000	5.92382E-003	3.59960E-001	-1.14172E+000	3.57680E+000	10	...........
	55	0.746667	9.93145E-001	5.99345E-003	0.00000E+000	5.95236E-003	3.59960E-001	-1.14202E+000	3.57680E+000	10	...........
	56	0.758333	9.98329E-001	5.99192E-003	0.00000E+000	5.98191E-003	3.59960E-001	-1.15288E+000	3.57680E+000	10	...........
STARTTIMEOFFSET	QUANT	967.3	Start Time Offset (s)