File: Data/CV_CRGO300517_1/PWRCCD_CRGO300517_1/CHARGE_DISCHARGE/CHARGE_#594.DTA
EXPLAIN
TAG	PWR800_CHARGE
TITLE	LABEL	PWR Cyclic Charge Discharge (Cell) - Charge Step	Test &Identifier
DATE	LABEL	22-6-2017	Date
TIME	LABEL	15:59:32	Time
NOTES	NOTES	3	&Notes...
	supercap test cell
	0.6mg
	6M KOH
PSTAT	PSTAT	IFC5000-01520	Potentiostat
CAPACITY	QUANT	1.00000E-003	Capacity (A-hr)
CELLTYPE	SELECTOR	1	&Cell Type
WORKINGCONNECTION	SELECTOR	0	&Working Lead
MAXCHARGETIME	VARIABLEANDUNITS	1.00000E+002	s	1.00000E+002	second(s)	Max &Charge Time
CHARGECURRENT	QUANT	6.00000E-003	&Charge Current (A)
VOLTAGEFINISH	TWOPARAM	F	1.00000E-003	3.60000E+003	&Voltage Finish	 I (A) < 	Max Time(s)
SAMPLETIME	QUANT	1.00000E-002	Sa&mple Period (s)
CHARGESTOPAT1	MULTIPARAM	4	1.00000E+000	Charge Stop At &1	Voltage > Limit	V
CHARGESTOPAT2	MULTIPARAM	0	0.00000E+000	Charge Stop At &2	None	N/A
AESBHCSELECTOR	TOGGLE	F	Save Both Half Cells
IRCOMP	TOGGLE	F	IR &Measure
EOC	QUANT	0	Open Circuit (V)
SEQUENCER	TOGGLE	TRUE	Run as Sequence
PSTATMODEL	IQUANT	53	Pstat Model
PSTATSECTION	LABEL	IFC5000-01520	Pstat Section
PSTATSERIALNO	LABEL	01520	Pstat Serial Number
CTRLMODE	IQUANT	0	Control Mode
ELECTROMETER	IQUANT	1	RE=0 or CS=1
IESTAB	IQUANT	0	I/E Stability
CASPEED	IQUANT	4	Control Amp Speed
CONVENTION	IQUANT	1	Current Convention
ICHRANGE	IQUANT	2	Ich Range
ICHRANGEMODE	TOGGLE	T	Ich Auto Range
ICHOFFSETENABLE	TOGGLE	F	Ich Offset Enable
ICHOFFSET	QUANT	0	Ich Offset (V)
ICHFILTER	IQUANT	1	Ich Filter
VCHRANGE	IQUANT	2	Vch Range
VCHRANGEMODE	TOGGLE	T	Vch Auto Range
VCHOFFSETENABLE	TOGGLE	F	Vch Offset Enable
VCHOFFSET	QUANT	0	Vch Offset (V)
VCHFILTER	IQUANT	1	Vch Filter
IERANGELOWERLIMIT	IQUANT	9	I/E Range Lower Limit
IERANGEMODE	TOGGLE	F	I/E AutoRange
IERANGE	IQUANT	10	I/E Range
ACHSELECT	IQUANT	1	Ach Select
ACHRANGE	IQUANT	2	Ach Range
ACHOFFSETENABLE	TOGGLE	F	Ach Offset Enable
ACHOFFSET	QUANT	0	Ach Offset (V)
ACHFILTER	IQUANT	1	Ach Filter
CABLEID	IQUANT	14	Cable ID
DCCALDATE	LABEL	20-10-2016	DC Calibration Date
ACCALDATE	LABEL	12/3/2015	AC Calibration Date
FRAMEWORKVERSION	QUANT	7.01	Framework Version
INSTRUMENTVERSION	LABEL	4.00	Instrument Version
CURVE	TABLE	57
	Pt	T	Vf	Im	Vu	Pwr	Sig	Ach	Temp	IERange	Over
	#	s	V	A	V	W	V	V	deg C	#	bits
	0	0.013333	6.38230E-001	5.99657E-003	0.00000E+000	3.82719E-003	3.59960E-001	-1.14643E+000	3.57790E+000	10	...........
	1	0.026667	6.47209E-001	5.98973E-003	0.00000E+000	3.87661E-003	3.59960E-001	-1.15734E+000	3.57790E+000	10	...........
	2	0.04	6.55447E-001	5.99438E-003	0.00000E+000	3.92899E-003	3.59960E-001	-1.14755E+000	3.57790E+000	10	...........
	3	0.053333	6.63285E-001	5.98939E-003	0.00000E+000	3.97267E-003	3.59960E-001	-1.14613E+000	3.57790E+000	10	...........
	4	0.066667	6.70810E-001	5.99060E-003	0.00000E+000	4.01855E-003	3.59960E-001	-1.15707E+000	3.57790E+000	10	...........
	5	0.08	6.78126E-001	5.99243E-003	0.00000E+000	4.06362E-003	3.59960E-001	-1.14735E+000	3.57790E+000	10	...........
	6	0.093333	6.85328E-001	5.99406E-003	0.00000E+000	4.10790E-003	3.59960E-001	-1.14610E+000	3.57790E+000	10	...........
	7	0.106667	6.92439E-001	5.99366E-003	0.00000E+000	4.15024E-003	3.59960E-001	-1.15707E+000	3.57790E+000	10	...........
	8	0.12	6.99412E-001	5.98987E-003	0.00000E+000	4.18938E-003	3.59960E-001	-1.14723E+000	3.57790E+000	10	...........
	9	0.133333	7.06315E-001	5.99413E-003	0.00000E+000	4.23374E-003	3.59960E-001	-1.14587E+000	3.57790E+000	10	...........
	10	0.146667	7.13199E-001	5.99249E-003	0.00000E+000	4.27384E-003	3.59960E-001	-1.15677E+000	3.57790E+000	10	...........
	11	0.16	7.20079E-001	5.99714E-003	0.00000E+000	4.31842E-003	3.59960E-001	-1.14728E+000	3.57790E+000	10	...........
	12	0.173333	7.26797E-001	5.99538E-003	0.00000E+000	4.35742E-003	3.59960E-001	-1.14564E+000	3.57790E+000	10	...........
	13	0.186667	7.33508E-001	5.99488E-003	0.00000E+000	4.39729E-003	3.59960E-001	-1.15658E+000	3.57790E+000	10	...........
	14	0.2	7.40183E-001	5.99545E-003	0.00000E+000	4.43773E-003	3.59960E-001	-1.14692E+000	3.57790E+000	10	...........
	15	0.213333	7.46914E-001	5.99362E-003	0.00000E+000	4.47672E-003	3.59960E-001	-1.14543E+000	3.57790E+000	10	...........
	16	0.226667	7.53543E-001	5.98861E-003	0.00000E+000	4.51267E-003	3.59960E-001	-1.15656E+000	3.57790E+000	10	...........
	17	0.24	7.60172E-001	5.98800E-003	0.00000E+000	4.55191E-003	3.59960E-001	-1.14675E+000	3.57790E+000	10	...........
	18	0.253333	7.66789E-001	5.98965E-003	0.00000E+000	4.59280E-003	3.59960E-001	-1.14533E+000	3.57790E+000	10	...........
	19	0.266667	7.73393E-001	5.99464E-003	0.00000E+000	4.63621E-003	3.59960E-001	-1.15638E+000	3.57790E+000	10	...........
	20	0.28	7.80005E-001	5.99501E-003	0.00000E+000	4.67614E-003	3.59960E-001	-1.14685E+000	3.57790E+000	10	...........
	21	0.293333	7.86516E-001	5.98681E-003	0.00000E+000	4.70873E-003	3.59960E-001	-1.14557E+000	3.57790E+000	10	...........
	22	0.306667	7.93071E-001	5.99132E-003	0.00000E+000	4.75154E-003	3.59960E-001	-1.15646E+000	3.57790E+000	10	...........
	23	0.32	7.99592E-001	5.99850E-003	0.00000E+000	4.79635E-003	3.59960E-001	-1.14673E+000	3.57790E+000	10	...........
	24	0.333333	8.06096E-001	5.99492E-003	0.00000E+000	4.83248E-003	3.59960E-001	-1.14531E+000	3.57790E+000	10	...........
	25	0.346667	8.12533E-001	5.99467E-003	0.00000E+000	4.87087E-003	3.59960E-001	-1.15631E+000	3.57790E+000	10	...........
	26	0.36	8.19022E-001	5.99636E-003	0.00000E+000	4.91115E-003	3.59960E-001	-1.14681E+000	3.57790E+000	10	...........
	27	0.373333	8.25471E-001	5.99341E-003	0.00000E+000	4.94738E-003	3.59960E-001	-1.14548E+000	3.57790E+000	10	...........
	28	0.386667	8.31851E-001	5.99613E-003	0.00000E+000	4.98788E-003	3.59960E-001	-1.15644E+000	3.57790E+000	10	...........
	29	0.4	8.38227E-001	5.98909E-003	0.00000E+000	5.02021E-003	3.59960E-001	-1.14651E+000	3.57790E+000	10	...........
	30	0.413333	8.44669E-001	5.99659E-003	0.00000E+000	5.06513E-003	3.59960E-001	-1.14547E+000	3.57790E+000	10	...........
	31	0.426667	8.51030E-001	5.99374E-003	0.00000E+000	5.10085E-003	3.59960E-001	-1.15623E+000	3.57790E+000	10	...........
	32	0.44	8.57361E-001	5.99453E-003	0.00000E+000	5.13948E-003	3.59960E-001	-1.14676E+000	3.57790E+000	10	...........
	33	0.453333	8.63692E-001	5.99838E-003	0.00000E+000	5.18076E-003	3.59960E-001	-1.14527E+000	3.57790E+000	10	...........
	34	0.466667	8.69983E-001	5.99056E-003	0.00000E+000	5.21169E-003	3.59960E-001	-1.15561E+000	3.57790E+000	10	...........
	35	0.48	8.76259E-001	5.99393E-003	0.00000E+000	5.25224E-003	3.59960E-001	-1.14616E+000	3.57790E+000	10	...........
	36	0.493333	8.82513E-001	5.98965E-003	0.00000E+000	5.28594E-003	3.59960E-001	-1.14483E+000	3.57790E+000	10	...........
	37	0.506667	8.88762E-001	5.99404E-003	0.00000E+000	5.32727E-003	3.59960E-001	-1.15596E+000	3.57790E+000	10	...........
	38	0.52	8.94975E-001	5.99537E-003	0.00000E+000	5.36570E-003	3.59960E-001	-1.14653E+000	3.57790E+000	10	...........
	39	0.533333	9.01162E-001	5.99371E-003	0.00000E+000	5.40130E-003	3.59960E-001	-1.14462E+000	3.57790E+000	10	...........
	40	0.546667	9.07308E-001	5.99539E-003	0.00000E+000	5.43967E-003	3.59960E-001	-1.15585E+000	3.57790E+000	10	...........
	41	0.56	9.13428E-001	5.99864E-003	0.00000E+000	5.47933E-003	3.59960E-001	-1.14624E+000	3.57790E+000	10	...........
	42	0.573333	9.19505E-001	5.99293E-003	0.00000E+000	5.51053E-003	3.59960E-001	-1.14456E+000	3.57790E+000	10	...........
	43	0.586667	9.25513E-001	5.99331E-003	0.00000E+000	5.54689E-003	3.59960E-001	-1.15571E+000	3.57790E+000	10	...........
	44	0.6	9.31506E-001	5.99283E-003	0.00000E+000	5.58236E-003	3.59960E-001	-1.14616E+000	3.57790E+000	10	...........
	45	0.613333	9.37478E-001	5.99331E-003	0.00000E+000	5.61860E-003	3.59960E-001	-1.14461E+000	3.57790E+000	10	...........
	46	0.626667	9.43419E-001	5.99640E-003	0.00000E+000	5.65712E-003	3.59960E-001	-1.15589E+000	3.57904E+000	10	...........
	47	0.64	9.49346E-001	5.99523E-003	0.00000E+000	5.69155E-003	3.59960E-001	-1.14634E+000	3.58000E+000	10	...........
	48	0.653333	9.55216E-001	5.99731E-003	0.00000E+000	5.72872E-003	3.59960E-001	-1.14465E+000	3.58000E+000	10	...........
	49	0.666667	9.61015E-001	5.99869E-003	0.00000E+000	5.76483E-003	3.59960E-001	-1.15570E+000	3.58000E+000	10	...........
	50	0.68	9.66740E-001	5.99486E-003	0.00000E+000	5.79547E-003	3.59960E-001	-1.14635E+000	3.58000E+000	10	...........
	51	0.693333	9.72486E-001	5.99144E-003	0.00000E+000	5.82660E-003	3.59960E-001	-1.14477E+000	3.58000E+000	10	...........
	52	0.706667	9.78135E-001	5.99241E-003	0.00000E+000	5.86139E-003	3.59960E-001	-1.15598E+000	3.58000E+000	10	...........
	53	0.72	9.83745E-001	5.99257E-003	0.00000E+000	5.89516E-003	3.59960E-001	-1.14636E+000	3.58000E+000	10	...........
	54	0.733333	9.89325E-001	5.99047E-003	0.00000E+000	5.92653E-003	3.59960E-001	-1.14461E+000	3.58000E+000	10	...........
	55	0.746667	9.94840E-001	5.99489E-003	0.00000E+000	5.96395E-003	3.59960E-001	-1.15579E+000	3.58000E+000	10	...........
	56	0.753333	9.98996E-001	5.99315E-003	0.00000E+000	5.98713E-003	3.59960E-001	-1.13557E+000	3.58000E+000	10	...........
STARTTIMEOFFSET	QUANT	1001.937	Start Time Offset (s)