File: Data/CV_CRGO300517_1/PWRCCD_CRGO300517_1/CHARGE_DISCHARGE/CHARGE_#847.DTA
EXPLAIN
TAG	PWR800_CHARGE
TITLE	LABEL	PWR Cyclic Charge Discharge (Cell) - Charge Step	Test &Identifier
DATE	LABEL	22-6-2017	Date
TIME	LABEL	16:09:01	Time
NOTES	NOTES	3	&Notes...
	supercap test cell
	0.6mg
	6M KOH
PSTAT	PSTAT	IFC5000-01520	Potentiostat
CAPACITY	QUANT	1.00000E-003	Capacity (A-hr)
CELLTYPE	SELECTOR	1	&Cell Type
WORKINGCONNECTION	SELECTOR	0	&Working Lead
MAXCHARGETIME	VARIABLEANDUNITS	1.00000E+002	s	1.00000E+002	second(s)	Max &Charge Time
CHARGECURRENT	QUANT	6.00000E-003	&Charge Current (A)
VOLTAGEFINISH	TWOPARAM	F	1.00000E-003	3.60000E+003	&Voltage Finish	 I (A) < 	Max Time(s)
SAMPLETIME	QUANT	1.00000E-002	Sa&mple Period (s)
CHARGESTOPAT1	MULTIPARAM	4	1.00000E+000	Charge Stop At &1	Voltage > Limit	V
CHARGESTOPAT2	MULTIPARAM	0	0.00000E+000	Charge Stop At &2	None	N/A
AESBHCSELECTOR	TOGGLE	F	Save Both Half Cells
IRCOMP	TOGGLE	F	IR &Measure
EOC	QUANT	0	Open Circuit (V)
SEQUENCER	TOGGLE	TRUE	Run as Sequence
PSTATMODEL	IQUANT	53	Pstat Model
PSTATSECTION	LABEL	IFC5000-01520	Pstat Section
PSTATSERIALNO	LABEL	01520	Pstat Serial Number
CTRLMODE	IQUANT	0	Control Mode
ELECTROMETER	IQUANT	1	RE=0 or CS=1
IESTAB	IQUANT	0	I/E Stability
CASPEED	IQUANT	4	Control Amp Speed
CONVENTION	IQUANT	1	Current Convention
ICHRANGE	IQUANT	2	Ich Range
ICHRANGEMODE	TOGGLE	T	Ich Auto Range
ICHOFFSETENABLE	TOGGLE	F	Ich Offset Enable
ICHOFFSET	QUANT	0	Ich Offset (V)
ICHFILTER	IQUANT	1	Ich Filter
VCHRANGE	IQUANT	2	Vch Range
VCHRANGEMODE	TOGGLE	T	Vch Auto Range
VCHOFFSETENABLE	TOGGLE	F	Vch Offset Enable
VCHOFFSET	QUANT	0	Vch Offset (V)
VCHFILTER	IQUANT	1	Vch Filter
IERANGELOWERLIMIT	IQUANT	9	I/E Range Lower Limit
IERANGEMODE	TOGGLE	F	I/E AutoRange
IERANGE	IQUANT	10	I/E Range
ACHSELECT	IQUANT	1	Ach Select
ACHRANGE	IQUANT	2	Ach Range
ACHOFFSETENABLE	TOGGLE	F	Ach Offset Enable
ACHOFFSET	QUANT	0	Ach Offset (V)
ACHFILTER	IQUANT	1	Ach Filter
CABLEID	IQUANT	14	Cable ID
DCCALDATE	LABEL	20-10-2016	DC Calibration Date
ACCALDATE	LABEL	12/3/2015	AC Calibration Date
FRAMEWORKVERSION	QUANT	7.01	Framework Version
INSTRUMENTVERSION	LABEL	4.00	Instrument Version
CURVE	TABLE	54
	Pt	T	Vf	Im	Vu	Pwr	Sig	Ach	Temp	IERange	Over
	#	s	V	A	V	W	V	V	deg C	#	bits
	0	0.013333	6.50426E-001	5.99048E-003	0.00000E+000	3.89637E-003	3.59960E-001	-1.17372E+000	3.57630E+000	10	...........
	1	0.026667	6.59658E-001	5.99410E-003	0.00000E+000	3.95406E-003	3.59960E-001	-1.16393E+000	3.57630E+000	10	...........
	2	0.04	6.68171E-001	5.99244E-003	0.00000E+000	4.00397E-003	3.59960E-001	-1.16685E+000	3.57630E+000	10	...........
	3	0.053333	6.76153E-001	5.99144E-003	0.00000E+000	4.05113E-003	3.59960E-001	-1.17318E+000	3.57630E+000	10	...........
	4	0.066667	6.83937E-001	5.99355E-003	0.00000E+000	4.09921E-003	3.59960E-001	-1.16326E+000	3.57630E+000	10	...........
	5	0.08	6.91466E-001	5.99601E-003	0.00000E+000	4.14604E-003	3.59960E-001	-1.16697E+000	3.57630E+000	10	...........
	6	0.093333	6.98860E-001	5.99794E-003	0.00000E+000	4.19172E-003	3.59960E-001	-1.17312E+000	3.57630E+000	10	...........
	7	0.106667	7.06158E-001	5.99331E-003	0.00000E+000	4.23222E-003	3.59960E-001	-1.16248E+000	3.57630E+000	10	...........
	8	0.12	7.13322E-001	5.99565E-003	0.00000E+000	4.27683E-003	3.59960E-001	-1.16530E+000	3.57630E+000	10	...........
	9	0.133333	7.20507E-001	5.99030E-003	0.00000E+000	4.31605E-003	3.59960E-001	-1.17193E+000	3.57630E+000	10	...........
	10	0.146667	7.27563E-001	5.99518E-003	0.00000E+000	4.36187E-003	3.59960E-001	-1.16217E+000	3.57630E+000	10	...........
	11	0.16	7.34560E-001	5.98821E-003	0.00000E+000	4.39870E-003	3.59960E-001	-1.16532E+000	3.57630E+000	10	...........
	12	0.173333	7.41527E-001	5.99342E-003	0.00000E+000	4.44428E-003	3.59960E-001	-1.17236E+000	3.57630E+000	10	...........
	13	0.186667	7.48466E-001	5.99137E-003	0.00000E+000	4.48434E-003	3.59960E-001	-1.16236E+000	3.57630E+000	10	...........
	14	0.2	7.55334E-001	5.99200E-003	0.00000E+000	4.52596E-003	3.59960E-001	-1.16581E+000	3.57630E+000	10	...........
	15	0.213333	7.62149E-001	5.99418E-003	0.00000E+000	4.56845E-003	3.59960E-001	-1.17320E+000	3.57630E+000	10	...........
	16	0.226667	7.68942E-001	5.99019E-003	0.00000E+000	4.60611E-003	3.59960E-001	-1.16294E+000	3.57630E+000	10	...........
	17	0.24	7.75747E-001	5.99017E-003	0.00000E+000	4.64686E-003	3.59960E-001	-1.16573E+000	3.57630E+000	10	...........
	18	0.253333	7.82511E-001	5.99368E-003	0.00000E+000	4.69012E-003	3.59960E-001	-1.17298E+000	3.57630E+000	10	...........
	19	0.266667	7.89236E-001	5.99149E-003	0.00000E+000	4.72870E-003	3.59960E-001	-1.16287E+000	3.57630E+000	10	...........
	20	0.28	7.96000E-001	5.99329E-003	0.00000E+000	4.77066E-003	3.59960E-001	-1.16565E+000	3.57630E+000	10	...........
	21	0.293333	8.02658E-001	5.99908E-003	0.00000E+000	4.81521E-003	3.59960E-001	-1.17292E+000	3.57630E+000	10	...........
	22	0.306667	8.09300E-001	5.99511E-003	0.00000E+000	4.85184E-003	3.59960E-001	-1.16238E+000	3.57630E+000	10	...........
	23	0.32	8.15942E-001	5.99104E-003	0.00000E+000	4.88834E-003	3.59960E-001	-1.16457E+000	3.57630E+000	10	...........
	24	0.333333	8.22585E-001	5.99413E-003	0.00000E+000	4.93068E-003	3.59960E-001	-1.17223E+000	3.57630E+000	10	...........
	25	0.346667	8.29187E-001	5.99277E-003	0.00000E+000	4.96913E-003	3.59960E-001	-1.16191E+000	3.57630E+000	10	...........
	26	0.36	8.35756E-001	5.99308E-003	0.00000E+000	5.00875E-003	3.59960E-001	-1.16472E+000	3.57630E+000	10	...........
	27	0.373333	8.42271E-001	5.99322E-003	0.00000E+000	5.04791E-003	3.59960E-001	-1.17203E+000	3.57630E+000	10	...........
	28	0.386667	8.48841E-001	5.99544E-003	0.00000E+000	5.08917E-003	3.59960E-001	-1.16190E+000	3.57630E+000	10	...........
	29	0.4	8.55294E-001	5.99504E-003	0.00000E+000	5.12753E-003	3.59960E-001	-1.16447E+000	3.57630E+000	10	...........
	30	0.413333	8.61753E-001	5.99295E-003	0.00000E+000	5.16444E-003	3.59960E-001	-1.17287E+000	3.57630E+000	10	...........
	31	0.426667	8.68234E-001	5.98915E-003	0.00000E+000	5.19998E-003	3.59960E-001	-1.16231E+000	3.57630E+000	10	...........
	32	0.44	8.74653E-001	5.99489E-003	0.00000E+000	5.24344E-003	3.59960E-001	-1.16438E+000	3.57638E+000	10	...........
	33	0.453333	8.81005E-001	5.99421E-003	0.00000E+000	5.28093E-003	3.59960E-001	-1.17251E+000	3.57650E+000	10	...........
	34	0.466667	8.87341E-001	5.99316E-003	0.00000E+000	5.31797E-003	3.59960E-001	-1.16237E+000	3.57650E+000	10	...........
	35	0.48	8.93702E-001	5.98905E-003	0.00000E+000	5.35242E-003	3.59960E-001	-1.16454E+000	3.57650E+000	10	...........
	36	0.493333	8.99993E-001	5.99032E-003	0.00000E+000	5.39125E-003	3.59960E-001	-1.17263E+000	3.57650E+000	10	...........
	37	0.506667	9.06259E-001	5.99184E-003	0.00000E+000	5.43016E-003	3.59960E-001	-1.16219E+000	3.57650E+000	10	...........
	38	0.52	9.12474E-001	5.99202E-003	0.00000E+000	5.46756E-003	3.59960E-001	-1.16408E+000	3.57650E+000	10	...........
	39	0.533333	9.18605E-001	5.98858E-003	0.00000E+000	5.50114E-003	3.59960E-001	-1.17235E+000	3.57650E+000	10	...........
	40	0.546667	9.24789E-001	5.98696E-003	0.00000E+000	5.53667E-003	3.59960E-001	-1.16159E+000	3.57650E+000	10	...........
	41	0.56	9.30851E-001	5.99209E-003	0.00000E+000	5.57774E-003	3.59960E-001	-1.16317E+000	3.57650E+000	10	...........
	42	0.573333	9.36902E-001	5.99748E-003	0.00000E+000	5.61905E-003	3.59960E-001	-1.17154E+000	3.57650E+000	10	...........
	43	0.586667	9.42875E-001	5.99592E-003	0.00000E+000	5.65340E-003	3.59960E-001	-1.16125E+000	3.57650E+000	10	...........
	44	0.6	9.48899E-001	5.99431E-003	0.00000E+000	5.68800E-003	3.59960E-001	-1.16334E+000	3.57650E+000	10	...........
	45	0.613333	9.54822E-001	5.99236E-003	0.00000E+000	5.72164E-003	3.59960E-001	-1.17184E+000	3.57650E+000	10	...........
	46	0.626667	9.60674E-001	5.99171E-003	0.00000E+000	5.75608E-003	3.59960E-001	-1.16137E+000	3.57650E+000	10	...........
	47	0.64	9.66482E-001	5.99421E-003	0.00000E+000	5.79329E-003	3.59960E-001	-1.16322E+000	3.57650E+000	10	...........
	48	0.653333	9.72230E-001	5.99284E-003	0.00000E+000	5.82642E-003	3.59960E-001	-1.17199E+000	3.57650E+000	10	...........
	49	0.666667	9.78007E-001	5.99734E-003	0.00000E+000	5.86544E-003	3.59960E-001	-1.16189E+000	3.57650E+000	10	...........
	50	0.68	9.83678E-001	5.99527E-003	0.00000E+000	5.89742E-003	3.59960E-001	-1.16352E+000	3.57650E+000	10	...........
	51	0.693333	9.89256E-001	5.99282E-003	0.00000E+000	5.92844E-003	3.59960E-001	-1.17240E+000	3.57650E+000	10	...........
	52	0.706667	9.94841E-001	5.99385E-003	0.00000E+000	5.96293E-003	3.59960E-001	-1.16163E+000	3.57650E+000	10	...........
	53	0.713333	9.99031E-001	5.99425E-003	0.00000E+000	5.98844E-003	3.59960E-001	-1.17364E+000	3.57650E+000	10	...........
STARTTIMEOFFSET	QUANT	1371.182	Start Time Offset (s)