File: Data/CV_CRGO300517_1/PWRCCD_CRGO300517_1/CHARGE_DISCHARGE/CHARGE_#50.DTA
EXPLAIN
TAG	PWR800_CHARGE
TITLE	LABEL	PWR Cyclic Charge Discharge (Cell) - Charge Step	Test &Identifier
DATE	LABEL	22-6-2017	Date
TIME	LABEL	15:37:16	Time
NOTES	NOTES	3	&Notes...
	supercap test cell
	0.6mg
	6M KOH
PSTAT	PSTAT	IFC5000-01520	Potentiostat
CAPACITY	QUANT	1.00000E-003	Capacity (A-hr)
CELLTYPE	SELECTOR	1	&Cell Type
WORKINGCONNECTION	SELECTOR	0	&Working Lead
MAXCHARGETIME	VARIABLEANDUNITS	1.00000E+002	s	1.00000E+002	second(s)	Max &Charge Time
CHARGECURRENT	QUANT	6.00000E-003	&Charge Current (A)
VOLTAGEFINISH	TWOPARAM	F	1.00000E-003	3.60000E+003	&Voltage Finish	 I (A) < 	Max Time(s)
SAMPLETIME	QUANT	1.00000E-002	Sa&mple Period (s)
CHARGESTOPAT1	MULTIPARAM	4	1.00000E+000	Charge Stop At &1	Voltage > Limit	V
CHARGESTOPAT2	MULTIPARAM	0	0.00000E+000	Charge Stop At &2	None	N/A
AESBHCSELECTOR	TOGGLE	F	Save Both Half Cells
IRCOMP	TOGGLE	F	IR &Measure
EOC	QUANT	0	Open Circuit (V)
SEQUENCER	TOGGLE	TRUE	Run as Sequence
PSTATMODEL	IQUANT	53	Pstat Model
PSTATSECTION	LABEL	IFC5000-01520	Pstat Section
PSTATSERIALNO	LABEL	01520	Pstat Serial Number
CTRLMODE	IQUANT	0	Control Mode
ELECTROMETER	IQUANT	1	RE=0 or CS=1
IESTAB	IQUANT	0	I/E Stability
CASPEED	IQUANT	4	Control Amp Speed
CONVENTION	IQUANT	1	Current Convention
ICHRANGE	IQUANT	2	Ich Range
ICHRANGEMODE	TOGGLE	T	Ich Auto Range
ICHOFFSETENABLE	TOGGLE	F	Ich Offset Enable
ICHOFFSET	QUANT	0	Ich Offset (V)
ICHFILTER	IQUANT	1	Ich Filter
VCHRANGE	IQUANT	2	Vch Range
VCHRANGEMODE	TOGGLE	T	Vch Auto Range
VCHOFFSETENABLE	TOGGLE	F	Vch Offset Enable
VCHOFFSET	QUANT	0	Vch Offset (V)
VCHFILTER	IQUANT	1	Vch Filter
IERANGELOWERLIMIT	IQUANT	9	I/E Range Lower Limit
IERANGEMODE	TOGGLE	F	I/E AutoRange
IERANGE	IQUANT	10	I/E Range
ACHSELECT	IQUANT	1	Ach Select
ACHRANGE	IQUANT	2	Ach Range
ACHOFFSETENABLE	TOGGLE	F	Ach Offset Enable
ACHOFFSET	QUANT	0	Ach Offset (V)
ACHFILTER	IQUANT	1	Ach Filter
CABLEID	IQUANT	14	Cable ID
DCCALDATE	LABEL	20-10-2016	DC Calibration Date
ACCALDATE	LABEL	12/3/2015	AC Calibration Date
FRAMEWORKVERSION	QUANT	7.01	Framework Version
INSTRUMENTVERSION	LABEL	4.00	Instrument Version
CURVE	TABLE	74
	Pt	T	Vf	Im	Vu	Pwr	Sig	Ach	Temp	IERange	Over
	#	s	V	A	V	W	V	V	deg C	#	bits
	0	0.013333	5.73854E-001	5.99126E-003	0.00000E+000	3.43811E-003	3.59960E-001	-1.04166E+000	3.57830E+000	10	...........
	1	0.026667	5.81964E-001	5.99148E-003	0.00000E+000	3.48683E-003	3.59960E-001	-1.04402E+000	3.57830E+000	10	...........
	2	0.04	5.89431E-001	5.99501E-003	0.00000E+000	3.53365E-003	3.59960E-001	-1.03516E+000	3.57830E+000	10	...........
	3	0.053333	5.96514E-001	5.99321E-003	0.00000E+000	3.57503E-003	3.59960E-001	-1.04198E+000	3.57830E+000	10	...........
	4	0.066667	6.03222E-001	5.99308E-003	0.00000E+000	3.61516E-003	3.59960E-001	-1.04424E+000	3.57830E+000	10	...........
	5	0.08	6.09821E-001	5.99524E-003	0.00000E+000	3.65602E-003	3.59960E-001	-1.03520E+000	3.57830E+000	10	...........
	6	0.093333	6.16340E-001	5.99433E-003	0.00000E+000	3.69455E-003	3.59960E-001	-1.04197E+000	3.57830E+000	10	...........
	7	0.106667	6.22638E-001	5.99563E-003	0.00000E+000	3.73311E-003	3.59960E-001	-1.04437E+000	3.57830E+000	10	...........
	8	0.12	6.28813E-001	5.99266E-003	0.00000E+000	3.76827E-003	3.59960E-001	-1.03522E+000	3.57830E+000	10	...........
	9	0.133333	6.34925E-001	5.99432E-003	0.00000E+000	3.80595E-003	3.59960E-001	-1.04196E+000	3.57830E+000	10	...........
	10	0.146667	6.41031E-001	5.99445E-003	0.00000E+000	3.84263E-003	3.59960E-001	-1.04392E+000	3.57830E+000	10	...........
	11	0.16	6.47081E-001	5.99034E-003	0.00000E+000	3.87623E-003	3.59960E-001	-1.03491E+000	3.57830E+000	10	...........
	12	0.173333	6.53068E-001	5.99331E-003	0.00000E+000	3.91404E-003	3.59960E-001	-1.04174E+000	3.57830E+000	10	...........
	13	0.186667	6.58992E-001	5.99223E-003	0.00000E+000	3.94883E-003	3.59960E-001	-1.04345E+000	3.57830E+000	10	...........
	14	0.2	6.64951E-001	5.99609E-003	0.00000E+000	3.98711E-003	3.59960E-001	-1.03450E+000	3.57830E+000	10	...........
	15	0.213333	6.70905E-001	5.99178E-003	0.00000E+000	4.01991E-003	3.59960E-001	-1.04123E+000	3.57830E+000	10	...........
	16	0.226667	6.76751E-001	5.99454E-003	0.00000E+000	4.05681E-003	3.59960E-001	-1.04337E+000	3.57830E+000	10	...........
	17	0.24	6.82613E-001	5.99320E-003	0.00000E+000	4.09103E-003	3.59960E-001	-1.03453E+000	3.57830E+000	10	...........
	18	0.253333	6.88441E-001	5.99234E-003	0.00000E+000	4.12538E-003	3.59960E-001	-1.04165E+000	3.57830E+000	10	...........
	19	0.266667	6.94295E-001	5.98983E-003	0.00000E+000	4.15871E-003	3.59960E-001	-1.04327E+000	3.57830E+000	10	...........
	20	0.28	7.00106E-001	5.99581E-003	0.00000E+000	4.19770E-003	3.59960E-001	-1.03434E+000	3.57830E+000	10	...........
	21	0.293333	7.05910E-001	5.99587E-003	0.00000E+000	4.23254E-003	3.59960E-001	-1.04137E+000	3.57830E+000	10	...........
	22	0.306667	7.11711E-001	5.99153E-003	0.00000E+000	4.26424E-003	3.59960E-001	-1.04337E+000	3.57830E+000	10	...........
	23	0.32	7.17510E-001	5.99476E-003	0.00000E+000	4.30130E-003	3.59960E-001	-1.03443E+000	3.57830E+000	10	...........
	24	0.333333	7.23288E-001	5.99323E-003	0.00000E+000	4.33483E-003	3.59960E-001	-1.04135E+000	3.57830E+000	10	...........
	25	0.346667	7.29019E-001	5.99091E-003	0.00000E+000	4.36749E-003	3.59960E-001	-1.04320E+000	3.57830E+000	10	...........
	26	0.36	7.34777E-001	5.99186E-003	0.00000E+000	4.40268E-003	3.59960E-001	-1.03433E+000	3.57830E+000	10	...........
	27	0.373333	7.40591E-001	5.99316E-003	0.00000E+000	4.43847E-003	3.59960E-001	-1.04151E+000	3.57830E+000	10	...........
	28	0.386667	7.46335E-001	5.99467E-003	0.00000E+000	4.47403E-003	3.59960E-001	-1.04352E+000	3.57830E+000	10	...........
	29	0.4	7.52085E-001	5.99074E-003	0.00000E+000	4.50554E-003	3.59960E-001	-1.03437E+000	3.57830E+000	10	...........
	30	0.413333	7.57818E-001	5.99709E-003	0.00000E+000	4.54470E-003	3.59960E-001	-1.04136E+000	3.57830E+000	10	...........
	31	0.426667	7.63553E-001	5.99520E-003	0.00000E+000	4.57765E-003	3.59960E-001	-1.04324E+000	3.57830E+000	10	...........
	32	0.44	7.69305E-001	5.99346E-003	0.00000E+000	4.61080E-003	3.59960E-001	-1.03459E+000	3.57830E+000	10	...........
	33	0.453333	7.75066E-001	5.99216E-003	0.00000E+000	4.64432E-003	3.59960E-001	-1.04175E+000	3.57830E+000	10	...........
	34	0.466667	7.80802E-001	5.99377E-003	0.00000E+000	4.67995E-003	3.59960E-001	-1.04314E+000	3.57830E+000	10	...........
	35	0.48	7.86554E-001	5.99380E-003	0.00000E+000	4.71445E-003	3.59960E-001	-1.03423E+000	3.57830E+000	10	...........
	36	0.493333	7.92275E-001	5.99183E-003	0.00000E+000	4.74718E-003	3.59960E-001	-1.04132E+000	3.57830E+000	10	...........
	37	0.506667	7.98026E-001	5.99424E-003	0.00000E+000	4.78356E-003	3.59960E-001	-1.04283E+000	3.57830E+000	10	...........
	38	0.52	8.03760E-001	5.99541E-003	0.00000E+000	4.81887E-003	3.59960E-001	-1.03417E+000	3.57830E+000	10	...........
	39	0.533333	8.09472E-001	5.99420E-003	0.00000E+000	4.85214E-003	3.59960E-001	-1.04119E+000	3.57830E+000	10	...........
	40	0.546667	8.15242E-001	5.99187E-003	0.00000E+000	4.88483E-003	3.59960E-001	-1.04263E+000	3.57830E+000	10	...........
	41	0.56	8.20989E-001	5.99566E-003	0.00000E+000	4.92237E-003	3.59960E-001	-1.03390E+000	3.57830E+000	10	...........
	42	0.573333	8.26710E-001	5.99274E-003	0.00000E+000	4.95426E-003	3.59960E-001	-1.04136E+000	3.57830E+000	10	...........
	43	0.586667	8.32445E-001	5.99448E-003	0.00000E+000	4.99007E-003	3.59960E-001	-1.04278E+000	3.57830E+000	10	...........
	44	0.6	8.38155E-001	5.99380E-003	0.00000E+000	5.02374E-003	3.59960E-001	-1.03389E+000	3.57830E+000	10	...........
	45	0.613333	8.43875E-001	5.99639E-003	0.00000E+000	5.06020E-003	3.59960E-001	-1.04101E+000	3.57830E+000	10	...........
	46	0.626667	8.49598E-001	5.99486E-003	0.00000E+000	5.09322E-003	3.59960E-001	-1.04234E+000	3.57830E+000	10	...........
	47	0.64	8.55273E-001	5.99342E-003	0.00000E+000	5.12601E-003	3.59960E-001	-1.03385E+000	3.57830E+000	10	...........
	48	0.653333	8.60993E-001	5.99174E-003	0.00000E+000	5.15884E-003	3.59960E-001	-1.04115E+000	3.57830E+000	10	...........
	49	0.666667	8.66667E-001	5.99610E-003	0.00000E+000	5.19662E-003	3.59960E-001	-1.04235E+000	3.57830E+000	10	...........
	50	0.68	8.72436E-001	5.99366E-003	0.00000E+000	5.22908E-003	3.59960E-001	-1.03339E+000	3.57830E+000	10	...........
	51	0.693333	8.78140E-001	5.99674E-003	0.00000E+000	5.26598E-003	3.59960E-001	-1.04076E+000	3.57830E+000	10	...........
	52	0.706667	8.83819E-001	5.99616E-003	0.00000E+000	5.29952E-003	3.59960E-001	-1.04272E+000	3.57830E+000	10	...........
	53	0.72	8.89459E-001	5.99687E-003	0.00000E+000	5.33397E-003	3.59960E-001	-1.03389E+000	3.57830E+000	10	...........
	54	0.733333	8.95125E-001	5.99178E-003	0.00000E+000	5.36339E-003	3.59960E-001	-1.04120E+000	3.57841E+000	10	...........
	55	0.746667	9.00761E-001	5.99054E-003	0.00000E+000	5.39604E-003	3.59960E-001	-1.04216E+000	3.57860E+000	10	...........
	56	0.76	9.06439E-001	5.99412E-003	0.00000E+000	5.43330E-003	3.59960E-001	-1.03361E+000	3.57860E+000	10	...........
	57	0.773333	9.12086E-001	5.99152E-003	0.00000E+000	5.46478E-003	3.59960E-001	-1.04109E+000	3.57860E+000	10	...........
	58	0.786667	9.17716E-001	5.99412E-003	0.00000E+000	5.50090E-003	3.59960E-001	-1.04226E+000	3.57860E+000	10	...........
	59	0.8	9.23378E-001	5.99197E-003	0.00000E+000	5.53285E-003	3.59960E-001	-1.03366E+000	3.57860E+000	10	...........
	60	0.813333	9.28948E-001	5.99408E-003	0.00000E+000	5.56819E-003	3.59960E-001	-1.04051E+000	3.57860E+000	10	...........
	61	0.826667	9.34486E-001	5.99438E-003	0.00000E+000	5.60166E-003	3.59960E-001	-1.04190E+000	3.57860E+000	10	...........
	62	0.84	9.40042E-001	5.99487E-003	0.00000E+000	5.63542E-003	3.59960E-001	-1.03340E+000	3.57860E+000	10	...........
	63	0.853333	9.45568E-001	5.99142E-003	0.00000E+000	5.66530E-003	3.59960E-001	-1.04065E+000	3.57860E+000	10	...........
	64	0.866667	9.51112E-001	5.99534E-003	0.00000E+000	5.70224E-003	3.59960E-001	-1.04168E+000	3.57860E+000	10	...........
	65	0.88	9.56605E-001	5.99084E-003	0.00000E+000	5.73087E-003	3.59960E-001	-1.03303E+000	3.57860E+000	10	...........
	66	0.893333	9.62034E-001	5.99440E-003	0.00000E+000	5.76681E-003	3.59960E-001	-1.04063E+000	3.57860E+000	10	...........
	67	0.906667	9.67437E-001	5.99210E-003	0.00000E+000	5.79698E-003	3.59960E-001	-1.04212E+000	3.57860E+000	10	...........
	68	0.92	9.72893E-001	5.99268E-003	0.00000E+000	5.83023E-003	3.59960E-001	-1.03331E+000	3.57860E+000	10	...........
	69	0.933333	9.78290E-001	5.99311E-003	0.00000E+000	5.86300E-003	3.59960E-001	-1.04059E+000	3.57860E+000	10	...........
	70	0.946667	9.83653E-001	5.99155E-003	0.00000E+000	5.89360E-003	3.59960E-001	-1.04161E+000	3.57860E+000	10	...........
	71	0.96	9.88991E-001	5.99529E-003	0.00000E+000	5.92929E-003	3.59960E-001	-1.03320E+000	3.57860E+000	10	...........
	72	0.97333	9.94257E-001	5.99371E-003	0.00000E+000	5.95929E-003	3.59960E-001	-1.04075E+000	3.57860E+000	10	...........
	73	0.98333	9.98870E-001	5.99528E-003	0.00000E+000	5.98851E-003	3.59960E-001	-1.03957E+000	3.57860E+000	10	...........
STARTTIMEOFFSET	QUANT	100.5483	Start Time Offset (s)