File: Data/CV_CRGO300517_1/PWRCCD_CRGO300517_1/CHARGE_DISCHARGE/CHARGE_#437.DTA
EXPLAIN
TAG	PWR800_CHARGE
TITLE	LABEL	PWR Cyclic Charge Discharge (Cell) - Charge Step	Test &Identifier
DATE	LABEL	22-6-2017	Date
TIME	LABEL	15:53:26	Time
NOTES	NOTES	3	&Notes...
	supercap test cell
	0.6mg
	6M KOH
PSTAT	PSTAT	IFC5000-01520	Potentiostat
CAPACITY	QUANT	1.00000E-003	Capacity (A-hr)
CELLTYPE	SELECTOR	1	&Cell Type
WORKINGCONNECTION	SELECTOR	0	&Working Lead
MAXCHARGETIME	VARIABLEANDUNITS	1.00000E+002	s	1.00000E+002	second(s)	Max &Charge Time
CHARGECURRENT	QUANT	6.00000E-003	&Charge Current (A)
VOLTAGEFINISH	TWOPARAM	F	1.00000E-003	3.60000E+003	&Voltage Finish	 I (A) < 	Max Time(s)
SAMPLETIME	QUANT	1.00000E-002	Sa&mple Period (s)
CHARGESTOPAT1	MULTIPARAM	4	1.00000E+000	Charge Stop At &1	Voltage > Limit	V
CHARGESTOPAT2	MULTIPARAM	0	0.00000E+000	Charge Stop At &2	None	N/A
AESBHCSELECTOR	TOGGLE	F	Save Both Half Cells
IRCOMP	TOGGLE	F	IR &Measure
EOC	QUANT	0	Open Circuit (V)
SEQUENCER	TOGGLE	TRUE	Run as Sequence
PSTATMODEL	IQUANT	53	Pstat Model
PSTATSECTION	LABEL	IFC5000-01520	Pstat Section
PSTATSERIALNO	LABEL	01520	Pstat Serial Number
CTRLMODE	IQUANT	0	Control Mode
ELECTROMETER	IQUANT	1	RE=0 or CS=1
IESTAB	IQUANT	0	I/E Stability
CASPEED	IQUANT	4	Control Amp Speed
CONVENTION	IQUANT	1	Current Convention
ICHRANGE	IQUANT	2	Ich Range
ICHRANGEMODE	TOGGLE	T	Ich Auto Range
ICHOFFSETENABLE	TOGGLE	F	Ich Offset Enable
ICHOFFSET	QUANT	0	Ich Offset (V)
ICHFILTER	IQUANT	1	Ich Filter
VCHRANGE	IQUANT	2	Vch Range
VCHRANGEMODE	TOGGLE	T	Vch Auto Range
VCHOFFSETENABLE	TOGGLE	F	Vch Offset Enable
VCHOFFSET	QUANT	0	Vch Offset (V)
VCHFILTER	IQUANT	1	Vch Filter
IERANGELOWERLIMIT	IQUANT	9	I/E Range Lower Limit
IERANGEMODE	TOGGLE	F	I/E AutoRange
IERANGE	IQUANT	10	I/E Range
ACHSELECT	IQUANT	1	Ach Select
ACHRANGE	IQUANT	2	Ach Range
ACHOFFSETENABLE	TOGGLE	F	Ach Offset Enable
ACHOFFSET	QUANT	0	Ach Offset (V)
ACHFILTER	IQUANT	1	Ach Filter
CABLEID	IQUANT	14	Cable ID
DCCALDATE	LABEL	20-10-2016	DC Calibration Date
ACCALDATE	LABEL	12/3/2015	AC Calibration Date
FRAMEWORKVERSION	QUANT	7.01	Framework Version
INSTRUMENTVERSION	LABEL	4.00	Instrument Version
CURVE	TABLE	60
	Pt	T	Vf	Im	Vu	Pwr	Sig	Ach	Temp	IERange	Over
	#	s	V	A	V	W	V	V	deg C	#	bits
	0	0.013333	6.27277E-001	5.99531E-003	0.00000E+000	3.76073E-003	3.59960E-001	-1.13210E+000	3.57710E+000	10	...........
	1	0.026667	6.36079E-001	5.99468E-003	0.00000E+000	3.81309E-003	3.59960E-001	-1.14085E+000	3.57710E+000	10	...........
	2	0.04	6.44199E-001	5.99152E-003	0.00000E+000	3.85973E-003	3.59960E-001	-1.13753E+000	3.57710E+000	10	...........
	3	0.053333	6.51855E-001	5.99352E-003	0.00000E+000	3.90691E-003	3.59960E-001	-1.13208E+000	3.57710E+000	10	...........
	4	0.066667	6.59279E-001	5.99392E-003	0.00000E+000	3.95167E-003	3.59960E-001	-1.14089E+000	3.57710E+000	10	...........
	5	0.08	6.66478E-001	5.99302E-003	0.00000E+000	3.99422E-003	3.59960E-001	-1.13767E+000	3.57710E+000	10	...........
	6	0.093333	6.73555E-001	5.99780E-003	0.00000E+000	4.03984E-003	3.59960E-001	-1.13217E+000	3.57710E+000	10	...........
	7	0.106667	6.80466E-001	5.99529E-003	0.00000E+000	4.07959E-003	3.59960E-001	-1.14097E+000	3.57710E+000	10	...........
	8	0.12	6.87313E-001	5.99243E-003	0.00000E+000	4.11867E-003	3.59960E-001	-1.13751E+000	3.57710E+000	10	...........
	9	0.133333	6.94127E-001	5.99511E-003	0.00000E+000	4.16137E-003	3.59960E-001	-1.13190E+000	3.57710E+000	10	...........
	10	0.146667	7.00841E-001	5.99266E-003	0.00000E+000	4.19990E-003	3.59960E-001	-1.14098E+000	3.57710E+000	10	...........
	11	0.16	7.07536E-001	5.98992E-003	0.00000E+000	4.23808E-003	3.59960E-001	-1.13733E+000	3.57710E+000	10	...........
	12	0.173333	7.14183E-001	5.99212E-003	0.00000E+000	4.27947E-003	3.59960E-001	-1.13188E+000	3.57710E+000	10	...........
	13	0.186667	7.20813E-001	5.99258E-003	0.00000E+000	4.31953E-003	3.59960E-001	-1.14043E+000	3.57710E+000	10	...........
	14	0.2	7.27388E-001	5.99860E-003	0.00000E+000	4.36331E-003	3.59960E-001	-1.13659E+000	3.57710E+000	10	...........
	15	0.213333	7.33907E-001	5.99432E-003	0.00000E+000	4.39928E-003	3.59960E-001	-1.13128E+000	3.57710E+000	10	...........
	16	0.226667	7.40473E-001	5.99518E-003	0.00000E+000	4.43927E-003	3.59960E-001	-1.14038E+000	3.57710E+000	10	...........
	17	0.24	7.47009E-001	5.99006E-003	0.00000E+000	4.47463E-003	3.59960E-001	-1.13648E+000	3.57710E+000	10	...........
	18	0.253333	7.53493E-001	5.99491E-003	0.00000E+000	4.51712E-003	3.59960E-001	-1.13112E+000	3.57710E+000	10	...........
	19	0.266667	7.59959E-001	5.99192E-003	0.00000E+000	4.55362E-003	3.59960E-001	-1.14050E+000	3.57710E+000	10	...........
	20	0.28	7.66391E-001	5.99157E-003	0.00000E+000	4.59189E-003	3.59960E-001	-1.13620E+000	3.57710E+000	10	...........
	21	0.293333	7.72820E-001	5.99198E-003	0.00000E+000	4.63072E-003	3.59960E-001	-1.13124E+000	3.57710E+000	10	...........
	22	0.306667	7.79256E-001	5.99372E-003	0.00000E+000	4.67064E-003	3.59960E-001	-1.14069E+000	3.57710E+000	10	...........
	23	0.32	7.85658E-001	5.99225E-003	0.00000E+000	4.70786E-003	3.59960E-001	-1.13596E+000	3.57710E+000	10	...........
	24	0.333333	7.92058E-001	5.99199E-003	0.00000E+000	4.74600E-003	3.59960E-001	-1.13103E+000	3.57710E+000	10	...........
	25	0.346667	7.98426E-001	5.99401E-003	0.00000E+000	4.78577E-003	3.59960E-001	-1.14078E+000	3.57710E+000	10	...........
	26	0.36	8.04781E-001	5.99644E-003	0.00000E+000	4.82582E-003	3.59960E-001	-1.13600E+000	3.57710E+000	10	...........
	27	0.373333	8.11122E-001	5.99393E-003	0.00000E+000	4.86180E-003	3.59960E-001	-1.13111E+000	3.57710E+000	10	...........
	28	0.386667	8.17493E-001	5.99402E-003	0.00000E+000	4.90007E-003	3.59960E-001	-1.14074E+000	3.57710E+000	10	...........
	29	0.4	8.23840E-001	5.99482E-003	0.00000E+000	4.93878E-003	3.59960E-001	-1.13578E+000	3.57710E+000	10	...........
	30	0.413333	8.30140E-001	5.99258E-003	0.00000E+000	4.97468E-003	3.59960E-001	-1.13084E+000	3.57710E+000	10	...........
	31	0.426667	8.36405E-001	5.99177E-003	0.00000E+000	5.01154E-003	3.59960E-001	-1.14103E+000	3.57710E+000	10	...........
	32	0.44	8.42686E-001	5.99601E-003	0.00000E+000	5.05276E-003	3.59960E-001	-1.13588E+000	3.57710E+000	10	...........
	33	0.453333	8.48977E-001	5.99327E-003	0.00000E+000	5.08815E-003	3.59960E-001	-1.13121E+000	3.57710E+000	10	...........
	34	0.466667	8.55227E-001	5.98927E-003	0.00000E+000	5.12219E-003	3.59960E-001	-1.14087E+000	3.57710E+000	10	...........
	35	0.48	8.61444E-001	5.99142E-003	0.00000E+000	5.16128E-003	3.59960E-001	-1.13558E+000	3.57710E+000	10	...........
	36	0.493333	8.67673E-001	5.99515E-003	0.00000E+000	5.20182E-003	3.59960E-001	-1.13121E+000	3.57710E+000	10	...........
	37	0.506667	8.73864E-001	5.99569E-003	0.00000E+000	5.23942E-003	3.59960E-001	-1.14085E+000	3.57710E+000	10	...........
	38	0.52	8.80018E-001	5.99294E-003	0.00000E+000	5.27389E-003	3.59960E-001	-1.13518E+000	3.57710E+000	10	...........
	39	0.533333	8.86191E-001	5.99669E-003	0.00000E+000	5.31421E-003	3.59960E-001	-1.13042E+000	3.57710E+000	10	...........
	40	0.546667	8.92318E-001	5.99453E-003	0.00000E+000	5.34903E-003	3.59960E-001	-1.14080E+000	3.57710E+000	10	...........
	41	0.56	8.98403E-001	5.99212E-003	0.00000E+000	5.38334E-003	3.59960E-001	-1.13519E+000	3.57710E+000	10	...........
	42	0.573333	9.04505E-001	5.99137E-003	0.00000E+000	5.41922E-003	3.59960E-001	-1.13064E+000	3.57710E+000	10	...........
	43	0.586667	9.10558E-001	5.99607E-003	0.00000E+000	5.45977E-003	3.59960E-001	-1.14076E+000	3.57710E+000	10	...........
	44	0.6	9.16559E-001	5.99457E-003	0.00000E+000	5.49438E-003	3.59960E-001	-1.13483E+000	3.57710E+000	10	...........
	45	0.613333	9.22602E-001	5.99220E-003	0.00000E+000	5.52841E-003	3.59960E-001	-1.13048E+000	3.57710E+000	10	...........
	46	0.626667	9.28570E-001	5.99469E-003	0.00000E+000	5.56649E-003	3.59960E-001	-1.14090E+000	3.57710E+000	10	...........
	47	0.64	9.34492E-001	5.99309E-003	0.00000E+000	5.60050E-003	3.59960E-001	-1.13484E+000	3.57710E+000	10	...........
	48	0.653333	9.40344E-001	5.99362E-003	0.00000E+000	5.63607E-003	3.59960E-001	-1.13044E+000	3.57710E+000	10	...........
	49	0.666667	9.46198E-001	5.99424E-003	0.00000E+000	5.67174E-003	3.59960E-001	-1.14062E+000	3.57710E+000	10	...........
	50	0.68	9.52040E-001	5.99578E-003	0.00000E+000	5.70823E-003	3.59960E-001	-1.13461E+000	3.57710E+000	10	...........
	51	0.693333	9.57815E-001	5.99513E-003	0.00000E+000	5.74222E-003	3.59960E-001	-1.13043E+000	3.57710E+000	10	...........
	52	0.706667	9.63544E-001	5.99233E-003	0.00000E+000	5.77388E-003	3.59960E-001	-1.14107E+000	3.57710E+000	10	...........
	53	0.72	9.69239E-001	5.99306E-003	0.00000E+000	5.80871E-003	3.59960E-001	-1.13470E+000	3.57710E+000	10	...........
	54	0.733333	9.74956E-001	5.99476E-003	0.00000E+000	5.84463E-003	3.59960E-001	-1.13053E+000	3.57710E+000	10	...........
	55	0.746667	9.80568E-001	5.99536E-003	0.00000E+000	5.87885E-003	3.59960E-001	-1.14090E+000	3.57710E+000	10	...........
	56	0.76	9.86113E-001	5.99659E-003	0.00000E+000	5.91331E-003	3.59960E-001	-1.13495E+000	3.57710E+000	10	...........
	57	0.773333	9.91605E-001	5.99493E-003	0.00000E+000	5.94460E-003	3.59960E-001	-1.13081E+000	3.57710E+000	10	...........
	58	0.786667	9.97073E-001	5.99315E-003	0.00000E+000	5.97561E-003	3.59960E-001	-1.14126E+000	3.57710E+000	10	...........
	59	0.788333	1.00007E+000	5.99554E-003	0.00000E+000	5.99599E-003	3.59960E-001	-1.11851E+000	3.57710E+000	10	...........
STARTTIMEOFFSET	QUANT	761.0867	Start Time Offset (s)