File: Data/CV_CRGO300517_1/PWRCCD_CRGO300517_1/CHARGE_DISCHARGE/CHARGE_#681.DTA
EXPLAIN
TAG	PWR800_CHARGE
TITLE	LABEL	PWR Cyclic Charge Discharge (Cell) - Charge Step	Test &Identifier
DATE	LABEL	22-6-2017	Date
TIME	LABEL	16:02:50	Time
NOTES	NOTES	3	&Notes...
	supercap test cell
	0.6mg
	6M KOH
PSTAT	PSTAT	IFC5000-01520	Potentiostat
CAPACITY	QUANT	1.00000E-003	Capacity (A-hr)
CELLTYPE	SELECTOR	1	&Cell Type
WORKINGCONNECTION	SELECTOR	0	&Working Lead
MAXCHARGETIME	VARIABLEANDUNITS	1.00000E+002	s	1.00000E+002	second(s)	Max &Charge Time
CHARGECURRENT	QUANT	6.00000E-003	&Charge Current (A)
VOLTAGEFINISH	TWOPARAM	F	1.00000E-003	3.60000E+003	&Voltage Finish	 I (A) < 	Max Time(s)
SAMPLETIME	QUANT	1.00000E-002	Sa&mple Period (s)
CHARGESTOPAT1	MULTIPARAM	4	1.00000E+000	Charge Stop At &1	Voltage > Limit	V
CHARGESTOPAT2	MULTIPARAM	0	0.00000E+000	Charge Stop At &2	None	N/A
AESBHCSELECTOR	TOGGLE	F	Save Both Half Cells
IRCOMP	TOGGLE	F	IR &Measure
EOC	QUANT	0	Open Circuit (V)
SEQUENCER	TOGGLE	TRUE	Run as Sequence
PSTATMODEL	IQUANT	53	Pstat Model
PSTATSECTION	LABEL	IFC5000-01520	Pstat Section
PSTATSERIALNO	LABEL	01520	Pstat Serial Number
CTRLMODE	IQUANT	0	Control Mode
ELECTROMETER	IQUANT	1	RE=0 or CS=1
IESTAB	IQUANT	0	I/E Stability
CASPEED	IQUANT	4	Control Amp Speed
CONVENTION	IQUANT	1	Current Convention
ICHRANGE	IQUANT	2	Ich Range
ICHRANGEMODE	TOGGLE	T	Ich Auto Range
ICHOFFSETENABLE	TOGGLE	F	Ich Offset Enable
ICHOFFSET	QUANT	0	Ich Offset (V)
ICHFILTER	IQUANT	1	Ich Filter
VCHRANGE	IQUANT	2	Vch Range
VCHRANGEMODE	TOGGLE	T	Vch Auto Range
VCHOFFSETENABLE	TOGGLE	F	Vch Offset Enable
VCHOFFSET	QUANT	0	Vch Offset (V)
VCHFILTER	IQUANT	1	Vch Filter
IERANGELOWERLIMIT	IQUANT	9	I/E Range Lower Limit
IERANGEMODE	TOGGLE	F	I/E AutoRange
IERANGE	IQUANT	10	I/E Range
ACHSELECT	IQUANT	1	Ach Select
ACHRANGE	IQUANT	2	Ach Range
ACHOFFSETENABLE	TOGGLE	F	Ach Offset Enable
ACHOFFSET	QUANT	0	Ach Offset (V)
ACHFILTER	IQUANT	1	Ach Filter
CABLEID	IQUANT	14	Cable ID
DCCALDATE	LABEL	20-10-2016	DC Calibration Date
ACCALDATE	LABEL	12/3/2015	AC Calibration Date
FRAMEWORKVERSION	QUANT	7.01	Framework Version
INSTRUMENTVERSION	LABEL	4.00	Instrument Version
CURVE	TABLE	56
	Pt	T	Vf	Im	Vu	Pwr	Sig	Ach	Temp	IERange	Over
	#	s	V	A	V	W	V	V	deg C	#	bits
	0	0.013333	6.42173E-001	5.99250E-003	0.00000E+000	3.84822E-003	3.59960E-001	-1.15951E+000	3.57640E+000	10	...........
	1	0.026667	6.51224E-001	5.99584E-003	0.00000E+000	3.90463E-003	3.59960E-001	-1.15300E+000	3.57640E+000	10	...........
	2	0.04	6.59592E-001	5.99200E-003	0.00000E+000	3.95227E-003	3.59960E-001	-1.16121E+000	3.57640E+000	10	...........
	3	0.053333	6.67555E-001	5.99909E-003	0.00000E+000	4.00472E-003	3.59960E-001	-1.15938E+000	3.57640E+000	10	...........
	4	0.066667	6.75119E-001	5.99331E-003	0.00000E+000	4.04620E-003	3.59960E-001	-1.15311E+000	3.57640E+000	10	...........
	5	0.08	6.82549E-001	5.99730E-003	0.00000E+000	4.09345E-003	3.59960E-001	-1.16125E+000	3.57640E+000	10	...........
	6	0.093333	6.89826E-001	5.99458E-003	0.00000E+000	4.13522E-003	3.59960E-001	-1.15874E+000	3.57640E+000	10	...........
	7	0.106667	6.97027E-001	5.99753E-003	0.00000E+000	4.18044E-003	3.59960E-001	-1.15258E+000	3.57640E+000	10	...........
	8	0.12	7.04101E-001	5.99071E-003	0.00000E+000	4.21807E-003	3.59960E-001	-1.16117E+000	3.57640E+000	10	...........
	9	0.133333	7.11097E-001	5.99404E-003	0.00000E+000	4.26235E-003	3.59960E-001	-1.15878E+000	3.57640E+000	10	...........
	10	0.146667	7.18066E-001	5.99445E-003	0.00000E+000	4.30441E-003	3.59960E-001	-1.15274E+000	3.57640E+000	10	...........
	11	0.16	7.24932E-001	5.99396E-003	0.00000E+000	4.34521E-003	3.59960E-001	-1.16084E+000	3.57640E+000	10	...........
	12	0.173333	7.31787E-001	5.99212E-003	0.00000E+000	4.38496E-003	3.59960E-001	-1.15850E+000	3.57640E+000	10	...........
	13	0.186667	7.38597E-001	5.99271E-003	0.00000E+000	4.42620E-003	3.59960E-001	-1.15250E+000	3.57640E+000	10	...........
	14	0.2	7.45400E-001	5.99212E-003	0.00000E+000	4.46653E-003	3.59960E-001	-1.16123E+000	3.57640E+000	10	...........
	15	0.213333	7.52120E-001	5.99240E-003	0.00000E+000	4.50701E-003	3.59960E-001	-1.15829E+000	3.57640E+000	10	...........
	16	0.226667	7.58895E-001	5.99422E-003	0.00000E+000	4.54898E-003	3.59960E-001	-1.15233E+000	3.57640E+000	10	...........
	17	0.24	7.65586E-001	5.99668E-003	0.00000E+000	4.59098E-003	3.59960E-001	-1.16091E+000	3.57640E+000	10	...........
	18	0.253333	7.72246E-001	5.99634E-003	0.00000E+000	4.63065E-003	3.59960E-001	-1.15820E+000	3.57640E+000	10	...........
	19	0.266667	7.78850E-001	5.99342E-003	0.00000E+000	4.66797E-003	3.59960E-001	-1.15266E+000	3.57640E+000	10	...........
	20	0.28	7.85475E-001	5.99050E-003	0.00000E+000	4.70538E-003	3.59960E-001	-1.16103E+000	3.57640E+000	10	...........
	21	0.293333	7.92105E-001	5.99603E-003	0.00000E+000	4.74949E-003	3.59960E-001	-1.15793E+000	3.57640E+000	10	...........
	22	0.306667	7.98736E-001	5.99579E-003	0.00000E+000	4.78906E-003	3.59960E-001	-1.15226E+000	3.57640E+000	10	...........
	23	0.32	8.05271E-001	5.99068E-003	0.00000E+000	4.82412E-003	3.59960E-001	-1.16137E+000	3.57640E+000	10	...........
	24	0.333333	8.11824E-001	5.99148E-003	0.00000E+000	4.86403E-003	3.59960E-001	-1.15805E+000	3.57640E+000	10	...........
	25	0.346667	8.18376E-001	5.99057E-003	0.00000E+000	4.90254E-003	3.59960E-001	-1.15233E+000	3.57640E+000	10	...........
	26	0.36	8.24875E-001	5.99149E-003	0.00000E+000	4.94223E-003	3.59960E-001	-1.16120E+000	3.57640E+000	10	...........
	27	0.373333	8.31324E-001	5.99198E-003	0.00000E+000	4.98127E-003	3.59960E-001	-1.15791E+000	3.57640E+000	10	...........
	28	0.386667	8.37798E-001	5.99647E-003	0.00000E+000	5.02383E-003	3.59960E-001	-1.15235E+000	3.57640E+000	10	...........
	29	0.4	8.44281E-001	5.99562E-003	0.00000E+000	5.06199E-003	3.59960E-001	-1.16136E+000	3.57640E+000	10	...........
	30	0.413333	8.50693E-001	5.99450E-003	0.00000E+000	5.09948E-003	3.59960E-001	-1.15735E+000	3.57642E+000	10	...........
	31	0.426667	8.57101E-001	5.99323E-003	0.00000E+000	5.13680E-003	3.59960E-001	-1.15174E+000	3.57660E+000	10	...........
	32	0.44	8.63442E-001	5.99392E-003	0.00000E+000	5.17540E-003	3.59960E-001	-1.16093E+000	3.57660E+000	10	...........
	33	0.453333	8.69836E-001	5.99449E-003	0.00000E+000	5.21422E-003	3.59960E-001	-1.15726E+000	3.57660E+000	10	...........
	34	0.466667	8.76152E-001	5.99005E-003	0.00000E+000	5.24819E-003	3.59960E-001	-1.15195E+000	3.57660E+000	10	...........
	35	0.48	8.82420E-001	5.99255E-003	0.00000E+000	5.28795E-003	3.59960E-001	-1.16121E+000	3.57660E+000	10	...........
	36	0.493333	8.88723E-001	5.99133E-003	0.00000E+000	5.32463E-003	3.59960E-001	-1.15687E+000	3.57660E+000	10	...........
	37	0.506667	8.94973E-001	5.99454E-003	0.00000E+000	5.36495E-003	3.59960E-001	-1.15167E+000	3.57660E+000	10	...........
	38	0.52	9.01152E-001	5.99169E-003	0.00000E+000	5.39943E-003	3.59960E-001	-1.16134E+000	3.57660E+000	10	...........
	39	0.533333	9.07343E-001	5.99722E-003	0.00000E+000	5.44154E-003	3.59960E-001	-1.15683E+000	3.57660E+000	10	...........
	40	0.546667	9.13499E-001	5.98936E-003	0.00000E+000	5.47128E-003	3.59960E-001	-1.15166E+000	3.57660E+000	10	...........
	41	0.56	9.19694E-001	5.99624E-003	0.00000E+000	5.51471E-003	3.59960E-001	-1.16106E+000	3.57660E+000	10	...........
	42	0.573333	9.25784E-001	5.99226E-003	0.00000E+000	5.54754E-003	3.59960E-001	-1.15660E+000	3.57660E+000	10	...........
	43	0.586667	9.31816E-001	5.99284E-003	0.00000E+000	5.58423E-003	3.59960E-001	-1.15169E+000	3.57660E+000	10	...........
	44	0.6	9.37795E-001	5.99433E-003	0.00000E+000	5.62145E-003	3.59960E-001	-1.16144E+000	3.57660E+000	10	...........
	45	0.613333	9.43746E-001	5.99052E-003	0.00000E+000	5.65352E-003	3.59960E-001	-1.15668E+000	3.57660E+000	10	...........
	46	0.626667	9.49674E-001	5.99127E-003	0.00000E+000	5.68975E-003	3.59960E-001	-1.15163E+000	3.57660E+000	10	...........
	47	0.64	9.55532E-001	5.99494E-003	0.00000E+000	5.72836E-003	3.59960E-001	-1.16150E+000	3.57660E+000	10	...........
	48	0.653333	9.61377E-001	5.99179E-003	0.00000E+000	5.76037E-003	3.59960E-001	-1.15663E+000	3.57660E+000	10	...........
	49	0.666667	9.67159E-001	5.99326E-003	0.00000E+000	5.79644E-003	3.59960E-001	-1.15189E+000	3.57660E+000	10	...........
	50	0.68	9.72895E-001	5.99346E-003	0.00000E+000	5.83101E-003	3.59960E-001	-1.16152E+000	3.57660E+000	10	...........
	51	0.693333	9.78609E-001	5.99601E-003	0.00000E+000	5.86775E-003	3.59960E-001	-1.15624E+000	3.57660E+000	10	...........
	52	0.706667	9.84218E-001	5.99499E-003	0.00000E+000	5.90038E-003	3.59960E-001	-1.15158E+000	3.57660E+000	10	...........
	53	0.72	9.89795E-001	5.99779E-003	0.00000E+000	5.93658E-003	3.59960E-001	-1.16169E+000	3.57660E+000	10	...........
	54	0.733333	9.95330E-001	5.99279E-003	0.00000E+000	5.96480E-003	3.59960E-001	-1.15623E+000	3.57660E+000	10	...........
	55	0.74	9.99479E-001	6.00018E-003	0.00000E+000	5.99705E-003	3.59960E-001	-1.15645E+000	3.57660E+000	10	...........
STARTTIMEOFFSET	QUANT	1131.284	Start Time Offset (s)