File: Data/CV_CRGO300517_1/PWRCCD_CRGO300517_1/CHARGE_DISCHARGE/CHARGE_#774.DTA
EXPLAIN
TAG	PWR800_CHARGE
TITLE	LABEL	PWR Cyclic Charge Discharge (Cell) - Charge Step	Test &Identifier
DATE	LABEL	22-6-2017	Date
TIME	LABEL	16:06:19	Time
NOTES	NOTES	3	&Notes...
	supercap test cell
	0.6mg
	6M KOH
PSTAT	PSTAT	IFC5000-01520	Potentiostat
CAPACITY	QUANT	1.00000E-003	Capacity (A-hr)
CELLTYPE	SELECTOR	1	&Cell Type
WORKINGCONNECTION	SELECTOR	0	&Working Lead
MAXCHARGETIME	VARIABLEANDUNITS	1.00000E+002	s	1.00000E+002	second(s)	Max &Charge Time
CHARGECURRENT	QUANT	6.00000E-003	&Charge Current (A)
VOLTAGEFINISH	TWOPARAM	F	1.00000E-003	3.60000E+003	&Voltage Finish	 I (A) < 	Max Time(s)
SAMPLETIME	QUANT	1.00000E-002	Sa&mple Period (s)
CHARGESTOPAT1	MULTIPARAM	4	1.00000E+000	Charge Stop At &1	Voltage > Limit	V
CHARGESTOPAT2	MULTIPARAM	0	0.00000E+000	Charge Stop At &2	None	N/A
AESBHCSELECTOR	TOGGLE	F	Save Both Half Cells
IRCOMP	TOGGLE	F	IR &Measure
EOC	QUANT	0	Open Circuit (V)
SEQUENCER	TOGGLE	TRUE	Run as Sequence
PSTATMODEL	IQUANT	53	Pstat Model
PSTATSECTION	LABEL	IFC5000-01520	Pstat Section
PSTATSERIALNO	LABEL	01520	Pstat Serial Number
CTRLMODE	IQUANT	0	Control Mode
ELECTROMETER	IQUANT	1	RE=0 or CS=1
IESTAB	IQUANT	0	I/E Stability
CASPEED	IQUANT	4	Control Amp Speed
CONVENTION	IQUANT	1	Current Convention
ICHRANGE	IQUANT	2	Ich Range
ICHRANGEMODE	TOGGLE	T	Ich Auto Range
ICHOFFSETENABLE	TOGGLE	F	Ich Offset Enable
ICHOFFSET	QUANT	0	Ich Offset (V)
ICHFILTER	IQUANT	1	Ich Filter
VCHRANGE	IQUANT	2	Vch Range
VCHRANGEMODE	TOGGLE	T	Vch Auto Range
VCHOFFSETENABLE	TOGGLE	F	Vch Offset Enable
VCHOFFSET	QUANT	0	Vch Offset (V)
VCHFILTER	IQUANT	1	Vch Filter
IERANGELOWERLIMIT	IQUANT	9	I/E Range Lower Limit
IERANGEMODE	TOGGLE	F	I/E AutoRange
IERANGE	IQUANT	10	I/E Range
ACHSELECT	IQUANT	1	Ach Select
ACHRANGE	IQUANT	2	Ach Range
ACHOFFSETENABLE	TOGGLE	F	Ach Offset Enable
ACHOFFSET	QUANT	0	Ach Offset (V)
ACHFILTER	IQUANT	1	Ach Filter
CABLEID	IQUANT	14	Cable ID
DCCALDATE	LABEL	20-10-2016	DC Calibration Date
ACCALDATE	LABEL	12/3/2015	AC Calibration Date
FRAMEWORKVERSION	QUANT	7.01	Framework Version
INSTRUMENTVERSION	LABEL	4.00	Instrument Version
CURVE	TABLE	55
	Pt	T	Vf	Im	Vu	Pwr	Sig	Ach	Temp	IERange	Over
	#	s	V	A	V	W	V	V	deg C	#	bits
	0	0.013333	6.46530E-001	5.99820E-003	0.00000E+000	3.87802E-003	3.59960E-001	-1.16033E+000	3.57640E+000	10	...........
	1	0.026667	6.55720E-001	5.99001E-003	0.00000E+000	3.92777E-003	3.59960E-001	-1.15858E+000	3.57640E+000	10	...........
	2	0.04	6.64180E-001	5.99087E-003	0.00000E+000	3.97902E-003	3.59960E-001	-1.17002E+000	3.57640E+000	10	...........
	3	0.053333	6.72199E-001	5.99019E-003	0.00000E+000	4.02660E-003	3.59960E-001	-1.16041E+000	3.57640E+000	10	...........
	4	0.066667	6.79901E-001	5.99110E-003	0.00000E+000	4.07335E-003	3.59960E-001	-1.15871E+000	3.57653E+000	10	...........
	5	0.08	6.87397E-001	5.99525E-003	0.00000E+000	4.12112E-003	3.59960E-001	-1.17031E+000	3.57660E+000	10	...........
	6	0.093333	6.94761E-001	5.99595E-003	0.00000E+000	4.16575E-003	3.59960E-001	-1.16040E+000	3.57660E+000	10	...........
	7	0.106667	7.01983E-001	5.99288E-003	0.00000E+000	4.20690E-003	3.59960E-001	-1.15894E+000	3.57660E+000	10	...........
	8	0.12	7.09136E-001	5.99544E-003	0.00000E+000	4.25158E-003	3.59960E-001	-1.17021E+000	3.57660E+000	10	...........
	9	0.133333	7.16225E-001	5.99540E-003	0.00000E+000	4.29406E-003	3.59960E-001	-1.16039E+000	3.57660E+000	10	...........
	10	0.146667	7.23249E-001	5.99116E-003	0.00000E+000	4.33310E-003	3.59960E-001	-1.15894E+000	3.57660E+000	10	...........
	11	0.16	7.30210E-001	5.99412E-003	0.00000E+000	4.37697E-003	3.59960E-001	-1.16986E+000	3.57660E+000	10	...........
	12	0.173333	7.37118E-001	5.99161E-003	0.00000E+000	4.41653E-003	3.59960E-001	-1.16002E+000	3.57660E+000	10	...........
	13	0.186667	7.44002E-001	5.99348E-003	0.00000E+000	4.45916E-003	3.59960E-001	-1.15863E+000	3.57660E+000	10	...........
	14	0.2	7.50842E-001	5.99427E-003	0.00000E+000	4.50075E-003	3.59960E-001	-1.16985E+000	3.57660E+000	10	...........
	15	0.213333	7.57704E-001	5.98965E-003	0.00000E+000	4.53838E-003	3.59960E-001	-1.15980E+000	3.57660E+000	10	...........
	16	0.226667	7.64489E-001	5.99543E-003	0.00000E+000	4.58344E-003	3.59960E-001	-1.15875E+000	3.57660E+000	10	...........
	17	0.24	7.71261E-001	5.99369E-003	0.00000E+000	4.62270E-003	3.59960E-001	-1.16990E+000	3.57660E+000	10	...........
	18	0.253333	7.77961E-001	5.99455E-003	0.00000E+000	4.66353E-003	3.59960E-001	-1.15997E+000	3.57660E+000	10	...........
	19	0.266667	7.84656E-001	5.99134E-003	0.00000E+000	4.70114E-003	3.59960E-001	-1.15864E+000	3.57660E+000	10	...........
	20	0.28	7.91368E-001	5.99248E-003	0.00000E+000	4.74226E-003	3.59960E-001	-1.16997E+000	3.57660E+000	10	...........
	21	0.293333	7.98044E-001	5.99323E-003	0.00000E+000	4.78286E-003	3.59960E-001	-1.15988E+000	3.57660E+000	10	...........
	22	0.306667	8.04672E-001	5.99275E-003	0.00000E+000	4.82220E-003	3.59960E-001	-1.15855E+000	3.57660E+000	10	...........
	23	0.32	8.11303E-001	5.98912E-003	0.00000E+000	4.85899E-003	3.59960E-001	-1.16988E+000	3.57660E+000	10	...........
	24	0.333333	8.17894E-001	5.99373E-003	0.00000E+000	4.90224E-003	3.59960E-001	-1.15987E+000	3.57660E+000	10	...........
	25	0.346667	8.24522E-001	5.99407E-003	0.00000E+000	4.94224E-003	3.59960E-001	-1.15880E+000	3.57660E+000	10	...........
	26	0.36	8.31062E-001	5.99665E-003	0.00000E+000	4.98358E-003	3.59960E-001	-1.17024E+000	3.57660E+000	10	...........
	27	0.373333	8.37600E-001	5.99378E-003	0.00000E+000	5.02039E-003	3.59960E-001	-1.15991E+000	3.57660E+000	10	...........
	28	0.386667	8.44133E-001	5.99282E-003	0.00000E+000	5.05874E-003	3.59960E-001	-1.15907E+000	3.57660E+000	10	...........
	29	0.4	8.50621E-001	5.99543E-003	0.00000E+000	5.09984E-003	3.59960E-001	-1.17021E+000	3.57660E+000	10	...........
	30	0.413333	8.57054E-001	5.99423E-003	0.00000E+000	5.13738E-003	3.59960E-001	-1.15975E+000	3.57660E+000	10	...........
	31	0.426667	8.63502E-001	5.99593E-003	0.00000E+000	5.17750E-003	3.59960E-001	-1.15892E+000	3.57660E+000	10	...........
	32	0.44	8.69920E-001	5.99213E-003	0.00000E+000	5.21267E-003	3.59960E-001	-1.17025E+000	3.57660E+000	10	...........
	33	0.453333	8.76332E-001	5.99125E-003	0.00000E+000	5.25032E-003	3.59960E-001	-1.15982E+000	3.57660E+000	10	...........
	34	0.466667	8.82671E-001	5.99529E-003	0.00000E+000	5.29187E-003	3.59960E-001	-1.15891E+000	3.57660E+000	10	...........
	35	0.48	8.88964E-001	5.99030E-003	0.00000E+000	5.32516E-003	3.59960E-001	-1.16998E+000	3.57660E+000	10	...........
	36	0.493333	8.95219E-001	5.99063E-003	0.00000E+000	5.36293E-003	3.59960E-001	-1.15953E+000	3.57660E+000	10	...........
	37	0.506667	9.01530E-001	5.99460E-003	0.00000E+000	5.40432E-003	3.59960E-001	-1.15874E+000	3.57660E+000	10	...........
	38	0.52	9.07742E-001	5.99717E-003	0.00000E+000	5.44389E-003	3.59960E-001	-1.17000E+000	3.57660E+000	10	...........
	39	0.533333	9.13890E-001	5.99589E-003	0.00000E+000	5.47958E-003	3.59960E-001	-1.15958E+000	3.57660E+000	10	...........
	40	0.546667	9.20068E-001	5.99359E-003	0.00000E+000	5.51451E-003	3.59960E-001	-1.15880E+000	3.57660E+000	10	...........
	41	0.56	9.26199E-001	5.99415E-003	0.00000E+000	5.55177E-003	3.59960E-001	-1.16993E+000	3.57660E+000	10	...........
	42	0.573333	9.32276E-001	5.99587E-003	0.00000E+000	5.58981E-003	3.59960E-001	-1.15948E+000	3.57660E+000	10	...........
	43	0.586667	9.38287E-001	5.99408E-003	0.00000E+000	5.62417E-003	3.59960E-001	-1.15882E+000	3.57660E+000	10	...........
	44	0.6	9.44212E-001	5.99429E-003	0.00000E+000	5.65988E-003	3.59960E-001	-1.16990E+000	3.57660E+000	10	...........
	45	0.613333	9.50217E-001	5.99419E-003	0.00000E+000	5.69578E-003	3.59960E-001	-1.15954E+000	3.57660E+000	10	...........
	46	0.626667	9.56154E-001	5.99547E-003	0.00000E+000	5.73259E-003	3.59960E-001	-1.15874E+000	3.57660E+000	10	...........
	47	0.64	9.61962E-001	5.99271E-003	0.00000E+000	5.76476E-003	3.59960E-001	-1.16992E+000	3.57660E+000	10	...........
	48	0.653333	9.67722E-001	5.99397E-003	0.00000E+000	5.80050E-003	3.59960E-001	-1.15933E+000	3.57660E+000	10	...........
	49	0.666667	9.73543E-001	5.99211E-003	0.00000E+000	5.83358E-003	3.59960E-001	-1.15870E+000	3.57660E+000	10	...........
	50	0.68	9.79213E-001	5.99416E-003	0.00000E+000	5.86955E-003	3.59960E-001	-1.16977E+000	3.57660E+000	10	...........
	51	0.693333	9.84863E-001	5.99724E-003	0.00000E+000	5.90647E-003	3.59960E-001	-1.15926E+000	3.57660E+000	10	...........
	52	0.706667	9.90460E-001	5.99737E-003	0.00000E+000	5.94016E-003	3.59960E-001	-1.15891E+000	3.57660E+000	10	...........
	53	0.72	9.96017E-001	5.99786E-003	0.00000E+000	5.97397E-003	3.59960E-001	-1.16979E+000	3.57660E+000	10	...........
	54	0.725	9.99791E-001	5.99863E-003	0.00000E+000	5.99738E-003	3.59960E-001	-1.14721E+000	3.57660E+000	10	...........
STARTTIMEOFFSET	QUANT	1266.748	Start Time Offset (s)