File: Data/CV_CRGO300517_1/PWRCCD_CRGO300517_1/CHARGE_DISCHARGE/CHARGE_#883.DTA
EXPLAIN
TAG	PWR800_CHARGE
TITLE	LABEL	PWR Cyclic Charge Discharge (Cell) - Charge Step	Test &Identifier
DATE	LABEL	22-6-2017	Date
TIME	LABEL	16:10:21	Time
NOTES	NOTES	3	&Notes...
	supercap test cell
	0.6mg
	6M KOH
PSTAT	PSTAT	IFC5000-01520	Potentiostat
CAPACITY	QUANT	1.00000E-003	Capacity (A-hr)
CELLTYPE	SELECTOR	1	&Cell Type
WORKINGCONNECTION	SELECTOR	0	&Working Lead
MAXCHARGETIME	VARIABLEANDUNITS	1.00000E+002	s	1.00000E+002	second(s)	Max &Charge Time
CHARGECURRENT	QUANT	6.00000E-003	&Charge Current (A)
VOLTAGEFINISH	TWOPARAM	F	1.00000E-003	3.60000E+003	&Voltage Finish	 I (A) < 	Max Time(s)
SAMPLETIME	QUANT	1.00000E-002	Sa&mple Period (s)
CHARGESTOPAT1	MULTIPARAM	4	1.00000E+000	Charge Stop At &1	Voltage > Limit	V
CHARGESTOPAT2	MULTIPARAM	0	0.00000E+000	Charge Stop At &2	None	N/A
AESBHCSELECTOR	TOGGLE	F	Save Both Half Cells
IRCOMP	TOGGLE	F	IR &Measure
EOC	QUANT	0	Open Circuit (V)
SEQUENCER	TOGGLE	TRUE	Run as Sequence
PSTATMODEL	IQUANT	53	Pstat Model
PSTATSECTION	LABEL	IFC5000-01520	Pstat Section
PSTATSERIALNO	LABEL	01520	Pstat Serial Number
CTRLMODE	IQUANT	0	Control Mode
ELECTROMETER	IQUANT	1	RE=0 or CS=1
IESTAB	IQUANT	0	I/E Stability
CASPEED	IQUANT	4	Control Amp Speed
CONVENTION	IQUANT	1	Current Convention
ICHRANGE	IQUANT	2	Ich Range
ICHRANGEMODE	TOGGLE	T	Ich Auto Range
ICHOFFSETENABLE	TOGGLE	F	Ich Offset Enable
ICHOFFSET	QUANT	0	Ich Offset (V)
ICHFILTER	IQUANT	1	Ich Filter
VCHRANGE	IQUANT	2	Vch Range
VCHRANGEMODE	TOGGLE	T	Vch Auto Range
VCHOFFSETENABLE	TOGGLE	F	Vch Offset Enable
VCHOFFSET	QUANT	0	Vch Offset (V)
VCHFILTER	IQUANT	1	Vch Filter
IERANGELOWERLIMIT	IQUANT	9	I/E Range Lower Limit
IERANGEMODE	TOGGLE	F	I/E AutoRange
IERANGE	IQUANT	10	I/E Range
ACHSELECT	IQUANT	1	Ach Select
ACHRANGE	IQUANT	2	Ach Range
ACHOFFSETENABLE	TOGGLE	F	Ach Offset Enable
ACHOFFSET	QUANT	0	Ach Offset (V)
ACHFILTER	IQUANT	1	Ach Filter
CABLEID	IQUANT	14	Cable ID
DCCALDATE	LABEL	20-10-2016	DC Calibration Date
ACCALDATE	LABEL	12/3/2015	AC Calibration Date
FRAMEWORKVERSION	QUANT	7.01	Framework Version
INSTRUMENTVERSION	LABEL	4.00	Instrument Version
CURVE	TABLE	54
	Pt	T	Vf	Im	Vu	Pwr	Sig	Ach	Temp	IERange	Over
	#	s	V	A	V	W	V	V	deg C	#	bits
	0	0.013333	6.52691E-001	5.99380E-003	0.00000E+000	3.91210E-003	3.59960E-001	-1.17031E+000	3.57650E+000	10	...........
	1	0.026667	6.61977E-001	5.99525E-003	0.00000E+000	3.96872E-003	3.59960E-001	-1.16195E+000	3.57650E+000	10	...........
	2	0.04	6.70500E-001	5.99624E-003	0.00000E+000	4.02048E-003	3.59960E-001	-1.16792E+000	3.57650E+000	10	...........
	3	0.053333	6.78541E-001	5.99777E-003	0.00000E+000	4.06973E-003	3.59960E-001	-1.17000E+000	3.57650E+000	10	...........
	4	0.066667	6.86297E-001	5.99681E-003	0.00000E+000	4.11559E-003	3.59960E-001	-1.16140E+000	3.57650E+000	10	...........
	5	0.08	6.93888E-001	5.99507E-003	0.00000E+000	4.15991E-003	3.59960E-001	-1.16664E+000	3.57650E+000	10	...........
	6	0.093333	7.01282E-001	5.99137E-003	0.00000E+000	4.20164E-003	3.59960E-001	-1.16943E+000	3.57650E+000	10	...........
	7	0.106667	7.08595E-001	5.99412E-003	0.00000E+000	4.24740E-003	3.59960E-001	-1.16108E+000	3.57650E+000	10	...........
	8	0.12	7.15881E-001	5.99350E-003	0.00000E+000	4.29064E-003	3.59960E-001	-1.16664E+000	3.57650E+000	10	...........
	9	0.133333	7.23033E-001	5.99611E-003	0.00000E+000	4.33538E-003	3.59960E-001	-1.16925E+000	3.57650E+000	10	...........
	10	0.146667	7.30102E-001	5.99320E-003	0.00000E+000	4.37564E-003	3.59960E-001	-1.16088E+000	3.57650E+000	10	...........
	11	0.16	7.37102E-001	5.99123E-003	0.00000E+000	4.41614E-003	3.59960E-001	-1.16661E+000	3.57650E+000	10	...........
	12	0.173333	7.44077E-001	5.98900E-003	0.00000E+000	4.45628E-003	3.59960E-001	-1.16950E+000	3.57650E+000	10	...........
	13	0.186667	7.50957E-001	5.99538E-003	0.00000E+000	4.50227E-003	3.59960E-001	-1.16101E+000	3.57650E+000	10	...........
	14	0.2	7.57876E-001	5.99258E-003	0.00000E+000	4.54163E-003	3.59960E-001	-1.16625E+000	3.57650E+000	10	...........
	15	0.213333	7.64745E-001	5.99463E-003	0.00000E+000	4.58436E-003	3.59960E-001	-1.16926E+000	3.57650E+000	10	...........
	16	0.226667	7.71588E-001	5.99904E-003	0.00000E+000	4.62879E-003	3.59960E-001	-1.16094E+000	3.57650E+000	10	...........
	17	0.24	7.78358E-001	5.99540E-003	0.00000E+000	4.66657E-003	3.59960E-001	-1.16645E+000	3.57650E+000	10	...........
	18	0.253333	7.85147E-001	5.99173E-003	0.00000E+000	4.70439E-003	3.59960E-001	-1.16977E+000	3.57650E+000	10	...........
	19	0.266667	7.91881E-001	5.99103E-003	0.00000E+000	4.74418E-003	3.59960E-001	-1.16138E+000	3.57650E+000	10	...........
	20	0.28	7.98650E-001	5.99858E-003	0.00000E+000	4.79076E-003	3.59960E-001	-1.16667E+000	3.57650E+000	10	...........
	21	0.293333	8.05353E-001	5.99773E-003	0.00000E+000	4.83029E-003	3.59960E-001	-1.17028E+000	3.57650E+000	10	...........
	22	0.306667	8.12019E-001	5.99430E-003	0.00000E+000	4.86749E-003	3.59960E-001	-1.16199E+000	3.57650E+000	10	...........
	23	0.32	8.18654E-001	5.99379E-003	0.00000E+000	4.90684E-003	3.59960E-001	-1.16719E+000	3.57650E+000	10	...........
	24	0.333333	8.25298E-001	5.99528E-003	0.00000E+000	4.94790E-003	3.59960E-001	-1.17060E+000	3.57650E+000	10	...........
	25	0.346667	8.31908E-001	5.99554E-003	0.00000E+000	4.98774E-003	3.59960E-001	-1.16197E+000	3.57650E+000	10	...........
	26	0.36	8.38495E-001	5.99399E-003	0.00000E+000	5.02593E-003	3.59960E-001	-1.16722E+000	3.57650E+000	10	...........
	27	0.373333	8.45058E-001	5.99370E-003	0.00000E+000	5.06502E-003	3.59960E-001	-1.17101E+000	3.57650E+000	10	...........
	28	0.386667	8.51589E-001	5.99136E-003	0.00000E+000	5.10218E-003	3.59960E-001	-1.16202E+000	3.57650E+000	10	...........
	29	0.4	8.58096E-001	5.99603E-003	0.00000E+000	5.14518E-003	3.59960E-001	-1.16688E+000	3.57650E+000	10	...........
	30	0.413333	8.64559E-001	5.98676E-003	0.00000E+000	5.17591E-003	3.59960E-001	-1.17051E+000	3.57650E+000	10	...........
	31	0.426667	8.70993E-001	5.99569E-003	0.00000E+000	5.22220E-003	3.59960E-001	-1.16199E+000	3.57650E+000	10	...........
	32	0.44	8.77445E-001	5.99343E-003	0.00000E+000	5.25890E-003	3.59960E-001	-1.16692E+000	3.57650E+000	10	...........
	33	0.453333	8.83855E-001	5.99192E-003	0.00000E+000	5.29599E-003	3.59960E-001	-1.17073E+000	3.57650E+000	10	...........
	34	0.466667	8.90236E-001	5.99149E-003	0.00000E+000	5.33384E-003	3.59960E-001	-1.16190E+000	3.57650E+000	10	...........
	35	0.48	8.96556E-001	5.99913E-003	0.00000E+000	5.37856E-003	3.59960E-001	-1.16647E+000	3.57650E+000	10	...........
	36	0.493333	9.02803E-001	5.99271E-003	0.00000E+000	5.41023E-003	3.59960E-001	-1.17080E+000	3.57650E+000	10	...........
	37	0.506667	9.09049E-001	5.99320E-003	0.00000E+000	5.44811E-003	3.59960E-001	-1.16194E+000	3.57650E+000	10	...........
	38	0.52	9.15294E-001	5.99252E-003	0.00000E+000	5.48492E-003	3.59960E-001	-1.16669E+000	3.57650E+000	10	...........
	39	0.533333	9.21464E-001	5.99383E-003	0.00000E+000	5.52310E-003	3.59960E-001	-1.17066E+000	3.57650E+000	10	...........
	40	0.546667	9.27625E-001	5.99425E-003	0.00000E+000	5.56041E-003	3.59960E-001	-1.16174E+000	3.57650E+000	10	...........
	41	0.56	9.33681E-001	5.99389E-003	0.00000E+000	5.59638E-003	3.59960E-001	-1.16656E+000	3.57650E+000	10	...........
	42	0.573333	9.39752E-001	5.99157E-003	0.00000E+000	5.63059E-003	3.59960E-001	-1.17084E+000	3.57650E+000	10	...........
	43	0.586667	9.45734E-001	5.99048E-003	0.00000E+000	5.66540E-003	3.59960E-001	-1.16193E+000	3.57650E+000	10	...........
	44	0.6	9.51676E-001	5.99059E-003	0.00000E+000	5.70110E-003	3.59960E-001	-1.16630E+000	3.57650E+000	10	...........
	45	0.613333	9.57573E-001	5.99679E-003	0.00000E+000	5.74236E-003	3.59960E-001	-1.17080E+000	3.57650E+000	10	...........
	46	0.626667	9.63398E-001	5.99612E-003	0.00000E+000	5.77665E-003	3.59960E-001	-1.16201E+000	3.57650E+000	10	...........
	47	0.64	9.69188E-001	5.99397E-003	0.00000E+000	5.80928E-003	3.59960E-001	-1.16669E+000	3.57650E+000	10	...........
	48	0.653333	9.75023E-001	5.99656E-003	0.00000E+000	5.84678E-003	3.59960E-001	-1.17118E+000	3.57650E+000	10	...........
	49	0.666667	9.80711E-001	5.99705E-003	0.00000E+000	5.88137E-003	3.59960E-001	-1.16184E+000	3.57650E+000	10	...........
	50	0.68	9.86329E-001	5.98994E-003	0.00000E+000	5.90805E-003	3.59960E-001	-1.16629E+000	3.57650E+000	10	...........
	51	0.693333	9.91917E-001	5.99155E-003	0.00000E+000	5.94312E-003	3.59960E-001	-1.17103E+000	3.57650E+000	10	...........
	52	0.706667	9.97496E-001	5.99564E-003	0.00000E+000	5.98062E-003	3.59960E-001	-1.16175E+000	3.57650E+000	10	...........
	53	0.708333	1.00062E+000	5.99863E-003	0.00000E+000	6.00237E-003	3.59960E-001	-1.17684E+000	3.57650E+000	10	...........
STARTTIMEOFFSET	QUANT	1422.133	Start Time Offset (s)