File: Data/CV_CRGO300517_1/PWRCCD_CRGO300517_1/CHARGE_DISCHARGE/CHARGE_#417.DTA
EXPLAIN
TAG	PWR800_CHARGE
TITLE	LABEL	PWR Cyclic Charge Discharge (Cell) - Charge Step	Test &Identifier
DATE	LABEL	22-6-2017	Date
TIME	LABEL	15:52:39	Time
NOTES	NOTES	3	&Notes...
	supercap test cell
	0.6mg
	6M KOH
PSTAT	PSTAT	IFC5000-01520	Potentiostat
CAPACITY	QUANT	1.00000E-003	Capacity (A-hr)
CELLTYPE	SELECTOR	1	&Cell Type
WORKINGCONNECTION	SELECTOR	0	&Working Lead
MAXCHARGETIME	VARIABLEANDUNITS	1.00000E+002	s	1.00000E+002	second(s)	Max &Charge Time
CHARGECURRENT	QUANT	6.00000E-003	&Charge Current (A)
VOLTAGEFINISH	TWOPARAM	F	1.00000E-003	3.60000E+003	&Voltage Finish	 I (A) < 	Max Time(s)
SAMPLETIME	QUANT	1.00000E-002	Sa&mple Period (s)
CHARGESTOPAT1	MULTIPARAM	4	1.00000E+000	Charge Stop At &1	Voltage > Limit	V
CHARGESTOPAT2	MULTIPARAM	0	0.00000E+000	Charge Stop At &2	None	N/A
AESBHCSELECTOR	TOGGLE	F	Save Both Half Cells
IRCOMP	TOGGLE	F	IR &Measure
EOC	QUANT	0	Open Circuit (V)
SEQUENCER	TOGGLE	TRUE	Run as Sequence
PSTATMODEL	IQUANT	53	Pstat Model
PSTATSECTION	LABEL	IFC5000-01520	Pstat Section
PSTATSERIALNO	LABEL	01520	Pstat Serial Number
CTRLMODE	IQUANT	0	Control Mode
ELECTROMETER	IQUANT	1	RE=0 or CS=1
IESTAB	IQUANT	0	I/E Stability
CASPEED	IQUANT	4	Control Amp Speed
CONVENTION	IQUANT	1	Current Convention
ICHRANGE	IQUANT	2	Ich Range
ICHRANGEMODE	TOGGLE	T	Ich Auto Range
ICHOFFSETENABLE	TOGGLE	F	Ich Offset Enable
ICHOFFSET	QUANT	0	Ich Offset (V)
ICHFILTER	IQUANT	1	Ich Filter
VCHRANGE	IQUANT	2	Vch Range
VCHRANGEMODE	TOGGLE	T	Vch Auto Range
VCHOFFSETENABLE	TOGGLE	F	Vch Offset Enable
VCHOFFSET	QUANT	0	Vch Offset (V)
VCHFILTER	IQUANT	1	Vch Filter
IERANGELOWERLIMIT	IQUANT	9	I/E Range Lower Limit
IERANGEMODE	TOGGLE	F	I/E AutoRange
IERANGE	IQUANT	10	I/E Range
ACHSELECT	IQUANT	1	Ach Select
ACHRANGE	IQUANT	2	Ach Range
ACHOFFSETENABLE	TOGGLE	F	Ach Offset Enable
ACHOFFSET	QUANT	0	Ach Offset (V)
ACHFILTER	IQUANT	1	Ach Filter
CABLEID	IQUANT	14	Cable ID
DCCALDATE	LABEL	20-10-2016	DC Calibration Date
ACCALDATE	LABEL	12/3/2015	AC Calibration Date
FRAMEWORKVERSION	QUANT	7.01	Framework Version
INSTRUMENTVERSION	LABEL	4.00	Instrument Version
CURVE	TABLE	60
	Pt	T	Vf	Im	Vu	Pwr	Sig	Ach	Temp	IERange	Over
	#	s	V	A	V	W	V	V	deg C	#	bits
	0	0.013333	6.25734E-001	5.99747E-003	0.00000E+000	3.75283E-003	3.59960E-001	-1.13336E+000	3.57710E+000	10	...........
	1	0.026667	6.34483E-001	5.99598E-003	0.00000E+000	3.80435E-003	3.59960E-001	-1.12768E+000	3.57710E+000	10	...........
	2	0.04	6.42567E-001	5.99088E-003	0.00000E+000	3.84954E-003	3.59960E-001	-1.13550E+000	3.57710E+000	10	...........
	3	0.053333	6.50205E-001	5.99594E-003	0.00000E+000	3.89859E-003	3.59960E-001	-1.13343E+000	3.57710E+000	10	...........
	4	0.066667	6.57577E-001	5.99186E-003	0.00000E+000	3.94011E-003	3.59960E-001	-1.12748E+000	3.57710E+000	10	...........
	5	0.08	6.64761E-001	5.99234E-003	0.00000E+000	3.98348E-003	3.59960E-001	-1.13556E+000	3.57710E+000	10	...........
	6	0.093333	6.71813E-001	5.99208E-003	0.00000E+000	4.02556E-003	3.59960E-001	-1.13355E+000	3.57710E+000	10	...........
	7	0.106667	6.78785E-001	5.99232E-003	0.00000E+000	4.06750E-003	3.59960E-001	-1.12745E+000	3.57710E+000	10	...........
	8	0.12	6.85568E-001	5.99141E-003	0.00000E+000	4.10752E-003	3.59960E-001	-1.13532E+000	3.57710E+000	10	...........
	9	0.133333	6.92376E-001	5.99240E-003	0.00000E+000	4.14900E-003	3.59960E-001	-1.13278E+000	3.57710E+000	10	...........
	10	0.146667	6.99103E-001	5.99514E-003	0.00000E+000	4.19122E-003	3.59960E-001	-1.12705E+000	3.57710E+000	10	...........
	11	0.16	7.05786E-001	5.99401E-003	0.00000E+000	4.23049E-003	3.59960E-001	-1.13547E+000	3.57710E+000	10	...........
	12	0.173333	7.12360E-001	5.99402E-003	0.00000E+000	4.26990E-003	3.59960E-001	-1.13270E+000	3.57710E+000	10	...........
	13	0.186667	7.18949E-001	5.99294E-003	0.00000E+000	4.30861E-003	3.59960E-001	-1.12718E+000	3.57710E+000	10	...........
	14	0.2	7.25544E-001	5.99593E-003	0.00000E+000	4.35031E-003	3.59960E-001	-1.13539E+000	3.57710E+000	10	...........
	15	0.213333	7.32056E-001	5.99625E-003	0.00000E+000	4.38959E-003	3.59960E-001	-1.13254E+000	3.57704E+000	10	...........
	16	0.226667	7.38545E-001	5.99353E-003	0.00000E+000	4.42649E-003	3.59960E-001	-1.12710E+000	3.57700E+000	10	...........
	17	0.24	7.45033E-001	5.99188E-003	0.00000E+000	4.46415E-003	3.59960E-001	-1.13574E+000	3.57700E+000	10	...........
	18	0.253333	7.51508E-001	6.00328E-003	0.00000E+000	4.51152E-003	3.59960E-001	-1.13266E+000	3.57700E+000	10	...........
	19	0.266667	7.57936E-001	5.99442E-003	0.00000E+000	4.54338E-003	3.59960E-001	-1.12708E+000	3.57700E+000	10	...........
	20	0.28	7.64372E-001	5.99576E-003	0.00000E+000	4.58299E-003	3.59960E-001	-1.13578E+000	3.57700E+000	10	...........
	21	0.293333	7.70824E-001	5.99035E-003	0.00000E+000	4.61751E-003	3.59960E-001	-1.13243E+000	3.57700E+000	10	...........
	22	0.306667	7.77239E-001	5.99589E-003	0.00000E+000	4.66024E-003	3.59960E-001	-1.12709E+000	3.57700E+000	10	...........
	23	0.32	7.83650E-001	5.99424E-003	0.00000E+000	4.69739E-003	3.59960E-001	-1.13591E+000	3.57700E+000	10	...........
	24	0.333333	7.90016E-001	5.99181E-003	0.00000E+000	4.73363E-003	3.59960E-001	-1.13231E+000	3.57700E+000	10	...........
	25	0.346667	7.96385E-001	5.99421E-003	0.00000E+000	4.77370E-003	3.59960E-001	-1.12701E+000	3.57700E+000	10	...........
	26	0.36	8.02695E-001	5.99359E-003	0.00000E+000	4.81103E-003	3.59960E-001	-1.13605E+000	3.57700E+000	10	...........
	27	0.373333	8.09043E-001	5.99101E-003	0.00000E+000	4.84698E-003	3.59960E-001	-1.13233E+000	3.57700E+000	10	...........
	28	0.386667	8.15398E-001	5.99241E-003	0.00000E+000	4.88620E-003	3.59960E-001	-1.12708E+000	3.57700E+000	10	...........
	29	0.4	8.21761E-001	5.99480E-003	0.00000E+000	4.92629E-003	3.59960E-001	-1.13606E+000	3.57700E+000	10	...........
	30	0.413333	8.28010E-001	5.99161E-003	0.00000E+000	4.96112E-003	3.59960E-001	-1.13227E+000	3.57700E+000	10	...........
	31	0.426667	8.34268E-001	5.99272E-003	0.00000E+000	4.99953E-003	3.59960E-001	-1.12709E+000	3.57700E+000	10	...........
	32	0.44	8.40541E-001	5.99258E-003	0.00000E+000	5.03701E-003	3.59960E-001	-1.13603E+000	3.57700E+000	10	...........
	33	0.453333	8.46814E-001	5.99446E-003	0.00000E+000	5.07619E-003	3.59960E-001	-1.13191E+000	3.57700E+000	10	...........
	34	0.466667	8.53065E-001	5.99467E-003	0.00000E+000	5.11384E-003	3.59960E-001	-1.12684E+000	3.57700E+000	10	...........
	35	0.48	8.59258E-001	5.99346E-003	0.00000E+000	5.14993E-003	3.59960E-001	-1.13597E+000	3.57700E+000	10	...........
	36	0.493333	8.65502E-001	5.99527E-003	0.00000E+000	5.18892E-003	3.59960E-001	-1.13189E+000	3.57700E+000	10	...........
	37	0.506667	8.71713E-001	5.99162E-003	0.00000E+000	5.22297E-003	3.59960E-001	-1.12678E+000	3.57700E+000	10	...........
	38	0.52	8.77869E-001	5.99248E-003	0.00000E+000	5.26061E-003	3.59960E-001	-1.13596E+000	3.57700E+000	10	...........
	39	0.533333	8.84036E-001	5.99596E-003	0.00000E+000	5.30065E-003	3.59960E-001	-1.13148E+000	3.57700E+000	10	...........
	40	0.546667	8.90138E-001	5.99221E-003	0.00000E+000	5.33389E-003	3.59960E-001	-1.12664E+000	3.57700E+000	10	...........
	41	0.56	8.96223E-001	5.99952E-003	0.00000E+000	5.37691E-003	3.59960E-001	-1.13638E+000	3.57700E+000	10	...........
	42	0.573333	9.02238E-001	5.99446E-003	0.00000E+000	5.40843E-003	3.59960E-001	-1.13148E+000	3.57700E+000	10	...........
	43	0.586667	9.08273E-001	5.99441E-003	0.00000E+000	5.44456E-003	3.59960E-001	-1.12661E+000	3.57700E+000	10	...........
	44	0.6	9.14334E-001	5.99650E-003	0.00000E+000	5.48280E-003	3.59960E-001	-1.13607E+000	3.57700E+000	10	...........
	45	0.613333	9.20366E-001	5.99539E-003	0.00000E+000	5.51795E-003	3.59960E-001	-1.13135E+000	3.57700E+000	10	...........
	46	0.626667	9.26354E-001	5.99646E-003	0.00000E+000	5.55485E-003	3.59960E-001	-1.12668E+000	3.57700E+000	10	...........
	47	0.64	9.32251E-001	5.99407E-003	0.00000E+000	5.58798E-003	3.59960E-001	-1.13637E+000	3.57700E+000	10	...........
	48	0.653333	9.38146E-001	5.99233E-003	0.00000E+000	5.62168E-003	3.59960E-001	-1.13124E+000	3.57700E+000	10	...........
	49	0.666667	9.43985E-001	5.99237E-003	0.00000E+000	5.65671E-003	3.59960E-001	-1.12651E+000	3.57700E+000	10	...........
	50	0.68	9.49830E-001	5.99881E-003	0.00000E+000	5.69785E-003	3.59960E-001	-1.13651E+000	3.57700E+000	10	...........
	51	0.693333	9.55591E-001	5.99518E-003	0.00000E+000	5.72894E-003	3.59960E-001	-1.13135E+000	3.57700E+000	10	...........
	52	0.706667	9.61298E-001	5.99250E-003	0.00000E+000	5.76058E-003	3.59960E-001	-1.12669E+000	3.57700E+000	10	...........
	53	0.72	9.66998E-001	5.99451E-003	0.00000E+000	5.79668E-003	3.59960E-001	-1.13644E+000	3.57700E+000	10	...........
	54	0.733333	9.72688E-001	5.99665E-003	0.00000E+000	5.83287E-003	3.59960E-001	-1.13115E+000	3.57700E+000	10	...........
	55	0.746667	9.78335E-001	5.99448E-003	0.00000E+000	5.86461E-003	3.59960E-001	-1.12647E+000	3.57700E+000	10	...........
	56	0.76	9.83871E-001	5.99591E-003	0.00000E+000	5.89920E-003	3.59960E-001	-1.13630E+000	3.57700E+000	10	...........
	57	0.773333	9.89380E-001	5.99184E-003	0.00000E+000	5.92821E-003	3.59960E-001	-1.13080E+000	3.57700E+000	10	...........
	58	0.786667	9.94878E-001	5.99365E-003	0.00000E+000	5.96295E-003	3.59960E-001	-1.12621E+000	3.57700E+000	10	...........
	59	0.793333	9.98986E-001	5.99997E-003	0.00000E+000	5.99388E-003	3.59960E-001	-1.14048E+000	3.57700E+000	10	...........
STARTTIMEOFFSET	QUANT	729.5901	Start Time Offset (s)