File: Data/CV_CRGO300517_1/PWRCCD_CRGO300517_1/CHARGE_DISCHARGE/CHARGE_#74.DTA
EXPLAIN
TAG	PWR800_CHARGE
TITLE	LABEL	PWR Cyclic Charge Discharge (Cell) - Charge Step	Test &Identifier
DATE	LABEL	22-6-2017	Date
TIME	LABEL	15:38:21	Time
NOTES	NOTES	3	&Notes...
	supercap test cell
	0.6mg
	6M KOH
PSTAT	PSTAT	IFC5000-01520	Potentiostat
CAPACITY	QUANT	1.00000E-003	Capacity (A-hr)
CELLTYPE	SELECTOR	1	&Cell Type
WORKINGCONNECTION	SELECTOR	0	&Working Lead
MAXCHARGETIME	VARIABLEANDUNITS	1.00000E+002	s	1.00000E+002	second(s)	Max &Charge Time
CHARGECURRENT	QUANT	6.00000E-003	&Charge Current (A)
VOLTAGEFINISH	TWOPARAM	F	1.00000E-003	3.60000E+003	&Voltage Finish	 I (A) < 	Max Time(s)
SAMPLETIME	QUANT	1.00000E-002	Sa&mple Period (s)
CHARGESTOPAT1	MULTIPARAM	4	1.00000E+000	Charge Stop At &1	Voltage > Limit	V
CHARGESTOPAT2	MULTIPARAM	0	0.00000E+000	Charge Stop At &2	None	N/A
AESBHCSELECTOR	TOGGLE	F	Save Both Half Cells
IRCOMP	TOGGLE	F	IR &Measure
EOC	QUANT	0	Open Circuit (V)
SEQUENCER	TOGGLE	TRUE	Run as Sequence
PSTATMODEL	IQUANT	53	Pstat Model
PSTATSECTION	LABEL	IFC5000-01520	Pstat Section
PSTATSERIALNO	LABEL	01520	Pstat Serial Number
CTRLMODE	IQUANT	0	Control Mode
ELECTROMETER	IQUANT	1	RE=0 or CS=1
IESTAB	IQUANT	0	I/E Stability
CASPEED	IQUANT	4	Control Amp Speed
CONVENTION	IQUANT	1	Current Convention
ICHRANGE	IQUANT	2	Ich Range
ICHRANGEMODE	TOGGLE	T	Ich Auto Range
ICHOFFSETENABLE	TOGGLE	F	Ich Offset Enable
ICHOFFSET	QUANT	0	Ich Offset (V)
ICHFILTER	IQUANT	1	Ich Filter
VCHRANGE	IQUANT	2	Vch Range
VCHRANGEMODE	TOGGLE	T	Vch Auto Range
VCHOFFSETENABLE	TOGGLE	F	Vch Offset Enable
VCHOFFSET	QUANT	0	Vch Offset (V)
VCHFILTER	IQUANT	1	Vch Filter
IERANGELOWERLIMIT	IQUANT	9	I/E Range Lower Limit
IERANGEMODE	TOGGLE	F	I/E AutoRange
IERANGE	IQUANT	10	I/E Range
ACHSELECT	IQUANT	1	Ach Select
ACHRANGE	IQUANT	2	Ach Range
ACHOFFSETENABLE	TOGGLE	F	Ach Offset Enable
ACHOFFSET	QUANT	0	Ach Offset (V)
ACHFILTER	IQUANT	1	Ach Filter
CABLEID	IQUANT	14	Cable ID
DCCALDATE	LABEL	20-10-2016	DC Calibration Date
ACCALDATE	LABEL	12/3/2015	AC Calibration Date
FRAMEWORKVERSION	QUANT	7.01	Framework Version
INSTRUMENTVERSION	LABEL	4.00	Instrument Version
CURVE	TABLE	72
	Pt	T	Vf	Im	Vu	Pwr	Sig	Ach	Temp	IERange	Over
	#	s	V	A	V	W	V	V	deg C	#	bits
	0	0.013333	5.83281E-001	5.99255E-003	0.00000E+000	3.49534E-003	3.59960E-001	-1.06042E+000	3.57730E+000	10	...........
	1	0.026667	5.91409E-001	5.99153E-003	0.00000E+000	3.54344E-003	3.59960E-001	-1.05030E+000	3.57730E+000	10	...........
	2	0.04	5.98862E-001	5.99421E-003	0.00000E+000	3.58970E-003	3.59960E-001	-1.05534E+000	3.57730E+000	10	...........
	3	0.053333	6.05912E-001	5.99331E-003	0.00000E+000	3.63142E-003	3.59960E-001	-1.06035E+000	3.57730E+000	10	...........
	4	0.066667	6.12701E-001	5.99378E-003	0.00000E+000	3.67239E-003	3.59960E-001	-1.05033E+000	3.57730E+000	10	...........
	5	0.08	6.19396E-001	5.99429E-003	0.00000E+000	3.71284E-003	3.59960E-001	-1.05526E+000	3.57730E+000	10	...........
	6	0.093333	6.25883E-001	5.99390E-003	0.00000E+000	3.75148E-003	3.59960E-001	-1.06024E+000	3.57730E+000	10	...........
	7	0.106667	6.32234E-001	5.99300E-003	0.00000E+000	3.78898E-003	3.59960E-001	-1.05026E+000	3.57730E+000	10	...........
	8	0.12	6.38502E-001	5.98965E-003	0.00000E+000	3.82440E-003	3.59960E-001	-1.05519E+000	3.57730E+000	10	...........
	9	0.133333	6.44770E-001	5.99435E-003	0.00000E+000	3.86498E-003	3.59960E-001	-1.06019E+000	3.57730E+000	10	...........
	10	0.146667	6.50956E-001	5.99569E-003	0.00000E+000	3.90293E-003	3.59960E-001	-1.05004E+000	3.57730E+000	10	...........
	11	0.16	6.57090E-001	5.99320E-003	0.00000E+000	3.93807E-003	3.59960E-001	-1.05489E+000	3.57730E+000	10	...........
	12	0.173333	6.63144E-001	5.99284E-003	0.00000E+000	3.97412E-003	3.59960E-001	-1.06017E+000	3.57730E+000	10	...........
	13	0.186667	6.69228E-001	5.99247E-003	0.00000E+000	4.01033E-003	3.59960E-001	-1.05033E+000	3.57730E+000	10	...........
	14	0.2	6.75239E-001	5.99298E-003	0.00000E+000	4.04669E-003	3.59960E-001	-1.05500E+000	3.57730E+000	10	...........
	15	0.213333	6.81202E-001	5.99676E-003	0.00000E+000	4.08501E-003	3.59960E-001	-1.06007E+000	3.57730E+000	10	...........
	16	0.226667	6.87116E-001	5.98750E-003	0.00000E+000	4.11411E-003	3.59960E-001	-1.04997E+000	3.57730E+000	10	...........
	17	0.24	6.93074E-001	5.99340E-003	0.00000E+000	4.15387E-003	3.59960E-001	-1.05478E+000	3.57730E+000	10	...........
	18	0.253333	6.98978E-001	5.99374E-003	0.00000E+000	4.18949E-003	3.59960E-001	-1.06017E+000	3.57730E+000	10	...........
	19	0.266667	7.04899E-001	5.99277E-003	0.00000E+000	4.22429E-003	3.59960E-001	-1.04957E+000	3.57730E+000	10	...........
	20	0.28	7.10768E-001	5.99382E-003	0.00000E+000	4.26022E-003	3.59960E-001	-1.05427E+000	3.57730E+000	10	...........
	21	0.293333	7.16672E-001	5.99400E-003	0.00000E+000	4.29573E-003	3.59960E-001	-1.05950E+000	3.57730E+000	10	...........
	22	0.306667	7.22536E-001	5.99356E-003	0.00000E+000	4.33057E-003	3.59960E-001	-1.04945E+000	3.57730E+000	10	...........
	23	0.32	7.28385E-001	5.99130E-003	0.00000E+000	4.36397E-003	3.59960E-001	-1.05447E+000	3.57730E+000	10	...........
	24	0.333333	7.34242E-001	5.99672E-003	0.00000E+000	4.40305E-003	3.59960E-001	-1.05997E+000	3.57730E+000	10	...........
	25	0.346667	7.40087E-001	5.99057E-003	0.00000E+000	4.43354E-003	3.59960E-001	-1.04981E+000	3.57730E+000	10	...........
	26	0.36	7.45940E-001	5.99550E-003	0.00000E+000	4.47229E-003	3.59960E-001	-1.05419E+000	3.57730E+000	10	...........
	27	0.373333	7.51793E-001	5.99497E-003	0.00000E+000	4.50698E-003	3.59960E-001	-1.05986E+000	3.57730E+000	10	...........
	28	0.386667	7.57651E-001	5.99367E-003	0.00000E+000	4.54110E-003	3.59960E-001	-1.04952E+000	3.57730E+000	10	...........
	29	0.4	7.63448E-001	5.99260E-003	0.00000E+000	4.57504E-003	3.59960E-001	-1.05436E+000	3.57730E+000	10	...........
	30	0.413333	7.69306E-001	5.99199E-003	0.00000E+000	4.60967E-003	3.59960E-001	-1.05980E+000	3.57730E+000	10	...........
	31	0.426667	7.75138E-001	5.99615E-003	0.00000E+000	4.64784E-003	3.59960E-001	-1.04958E+000	3.57730E+000	10	...........
	32	0.44	7.81006E-001	5.99783E-003	0.00000E+000	4.68434E-003	3.59960E-001	-1.05414E+000	3.57730E+000	10	...........
	33	0.453333	7.86839E-001	5.99362E-003	0.00000E+000	4.71602E-003	3.59960E-001	-1.05994E+000	3.57730E+000	10	...........
	34	0.466667	7.92662E-001	5.99757E-003	0.00000E+000	4.75405E-003	3.59960E-001	-1.04963E+000	3.57730E+000	10	...........
	35	0.48	7.98489E-001	5.99717E-003	0.00000E+000	4.78868E-003	3.59960E-001	-1.05412E+000	3.57730E+000	10	...........
	36	0.493333	8.04282E-001	5.99279E-003	0.00000E+000	4.81989E-003	3.59960E-001	-1.05992E+000	3.57730E+000	10	...........
	37	0.506667	8.10104E-001	5.98996E-003	0.00000E+000	4.85249E-003	3.59960E-001	-1.04983E+000	3.57730E+000	10	...........
	38	0.52	8.15887E-001	5.99387E-003	0.00000E+000	4.89033E-003	3.59960E-001	-1.05436E+000	3.57730E+000	10	...........
	39	0.533333	8.21739E-001	5.99221E-003	0.00000E+000	4.92403E-003	3.59960E-001	-1.06006E+000	3.57730E+000	10	...........
	40	0.546667	8.27540E-001	5.99342E-003	0.00000E+000	4.95979E-003	3.59960E-001	-1.04969E+000	3.57730E+000	10	...........
	41	0.56	8.33297E-001	5.99348E-003	0.00000E+000	4.99435E-003	3.59960E-001	-1.05412E+000	3.57730E+000	10	...........
	42	0.573333	8.39082E-001	5.99309E-003	0.00000E+000	5.02870E-003	3.59960E-001	-1.06002E+000	3.57730E+000	10	...........
	43	0.586667	8.44903E-001	5.99058E-003	0.00000E+000	5.06146E-003	3.59960E-001	-1.04954E+000	3.57730E+000	10	...........
	44	0.6	8.50719E-001	5.99450E-003	0.00000E+000	5.09963E-003	3.59960E-001	-1.05394E+000	3.57730E+000	10	...........
	45	0.613333	8.56493E-001	5.99588E-003	0.00000E+000	5.13543E-003	3.59960E-001	-1.05965E+000	3.57730E+000	10	...........
	46	0.626667	8.62268E-001	5.99664E-003	0.00000E+000	5.17071E-003	3.59960E-001	-1.04926E+000	3.57730E+000	10	...........
	47	0.64	8.68039E-001	5.99777E-003	0.00000E+000	5.20629E-003	3.59960E-001	-1.05387E+000	3.57730E+000	10	...........
	48	0.653333	8.73821E-001	5.99026E-003	0.00000E+000	5.23441E-003	3.59960E-001	-1.05979E+000	3.57730E+000	10	...........
	49	0.666667	8.79582E-001	5.99308E-003	0.00000E+000	5.27141E-003	3.59960E-001	-1.04923E+000	3.57730E+000	10	...........
	50	0.68	8.85339E-001	5.99310E-003	0.00000E+000	5.30593E-003	3.59960E-001	-1.05362E+000	3.57730E+000	10	...........
	51	0.693333	8.91047E-001	5.99002E-003	0.00000E+000	5.33739E-003	3.59960E-001	-1.05971E+000	3.57730E+000	10	...........
	52	0.706667	8.96768E-001	5.99692E-003	0.00000E+000	5.37785E-003	3.59960E-001	-1.04944E+000	3.57730E+000	10	...........
	53	0.72	9.02493E-001	5.99421E-003	0.00000E+000	5.40973E-003	3.59960E-001	-1.05377E+000	3.57730E+000	10	...........
	54	0.733333	9.08200E-001	5.99453E-003	0.00000E+000	5.44423E-003	3.59960E-001	-1.05978E+000	3.57835E+000	10	...........
	55	0.746667	9.13838E-001	5.99420E-003	0.00000E+000	5.47773E-003	3.59960E-001	-1.04921E+000	3.57850E+000	10	...........
	56	0.76	9.19522E-001	5.99448E-003	0.00000E+000	5.51205E-003	3.59960E-001	-1.05344E+000	3.57850E+000	10	...........
	57	0.773333	9.25194E-001	5.99519E-003	0.00000E+000	5.54671E-003	3.59960E-001	-1.05962E+000	3.57850E+000	10	...........
	58	0.786667	9.30808E-001	5.99165E-003	0.00000E+000	5.57708E-003	3.59960E-001	-1.04933E+000	3.57850E+000	10	...........
	59	0.8	9.36392E-001	5.99469E-003	0.00000E+000	5.61338E-003	3.59960E-001	-1.05350E+000	3.57850E+000	10	...........
	60	0.813333	9.41975E-001	5.99014E-003	0.00000E+000	5.64256E-003	3.59960E-001	-1.05980E+000	3.57850E+000	10	...........
	61	0.826667	9.47592E-001	5.99629E-003	0.00000E+000	5.68204E-003	3.59960E-001	-1.04917E+000	3.57850E+000	10	...........
	62	0.84	9.53169E-001	5.99189E-003	0.00000E+000	5.71129E-003	3.59960E-001	-1.05352E+000	3.57850E+000	10	...........
	63	0.853333	9.58720E-001	5.99382E-003	0.00000E+000	5.74640E-003	3.59960E-001	-1.05977E+000	3.57850E+000	10	...........
	64	0.866667	9.64181E-001	5.99275E-003	0.00000E+000	5.77809E-003	3.59960E-001	-1.04923E+000	3.57850E+000	10	...........
	65	0.88	9.69643E-001	5.99062E-003	0.00000E+000	5.80876E-003	3.59960E-001	-1.05335E+000	3.57850E+000	10	...........
	66	0.893333	9.75130E-001	5.99263E-003	0.00000E+000	5.84360E-003	3.59960E-001	-1.05961E+000	3.57850E+000	10	...........
	67	0.906667	9.80523E-001	5.99395E-003	0.00000E+000	5.87720E-003	3.59960E-001	-1.04886E+000	3.57850E+000	10	...........
	68	0.92	9.85886E-001	5.99459E-003	0.00000E+000	5.90999E-003	3.59960E-001	-1.05318E+000	3.57850E+000	10	...........
	69	0.933333	9.91184E-001	5.99188E-003	0.00000E+000	5.93906E-003	3.59960E-001	-1.05951E+000	3.57850E+000	10	...........
	70	0.946667	9.96544E-001	5.99819E-003	0.00000E+000	5.97746E-003	3.59960E-001	-1.04896E+000	3.57850E+000	10	...........
	71	0.95	9.99894E-001	5.99642E-003	0.00000E+000	5.99578E-003	3.59960E-001	-1.06526E+000	3.57850E+000	10	...........
STARTTIMEOFFSET	QUANT	146.6483	Start Time Offset (s)