File: Data/CV_CRGO300517_1/PWRCCD_CRGO300517_1/CHARGE_DISCHARGE/CHARGE_#391.DTA
EXPLAIN
TAG	PWR800_CHARGE
TITLE	LABEL	PWR Cyclic Charge Discharge (Cell) - Charge Step	Test &Identifier
DATE	LABEL	22-6-2017	Date
TIME	LABEL	15:51:37	Time
NOTES	NOTES	3	&Notes...
	supercap test cell
	0.6mg
	6M KOH
PSTAT	PSTAT	IFC5000-01520	Potentiostat
CAPACITY	QUANT	1.00000E-003	Capacity (A-hr)
CELLTYPE	SELECTOR	1	&Cell Type
WORKINGCONNECTION	SELECTOR	0	&Working Lead
MAXCHARGETIME	VARIABLEANDUNITS	1.00000E+002	s	1.00000E+002	second(s)	Max &Charge Time
CHARGECURRENT	QUANT	6.00000E-003	&Charge Current (A)
VOLTAGEFINISH	TWOPARAM	F	1.00000E-003	3.60000E+003	&Voltage Finish	 I (A) < 	Max Time(s)
SAMPLETIME	QUANT	1.00000E-002	Sa&mple Period (s)
CHARGESTOPAT1	MULTIPARAM	4	1.00000E+000	Charge Stop At &1	Voltage > Limit	V
CHARGESTOPAT2	MULTIPARAM	0	0.00000E+000	Charge Stop At &2	None	N/A
AESBHCSELECTOR	TOGGLE	F	Save Both Half Cells
IRCOMP	TOGGLE	F	IR &Measure
EOC	QUANT	0	Open Circuit (V)
SEQUENCER	TOGGLE	TRUE	Run as Sequence
PSTATMODEL	IQUANT	53	Pstat Model
PSTATSECTION	LABEL	IFC5000-01520	Pstat Section
PSTATSERIALNO	LABEL	01520	Pstat Serial Number
CTRLMODE	IQUANT	0	Control Mode
ELECTROMETER	IQUANT	1	RE=0 or CS=1
IESTAB	IQUANT	0	I/E Stability
CASPEED	IQUANT	4	Control Amp Speed
CONVENTION	IQUANT	1	Current Convention
ICHRANGE	IQUANT	2	Ich Range
ICHRANGEMODE	TOGGLE	T	Ich Auto Range
ICHOFFSETENABLE	TOGGLE	F	Ich Offset Enable
ICHOFFSET	QUANT	0	Ich Offset (V)
ICHFILTER	IQUANT	1	Ich Filter
VCHRANGE	IQUANT	2	Vch Range
VCHRANGEMODE	TOGGLE	T	Vch Auto Range
VCHOFFSETENABLE	TOGGLE	F	Vch Offset Enable
VCHOFFSET	QUANT	0	Vch Offset (V)
VCHFILTER	IQUANT	1	Vch Filter
IERANGELOWERLIMIT	IQUANT	9	I/E Range Lower Limit
IERANGEMODE	TOGGLE	F	I/E AutoRange
IERANGE	IQUANT	10	I/E Range
ACHSELECT	IQUANT	1	Ach Select
ACHRANGE	IQUANT	2	Ach Range
ACHOFFSETENABLE	TOGGLE	F	Ach Offset Enable
ACHOFFSET	QUANT	0	Ach Offset (V)
ACHFILTER	IQUANT	1	Ach Filter
CABLEID	IQUANT	14	Cable ID
DCCALDATE	LABEL	20-10-2016	DC Calibration Date
ACCALDATE	LABEL	12/3/2015	AC Calibration Date
FRAMEWORKVERSION	QUANT	7.01	Framework Version
INSTRUMENTVERSION	LABEL	4.00	Instrument Version
CURVE	TABLE	60
	Pt	T	Vf	Im	Vu	Pwr	Sig	Ach	Temp	IERange	Over
	#	s	V	A	V	W	V	V	deg C	#	bits
	0	0.013333	6.24693E-001	5.99602E-003	0.00000E+000	3.74567E-003	3.59960E-001	-1.12102E+000	3.57740E+000	10	...........
	1	0.026667	6.33382E-001	5.99111E-003	0.00000E+000	3.79466E-003	3.59960E-001	-1.12166E+000	3.57740E+000	10	...........
	2	0.04	6.41420E-001	5.99501E-003	0.00000E+000	3.84532E-003	3.59960E-001	-1.13145E+000	3.57740E+000	10	...........
	3	0.053333	6.49034E-001	5.99041E-003	0.00000E+000	3.88798E-003	3.59960E-001	-1.12073E+000	3.57740E+000	10	...........
	4	0.066667	6.56354E-001	5.99248E-003	0.00000E+000	3.93319E-003	3.59960E-001	-1.12114E+000	3.57740E+000	10	...........
	5	0.08	6.63483E-001	5.99165E-003	0.00000E+000	3.97536E-003	3.59960E-001	-1.13159E+000	3.57740E+000	10	...........
	6	0.093333	6.70502E-001	5.99295E-003	0.00000E+000	4.01828E-003	3.59960E-001	-1.12092E+000	3.57740E+000	10	...........
	7	0.106667	6.77450E-001	5.99694E-003	0.00000E+000	4.06263E-003	3.59960E-001	-1.12117E+000	3.57740E+000	10	...........
	8	0.12	6.84216E-001	5.99464E-003	0.00000E+000	4.10163E-003	3.59960E-001	-1.13105E+000	3.57740E+000	10	...........
	9	0.133333	6.90946E-001	5.99349E-003	0.00000E+000	4.14118E-003	3.59960E-001	-1.12069E+000	3.57740E+000	10	...........
	10	0.146667	6.97628E-001	5.99101E-003	0.00000E+000	4.17950E-003	3.59960E-001	-1.12115E+000	3.57740E+000	10	...........
	11	0.16	7.04235E-001	5.99580E-003	0.00000E+000	4.22245E-003	3.59960E-001	-1.13140E+000	3.57740E+000	10	...........
	12	0.173333	7.10820E-001	5.99655E-003	0.00000E+000	4.26246E-003	3.59960E-001	-1.12048E+000	3.57740E+000	10	...........
	13	0.186667	7.17413E-001	5.99373E-003	0.00000E+000	4.29998E-003	3.59960E-001	-1.12093E+000	3.57740E+000	10	...........
	14	0.2	7.23966E-001	5.99384E-003	0.00000E+000	4.33934E-003	3.59960E-001	-1.13105E+000	3.57740E+000	10	...........
	15	0.213333	7.30399E-001	5.99597E-003	0.00000E+000	4.37945E-003	3.59960E-001	-1.12038E+000	3.57740E+000	10	...........
	16	0.226667	7.36877E-001	5.99119E-003	0.00000E+000	4.41477E-003	3.59960E-001	-1.12133E+000	3.57740E+000	10	...........
	17	0.24	7.43343E-001	5.99191E-003	0.00000E+000	4.45405E-003	3.59960E-001	-1.13108E+000	3.57740E+000	10	...........
	18	0.253333	7.49783E-001	5.99258E-003	0.00000E+000	4.49313E-003	3.59960E-001	-1.12034E+000	3.57740E+000	10	...........
	19	0.266667	7.56235E-001	5.99484E-003	0.00000E+000	4.53351E-003	3.59960E-001	-1.12130E+000	3.57740E+000	10	...........
	20	0.28	7.62650E-001	5.99245E-003	0.00000E+000	4.57014E-003	3.59960E-001	-1.13114E+000	3.57740E+000	10	...........
	21	0.293333	7.69074E-001	5.99399E-003	0.00000E+000	4.60982E-003	3.59960E-001	-1.12049E+000	3.57740E+000	10	...........
	22	0.306667	7.75475E-001	5.99452E-003	0.00000E+000	4.64860E-003	3.59960E-001	-1.12135E+000	3.57740E+000	10	...........
	23	0.32	7.81836E-001	5.99947E-003	0.00000E+000	4.69060E-003	3.59960E-001	-1.13073E+000	3.57740E+000	10	...........
	24	0.333333	7.88183E-001	5.99516E-003	0.00000E+000	4.72528E-003	3.59960E-001	-1.11989E+000	3.57740E+000	10	...........
	25	0.346667	7.94553E-001	5.99240E-003	0.00000E+000	4.76128E-003	3.59960E-001	-1.12080E+000	3.57740E+000	10	...........
	26	0.36	8.00852E-001	5.99535E-003	0.00000E+000	4.80138E-003	3.59960E-001	-1.13071E+000	3.57740E+000	10	...........
	27	0.373333	8.07168E-001	5.99847E-003	0.00000E+000	4.84178E-003	3.59960E-001	-1.11983E+000	3.57740E+000	10	...........
	28	0.386667	8.13426E-001	5.99127E-003	0.00000E+000	4.87345E-003	3.59960E-001	-1.12051E+000	3.57740E+000	10	...........
	29	0.4	8.19750E-001	5.99372E-003	0.00000E+000	4.91335E-003	3.59960E-001	-1.13032E+000	3.57740E+000	10	...........
	30	0.413333	8.25995E-001	5.99286E-003	0.00000E+000	4.95007E-003	3.59960E-001	-1.11983E+000	3.57740E+000	10	...........
	31	0.426667	8.32261E-001	5.99440E-003	0.00000E+000	4.98890E-003	3.59960E-001	-1.12086E+000	3.57740E+000	10	...........
	32	0.44	8.38495E-001	5.99198E-003	0.00000E+000	5.02425E-003	3.59960E-001	-1.13043E+000	3.57740E+000	10	...........
	33	0.453333	8.44772E-001	5.99556E-003	0.00000E+000	5.06488E-003	3.59960E-001	-1.11942E+000	3.57740E+000	10	...........
	34	0.466667	8.50976E-001	5.99382E-003	0.00000E+000	5.10060E-003	3.59960E-001	-1.12031E+000	3.57740E+000	10	...........
	35	0.48	8.57170E-001	5.99570E-003	0.00000E+000	5.13933E-003	3.59960E-001	-1.13034E+000	3.57740E+000	10	...........
	36	0.493333	8.63360E-001	5.99664E-003	0.00000E+000	5.17726E-003	3.59960E-001	-1.11981E+000	3.57740E+000	10	...........
	37	0.506667	8.69542E-001	5.99401E-003	0.00000E+000	5.21204E-003	3.59960E-001	-1.12060E+000	3.57740E+000	10	...........
	38	0.52	8.75678E-001	5.99488E-003	0.00000E+000	5.24958E-003	3.59960E-001	-1.13010E+000	3.57740E+000	10	...........
	39	0.533333	8.81835E-001	5.99449E-003	0.00000E+000	5.28615E-003	3.59960E-001	-1.11933E+000	3.57740E+000	10	...........
	40	0.546667	8.87923E-001	5.99083E-003	0.00000E+000	5.31939E-003	3.59960E-001	-1.12058E+000	3.57740E+000	10	...........
	41	0.56	8.94012E-001	5.99413E-003	0.00000E+000	5.35882E-003	3.59960E-001	-1.13039E+000	3.57740E+000	10	...........
	42	0.573333	9.00041E-001	5.99415E-003	0.00000E+000	5.39498E-003	3.59960E-001	-1.11976E+000	3.57740E+000	10	...........
	43	0.586667	9.06088E-001	5.99867E-003	0.00000E+000	5.43533E-003	3.59960E-001	-1.12058E+000	3.57740E+000	10	...........
	44	0.6	9.12100E-001	5.99486E-003	0.00000E+000	5.46791E-003	3.59960E-001	-1.12995E+000	3.57740E+000	10	...........
	45	0.613333	9.18066E-001	5.99258E-003	0.00000E+000	5.50159E-003	3.59960E-001	-1.11952E+000	3.57740E+000	10	...........
	46	0.626667	9.24096E-001	5.99038E-003	0.00000E+000	5.53569E-003	3.59960E-001	-1.12065E+000	3.57740E+000	10	...........
	47	0.64	9.30026E-001	5.99622E-003	0.00000E+000	5.57664E-003	3.59960E-001	-1.12991E+000	3.57740E+000	10	...........
	48	0.653333	9.35870E-001	5.99617E-003	0.00000E+000	5.61164E-003	3.59960E-001	-1.11916E+000	3.57740E+000	10	...........
	49	0.666667	9.41697E-001	5.99157E-003	0.00000E+000	5.64225E-003	3.59960E-001	-1.12021E+000	3.57740E+000	10	...........
	50	0.68	9.47580E-001	5.99466E-003	0.00000E+000	5.68041E-003	3.59960E-001	-1.12973E+000	3.57740E+000	10	...........
	51	0.693333	9.53370E-001	5.99595E-003	0.00000E+000	5.71636E-003	3.59960E-001	-1.11929E+000	3.57740E+000	10	...........
	52	0.706667	9.59123E-001	5.98963E-003	0.00000E+000	5.74479E-003	3.59960E-001	-1.12035E+000	3.57740E+000	10	...........
	53	0.72	9.64825E-001	5.99780E-003	0.00000E+000	5.78682E-003	3.59960E-001	-1.12962E+000	3.57740E+000	10	...........
	54	0.733333	9.70488E-001	5.99231E-003	0.00000E+000	5.81547E-003	3.59960E-001	-1.11892E+000	3.57740E+000	10	...........
	55	0.746667	9.76161E-001	5.99374E-003	0.00000E+000	5.85086E-003	3.59960E-001	-1.12031E+000	3.57740E+000	10	...........
	56	0.76	9.81760E-001	5.99798E-003	0.00000E+000	5.88858E-003	3.59960E-001	-1.12985E+000	3.57740E+000	10	...........
	57	0.773333	9.87256E-001	5.99269E-003	0.00000E+000	5.91631E-003	3.59960E-001	-1.11911E+000	3.57740E+000	10	...........
	58	0.786667	9.92730E-001	5.99524E-003	0.00000E+000	5.95166E-003	3.59960E-001	-1.12000E+000	3.57740E+000	10	...........
	59	0.8	9.98205E-001	5.99427E-003	0.00000E+000	5.98351E-003	3.59960E-001	-1.12942E+000	3.57740E+000	10	...........
STARTTIMEOFFSET	QUANT	688.36	Start Time Offset (s)