File: Data/CV_CRGO300517_1/PWRCCD_CRGO300517_1/CHARGE_DISCHARGE/CHARGE_#3.DTA
EXPLAIN
TAG	PWR800_CHARGE
TITLE	LABEL	PWR Cyclic Charge Discharge (Cell) - Charge Step	Test &Identifier
DATE	LABEL	22-6-2017	Date
TIME	LABEL	15:35:02	Time
NOTES	NOTES	3	&Notes...
	supercap test cell
	0.6mg
	6M KOH
PSTAT	PSTAT	IFC5000-01520	Potentiostat
CAPACITY	QUANT	1.00000E-003	Capacity (A-hr)
CELLTYPE	SELECTOR	1	&Cell Type
WORKINGCONNECTION	SELECTOR	0	&Working Lead
MAXCHARGETIME	VARIABLEANDUNITS	1.00000E+002	s	1.00000E+002	second(s)	Max &Charge Time
CHARGECURRENT	QUANT	6.00000E-003	&Charge Current (A)
VOLTAGEFINISH	TWOPARAM	F	1.00000E-003	3.60000E+003	&Voltage Finish	 I (A) < 	Max Time(s)
SAMPLETIME	QUANT	1.00000E-002	Sa&mple Period (s)
CHARGESTOPAT1	MULTIPARAM	4	1.00000E+000	Charge Stop At &1	Voltage > Limit	V
CHARGESTOPAT2	MULTIPARAM	0	0.00000E+000	Charge Stop At &2	None	N/A
AESBHCSELECTOR	TOGGLE	F	Save Both Half Cells
IRCOMP	TOGGLE	F	IR &Measure
EOC	QUANT	0	Open Circuit (V)
SEQUENCER	TOGGLE	TRUE	Run as Sequence
PSTATMODEL	IQUANT	53	Pstat Model
PSTATSECTION	LABEL	IFC5000-01520	Pstat Section
PSTATSERIALNO	LABEL	01520	Pstat Serial Number
CTRLMODE	IQUANT	0	Control Mode
ELECTROMETER	IQUANT	1	RE=0 or CS=1
IESTAB	IQUANT	0	I/E Stability
CASPEED	IQUANT	4	Control Amp Speed
CONVENTION	IQUANT	1	Current Convention
ICHRANGE	IQUANT	2	Ich Range
ICHRANGEMODE	TOGGLE	T	Ich Auto Range
ICHOFFSETENABLE	TOGGLE	F	Ich Offset Enable
ICHOFFSET	QUANT	0	Ich Offset (V)
ICHFILTER	IQUANT	1	Ich Filter
VCHRANGE	IQUANT	2	Vch Range
VCHRANGEMODE	TOGGLE	T	Vch Auto Range
VCHOFFSETENABLE	TOGGLE	F	Vch Offset Enable
VCHOFFSET	QUANT	0	Vch Offset (V)
VCHFILTER	IQUANT	1	Vch Filter
IERANGELOWERLIMIT	IQUANT	9	I/E Range Lower Limit
IERANGEMODE	TOGGLE	F	I/E AutoRange
IERANGE	IQUANT	10	I/E Range
ACHSELECT	IQUANT	1	Ach Select
ACHRANGE	IQUANT	2	Ach Range
ACHOFFSETENABLE	TOGGLE	F	Ach Offset Enable
ACHOFFSET	QUANT	0	Ach Offset (V)
ACHFILTER	IQUANT	1	Ach Filter
CABLEID	IQUANT	14	Cable ID
DCCALDATE	LABEL	20-10-2016	DC Calibration Date
ACCALDATE	LABEL	12/3/2015	AC Calibration Date
FRAMEWORKVERSION	QUANT	7.01	Framework Version
INSTRUMENTVERSION	LABEL	4.00	Instrument Version
CURVE	TABLE	83
	Pt	T	Vf	Im	Vu	Pwr	Sig	Ach	Temp	IERange	Over
	#	s	V	A	V	W	V	V	deg C	#	bits
	0	0.013333	5.50414E-001	5.98955E-003	0.00000E+000	3.29673E-003	3.59960E-001	-9.99744E-001	3.57750E+000	10	...........
	1	0.026667	5.58256E-001	5.99425E-003	0.00000E+000	3.34632E-003	3.59960E-001	-1.00966E+000	3.57750E+000	10	...........
	2	0.04	5.65486E-001	5.99332E-003	0.00000E+000	3.38914E-003	3.59960E-001	-9.98392E-001	3.57750E+000	10	...........
	3	0.053333	5.72236E-001	5.99288E-003	0.00000E+000	3.42934E-003	3.59960E-001	-9.99564E-001	3.57750E+000	10	...........
	4	0.066667	5.78680E-001	5.99134E-003	0.00000E+000	3.46707E-003	3.59960E-001	-1.00946E+000	3.57750E+000	10	...........
	5	0.08	5.85009E-001	5.99665E-003	0.00000E+000	3.50810E-003	3.59960E-001	-9.98366E-001	3.57750E+000	10	...........
	6	0.093333	5.91205E-001	5.99389E-003	0.00000E+000	3.54362E-003	3.59960E-001	-9.99873E-001	3.57750E+000	10	...........
	7	0.106667	5.97190E-001	5.99656E-003	0.00000E+000	3.58108E-003	3.59960E-001	-1.00975E+000	3.57750E+000	10	...........
	8	0.12	6.03095E-001	5.99302E-003	0.00000E+000	3.61436E-003	3.59960E-001	-9.98308E-001	3.57750E+000	10	...........
	9	0.133333	6.08969E-001	5.99428E-003	0.00000E+000	3.65033E-003	3.59960E-001	-9.99489E-001	3.57750E+000	10	...........
	10	0.146667	6.14832E-001	5.99397E-003	0.00000E+000	3.68528E-003	3.59960E-001	-1.00937E+000	3.57750E+000	10	...........
	11	0.16	6.20547E-001	5.99730E-003	0.00000E+000	3.72161E-003	3.59960E-001	-9.98248E-001	3.57750E+000	10	...........
	12	0.173333	6.26252E-001	5.99297E-003	0.00000E+000	3.75311E-003	3.59960E-001	-9.99869E-001	3.57750E+000	10	...........
	13	0.186667	6.31853E-001	5.99456E-003	0.00000E+000	3.78768E-003	3.59960E-001	-1.00921E+000	3.57750E+000	10	...........
	14	0.2	6.37436E-001	5.99113E-003	0.00000E+000	3.81896E-003	3.59960E-001	-9.98173E-001	3.57750E+000	10	...........
	15	0.213333	6.43010E-001	5.99243E-003	0.00000E+000	3.85319E-003	3.59960E-001	-9.99591E-001	3.57750E+000	10	...........
	16	0.226667	6.48568E-001	5.99211E-003	0.00000E+000	3.88629E-003	3.59960E-001	-1.00939E+000	3.57750E+000	10	...........
	17	0.24	6.54077E-001	5.99277E-003	0.00000E+000	3.91973E-003	3.59960E-001	-9.98358E-001	3.57750E+000	10	...........
	18	0.253333	6.59556E-001	5.99445E-003	0.00000E+000	3.95367E-003	3.59960E-001	-9.99726E-001	3.57750E+000	10	...........
	19	0.266667	6.65056E-001	5.99230E-003	0.00000E+000	3.98522E-003	3.59960E-001	-1.00956E+000	3.57750E+000	10	...........
	20	0.28	6.70497E-001	5.99055E-003	0.00000E+000	4.01665E-003	3.59960E-001	-9.98327E-001	3.57750E+000	10	...........
	21	0.293333	6.75912E-001	5.99784E-003	0.00000E+000	4.05401E-003	3.59960E-001	-9.99894E-001	3.57750E+000	10	...........
	22	0.306667	6.81341E-001	5.99491E-003	0.00000E+000	4.08458E-003	3.59960E-001	-1.00955E+000	3.57750E+000	10	...........
	23	0.32	6.86727E-001	5.99373E-003	0.00000E+000	4.11606E-003	3.59960E-001	-9.98177E-001	3.57750E+000	10	...........
	24	0.333333	6.92158E-001	5.99434E-003	0.00000E+000	4.14903E-003	3.59960E-001	-9.99157E-001	3.57750E+000	10	...........
	25	0.346667	6.97577E-001	5.99320E-003	0.00000E+000	4.18072E-003	3.59960E-001	-1.00900E+000	3.57750E+000	10	...........
	26	0.36	7.02952E-001	5.99414E-003	0.00000E+000	4.21359E-003	3.59960E-001	-9.97767E-001	3.57750E+000	10	...........
	27	0.373333	7.08329E-001	5.99351E-003	0.00000E+000	4.24537E-003	3.59960E-001	-9.99254E-001	3.57750E+000	10	...........
	28	0.386667	7.13683E-001	5.99222E-003	0.00000E+000	4.27654E-003	3.59960E-001	-1.00908E+000	3.57750E+000	10	...........
	29	0.4	7.19088E-001	5.99298E-003	0.00000E+000	4.30948E-003	3.59960E-001	-9.97791E-001	3.57750E+000	10	...........
	30	0.413333	7.24451E-001	5.99224E-003	0.00000E+000	4.34108E-003	3.59960E-001	-9.99309E-001	3.57750E+000	10	...........
	31	0.426667	7.29757E-001	5.99434E-003	0.00000E+000	4.37441E-003	3.59960E-001	-1.00927E+000	3.57750E+000	10	...........
	32	0.44	7.35089E-001	5.99584E-003	0.00000E+000	4.40747E-003	3.59960E-001	-9.97904E-001	3.57750E+000	10	...........
	33	0.453333	7.40448E-001	5.99460E-003	0.00000E+000	4.43869E-003	3.59960E-001	-9.99332E-001	3.57750E+000	10	...........
	34	0.466667	7.45820E-001	5.99265E-003	0.00000E+000	4.46944E-003	3.59960E-001	-1.00895E+000	3.57750E+000	10	...........
	35	0.48	7.51163E-001	5.99367E-003	0.00000E+000	4.50222E-003	3.59960E-001	-9.97587E-001	3.57750E+000	10	...........
	36	0.493333	7.56529E-001	5.99408E-003	0.00000E+000	4.53470E-003	3.59960E-001	-9.99169E-001	3.57750E+000	10	...........
	37	0.506667	7.61870E-001	5.99559E-003	0.00000E+000	4.56785E-003	3.59960E-001	-1.00910E+000	3.57750E+000	10	...........
	38	0.52	7.67203E-001	5.99396E-003	0.00000E+000	4.59858E-003	3.59960E-001	-9.97788E-001	3.57750E+000	10	...........
	39	0.533333	7.72600E-001	5.99518E-003	0.00000E+000	4.63187E-003	3.59960E-001	-9.99242E-001	3.57750E+000	10	...........
	40	0.546667	7.77903E-001	5.99292E-003	0.00000E+000	4.66191E-003	3.59960E-001	-1.00905E+000	3.57750E+000	10	...........
	41	0.56	7.83289E-001	5.99617E-003	0.00000E+000	4.69673E-003	3.59960E-001	-9.97869E-001	3.57750E+000	10	...........
	42	0.573333	7.88596E-001	5.99226E-003	0.00000E+000	4.72547E-003	3.59960E-001	-9.99379E-001	3.57750E+000	10	...........
	43	0.586667	7.93984E-001	5.99220E-003	0.00000E+000	4.75771E-003	3.59960E-001	-1.00909E+000	3.57750E+000	10	...........
	44	0.6	7.99335E-001	5.99396E-003	0.00000E+000	4.79118E-003	3.59960E-001	-9.97767E-001	3.57750E+000	10	...........
	45	0.613333	8.04669E-001	5.99455E-003	0.00000E+000	4.82363E-003	3.59960E-001	-9.99433E-001	3.57874E+000	10	...........
	46	0.626667	8.10009E-001	5.99343E-003	0.00000E+000	4.85473E-003	3.59960E-001	-1.00906E+000	3.58080E+000	10	...........
	47	0.64	8.15376E-001	5.99221E-003	0.00000E+000	4.88590E-003	3.59960E-001	-9.97999E-001	3.58080E+000	10	...........
	48	0.653333	8.20748E-001	5.99671E-003	0.00000E+000	4.92179E-003	3.59960E-001	-9.98919E-001	3.58080E+000	10	...........
	49	0.666667	8.26091E-001	5.99531E-003	0.00000E+000	4.95267E-003	3.59960E-001	-1.00867E+000	3.58080E+000	10	...........
	50	0.68	8.31422E-001	5.99437E-003	0.00000E+000	4.98384E-003	3.59960E-001	-9.97411E-001	3.58080E+000	10	...........
	51	0.693333	8.36765E-001	5.99001E-003	0.00000E+000	5.01223E-003	3.59960E-001	-9.98818E-001	3.58080E+000	10	...........
	52	0.706667	8.42138E-001	5.99300E-003	0.00000E+000	5.04693E-003	3.59960E-001	-1.00876E+000	3.58080E+000	10	...........
	53	0.72	8.47513E-001	5.99591E-003	0.00000E+000	5.08161E-003	3.59960E-001	-9.97468E-001	3.58080E+000	10	...........
	54	0.733333	8.52856E-001	5.99455E-003	0.00000E+000	5.11249E-003	3.59960E-001	-9.98999E-001	3.58080E+000	10	...........
	55	0.746667	8.58172E-001	5.98964E-003	0.00000E+000	5.14014E-003	3.59960E-001	-1.00888E+000	3.58080E+000	10	...........
	56	0.76	8.63515E-001	5.99455E-003	0.00000E+000	5.17638E-003	3.59960E-001	-9.97553E-001	3.58080E+000	10	...........
	57	0.773333	8.68898E-001	5.99529E-003	0.00000E+000	5.20930E-003	3.59960E-001	-9.99331E-001	3.58080E+000	10	...........
	58	0.786667	8.74226E-001	5.99851E-003	0.00000E+000	5.24405E-003	3.59960E-001	-1.00892E+000	3.58080E+000	10	...........
	59	0.8	8.79534E-001	5.99271E-003	0.00000E+000	5.27079E-003	3.59960E-001	-9.97516E-001	3.58080E+000	10	...........
	60	0.813333	8.84871E-001	5.99211E-003	0.00000E+000	5.30225E-003	3.59960E-001	-9.99032E-001	3.58080E+000	10	...........
	61	0.826667	8.90186E-001	5.99459E-003	0.00000E+000	5.33630E-003	3.59960E-001	-1.00860E+000	3.58080E+000	10	...........
	62	0.84	8.95517E-001	5.99473E-003	0.00000E+000	5.36838E-003	3.59960E-001	-9.97544E-001	3.58080E+000	10	...........
	63	0.853333	9.00834E-001	5.99578E-003	0.00000E+000	5.40120E-003	3.59960E-001	-9.98879E-001	3.58080E+000	10	...........
	64	0.866667	9.06181E-001	5.99571E-003	0.00000E+000	5.43320E-003	3.59960E-001	-1.00864E+000	3.58080E+000	10	...........
	65	0.88	9.11471E-001	5.99385E-003	0.00000E+000	5.46323E-003	3.59960E-001	-9.97674E-001	3.58080E+000	10	...........
	66	0.893333	9.16747E-001	5.99111E-003	0.00000E+000	5.49233E-003	3.59960E-001	-9.99098E-001	3.58080E+000	10	...........
	67	0.906667	9.22116E-001	5.99515E-003	0.00000E+000	5.52822E-003	3.59960E-001	-1.00898E+000	3.58080E+000	10	...........
	68	0.92	9.27367E-001	5.99324E-003	0.00000E+000	5.55793E-003	3.59960E-001	-9.97642E-001	3.58080E+000	10	...........
	69	0.933333	9.32582E-001	5.99761E-003	0.00000E+000	5.59326E-003	3.59960E-001	-9.98981E-001	3.58080E+000	10	...........
	70	0.946667	9.37850E-001	5.99334E-003	0.00000E+000	5.62086E-003	3.59960E-001	-1.00895E+000	3.58080E+000	10	...........
	71	0.96	9.43049E-001	5.99365E-003	0.00000E+000	5.65230E-003	3.59960E-001	-9.97724E-001	3.58080E+000	10	...........
	72	0.97333	9.48305E-001	5.99477E-003	0.00000E+000	5.68487E-003	3.59960E-001	-9.98981E-001	3.58080E+000	10	...........
	73	0.98667	9.53534E-001	5.99433E-003	0.00000E+000	5.71580E-003	3.59960E-001	-1.00844E+000	3.58080E+000	10	...........
	74	1	9.58720E-001	5.99407E-003	0.00000E+000	5.74664E-003	3.59960E-001	-9.97156E-001	3.58080E+000	10	...........
	75	1.01333	9.63863E-001	5.99255E-003	0.00000E+000	5.77600E-003	3.59960E-001	-9.98819E-001	3.58080E+000	10	...........
	76	1.02667	9.69028E-001	5.99502E-003	0.00000E+000	5.80934E-003	3.59960E-001	-1.00845E+000	3.58080E+000	10	...........
	77	1.04	9.74212E-001	5.99749E-003	0.00000E+000	5.84283E-003	3.59960E-001	-9.97364E-001	3.58080E+000	10	...........
	78	1.05333	9.79306E-001	5.99579E-003	0.00000E+000	5.87172E-003	3.59960E-001	-9.98687E-001	3.58080E+000	10	...........
	79	1.06667	9.84389E-001	5.99074E-003	0.00000E+000	5.89722E-003	3.59960E-001	-1.00828E+000	3.58080E+000	10	...........
	80	1.08	9.89445E-001	5.99277E-003	0.00000E+000	5.92952E-003	3.59960E-001	-9.97208E-001	3.58080E+000	10	...........
	81	1.09333	9.94438E-001	5.99616E-003	0.00000E+000	5.96281E-003	3.59960E-001	-9.98832E-001	3.58080E+000	10	...........
	82	1.10333	9.98850E-001	5.99511E-003	0.00000E+000	5.98822E-003	3.59960E-001	-1.00866E+000	3.58080E+000	10	...........
STARTTIMEOFFSET	QUANT	4.643333	Start Time Offset (s)