File: Data/CV_CRGO300517_1/PWRCCD_CRGO300517_1/CHARGE_DISCHARGE/CHARGE_#748.DTA
EXPLAIN
TAG	PWR800_CHARGE
TITLE	LABEL	PWR Cyclic Charge Discharge (Cell) - Charge Step	Test &Identifier
DATE	LABEL	22-6-2017	Date
TIME	LABEL	16:05:21	Time
NOTES	NOTES	3	&Notes...
	supercap test cell
	0.6mg
	6M KOH
PSTAT	PSTAT	IFC5000-01520	Potentiostat
CAPACITY	QUANT	1.00000E-003	Capacity (A-hr)
CELLTYPE	SELECTOR	1	&Cell Type
WORKINGCONNECTION	SELECTOR	0	&Working Lead
MAXCHARGETIME	VARIABLEANDUNITS	1.00000E+002	s	1.00000E+002	second(s)	Max &Charge Time
CHARGECURRENT	QUANT	6.00000E-003	&Charge Current (A)
VOLTAGEFINISH	TWOPARAM	F	1.00000E-003	3.60000E+003	&Voltage Finish	 I (A) < 	Max Time(s)
SAMPLETIME	QUANT	1.00000E-002	Sa&mple Period (s)
CHARGESTOPAT1	MULTIPARAM	4	1.00000E+000	Charge Stop At &1	Voltage > Limit	V
CHARGESTOPAT2	MULTIPARAM	0	0.00000E+000	Charge Stop At &2	None	N/A
AESBHCSELECTOR	TOGGLE	F	Save Both Half Cells
IRCOMP	TOGGLE	F	IR &Measure
EOC	QUANT	0	Open Circuit (V)
SEQUENCER	TOGGLE	TRUE	Run as Sequence
PSTATMODEL	IQUANT	53	Pstat Model
PSTATSECTION	LABEL	IFC5000-01520	Pstat Section
PSTATSERIALNO	LABEL	01520	Pstat Serial Number
CTRLMODE	IQUANT	0	Control Mode
ELECTROMETER	IQUANT	1	RE=0 or CS=1
IESTAB	IQUANT	0	I/E Stability
CASPEED	IQUANT	4	Control Amp Speed
CONVENTION	IQUANT	1	Current Convention
ICHRANGE	IQUANT	2	Ich Range
ICHRANGEMODE	TOGGLE	T	Ich Auto Range
ICHOFFSETENABLE	TOGGLE	F	Ich Offset Enable
ICHOFFSET	QUANT	0	Ich Offset (V)
ICHFILTER	IQUANT	1	Ich Filter
VCHRANGE	IQUANT	2	Vch Range
VCHRANGEMODE	TOGGLE	T	Vch Auto Range
VCHOFFSETENABLE	TOGGLE	F	Vch Offset Enable
VCHOFFSET	QUANT	0	Vch Offset (V)
VCHFILTER	IQUANT	1	Vch Filter
IERANGELOWERLIMIT	IQUANT	9	I/E Range Lower Limit
IERANGEMODE	TOGGLE	F	I/E AutoRange
IERANGE	IQUANT	10	I/E Range
ACHSELECT	IQUANT	1	Ach Select
ACHRANGE	IQUANT	2	Ach Range
ACHOFFSETENABLE	TOGGLE	F	Ach Offset Enable
ACHOFFSET	QUANT	0	Ach Offset (V)
ACHFILTER	IQUANT	1	Ach Filter
CABLEID	IQUANT	14	Cable ID
DCCALDATE	LABEL	20-10-2016	DC Calibration Date
ACCALDATE	LABEL	12/3/2015	AC Calibration Date
FRAMEWORKVERSION	QUANT	7.01	Framework Version
INSTRUMENTVERSION	LABEL	4.00	Instrument Version
CURVE	TABLE	55
	Pt	T	Vf	Im	Vu	Pwr	Sig	Ach	Temp	IERange	Over
	#	s	V	A	V	W	V	V	deg C	#	bits
	0	0.013333	6.45967E-001	5.99401E-003	0.00000E+000	3.87193E-003	3.59960E-001	-1.15762E+000	3.57750E+000	10	...........
	1	0.026667	6.55127E-001	5.99057E-003	0.00000E+000	3.92458E-003	3.59960E-001	-1.16573E+000	3.57750E+000	10	...........
	2	0.04	6.63547E-001	5.99667E-003	0.00000E+000	3.97907E-003	3.59960E-001	-1.16386E+000	3.57750E+000	10	...........
	3	0.053333	6.71536E-001	5.99278E-003	0.00000E+000	4.02437E-003	3.59960E-001	-1.15744E+000	3.57750E+000	10	...........
	4	0.066667	6.79197E-001	5.99538E-003	0.00000E+000	4.07204E-003	3.59960E-001	-1.16565E+000	3.57750E+000	10	...........
	5	0.08	6.86703E-001	5.99502E-003	0.00000E+000	4.11680E-003	3.59960E-001	-1.16372E+000	3.57750E+000	10	...........
	6	0.093333	6.94063E-001	5.99168E-003	0.00000E+000	4.15861E-003	3.59960E-001	-1.15741E+000	3.57750E+000	10	...........
	7	0.106667	7.01284E-001	5.99152E-003	0.00000E+000	4.20175E-003	3.59960E-001	-1.16559E+000	3.57750E+000	10	...........
	8	0.12	7.08375E-001	5.98947E-003	0.00000E+000	4.24279E-003	3.59960E-001	-1.16323E+000	3.57750E+000	10	...........
	9	0.133333	7.15419E-001	5.99394E-003	0.00000E+000	4.28818E-003	3.59960E-001	-1.15708E+000	3.57750E+000	10	...........
	10	0.146667	7.22438E-001	5.99077E-003	0.00000E+000	4.32796E-003	3.59960E-001	-1.16580E+000	3.57750E+000	10	...........
	11	0.16	7.29341E-001	5.99354E-003	0.00000E+000	4.37134E-003	3.59960E-001	-1.16345E+000	3.57750E+000	10	...........
	12	0.173333	7.36215E-001	5.99417E-003	0.00000E+000	4.41300E-003	3.59960E-001	-1.15717E+000	3.57750E+000	10	...........
	13	0.186667	7.43060E-001	5.99298E-003	0.00000E+000	4.45314E-003	3.59960E-001	-1.16573E+000	3.57750E+000	10	...........
	14	0.2	7.49929E-001	5.99618E-003	0.00000E+000	4.49671E-003	3.59960E-001	-1.16306E+000	3.57750E+000	10	...........
	15	0.213333	7.56740E-001	5.99788E-003	0.00000E+000	4.53884E-003	3.59960E-001	-1.15723E+000	3.57750E+000	10	...........
	16	0.226667	7.63481E-001	5.98955E-003	0.00000E+000	4.57291E-003	3.59960E-001	-1.16566E+000	3.57750E+000	10	...........
	17	0.24	7.70242E-001	5.99367E-003	0.00000E+000	4.61657E-003	3.59960E-001	-1.16264E+000	3.57750E+000	10	...........
	18	0.253333	7.76929E-001	5.99307E-003	0.00000E+000	4.65619E-003	3.59960E-001	-1.15648E+000	3.57750E+000	10	...........
	19	0.266667	7.83592E-001	5.99222E-003	0.00000E+000	4.69545E-003	3.59960E-001	-1.16522E+000	3.57750E+000	10	...........
	20	0.28	7.90230E-001	5.99394E-003	0.00000E+000	4.73659E-003	3.59960E-001	-1.16213E+000	3.57750E+000	10	...........
	21	0.293333	7.96913E-001	5.99418E-003	0.00000E+000	4.77684E-003	3.59960E-001	-1.15654E+000	3.57750E+000	10	...........
	22	0.306667	8.03545E-001	5.99716E-003	0.00000E+000	4.81899E-003	3.59960E-001	-1.16519E+000	3.57750E+000	10	...........
	23	0.32	8.10121E-001	5.99178E-003	0.00000E+000	4.85407E-003	3.59960E-001	-1.16189E+000	3.57750E+000	10	...........
	24	0.333333	8.16719E-001	5.99332E-003	0.00000E+000	4.89486E-003	3.59960E-001	-1.15651E+000	3.57750E+000	10	...........
	25	0.346667	8.23257E-001	5.99142E-003	0.00000E+000	4.93248E-003	3.59960E-001	-1.16547E+000	3.57750E+000	10	...........
	26	0.36	8.29809E-001	5.99706E-003	0.00000E+000	4.97641E-003	3.59960E-001	-1.16203E+000	3.57750E+000	10	...........
	27	0.373333	8.36333E-001	5.99731E-003	0.00000E+000	5.01575E-003	3.59960E-001	-1.15616E+000	3.57750E+000	10	...........
	28	0.386667	8.42830E-001	5.99272E-003	0.00000E+000	5.05084E-003	3.59960E-001	-1.16524E+000	3.57750E+000	10	...........
	29	0.4	8.49287E-001	5.99306E-003	0.00000E+000	5.08983E-003	3.59960E-001	-1.16187E+000	3.57750E+000	10	...........
	30	0.413333	8.55719E-001	5.98945E-003	0.00000E+000	5.12529E-003	3.59960E-001	-1.15626E+000	3.57750E+000	10	...........
	31	0.426667	8.62143E-001	5.99045E-003	0.00000E+000	5.16463E-003	3.59960E-001	-1.16536E+000	3.57750E+000	10	...........
	32	0.44	8.68567E-001	5.99325E-003	0.00000E+000	5.20554E-003	3.59960E-001	-1.16136E+000	3.57750E+000	10	...........
	33	0.453333	8.74958E-001	5.99559E-003	0.00000E+000	5.24588E-003	3.59960E-001	-1.15591E+000	3.57750E+000	10	...........
	34	0.466667	8.81303E-001	5.99527E-003	0.00000E+000	5.28365E-003	3.59960E-001	-1.16533E+000	3.57750E+000	10	...........
	35	0.48	8.87624E-001	5.99334E-003	0.00000E+000	5.31983E-003	3.59960E-001	-1.16143E+000	3.57750E+000	10	...........
	36	0.493333	8.93880E-001	5.99054E-003	0.00000E+000	5.35482E-003	3.59960E-001	-1.15607E+000	3.57750E+000	10	...........
	37	0.506667	9.00153E-001	5.99270E-003	0.00000E+000	5.39435E-003	3.59960E-001	-1.16564E+000	3.57750E+000	10	...........
	38	0.52	9.06359E-001	5.99307E-003	0.00000E+000	5.43188E-003	3.59960E-001	-1.16105E+000	3.57750E+000	10	...........
	39	0.533333	9.12537E-001	5.99581E-003	0.00000E+000	5.47140E-003	3.59960E-001	-1.15602E+000	3.57750E+000	10	...........
	40	0.546667	9.18659E-001	5.99226E-003	0.00000E+000	5.50484E-003	3.59960E-001	-1.16581E+000	3.57750E+000	10	...........
	41	0.56	9.24792E-001	5.98872E-003	0.00000E+000	5.53832E-003	3.59960E-001	-1.16112E+000	3.57750E+000	10	...........
	42	0.573333	9.30887E-001	5.99337E-003	0.00000E+000	5.57916E-003	3.59960E-001	-1.15568E+000	3.57750E+000	10	...........
	43	0.586667	9.36878E-001	5.98916E-003	0.00000E+000	5.61111E-003	3.59960E-001	-1.16513E+000	3.57750E+000	10	...........
	44	0.6	9.42857E-001	5.99577E-003	0.00000E+000	5.65315E-003	3.59960E-001	-1.16046E+000	3.57750E+000	10	...........
	45	0.613333	9.48830E-001	5.99281E-003	0.00000E+000	5.68616E-003	3.59960E-001	-1.15573E+000	3.57750E+000	10	...........
	46	0.626667	9.54700E-001	5.99065E-003	0.00000E+000	5.71927E-003	3.59960E-001	-1.16563E+000	3.57750E+000	10	...........
	47	0.64	9.60517E-001	5.99601E-003	0.00000E+000	5.75927E-003	3.59960E-001	-1.16047E+000	3.57750E+000	10	...........
	48	0.653333	9.66306E-001	5.99309E-003	0.00000E+000	5.79116E-003	3.59960E-001	-1.15541E+000	3.57750E+000	10	...........
	49	0.666667	9.72125E-001	5.99022E-003	0.00000E+000	5.82325E-003	3.59960E-001	-1.16545E+000	3.57750E+000	10	...........
	50	0.68	9.77858E-001	5.99560E-003	0.00000E+000	5.86284E-003	3.59960E-001	-1.16036E+000	3.57750E+000	10	...........
	51	0.693333	9.83474E-001	5.99594E-003	0.00000E+000	5.89685E-003	3.59960E-001	-1.15572E+000	3.57750E+000	10	...........
	52	0.706667	9.89082E-001	5.99841E-003	0.00000E+000	5.93292E-003	3.59960E-001	-1.16582E+000	3.57750E+000	10	...........
	53	0.72	9.94609E-001	5.99387E-003	0.00000E+000	5.96156E-003	3.59960E-001	-1.16008E+000	3.57750E+000	10	...........
	54	0.728333	9.99114E-001	5.99459E-003	0.00000E+000	5.98928E-003	3.59960E-001	-1.15749E+000	3.57750E+000	10	...........
STARTTIMEOFFSET	QUANT	1229.181	Start Time Offset (s)