File: Data/CV_CRGO300517_1/PWRCCD_CRGO300517_1/CHARGE_DISCHARGE/CHARGE_#230.DTA
EXPLAIN
TAG	PWR800_CHARGE
TITLE	LABEL	PWR Cyclic Charge Discharge (Cell) - Charge Step	Test &Identifier
DATE	LABEL	22-6-2017	Date
TIME	LABEL	15:45:03	Time
NOTES	NOTES	3	&Notes...
	supercap test cell
	0.6mg
	6M KOH
PSTAT	PSTAT	IFC5000-01520	Potentiostat
CAPACITY	QUANT	1.00000E-003	Capacity (A-hr)
CELLTYPE	SELECTOR	1	&Cell Type
WORKINGCONNECTION	SELECTOR	0	&Working Lead
MAXCHARGETIME	VARIABLEANDUNITS	1.00000E+002	s	1.00000E+002	second(s)	Max &Charge Time
CHARGECURRENT	QUANT	6.00000E-003	&Charge Current (A)
VOLTAGEFINISH	TWOPARAM	F	1.00000E-003	3.60000E+003	&Voltage Finish	 I (A) < 	Max Time(s)
SAMPLETIME	QUANT	1.00000E-002	Sa&mple Period (s)
CHARGESTOPAT1	MULTIPARAM	4	1.00000E+000	Charge Stop At &1	Voltage > Limit	V
CHARGESTOPAT2	MULTIPARAM	0	0.00000E+000	Charge Stop At &2	None	N/A
AESBHCSELECTOR	TOGGLE	F	Save Both Half Cells
IRCOMP	TOGGLE	F	IR &Measure
EOC	QUANT	0	Open Circuit (V)
SEQUENCER	TOGGLE	TRUE	Run as Sequence
PSTATMODEL	IQUANT	53	Pstat Model
PSTATSECTION	LABEL	IFC5000-01520	Pstat Section
PSTATSERIALNO	LABEL	01520	Pstat Serial Number
CTRLMODE	IQUANT	0	Control Mode
ELECTROMETER	IQUANT	1	RE=0 or CS=1
IESTAB	IQUANT	0	I/E Stability
CASPEED	IQUANT	4	Control Amp Speed
CONVENTION	IQUANT	1	Current Convention
ICHRANGE	IQUANT	2	Ich Range
ICHRANGEMODE	TOGGLE	T	Ich Auto Range
ICHOFFSETENABLE	TOGGLE	F	Ich Offset Enable
ICHOFFSET	QUANT	0	Ich Offset (V)
ICHFILTER	IQUANT	1	Ich Filter
VCHRANGE	IQUANT	2	Vch Range
VCHRANGEMODE	TOGGLE	T	Vch Auto Range
VCHOFFSETENABLE	TOGGLE	F	Vch Offset Enable
VCHOFFSET	QUANT	0	Vch Offset (V)
VCHFILTER	IQUANT	1	Vch Filter
IERANGELOWERLIMIT	IQUANT	9	I/E Range Lower Limit
IERANGEMODE	TOGGLE	F	I/E AutoRange
IERANGE	IQUANT	10	I/E Range
ACHSELECT	IQUANT	1	Ach Select
ACHRANGE	IQUANT	2	Ach Range
ACHOFFSETENABLE	TOGGLE	F	Ach Offset Enable
ACHOFFSET	QUANT	0	Ach Offset (V)
ACHFILTER	IQUANT	1	Ach Filter
CABLEID	IQUANT	14	Cable ID
DCCALDATE	LABEL	20-10-2016	DC Calibration Date
ACCALDATE	LABEL	12/3/2015	AC Calibration Date
FRAMEWORKVERSION	QUANT	7.01	Framework Version
INSTRUMENTVERSION	LABEL	4.00	Instrument Version
CURVE	TABLE	64
	Pt	T	Vf	Im	Vu	Pwr	Sig	Ach	Temp	IERange	Over
	#	s	V	A	V	W	V	V	deg C	#	bits
	0	0.013333	6.09360E-001	5.99707E-003	0.00000E+000	3.65437E-003	3.59960E-001	-1.09313E+000	3.57820E+000	10	...........
	1	0.026667	6.17886E-001	5.99262E-003	0.00000E+000	3.70276E-003	3.59960E-001	-1.09738E+000	3.57820E+000	10	...........
	2	0.04	6.25666E-001	5.99530E-003	0.00000E+000	3.75106E-003	3.59960E-001	-1.08907E+000	3.57820E+000	10	...........
	3	0.053333	6.33055E-001	5.98943E-003	0.00000E+000	3.79164E-003	3.59960E-001	-1.09306E+000	3.57820E+000	10	...........
	4	0.066667	6.40188E-001	5.99252E-003	0.00000E+000	3.83634E-003	3.59960E-001	-1.09722E+000	3.57820E+000	10	...........
	5	0.08	6.47130E-001	5.99672E-003	0.00000E+000	3.88066E-003	3.59960E-001	-1.08905E+000	3.57820E+000	10	...........
	6	0.093333	6.53944E-001	5.99531E-003	0.00000E+000	3.92060E-003	3.59960E-001	-1.09282E+000	3.57820E+000	10	...........
	7	0.106667	6.60612E-001	5.99288E-003	0.00000E+000	3.95897E-003	3.59960E-001	-1.09711E+000	3.57820E+000	10	...........
	8	0.12	6.67228E-001	5.99114E-003	0.00000E+000	3.99746E-003	3.59960E-001	-1.08880E+000	3.57820E+000	10	...........
	9	0.133333	6.73816E-001	5.98858E-003	0.00000E+000	4.03520E-003	3.59960E-001	-1.09271E+000	3.57820E+000	10	...........
	10	0.146667	6.80280E-001	5.99472E-003	0.00000E+000	4.07809E-003	3.59960E-001	-1.09734E+000	3.57820E+000	10	...........
	11	0.16	6.86682E-001	5.99373E-003	0.00000E+000	4.11579E-003	3.59960E-001	-1.08882E+000	3.57820E+000	10	...........
	12	0.173333	6.93121E-001	5.99414E-003	0.00000E+000	4.15466E-003	3.59960E-001	-1.09225E+000	3.57820E+000	10	...........
	13	0.186667	6.99432E-001	5.99557E-003	0.00000E+000	4.19349E-003	3.59960E-001	-1.09725E+000	3.57820E+000	10	...........
	14	0.2	7.05758E-001	5.99305E-003	0.00000E+000	4.22964E-003	3.59960E-001	-1.08886E+000	3.57820E+000	10	...........
	15	0.213333	7.12056E-001	5.99676E-003	0.00000E+000	4.27003E-003	3.59960E-001	-1.09227E+000	3.57820E+000	10	...........
	16	0.226667	7.18382E-001	5.99722E-003	0.00000E+000	4.30830E-003	3.59960E-001	-1.09740E+000	3.57820E+000	10	...........
	17	0.24	7.24677E-001	5.99562E-003	0.00000E+000	4.34489E-003	3.59960E-001	-1.08880E+000	3.57820E+000	10	...........
	18	0.253333	7.30881E-001	5.99258E-003	0.00000E+000	4.37986E-003	3.59960E-001	-1.09248E+000	3.57820E+000	10	...........
	19	0.266667	7.37067E-001	5.98988E-003	0.00000E+000	4.41494E-003	3.59960E-001	-1.09776E+000	3.57820E+000	10	...........
	20	0.28	7.43330E-001	5.99536E-003	0.00000E+000	4.45653E-003	3.59960E-001	-1.08906E+000	3.57820E+000	10	...........
	21	0.293333	7.49554E-001	5.99734E-003	0.00000E+000	4.49533E-003	3.59960E-001	-1.09213E+000	3.57820E+000	10	...........
	22	0.306667	7.55736E-001	5.98933E-003	0.00000E+000	4.52635E-003	3.59960E-001	-1.09758E+000	3.57820E+000	10	...........
	23	0.32	7.61910E-001	5.99103E-003	0.00000E+000	4.56462E-003	3.59960E-001	-1.08853E+000	3.57820E+000	10	...........
	24	0.333333	7.68117E-001	5.99401E-003	0.00000E+000	4.60410E-003	3.59960E-001	-1.09179E+000	3.57820E+000	10	...........
	25	0.346667	7.74321E-001	5.99432E-003	0.00000E+000	4.64153E-003	3.59960E-001	-1.09722E+000	3.57820E+000	10	...........
	26	0.36	7.80468E-001	5.99058E-003	0.00000E+000	4.67545E-003	3.59960E-001	-1.08835E+000	3.57820E+000	10	...........
	27	0.373333	7.86638E-001	5.99454E-003	0.00000E+000	4.71553E-003	3.59960E-001	-1.09140E+000	3.57820E+000	10	...........
	28	0.386667	7.92760E-001	5.99552E-003	0.00000E+000	4.75301E-003	3.59960E-001	-1.09744E+000	3.57820E+000	10	...........
	29	0.4	7.98898E-001	5.99542E-003	0.00000E+000	4.78973E-003	3.59960E-001	-1.08856E+000	3.57820E+000	10	...........
	30	0.413333	8.05012E-001	5.99272E-003	0.00000E+000	4.82421E-003	3.59960E-001	-1.09154E+000	3.57820E+000	10	...........
	31	0.426667	8.11130E-001	5.99264E-003	0.00000E+000	4.86082E-003	3.59960E-001	-1.09748E+000	3.57820E+000	10	...........
	32	0.44	8.17223E-001	5.99319E-003	0.00000E+000	4.89777E-003	3.59960E-001	-1.08841E+000	3.57820E+000	10	...........
	33	0.453333	8.23336E-001	5.99050E-003	0.00000E+000	4.93219E-003	3.59960E-001	-1.09144E+000	3.57820E+000	10	...........
	34	0.466667	8.29401E-001	5.99408E-003	0.00000E+000	4.97150E-003	3.59960E-001	-1.09762E+000	3.57820E+000	10	...........
	35	0.48	8.35456E-001	5.99322E-003	0.00000E+000	5.00707E-003	3.59960E-001	-1.08842E+000	3.57820E+000	10	...........
	36	0.493333	8.41520E-001	5.99100E-003	0.00000E+000	5.04155E-003	3.59960E-001	-1.09130E+000	3.57820E+000	10	...........
	37	0.506667	8.47615E-001	5.99353E-003	0.00000E+000	5.08021E-003	3.59960E-001	-1.09751E+000	3.57820E+000	10	...........
	38	0.52	8.53666E-001	5.99460E-003	0.00000E+000	5.11739E-003	3.59960E-001	-1.08851E+000	3.57820E+000	10	...........
	39	0.533333	8.59751E-001	5.99859E-003	0.00000E+000	5.15729E-003	3.59960E-001	-1.09122E+000	3.57820E+000	10	...........
	40	0.546667	8.65774E-001	5.99585E-003	0.00000E+000	5.19105E-003	3.59960E-001	-1.09775E+000	3.57820E+000	10	...........
	41	0.56	8.71822E-001	5.99637E-003	0.00000E+000	5.22776E-003	3.59960E-001	-1.08872E+000	3.57820E+000	10	...........
	42	0.573333	8.77805E-001	5.99210E-003	0.00000E+000	5.25990E-003	3.59960E-001	-1.09128E+000	3.57820E+000	10	...........
	43	0.586667	8.83785E-001	5.99535E-003	0.00000E+000	5.29860E-003	3.59960E-001	-1.09792E+000	3.57820E+000	10	...........
	44	0.6	8.89767E-001	5.99822E-003	0.00000E+000	5.33702E-003	3.59960E-001	-1.08865E+000	3.57820E+000	10	...........
	45	0.613333	8.95739E-001	5.99028E-003	0.00000E+000	5.36573E-003	3.59960E-001	-1.09099E+000	3.57820E+000	10	...........
	46	0.626667	9.01654E-001	5.99652E-003	0.00000E+000	5.40679E-003	3.59960E-001	-1.09783E+000	3.57820E+000	10	...........
	47	0.64	9.07572E-001	5.98920E-003	0.00000E+000	5.43563E-003	3.59960E-001	-1.08830E+000	3.57820E+000	10	...........
	48	0.653333	9.13447E-001	5.99495E-003	0.00000E+000	5.47607E-003	3.59960E-001	-1.09059E+000	3.57820E+000	10	...........
	49	0.666667	9.19323E-001	5.99179E-003	0.00000E+000	5.50839E-003	3.59960E-001	-1.09741E+000	3.57820E+000	10	...........
	50	0.68	9.25184E-001	5.99475E-003	0.00000E+000	5.54625E-003	3.59960E-001	-1.08824E+000	3.57820E+000	10	...........
	51	0.693333	9.30968E-001	5.99139E-003	0.00000E+000	5.57780E-003	3.59960E-001	-1.09054E+000	3.57820E+000	10	...........
	52	0.706667	9.36751E-001	5.99786E-003	0.00000E+000	5.61850E-003	3.59960E-001	-1.09724E+000	3.57820E+000	10	...........
	53	0.72	9.42498E-001	5.99353E-003	0.00000E+000	5.64889E-003	3.59960E-001	-1.08839E+000	3.57820E+000	10	...........
	54	0.733333	9.48242E-001	5.99502E-003	0.00000E+000	5.68473E-003	3.59960E-001	-1.09053E+000	3.57820E+000	10	...........
	55	0.746667	9.53923E-001	5.99353E-003	0.00000E+000	5.71737E-003	3.59960E-001	-1.09760E+000	3.57820E+000	10	...........
	56	0.76	9.59548E-001	5.99409E-003	0.00000E+000	5.75162E-003	3.59960E-001	-1.08831E+000	3.57820E+000	10	...........
	57	0.773333	9.65195E-001	5.99729E-003	0.00000E+000	5.78855E-003	3.59960E-001	-1.09031E+000	3.57820E+000	10	...........
	58	0.786667	9.70754E-001	5.99482E-003	0.00000E+000	5.81950E-003	3.59960E-001	-1.09756E+000	3.57820E+000	10	...........
	59	0.8	9.76338E-001	5.99622E-003	0.00000E+000	5.85434E-003	3.59960E-001	-1.08834E+000	3.57820E+000	10	...........
	60	0.813333	9.81817E-001	5.99414E-003	0.00000E+000	5.88515E-003	3.59960E-001	-1.09034E+000	3.57820E+000	10	...........
	61	0.826667	9.87268E-001	5.99603E-003	0.00000E+000	5.91969E-003	3.59960E-001	-1.09771E+000	3.57820E+000	10	...........
	62	0.84	9.92674E-001	5.99331E-003	0.00000E+000	5.94940E-003	3.59960E-001	-1.08828E+000	3.57820E+000	10	...........
	63	0.853333	9.98140E-001	5.99126E-003	0.00000E+000	5.98011E-003	3.59960E-001	-1.09038E+000	3.57820E+000	10	...........
STARTTIMEOFFSET	QUANT	424.205	Start Time Offset (s)