File: Data/CV_CRGO300517_1/PWRCCD_CRGO300517_1/CHARGE_DISCHARGE/CHARGE_#322.DTA
EXPLAIN
TAG	PWR800_CHARGE
TITLE	LABEL	PWR Cyclic Charge Discharge (Cell) - Charge Step	Test &Identifier
DATE	LABEL	22-6-2017	Date
TIME	LABEL	15:48:49	Time
NOTES	NOTES	3	&Notes...
	supercap test cell
	0.6mg
	6M KOH
PSTAT	PSTAT	IFC5000-01520	Potentiostat
CAPACITY	QUANT	1.00000E-003	Capacity (A-hr)
CELLTYPE	SELECTOR	1	&Cell Type
WORKINGCONNECTION	SELECTOR	0	&Working Lead
MAXCHARGETIME	VARIABLEANDUNITS	1.00000E+002	s	1.00000E+002	second(s)	Max &Charge Time
CHARGECURRENT	QUANT	6.00000E-003	&Charge Current (A)
VOLTAGEFINISH	TWOPARAM	F	1.00000E-003	3.60000E+003	&Voltage Finish	 I (A) < 	Max Time(s)
SAMPLETIME	QUANT	1.00000E-002	Sa&mple Period (s)
CHARGESTOPAT1	MULTIPARAM	4	1.00000E+000	Charge Stop At &1	Voltage > Limit	V
CHARGESTOPAT2	MULTIPARAM	0	0.00000E+000	Charge Stop At &2	None	N/A
AESBHCSELECTOR	TOGGLE	F	Save Both Half Cells
IRCOMP	TOGGLE	F	IR &Measure
EOC	QUANT	0	Open Circuit (V)
SEQUENCER	TOGGLE	TRUE	Run as Sequence
PSTATMODEL	IQUANT	53	Pstat Model
PSTATSECTION	LABEL	IFC5000-01520	Pstat Section
PSTATSERIALNO	LABEL	01520	Pstat Serial Number
CTRLMODE	IQUANT	0	Control Mode
ELECTROMETER	IQUANT	1	RE=0 or CS=1
IESTAB	IQUANT	0	I/E Stability
CASPEED	IQUANT	4	Control Amp Speed
CONVENTION	IQUANT	1	Current Convention
ICHRANGE	IQUANT	2	Ich Range
ICHRANGEMODE	TOGGLE	T	Ich Auto Range
ICHOFFSETENABLE	TOGGLE	F	Ich Offset Enable
ICHOFFSET	QUANT	0	Ich Offset (V)
ICHFILTER	IQUANT	1	Ich Filter
VCHRANGE	IQUANT	2	Vch Range
VCHRANGEMODE	TOGGLE	T	Vch Auto Range
VCHOFFSETENABLE	TOGGLE	F	Vch Offset Enable
VCHOFFSET	QUANT	0	Vch Offset (V)
VCHFILTER	IQUANT	1	Vch Filter
IERANGELOWERLIMIT	IQUANT	9	I/E Range Lower Limit
IERANGEMODE	TOGGLE	F	I/E AutoRange
IERANGE	IQUANT	10	I/E Range
ACHSELECT	IQUANT	1	Ach Select
ACHRANGE	IQUANT	2	Ach Range
ACHOFFSETENABLE	TOGGLE	F	Ach Offset Enable
ACHOFFSET	QUANT	0	Ach Offset (V)
ACHFILTER	IQUANT	1	Ach Filter
CABLEID	IQUANT	14	Cable ID
DCCALDATE	LABEL	20-10-2016	DC Calibration Date
ACCALDATE	LABEL	12/3/2015	AC Calibration Date
FRAMEWORKVERSION	QUANT	7.01	Framework Version
INSTRUMENTVERSION	LABEL	4.00	Instrument Version
CURVE	TABLE	62
	Pt	T	Vf	Im	Vu	Pwr	Sig	Ach	Temp	IERange	Over
	#	s	V	A	V	W	V	V	deg C	#	bits
	0	0.013333	6.18054E-001	5.99383E-003	0.00000E+000	3.70451E-003	3.59960E-001	-1.11676E+000	3.57810E+000	10	...........
	1	0.026667	6.26646E-001	5.99099E-003	0.00000E+000	3.75423E-003	3.59960E-001	-1.11720E+000	3.57810E+000	10	...........
	2	0.04	6.34573E-001	5.99638E-003	0.00000E+000	3.80514E-003	3.59960E-001	-1.11001E+000	3.57810E+000	10	...........
	3	0.053333	6.42145E-001	5.99831E-003	0.00000E+000	3.85179E-003	3.59960E-001	-1.11672E+000	3.57810E+000	10	...........
	4	0.066667	6.49396E-001	5.98922E-003	0.00000E+000	3.88937E-003	3.59960E-001	-1.11698E+000	3.57810E+000	10	...........
	5	0.08	6.56486E-001	5.99157E-003	0.00000E+000	3.93338E-003	3.59960E-001	-1.10976E+000	3.57810E+000	10	...........
	6	0.093333	6.63413E-001	5.99367E-003	0.00000E+000	3.97628E-003	3.59960E-001	-1.11649E+000	3.57810E+000	10	...........
	7	0.106667	6.70276E-001	5.99603E-003	0.00000E+000	4.01900E-003	3.59960E-001	-1.11725E+000	3.57810E+000	10	...........
	8	0.12	6.77003E-001	5.99552E-003	0.00000E+000	4.05899E-003	3.59960E-001	-1.10978E+000	3.57810E+000	10	...........
	9	0.133333	6.83630E-001	5.99300E-003	0.00000E+000	4.09699E-003	3.59960E-001	-1.11587E+000	3.57810E+000	10	...........
	10	0.146667	6.90227E-001	5.99477E-003	0.00000E+000	4.13775E-003	3.59960E-001	-1.11677E+000	3.57810E+000	10	...........
	11	0.16	6.96776E-001	5.99499E-003	0.00000E+000	4.17716E-003	3.59960E-001	-1.10931E+000	3.57810E+000	10	...........
	12	0.173333	7.03318E-001	5.99448E-003	0.00000E+000	4.21603E-003	3.59960E-001	-1.11579E+000	3.57810E+000	10	...........
	13	0.186667	7.09762E-001	5.99336E-003	0.00000E+000	4.25386E-003	3.59960E-001	-1.11669E+000	3.57810E+000	10	...........
	14	0.2	7.16213E-001	5.99147E-003	0.00000E+000	4.29116E-003	3.59960E-001	-1.10919E+000	3.57810E+000	10	...........
	15	0.213333	7.22701E-001	5.99293E-003	0.00000E+000	4.33110E-003	3.59960E-001	-1.11576E+000	3.57810E+000	10	...........
	16	0.226667	7.29080E-001	5.99034E-003	0.00000E+000	4.36744E-003	3.59960E-001	-1.11688E+000	3.57810E+000	10	...........
	17	0.24	7.35397E-001	5.98981E-003	0.00000E+000	4.40489E-003	3.59960E-001	-1.10912E+000	3.57810E+000	10	...........
	18	0.253333	7.41814E-001	5.99426E-003	0.00000E+000	4.44662E-003	3.59960E-001	-1.11528E+000	3.57810E+000	10	...........
	19	0.266667	7.48166E-001	5.99568E-003	0.00000E+000	4.48576E-003	3.59960E-001	-1.11685E+000	3.57810E+000	10	...........
	20	0.28	7.54539E-001	5.99500E-003	0.00000E+000	4.52347E-003	3.59960E-001	-1.10938E+000	3.57810E+000	10	...........
	21	0.293333	7.60884E-001	5.99936E-003	0.00000E+000	4.56482E-003	3.59960E-001	-1.11564E+000	3.57810E+000	10	...........
	22	0.306667	7.67180E-001	5.99245E-003	0.00000E+000	4.59729E-003	3.59960E-001	-1.11711E+000	3.57810E+000	10	...........
	23	0.32	7.73494E-001	5.99479E-003	0.00000E+000	4.63694E-003	3.59960E-001	-1.10963E+000	3.57810E+000	10	...........
	24	0.333333	7.79749E-001	5.98945E-003	0.00000E+000	4.67027E-003	3.59960E-001	-1.11541E+000	3.57810E+000	10	...........
	25	0.346667	7.86027E-001	5.99433E-003	0.00000E+000	4.71171E-003	3.59960E-001	-1.11774E+000	3.57810E+000	10	...........
	26	0.36	7.92301E-001	5.99833E-003	0.00000E+000	4.75248E-003	3.59960E-001	-1.11029E+000	3.57810E+000	10	...........
	27	0.373333	7.98550E-001	5.99092E-003	0.00000E+000	4.78405E-003	3.59960E-001	-1.11577E+000	3.57810E+000	10	...........
	28	0.386667	8.04816E-001	5.99420E-003	0.00000E+000	4.82422E-003	3.59960E-001	-1.11792E+000	3.57810E+000	10	...........
	29	0.4	8.11053E-001	5.99587E-003	0.00000E+000	4.86297E-003	3.59960E-001	-1.11014E+000	3.57810E+000	10	...........
	30	0.413333	8.17269E-001	5.99845E-003	0.00000E+000	4.90235E-003	3.59960E-001	-1.11586E+000	3.57810E+000	10	...........
	31	0.426667	8.23496E-001	5.99198E-003	0.00000E+000	4.93437E-003	3.59960E-001	-1.11827E+000	3.57810E+000	10	...........
	32	0.44	8.29681E-001	5.99525E-003	0.00000E+000	4.97415E-003	3.59960E-001	-1.11018E+000	3.57810E+000	10	...........
	33	0.453333	8.35873E-001	5.99113E-003	0.00000E+000	5.00783E-003	3.59960E-001	-1.11537E+000	3.57810E+000	10	...........
	34	0.466667	8.42066E-001	5.99022E-003	0.00000E+000	5.04416E-003	3.59960E-001	-1.11788E+000	3.57810E+000	10	...........
	35	0.48	8.48234E-001	5.98770E-003	0.00000E+000	5.07897E-003	3.59960E-001	-1.11000E+000	3.57809E+000	10	...........
	36	0.493333	8.54406E-001	5.99464E-003	0.00000E+000	5.12186E-003	3.59960E-001	-1.11536E+000	3.57800E+000	10	...........
	37	0.506667	8.60510E-001	5.99770E-003	0.00000E+000	5.16108E-003	3.59960E-001	-1.11805E+000	3.57800E+000	10	...........
	38	0.52	8.66648E-001	5.99915E-003	0.00000E+000	5.19916E-003	3.59960E-001	-1.10999E+000	3.57800E+000	10	...........
	39	0.533333	8.72764E-001	5.99566E-003	0.00000E+000	5.23280E-003	3.59960E-001	-1.11522E+000	3.57800E+000	10	...........
	40	0.546667	8.78852E-001	5.99773E-003	0.00000E+000	5.27112E-003	3.59960E-001	-1.11816E+000	3.57800E+000	10	...........
	41	0.56	8.84963E-001	6.00088E-003	0.00000E+000	5.31056E-003	3.59960E-001	-1.10998E+000	3.57800E+000	10	...........
	42	0.573333	8.90972E-001	5.99494E-003	0.00000E+000	5.34132E-003	3.59960E-001	-1.11503E+000	3.57800E+000	10	...........
	43	0.586667	8.97000E-001	5.99324E-003	0.00000E+000	5.37593E-003	3.59960E-001	-1.11831E+000	3.57800E+000	10	...........
	44	0.6	9.03046E-001	5.99482E-003	0.00000E+000	5.41360E-003	3.59960E-001	-1.10986E+000	3.57800E+000	10	...........
	45	0.613333	9.08997E-001	5.99570E-003	0.00000E+000	5.45007E-003	3.59960E-001	-1.11490E+000	3.57800E+000	10	...........
	46	0.626667	9.14897E-001	5.99136E-003	0.00000E+000	5.48148E-003	3.59960E-001	-1.11833E+000	3.57800E+000	10	...........
	47	0.64	9.20852E-001	5.99561E-003	0.00000E+000	5.52107E-003	3.59960E-001	-1.11005E+000	3.57800E+000	10	...........
	48	0.653333	9.26768E-001	5.98950E-003	0.00000E+000	5.55088E-003	3.59960E-001	-1.11472E+000	3.57800E+000	10	...........
	49	0.666667	9.32593E-001	5.99497E-003	0.00000E+000	5.59087E-003	3.59960E-001	-1.11856E+000	3.57800E+000	10	...........
	50	0.68	9.38414E-001	5.99367E-003	0.00000E+000	5.62454E-003	3.59960E-001	-1.11004E+000	3.57800E+000	10	...........
	51	0.693333	9.44225E-001	5.99484E-003	0.00000E+000	5.66048E-003	3.59960E-001	-1.11467E+000	3.57800E+000	10	...........
	52	0.706667	9.50047E-001	5.99404E-003	0.00000E+000	5.69462E-003	3.59960E-001	-1.11876E+000	3.57800E+000	10	...........
	53	0.72	9.55758E-001	5.99337E-003	0.00000E+000	5.72821E-003	3.59960E-001	-1.11009E+000	3.57800E+000	10	...........
	54	0.733333	9.61445E-001	5.99318E-003	0.00000E+000	5.76211E-003	3.59960E-001	-1.11474E+000	3.57800E+000	10	...........
	55	0.746667	9.67087E-001	5.99862E-003	0.00000E+000	5.80119E-003	3.59960E-001	-1.11866E+000	3.57800E+000	10	...........
	56	0.76	9.72735E-001	5.99971E-003	0.00000E+000	5.83612E-003	3.59960E-001	-1.11027E+000	3.57800E+000	10	...........
	57	0.773333	9.78320E-001	5.99225E-003	0.00000E+000	5.86233E-003	3.59960E-001	-1.11448E+000	3.57800E+000	10	...........
	58	0.786667	9.83873E-001	5.99404E-003	0.00000E+000	5.89738E-003	3.59960E-001	-1.11852E+000	3.57800E+000	10	...........
	59	0.8	9.89349E-001	5.99241E-003	0.00000E+000	5.92859E-003	3.59960E-001	-1.10976E+000	3.57800E+000	10	...........
	60	0.813333	9.94778E-001	5.99438E-003	0.00000E+000	5.96307E-003	3.59960E-001	-1.11407E+000	3.57800E+000	10	...........
	61	0.821667	9.99232E-001	5.99576E-003	0.00000E+000	5.99115E-003	3.59960E-001	-1.11630E+000	3.57800E+000	10	...........
STARTTIMEOFFSET	QUANT	577.2015	Start Time Offset (s)