File: Data/CV_CRGO300517_1/PWRCCD_CRGO300517_1/CHARGE_DISCHARGE/CHARGE_#165.DTA
EXPLAIN
TAG	PWR800_CHARGE
TITLE	LABEL	PWR Cyclic Charge Discharge (Cell) - Charge Step	Test &Identifier
DATE	LABEL	22-6-2017	Date
TIME	LABEL	15:42:19	Time
NOTES	NOTES	3	&Notes...
	supercap test cell
	0.6mg
	6M KOH
PSTAT	PSTAT	IFC5000-01520	Potentiostat
CAPACITY	QUANT	1.00000E-003	Capacity (A-hr)
CELLTYPE	SELECTOR	1	&Cell Type
WORKINGCONNECTION	SELECTOR	0	&Working Lead
MAXCHARGETIME	VARIABLEANDUNITS	1.00000E+002	s	1.00000E+002	second(s)	Max &Charge Time
CHARGECURRENT	QUANT	6.00000E-003	&Charge Current (A)
VOLTAGEFINISH	TWOPARAM	F	1.00000E-003	3.60000E+003	&Voltage Finish	 I (A) < 	Max Time(s)
SAMPLETIME	QUANT	1.00000E-002	Sa&mple Period (s)
CHARGESTOPAT1	MULTIPARAM	4	1.00000E+000	Charge Stop At &1	Voltage > Limit	V
CHARGESTOPAT2	MULTIPARAM	0	0.00000E+000	Charge Stop At &2	None	N/A
AESBHCSELECTOR	TOGGLE	F	Save Both Half Cells
IRCOMP	TOGGLE	F	IR &Measure
EOC	QUANT	0	Open Circuit (V)
SEQUENCER	TOGGLE	TRUE	Run as Sequence
PSTATMODEL	IQUANT	53	Pstat Model
PSTATSECTION	LABEL	IFC5000-01520	Pstat Section
PSTATSERIALNO	LABEL	01520	Pstat Serial Number
CTRLMODE	IQUANT	0	Control Mode
ELECTROMETER	IQUANT	1	RE=0 or CS=1
IESTAB	IQUANT	0	I/E Stability
CASPEED	IQUANT	4	Control Amp Speed
CONVENTION	IQUANT	1	Current Convention
ICHRANGE	IQUANT	2	Ich Range
ICHRANGEMODE	TOGGLE	T	Ich Auto Range
ICHOFFSETENABLE	TOGGLE	F	Ich Offset Enable
ICHOFFSET	QUANT	0	Ich Offset (V)
ICHFILTER	IQUANT	1	Ich Filter
VCHRANGE	IQUANT	2	Vch Range
VCHRANGEMODE	TOGGLE	T	Vch Auto Range
VCHOFFSETENABLE	TOGGLE	F	Vch Offset Enable
VCHOFFSET	QUANT	0	Vch Offset (V)
VCHFILTER	IQUANT	1	Vch Filter
IERANGELOWERLIMIT	IQUANT	9	I/E Range Lower Limit
IERANGEMODE	TOGGLE	F	I/E AutoRange
IERANGE	IQUANT	10	I/E Range
ACHSELECT	IQUANT	1	Ach Select
ACHRANGE	IQUANT	2	Ach Range
ACHOFFSETENABLE	TOGGLE	F	Ach Offset Enable
ACHOFFSET	QUANT	0	Ach Offset (V)
ACHFILTER	IQUANT	1	Ach Filter
CABLEID	IQUANT	14	Cable ID
DCCALDATE	LABEL	20-10-2016	DC Calibration Date
ACCALDATE	LABEL	12/3/2015	AC Calibration Date
FRAMEWORKVERSION	QUANT	7.01	Framework Version
INSTRUMENTVERSION	LABEL	4.00	Instrument Version
CURVE	TABLE	67
	Pt	T	Vf	Im	Vu	Pwr	Sig	Ach	Temp	IERange	Over
	#	s	V	A	V	W	V	V	deg C	#	bits
	0	0.013333	6.00923E-001	5.99118E-003	0.00000E+000	3.60024E-003	3.59960E-001	-1.07872E+000	3.57820E+000	10	...........
	1	0.026667	6.09272E-001	5.99591E-003	0.00000E+000	3.65314E-003	3.59960E-001	-1.08671E+000	3.57820E+000	10	...........
	2	0.04	6.17072E-001	5.99468E-003	0.00000E+000	3.69915E-003	3.59960E-001	-1.08545E+000	3.57820E+000	10	...........
	3	0.053333	6.24363E-001	5.99789E-003	0.00000E+000	3.74486E-003	3.59960E-001	-1.07866E+000	3.57820E+000	10	...........
	4	0.066667	6.31365E-001	5.99320E-003	0.00000E+000	3.78390E-003	3.59960E-001	-1.08690E+000	3.57820E+000	10	...........
	5	0.08	6.38215E-001	5.99247E-003	0.00000E+000	3.82448E-003	3.59960E-001	-1.08528E+000	3.57820E+000	10	...........
	6	0.093333	6.44938E-001	5.99653E-003	0.00000E+000	3.86739E-003	3.59960E-001	-1.07836E+000	3.57820E+000	10	...........
	7	0.106667	6.51536E-001	5.99604E-003	0.00000E+000	3.90664E-003	3.59960E-001	-1.08662E+000	3.57820E+000	10	...........
	8	0.12	6.58026E-001	5.99546E-003	0.00000E+000	3.94517E-003	3.59960E-001	-1.08550E+000	3.57820E+000	10	...........
	9	0.133333	6.64420E-001	5.99317E-003	0.00000E+000	3.98198E-003	3.59960E-001	-1.07837E+000	3.57820E+000	10	...........
	10	0.146667	6.70792E-001	5.99298E-003	0.00000E+000	4.02004E-003	3.59960E-001	-1.08643E+000	3.57820E+000	10	...........
	11	0.16	6.77070E-001	5.99448E-003	0.00000E+000	4.05868E-003	3.59960E-001	-1.08512E+000	3.57820E+000	10	...........
	12	0.173333	6.83337E-001	5.99253E-003	0.00000E+000	4.09492E-003	3.59960E-001	-1.07816E+000	3.57820E+000	10	...........
	13	0.186667	6.89577E-001	5.99676E-003	0.00000E+000	4.13523E-003	3.59960E-001	-1.08649E+000	3.57820E+000	10	...........
	14	0.2	6.95805E-001	5.99271E-003	0.00000E+000	4.16976E-003	3.59960E-001	-1.08534E+000	3.57820E+000	10	...........
	15	0.213333	7.01965E-001	5.99717E-003	0.00000E+000	4.20980E-003	3.59960E-001	-1.07830E+000	3.57820E+000	10	...........
	16	0.226667	7.08130E-001	5.99173E-003	0.00000E+000	4.24292E-003	3.59960E-001	-1.08631E+000	3.57820E+000	10	...........
	17	0.24	7.14292E-001	5.99184E-003	0.00000E+000	4.27992E-003	3.59960E-001	-1.08518E+000	3.57820E+000	10	...........
	18	0.253333	7.20491E-001	5.99664E-003	0.00000E+000	4.32052E-003	3.59960E-001	-1.07821E+000	3.57820E+000	10	...........
	19	0.266667	7.26607E-001	5.99397E-003	0.00000E+000	4.35526E-003	3.59960E-001	-1.08605E+000	3.57820E+000	10	...........
	20	0.28	7.32681E-001	5.99327E-003	0.00000E+000	4.39116E-003	3.59960E-001	-1.08491E+000	3.57820E+000	10	...........
	21	0.293333	7.38819E-001	5.99842E-003	0.00000E+000	4.43175E-003	3.59960E-001	-1.07755E+000	3.57820E+000	10	...........
	22	0.306667	7.44912E-001	5.99487E-003	0.00000E+000	4.46565E-003	3.59960E-001	-1.08582E+000	3.57820E+000	10	...........
	23	0.32	7.50958E-001	5.99966E-003	0.00000E+000	4.50550E-003	3.59960E-001	-1.08480E+000	3.57820E+000	10	...........
	24	0.333333	7.57033E-001	5.99451E-003	0.00000E+000	4.53804E-003	3.59960E-001	-1.07771E+000	3.57820E+000	10	...........
	25	0.346667	7.63091E-001	5.98930E-003	0.00000E+000	4.57038E-003	3.59960E-001	-1.08564E+000	3.57820E+000	10	...........
	26	0.36	7.69157E-001	5.99580E-003	0.00000E+000	4.61172E-003	3.59960E-001	-1.08451E+000	3.57820E+000	10	...........
	27	0.373333	7.75221E-001	5.99517E-003	0.00000E+000	4.64758E-003	3.59960E-001	-1.07769E+000	3.57820E+000	10	...........
	28	0.386667	7.81271E-001	5.99499E-003	0.00000E+000	4.68371E-003	3.59960E-001	-1.08574E+000	3.57820E+000	10	...........
	29	0.4	7.87308E-001	5.99199E-003	0.00000E+000	4.71754E-003	3.59960E-001	-1.08476E+000	3.57820E+000	10	...........
	30	0.413333	7.93313E-001	5.99709E-003	0.00000E+000	4.75756E-003	3.59960E-001	-1.07751E+000	3.57820E+000	10	...........
	31	0.426667	7.99346E-001	5.99683E-003	0.00000E+000	4.79354E-003	3.59960E-001	-1.08549E+000	3.57820E+000	10	...........
	32	0.44	8.05377E-001	5.99455E-003	0.00000E+000	4.82788E-003	3.59960E-001	-1.08459E+000	3.57820E+000	10	...........
	33	0.453333	8.11370E-001	5.99681E-003	0.00000E+000	4.86563E-003	3.59960E-001	-1.07736E+000	3.57820E+000	10	...........
	34	0.466667	8.17400E-001	5.99401E-003	0.00000E+000	4.89951E-003	3.59960E-001	-1.08554E+000	3.57820E+000	10	...........
	35	0.48	8.23387E-001	5.99528E-003	0.00000E+000	4.93644E-003	3.59960E-001	-1.08453E+000	3.57820E+000	10	...........
	36	0.493333	8.29380E-001	5.99481E-003	0.00000E+000	4.97198E-003	3.59960E-001	-1.07736E+000	3.57799E+000	10	...........
	37	0.506667	8.35351E-001	5.99023E-003	0.00000E+000	5.00395E-003	3.59960E-001	-1.08570E+000	3.57750E+000	10	...........
	38	0.52	8.41294E-001	5.99589E-003	0.00000E+000	5.04431E-003	3.59960E-001	-1.08455E+000	3.57750E+000	10	...........
	39	0.533333	8.47338E-001	5.99536E-003	0.00000E+000	5.08009E-003	3.59960E-001	-1.07735E+000	3.57750E+000	10	...........
	40	0.546667	8.53290E-001	5.99722E-003	0.00000E+000	5.11737E-003	3.59960E-001	-1.08542E+000	3.57750E+000	10	...........
	41	0.56	8.59204E-001	5.99273E-003	0.00000E+000	5.14898E-003	3.59960E-001	-1.08450E+000	3.57750E+000	10	...........
	42	0.573333	8.65128E-001	5.99319E-003	0.00000E+000	5.18487E-003	3.59960E-001	-1.07746E+000	3.57750E+000	10	...........
	43	0.586667	8.71110E-001	5.99198E-003	0.00000E+000	5.21967E-003	3.59960E-001	-1.08515E+000	3.57750E+000	10	...........
	44	0.6	8.77027E-001	5.99338E-003	0.00000E+000	5.25636E-003	3.59960E-001	-1.08400E+000	3.57750E+000	10	...........
	45	0.613333	8.82927E-001	5.99234E-003	0.00000E+000	5.29080E-003	3.59960E-001	-1.07704E+000	3.57750E+000	10	...........
	46	0.626667	8.88830E-001	5.99211E-003	0.00000E+000	5.32597E-003	3.59960E-001	-1.08482E+000	3.57750E+000	10	...........
	47	0.64	8.94715E-001	5.99692E-003	0.00000E+000	5.36554E-003	3.59960E-001	-1.08398E+000	3.57750E+000	10	...........
	48	0.653333	9.00556E-001	5.99557E-003	0.00000E+000	5.39935E-003	3.59960E-001	-1.07691E+000	3.57750E+000	10	...........
	49	0.666667	9.06408E-001	5.99543E-003	0.00000E+000	5.43431E-003	3.59960E-001	-1.08503E+000	3.57750E+000	10	...........
	50	0.68	9.12211E-001	5.99545E-003	0.00000E+000	5.46912E-003	3.59960E-001	-1.08391E+000	3.57750E+000	10	...........
	51	0.693333	9.18011E-001	5.99528E-003	0.00000E+000	5.50374E-003	3.59960E-001	-1.07667E+000	3.57750E+000	10	...........
	52	0.706667	9.23825E-001	5.99465E-003	0.00000E+000	5.53800E-003	3.59960E-001	-1.08475E+000	3.57750E+000	10	...........
	53	0.72	9.29564E-001	5.99611E-003	0.00000E+000	5.57377E-003	3.59960E-001	-1.08410E+000	3.57750E+000	10	...........
	54	0.733333	9.35238E-001	5.99074E-003	0.00000E+000	5.60276E-003	3.59960E-001	-1.07674E+000	3.57750E+000	10	...........
	55	0.746667	9.40936E-001	5.99384E-003	0.00000E+000	5.63982E-003	3.59960E-001	-1.08444E+000	3.57750E+000	10	...........
	56	0.76	9.46677E-001	5.99317E-003	0.00000E+000	5.67359E-003	3.59960E-001	-1.08368E+000	3.57750E+000	10	...........
	57	0.773333	9.52298E-001	5.99679E-003	0.00000E+000	5.71072E-003	3.59960E-001	-1.07639E+000	3.57750E+000	10	...........
	58	0.786667	9.57912E-001	5.99539E-003	0.00000E+000	5.74305E-003	3.59960E-001	-1.08447E+000	3.57750E+000	10	...........
	59	0.8	9.63512E-001	5.99974E-003	0.00000E+000	5.78082E-003	3.59960E-001	-1.08406E+000	3.57750E+000	10	...........
	60	0.813333	9.69019E-001	5.99393E-003	0.00000E+000	5.80823E-003	3.59960E-001	-1.07648E+000	3.57750E+000	10	...........
	61	0.826667	9.74606E-001	5.99400E-003	0.00000E+000	5.84179E-003	3.59960E-001	-1.08434E+000	3.57750E+000	10	...........
	62	0.84	9.80079E-001	5.99858E-003	0.00000E+000	5.87908E-003	3.59960E-001	-1.08405E+000	3.57750E+000	10	...........
	63	0.853333	9.85514E-001	5.99347E-003	0.00000E+000	5.90664E-003	3.59960E-001	-1.07712E+000	3.57750E+000	10	...........
	64	0.866667	9.90953E-001	5.99389E-003	0.00000E+000	5.93966E-003	3.59960E-001	-1.08457E+000	3.57750E+000	10	...........
	65	0.88	9.96341E-001	5.99148E-003	0.00000E+000	5.96956E-003	3.59960E-001	-1.08391E+000	3.57750E+000	10	...........
	66	0.885	9.99984E-001	5.99182E-003	0.00000E+000	5.99172E-003	3.59960E-001	-1.08156E+000	3.57750E+000	10	...........
STARTTIMEOFFSET	QUANT	312.1034	Start Time Offset (s)