File: Data/CV_CRGO300517_1/PWRCCD_CRGO300517_1/CHARGE_DISCHARGE/CHARGE_#463.DTA
EXPLAIN
TAG	PWR800_CHARGE
TITLE	LABEL	PWR Cyclic Charge Discharge (Cell) - Charge Step	Test &Identifier
DATE	LABEL	22-6-2017	Date
TIME	LABEL	15:54:28	Time
NOTES	NOTES	3	&Notes...
	supercap test cell
	0.6mg
	6M KOH
PSTAT	PSTAT	IFC5000-01520	Potentiostat
CAPACITY	QUANT	1.00000E-003	Capacity (A-hr)
CELLTYPE	SELECTOR	1	&Cell Type
WORKINGCONNECTION	SELECTOR	0	&Working Lead
MAXCHARGETIME	VARIABLEANDUNITS	1.00000E+002	s	1.00000E+002	second(s)	Max &Charge Time
CHARGECURRENT	QUANT	6.00000E-003	&Charge Current (A)
VOLTAGEFINISH	TWOPARAM	F	1.00000E-003	3.60000E+003	&Voltage Finish	 I (A) < 	Max Time(s)
SAMPLETIME	QUANT	1.00000E-002	Sa&mple Period (s)
CHARGESTOPAT1	MULTIPARAM	4	1.00000E+000	Charge Stop At &1	Voltage > Limit	V
CHARGESTOPAT2	MULTIPARAM	0	0.00000E+000	Charge Stop At &2	None	N/A
AESBHCSELECTOR	TOGGLE	F	Save Both Half Cells
IRCOMP	TOGGLE	F	IR &Measure
EOC	QUANT	0	Open Circuit (V)
SEQUENCER	TOGGLE	TRUE	Run as Sequence
PSTATMODEL	IQUANT	53	Pstat Model
PSTATSECTION	LABEL	IFC5000-01520	Pstat Section
PSTATSERIALNO	LABEL	01520	Pstat Serial Number
CTRLMODE	IQUANT	0	Control Mode
ELECTROMETER	IQUANT	1	RE=0 or CS=1
IESTAB	IQUANT	0	I/E Stability
CASPEED	IQUANT	4	Control Amp Speed
CONVENTION	IQUANT	1	Current Convention
ICHRANGE	IQUANT	2	Ich Range
ICHRANGEMODE	TOGGLE	T	Ich Auto Range
ICHOFFSETENABLE	TOGGLE	F	Ich Offset Enable
ICHOFFSET	QUANT	0	Ich Offset (V)
ICHFILTER	IQUANT	1	Ich Filter
VCHRANGE	IQUANT	2	Vch Range
VCHRANGEMODE	TOGGLE	T	Vch Auto Range
VCHOFFSETENABLE	TOGGLE	F	Vch Offset Enable
VCHOFFSET	QUANT	0	Vch Offset (V)
VCHFILTER	IQUANT	1	Vch Filter
IERANGELOWERLIMIT	IQUANT	9	I/E Range Lower Limit
IERANGEMODE	TOGGLE	F	I/E AutoRange
IERANGE	IQUANT	10	I/E Range
ACHSELECT	IQUANT	1	Ach Select
ACHRANGE	IQUANT	2	Ach Range
ACHOFFSETENABLE	TOGGLE	F	Ach Offset Enable
ACHOFFSET	QUANT	0	Ach Offset (V)
ACHFILTER	IQUANT	1	Ach Filter
CABLEID	IQUANT	14	Cable ID
DCCALDATE	LABEL	20-10-2016	DC Calibration Date
ACCALDATE	LABEL	12/3/2015	AC Calibration Date
FRAMEWORKVERSION	QUANT	7.01	Framework Version
INSTRUMENTVERSION	LABEL	4.00	Instrument Version
CURVE	TABLE	59
	Pt	T	Vf	Im	Vu	Pwr	Sig	Ach	Temp	IERange	Over
	#	s	V	A	V	W	V	V	deg C	#	bits
	0	0.013333	6.29343E-001	5.99670E-003	0.00000E+000	3.77398E-003	3.59960E-001	-1.13537E+000	3.57690E+000	10	...........
	1	0.026667	6.38153E-001	5.99177E-003	0.00000E+000	3.82366E-003	3.59960E-001	-1.13485E+000	3.57690E+000	10	...........
	2	0.04	6.46278E-001	5.99576E-003	0.00000E+000	3.87493E-003	3.59960E-001	-1.12759E+000	3.57690E+000	10	...........
	3	0.053333	6.53951E-001	5.99747E-003	0.00000E+000	3.92205E-003	3.59960E-001	-1.13489E+000	3.57690E+000	10	...........
	4	0.066667	6.61390E-001	5.99314E-003	0.00000E+000	3.96381E-003	3.59960E-001	-1.13461E+000	3.57690E+000	10	...........
	5	0.08	6.68675E-001	5.99505E-003	0.00000E+000	4.00874E-003	3.59960E-001	-1.12722E+000	3.57690E+000	10	...........
	6	0.093333	6.75704E-001	5.99749E-003	0.00000E+000	4.05253E-003	3.59960E-001	-1.13479E+000	3.57690E+000	10	...........
	7	0.106667	6.82672E-001	5.99314E-003	0.00000E+000	4.09135E-003	3.59960E-001	-1.13471E+000	3.57690E+000	10	...........
	8	0.12	6.89554E-001	5.99501E-003	0.00000E+000	4.13389E-003	3.59960E-001	-1.12726E+000	3.57690E+000	10	...........
	9	0.133333	6.96398E-001	5.99239E-003	0.00000E+000	4.17309E-003	3.59960E-001	-1.13467E+000	3.57690E+000	10	...........
	10	0.146667	7.03142E-001	5.98892E-003	0.00000E+000	4.21106E-003	3.59960E-001	-1.13453E+000	3.57690E+000	10	...........
	11	0.16	7.09840E-001	5.99459E-003	0.00000E+000	4.25521E-003	3.59960E-001	-1.12745E+000	3.57690E+000	10	...........
	12	0.173333	7.16515E-001	5.99415E-003	0.00000E+000	4.29490E-003	3.59960E-001	-1.13465E+000	3.57690E+000	10	...........
	13	0.186667	7.23124E-001	5.99475E-003	0.00000E+000	4.33495E-003	3.59960E-001	-1.13444E+000	3.57690E+000	10	...........
	14	0.2	7.29707E-001	5.99873E-003	0.00000E+000	4.37731E-003	3.59960E-001	-1.12712E+000	3.57690E+000	10	...........
	15	0.213333	7.36274E-001	5.99463E-003	0.00000E+000	4.41369E-003	3.59960E-001	-1.13469E+000	3.57690E+000	10	...........
	16	0.226667	7.42853E-001	5.99578E-003	0.00000E+000	4.45398E-003	3.59960E-001	-1.13457E+000	3.57690E+000	10	...........
	17	0.24	7.49376E-001	5.99083E-003	0.00000E+000	4.48939E-003	3.59960E-001	-1.12723E+000	3.57690E+000	10	...........
	18	0.253333	7.55894E-001	5.99652E-003	0.00000E+000	4.53273E-003	3.59960E-001	-1.13448E+000	3.57690E+000	10	...........
	19	0.266667	7.62397E-001	6.00041E-003	0.00000E+000	4.57470E-003	3.59960E-001	-1.13450E+000	3.57690E+000	10	...........
	20	0.28	7.68903E-001	5.99419E-003	0.00000E+000	4.60895E-003	3.59960E-001	-1.12749E+000	3.57690E+000	10	...........
	21	0.293333	7.75343E-001	5.99502E-003	0.00000E+000	4.64820E-003	3.59960E-001	-1.13451E+000	3.57690E+000	10	...........
	22	0.306667	7.81747E-001	5.99012E-003	0.00000E+000	4.68276E-003	3.59960E-001	-1.13472E+000	3.57690E+000	10	...........
	23	0.32	7.88188E-001	5.99260E-003	0.00000E+000	4.72330E-003	3.59960E-001	-1.12739E+000	3.57690E+000	10	...........
	24	0.333333	7.94618E-001	5.98892E-003	0.00000E+000	4.75890E-003	3.59960E-001	-1.13466E+000	3.57690E+000	10	...........
	25	0.346667	8.00997E-001	5.99289E-003	0.00000E+000	4.80029E-003	3.59960E-001	-1.13490E+000	3.57690E+000	10	...........
	26	0.36	8.07374E-001	5.99202E-003	0.00000E+000	4.83780E-003	3.59960E-001	-1.12764E+000	3.57690E+000	10	...........
	27	0.373333	8.13681E-001	5.99387E-003	0.00000E+000	4.87710E-003	3.59960E-001	-1.13464E+000	3.57690E+000	10	...........
	28	0.386667	8.20055E-001	5.99076E-003	0.00000E+000	4.91275E-003	3.59960E-001	-1.13473E+000	3.57690E+000	10	...........
	29	0.4	8.26409E-001	5.99276E-003	0.00000E+000	4.95247E-003	3.59960E-001	-1.12688E+000	3.57690E+000	10	...........
	30	0.413333	8.32728E-001	5.99322E-003	0.00000E+000	4.99072E-003	3.59960E-001	-1.13413E+000	3.57690E+000	10	...........
	31	0.426667	8.39034E-001	5.99930E-003	0.00000E+000	5.03362E-003	3.59960E-001	-1.13462E+000	3.57690E+000	10	...........
	32	0.44	8.45347E-001	5.99500E-003	0.00000E+000	5.06786E-003	3.59960E-001	-1.12719E+000	3.57690E+000	10	...........
	33	0.453333	8.51629E-001	5.99358E-003	0.00000E+000	5.10431E-003	3.59960E-001	-1.13427E+000	3.57690E+000	10	...........
	34	0.466667	8.57855E-001	5.99160E-003	0.00000E+000	5.13993E-003	3.59960E-001	-1.13437E+000	3.57690E+000	10	...........
	35	0.48	8.64150E-001	5.99541E-003	0.00000E+000	5.18093E-003	3.59960E-001	-1.12701E+000	3.57690E+000	10	...........
	36	0.493333	8.70367E-001	5.99293E-003	0.00000E+000	5.21605E-003	3.59960E-001	-1.13425E+000	3.57690E+000	10	...........
	37	0.506667	8.76560E-001	5.99437E-003	0.00000E+000	5.25442E-003	3.59960E-001	-1.13496E+000	3.57690E+000	10	...........
	38	0.52	8.82717E-001	5.98957E-003	0.00000E+000	5.28709E-003	3.59960E-001	-1.12719E+000	3.57690E+000	10	...........
	39	0.533333	8.88879E-001	5.99176E-003	0.00000E+000	5.32595E-003	3.59960E-001	-1.13431E+000	3.57690E+000	10	...........
	40	0.546667	8.94979E-001	5.99429E-003	0.00000E+000	5.36476E-003	3.59960E-001	-1.13495E+000	3.57690E+000	10	...........
	41	0.56	9.01105E-001	5.99222E-003	0.00000E+000	5.39962E-003	3.59960E-001	-1.12758E+000	3.57690E+000	10	...........
	42	0.573333	9.07180E-001	5.99100E-003	0.00000E+000	5.43491E-003	3.59960E-001	-1.13441E+000	3.57690E+000	10	...........
	43	0.586667	9.13223E-001	5.99428E-003	0.00000E+000	5.47412E-003	3.59960E-001	-1.13500E+000	3.57690E+000	10	...........
	44	0.6	9.19269E-001	5.99131E-003	0.00000E+000	5.50763E-003	3.59960E-001	-1.12738E+000	3.57690E+000	10	...........
	45	0.613333	9.25280E-001	5.99747E-003	0.00000E+000	5.54934E-003	3.59960E-001	-1.13450E+000	3.57690E+000	10	...........
	46	0.626667	9.31232E-001	5.99327E-003	0.00000E+000	5.58113E-003	3.59960E-001	-1.13546E+000	3.57690E+000	10	...........
	47	0.64	9.37127E-001	5.99551E-003	0.00000E+000	5.61856E-003	3.59960E-001	-1.12792E+000	3.57690E+000	10	...........
	48	0.653333	9.43007E-001	5.99473E-003	0.00000E+000	5.65307E-003	3.59960E-001	-1.13457E+000	3.57690E+000	10	...........
	49	0.666667	9.48906E-001	5.99641E-003	0.00000E+000	5.69003E-003	3.59960E-001	-1.13537E+000	3.57690E+000	10	...........
	50	0.68	9.54702E-001	5.99243E-003	0.00000E+000	5.72098E-003	3.59960E-001	-1.12771E+000	3.57690E+000	10	...........
	51	0.693333	9.60444E-001	5.99798E-003	0.00000E+000	5.76073E-003	3.59960E-001	-1.13460E+000	3.57690E+000	10	...........
	52	0.706667	9.66140E-001	5.99495E-003	0.00000E+000	5.79196E-003	3.59960E-001	-1.13528E+000	3.57690E+000	10	...........
	53	0.72	9.71810E-001	5.98874E-003	0.00000E+000	5.81992E-003	3.59960E-001	-1.12731E+000	3.57690E+000	10	...........
	54	0.733333	9.77507E-001	5.99416E-003	0.00000E+000	5.85933E-003	3.59960E-001	-1.13400E+000	3.57690E+000	10	...........
	55	0.746667	9.83090E-001	5.98959E-003	0.00000E+000	5.88831E-003	3.59960E-001	-1.13498E+000	3.57690E+000	10	...........
	56	0.76	9.88622E-001	5.99212E-003	0.00000E+000	5.92395E-003	3.59960E-001	-1.12769E+000	3.57690E+000	10	...........
	57	0.773333	9.94101E-001	5.99646E-003	0.00000E+000	5.96109E-003	3.59960E-001	-1.13443E+000	3.57690E+000	10	...........
	58	0.783333	9.98902E-001	5.99358E-003	0.00000E+000	5.98700E-003	3.59960E-001	-1.13306E+000	3.57690E+000	10	...........
STARTTIMEOFFSET	QUANT	801.7368	Start Time Offset (s)