File: Data/CV_CRGO300517_1/PWRCCD_CRGO300517_1/CHARGE_DISCHARGE/CHARGE_#936.DTA
EXPLAIN
TAG	PWR800_CHARGE
TITLE	LABEL	PWR Cyclic Charge Discharge (Cell) - Charge Step	Test &Identifier
DATE	LABEL	22-6-2017	Date
TIME	LABEL	16:12:18	Time
NOTES	NOTES	3	&Notes...
	supercap test cell
	0.6mg
	6M KOH
PSTAT	PSTAT	IFC5000-01520	Potentiostat
CAPACITY	QUANT	1.00000E-003	Capacity (A-hr)
CELLTYPE	SELECTOR	1	&Cell Type
WORKINGCONNECTION	SELECTOR	0	&Working Lead
MAXCHARGETIME	VARIABLEANDUNITS	1.00000E+002	s	1.00000E+002	second(s)	Max &Charge Time
CHARGECURRENT	QUANT	6.00000E-003	&Charge Current (A)
VOLTAGEFINISH	TWOPARAM	F	1.00000E-003	3.60000E+003	&Voltage Finish	 I (A) < 	Max Time(s)
SAMPLETIME	QUANT	1.00000E-002	Sa&mple Period (s)
CHARGESTOPAT1	MULTIPARAM	4	1.00000E+000	Charge Stop At &1	Voltage > Limit	V
CHARGESTOPAT2	MULTIPARAM	0	0.00000E+000	Charge Stop At &2	None	N/A
AESBHCSELECTOR	TOGGLE	F	Save Both Half Cells
IRCOMP	TOGGLE	F	IR &Measure
EOC	QUANT	0	Open Circuit (V)
SEQUENCER	TOGGLE	TRUE	Run as Sequence
PSTATMODEL	IQUANT	53	Pstat Model
PSTATSECTION	LABEL	IFC5000-01520	Pstat Section
PSTATSERIALNO	LABEL	01520	Pstat Serial Number
CTRLMODE	IQUANT	0	Control Mode
ELECTROMETER	IQUANT	1	RE=0 or CS=1
IESTAB	IQUANT	0	I/E Stability
CASPEED	IQUANT	4	Control Amp Speed
CONVENTION	IQUANT	1	Current Convention
ICHRANGE	IQUANT	2	Ich Range
ICHRANGEMODE	TOGGLE	T	Ich Auto Range
ICHOFFSETENABLE	TOGGLE	F	Ich Offset Enable
ICHOFFSET	QUANT	0	Ich Offset (V)
ICHFILTER	IQUANT	1	Ich Filter
VCHRANGE	IQUANT	2	Vch Range
VCHRANGEMODE	TOGGLE	T	Vch Auto Range
VCHOFFSETENABLE	TOGGLE	F	Vch Offset Enable
VCHOFFSET	QUANT	0	Vch Offset (V)
VCHFILTER	IQUANT	1	Vch Filter
IERANGELOWERLIMIT	IQUANT	9	I/E Range Lower Limit
IERANGEMODE	TOGGLE	F	I/E AutoRange
IERANGE	IQUANT	10	I/E Range
ACHSELECT	IQUANT	1	Ach Select
ACHRANGE	IQUANT	2	Ach Range
ACHOFFSETENABLE	TOGGLE	F	Ach Offset Enable
ACHOFFSET	QUANT	0	Ach Offset (V)
ACHFILTER	IQUANT	1	Ach Filter
CABLEID	IQUANT	14	Cable ID
DCCALDATE	LABEL	20-10-2016	DC Calibration Date
ACCALDATE	LABEL	12/3/2015	AC Calibration Date
FRAMEWORKVERSION	QUANT	7.01	Framework Version
INSTRUMENTVERSION	LABEL	4.00	Instrument Version
CURVE	TABLE	53
	Pt	T	Vf	Im	Vu	Pwr	Sig	Ach	Temp	IERange	Over
	#	s	V	A	V	W	V	V	deg C	#	bits
	0	0.013333	6.55433E-001	5.99391E-003	0.00000E+000	3.92860E-003	3.59960E-001	-1.17196E+000	3.57650E+000	10	...........
	1	0.026667	6.64680E-001	5.99190E-003	0.00000E+000	3.98270E-003	3.59960E-001	-1.17841E+000	3.57650E+000	10	...........
	2	0.04	6.73257E-001	5.99137E-003	0.00000E+000	4.03373E-003	3.59960E-001	-1.17975E+000	3.57650E+000	10	...........
	3	0.053333	6.81297E-001	5.99477E-003	0.00000E+000	4.08422E-003	3.59960E-001	-1.17194E+000	3.57650E+000	10	...........
	4	0.066667	6.89092E-001	5.99351E-003	0.00000E+000	4.13008E-003	3.59960E-001	-1.17860E+000	3.57650E+000	10	...........
	5	0.08	6.96734E-001	5.99569E-003	0.00000E+000	4.17740E-003	3.59960E-001	-1.17950E+000	3.57650E+000	10	...........
	6	0.093333	7.04221E-001	5.98967E-003	0.00000E+000	4.21805E-003	3.59960E-001	-1.17155E+000	3.57650E+000	10	...........
	7	0.106667	7.11512E-001	5.99416E-003	0.00000E+000	4.26492E-003	3.59960E-001	-1.17800E+000	3.57650E+000	10	...........
	8	0.12	7.18798E-001	5.99826E-003	0.00000E+000	4.31153E-003	3.59960E-001	-1.17913E+000	3.57650E+000	10	...........
	9	0.133333	7.25971E-001	5.99595E-003	0.00000E+000	4.35289E-003	3.59960E-001	-1.17134E+000	3.57650E+000	10	...........
	10	0.146667	7.33082E-001	5.99543E-003	0.00000E+000	4.39514E-003	3.59960E-001	-1.17785E+000	3.57650E+000	10	...........
	11	0.16	7.40120E-001	5.99305E-003	0.00000E+000	4.43558E-003	3.59960E-001	-1.17887E+000	3.57650E+000	10	...........
	12	0.173333	7.47163E-001	5.99265E-003	0.00000E+000	4.47749E-003	3.59960E-001	-1.17099E+000	3.57650E+000	10	...........
	13	0.186667	7.54134E-001	5.99419E-003	0.00000E+000	4.52042E-003	3.59960E-001	-1.17783E+000	3.57650E+000	10	...........
	14	0.2	7.61081E-001	5.99771E-003	0.00000E+000	4.56474E-003	3.59960E-001	-1.17891E+000	3.57650E+000	10	...........
	15	0.213333	7.67968E-001	5.99308E-003	0.00000E+000	4.60250E-003	3.59960E-001	-1.17088E+000	3.57650E+000	10	...........
	16	0.226667	7.74853E-001	5.99513E-003	0.00000E+000	4.64534E-003	3.59960E-001	-1.17763E+000	3.57650E+000	10	...........
	17	0.24	7.81702E-001	5.99537E-003	0.00000E+000	4.68659E-003	3.59960E-001	-1.17880E+000	3.57661E+000	10	...........
	18	0.253333	7.88496E-001	5.99091E-003	0.00000E+000	4.72381E-003	3.59960E-001	-1.17102E+000	3.57680E+000	10	...........
	19	0.266667	7.95322E-001	5.99463E-003	0.00000E+000	4.76766E-003	3.59960E-001	-1.17781E+000	3.57680E+000	10	...........
	20	0.28	8.02066E-001	5.99146E-003	0.00000E+000	4.80554E-003	3.59960E-001	-1.17862E+000	3.57680E+000	10	...........
	21	0.293333	8.08757E-001	5.99611E-003	0.00000E+000	4.84939E-003	3.59960E-001	-1.17071E+000	3.57680E+000	10	...........
	22	0.306667	8.15480E-001	5.99566E-003	0.00000E+000	4.88934E-003	3.59960E-001	-1.17766E+000	3.57680E+000	10	...........
	23	0.32	8.22187E-001	5.99005E-003	0.00000E+000	4.92494E-003	3.59960E-001	-1.17873E+000	3.57680E+000	10	...........
	24	0.333333	8.28781E-001	5.99374E-003	0.00000E+000	4.96750E-003	3.59960E-001	-1.17110E+000	3.57680E+000	10	...........
	25	0.346667	8.35382E-001	5.99245E-003	0.00000E+000	5.00598E-003	3.59960E-001	-1.17766E+000	3.57680E+000	10	...........
	26	0.36	8.42002E-001	5.99366E-003	0.00000E+000	5.04667E-003	3.59960E-001	-1.17848E+000	3.57680E+000	10	...........
	27	0.373333	8.48587E-001	5.99330E-003	0.00000E+000	5.08584E-003	3.59960E-001	-1.17086E+000	3.57680E+000	10	...........
	28	0.386667	8.55108E-001	5.98973E-003	0.00000E+000	5.12187E-003	3.59960E-001	-1.17766E+000	3.57680E+000	10	...........
	29	0.4	8.61668E-001	5.99112E-003	0.00000E+000	5.16236E-003	3.59960E-001	-1.17855E+000	3.57680E+000	10	...........
	30	0.413333	8.68214E-001	5.99343E-003	0.00000E+000	5.20358E-003	3.59960E-001	-1.17073E+000	3.57680E+000	10	...........
	31	0.426667	8.74640E-001	5.99776E-003	0.00000E+000	5.24588E-003	3.59960E-001	-1.17708E+000	3.57680E+000	10	...........
	32	0.44	8.81065E-001	5.99066E-003	0.00000E+000	5.27816E-003	3.59960E-001	-1.17793E+000	3.57680E+000	10	...........
	33	0.453333	8.87429E-001	5.99566E-003	0.00000E+000	5.32072E-003	3.59960E-001	-1.17037E+000	3.57680E+000	10	...........
	34	0.466667	8.93780E-001	5.99333E-003	0.00000E+000	5.35672E-003	3.59960E-001	-1.17709E+000	3.57680E+000	10	...........
	35	0.48	9.00103E-001	5.99039E-003	0.00000E+000	5.39197E-003	3.59960E-001	-1.17802E+000	3.57680E+000	10	...........
	36	0.493333	9.06379E-001	5.99336E-003	0.00000E+000	5.43226E-003	3.59960E-001	-1.17027E+000	3.57680E+000	10	...........
	37	0.506667	9.12622E-001	5.99680E-003	0.00000E+000	5.47281E-003	3.59960E-001	-1.17709E+000	3.57680E+000	10	...........
	38	0.52	9.18830E-001	5.99425E-003	0.00000E+000	5.50770E-003	3.59960E-001	-1.17810E+000	3.57680E+000	10	...........
	39	0.533333	9.25048E-001	5.99554E-003	0.00000E+000	5.54616E-003	3.59960E-001	-1.17038E+000	3.57680E+000	10	...........
	40	0.546667	9.31166E-001	5.99265E-003	0.00000E+000	5.58016E-003	3.59960E-001	-1.17700E+000	3.57680E+000	10	...........
	41	0.56	9.37230E-001	5.99462E-003	0.00000E+000	5.61833E-003	3.59960E-001	-1.17770E+000	3.57680E+000	10	...........
	42	0.573333	9.43262E-001	5.99458E-003	0.00000E+000	5.65446E-003	3.59960E-001	-1.17036E+000	3.57680E+000	10	...........
	43	0.586667	9.49293E-001	5.99390E-003	0.00000E+000	5.68996E-003	3.59960E-001	-1.17719E+000	3.57680E+000	10	...........
	44	0.6	9.55224E-001	5.99604E-003	0.00000E+000	5.72756E-003	3.59960E-001	-1.17800E+000	3.57680E+000	10	...........
	45	0.613333	9.61087E-001	5.99008E-003	0.00000E+000	5.75699E-003	3.59960E-001	-1.17027E+000	3.57680E+000	10	...........
	46	0.626667	9.66923E-001	5.99250E-003	0.00000E+000	5.79428E-003	3.59960E-001	-1.17694E+000	3.57680E+000	10	...........
	47	0.64	9.72730E-001	5.98897E-003	0.00000E+000	5.82565E-003	3.59960E-001	-1.17795E+000	3.57680E+000	10	...........
	48	0.653333	9.78452E-001	5.99337E-003	0.00000E+000	5.86423E-003	3.59960E-001	-1.17048E+000	3.57680E+000	10	...........
	49	0.666667	9.84128E-001	5.99549E-003	0.00000E+000	5.90033E-003	3.59960E-001	-1.17721E+000	3.57680E+000	10	...........
	50	0.68	9.89763E-001	5.99427E-003	0.00000E+000	5.93291E-003	3.59960E-001	-1.17788E+000	3.57680E+000	10	...........
	51	0.693333	9.95318E-001	5.99486E-003	0.00000E+000	5.96679E-003	3.59960E-001	-1.17005E+000	3.57680E+000	10	...........
	52	0.7	9.99464E-001	5.99552E-003	0.00000E+000	5.99231E-003	3.59960E-001	-1.18472E+000	3.57680E+000	10	...........
STARTTIMEOFFSET	QUANT	1496.452	Start Time Offset (s)