File: Data/CV_CRGO300517_1/PWRCCD_CRGO300517_1/CHARGE_DISCHARGE/CHARGE_#672.DTA
EXPLAIN
TAG	PWR800_CHARGE
TITLE	LABEL	PWR Cyclic Charge Discharge (Cell) - Charge Step	Test &Identifier
DATE	LABEL	22-6-2017	Date
TIME	LABEL	16:02:30	Time
NOTES	NOTES	3	&Notes...
	supercap test cell
	0.6mg
	6M KOH
PSTAT	PSTAT	IFC5000-01520	Potentiostat
CAPACITY	QUANT	1.00000E-003	Capacity (A-hr)
CELLTYPE	SELECTOR	1	&Cell Type
WORKINGCONNECTION	SELECTOR	0	&Working Lead
MAXCHARGETIME	VARIABLEANDUNITS	1.00000E+002	s	1.00000E+002	second(s)	Max &Charge Time
CHARGECURRENT	QUANT	6.00000E-003	&Charge Current (A)
VOLTAGEFINISH	TWOPARAM	F	1.00000E-003	3.60000E+003	&Voltage Finish	 I (A) < 	Max Time(s)
SAMPLETIME	QUANT	1.00000E-002	Sa&mple Period (s)
CHARGESTOPAT1	MULTIPARAM	4	1.00000E+000	Charge Stop At &1	Voltage > Limit	V
CHARGESTOPAT2	MULTIPARAM	0	0.00000E+000	Charge Stop At &2	None	N/A
AESBHCSELECTOR	TOGGLE	F	Save Both Half Cells
IRCOMP	TOGGLE	F	IR &Measure
EOC	QUANT	0	Open Circuit (V)
SEQUENCER	TOGGLE	TRUE	Run as Sequence
PSTATMODEL	IQUANT	53	Pstat Model
PSTATSECTION	LABEL	IFC5000-01520	Pstat Section
PSTATSERIALNO	LABEL	01520	Pstat Serial Number
CTRLMODE	IQUANT	0	Control Mode
ELECTROMETER	IQUANT	1	RE=0 or CS=1
IESTAB	IQUANT	0	I/E Stability
CASPEED	IQUANT	4	Control Amp Speed
CONVENTION	IQUANT	1	Current Convention
ICHRANGE	IQUANT	2	Ich Range
ICHRANGEMODE	TOGGLE	T	Ich Auto Range
ICHOFFSETENABLE	TOGGLE	F	Ich Offset Enable
ICHOFFSET	QUANT	0	Ich Offset (V)
ICHFILTER	IQUANT	1	Ich Filter
VCHRANGE	IQUANT	2	Vch Range
VCHRANGEMODE	TOGGLE	T	Vch Auto Range
VCHOFFSETENABLE	TOGGLE	F	Vch Offset Enable
VCHOFFSET	QUANT	0	Vch Offset (V)
VCHFILTER	IQUANT	1	Vch Filter
IERANGELOWERLIMIT	IQUANT	9	I/E Range Lower Limit
IERANGEMODE	TOGGLE	F	I/E AutoRange
IERANGE	IQUANT	10	I/E Range
ACHSELECT	IQUANT	1	Ach Select
ACHRANGE	IQUANT	2	Ach Range
ACHOFFSETENABLE	TOGGLE	F	Ach Offset Enable
ACHOFFSET	QUANT	0	Ach Offset (V)
ACHFILTER	IQUANT	1	Ach Filter
CABLEID	IQUANT	14	Cable ID
DCCALDATE	LABEL	20-10-2016	DC Calibration Date
ACCALDATE	LABEL	12/3/2015	AC Calibration Date
FRAMEWORKVERSION	QUANT	7.01	Framework Version
INSTRUMENTVERSION	LABEL	4.00	Instrument Version
CURVE	TABLE	56
	Pt	T	Vf	Im	Vu	Pwr	Sig	Ach	Temp	IERange	Over
	#	s	V	A	V	W	V	V	deg C	#	bits
	0	0.013333	6.41713E-001	5.99319E-003	0.00000E+000	3.84590E-003	3.59960E-001	-1.15097E+000	3.57780E+000	10	...........
	1	0.026667	6.50781E-001	5.99234E-003	0.00000E+000	3.89970E-003	3.59960E-001	-1.15907E+000	3.57780E+000	10	...........
	2	0.04	6.59102E-001	5.99486E-003	0.00000E+000	3.95122E-003	3.59960E-001	-1.15757E+000	3.57780E+000	10	...........
	3	0.053333	6.67025E-001	5.99040E-003	0.00000E+000	3.99574E-003	3.59960E-001	-1.15070E+000	3.57780E+000	10	...........
	4	0.066667	6.74640E-001	5.99295E-003	0.00000E+000	4.04308E-003	3.59960E-001	-1.15893E+000	3.57780E+000	10	...........
	5	0.08	6.82055E-001	5.99161E-003	0.00000E+000	4.08661E-003	3.59960E-001	-1.15772E+000	3.57780E+000	10	...........
	6	0.093333	6.89324E-001	5.99263E-003	0.00000E+000	4.13087E-003	3.59960E-001	-1.15081E+000	3.57780E+000	10	...........
	7	0.106667	6.96517E-001	5.99326E-003	0.00000E+000	4.17441E-003	3.59960E-001	-1.15888E+000	3.57780E+000	10	...........
	8	0.12	7.03594E-001	5.99447E-003	0.00000E+000	4.21767E-003	3.59960E-001	-1.15739E+000	3.57780E+000	10	...........
	9	0.133333	7.10561E-001	5.99272E-003	0.00000E+000	4.25819E-003	3.59960E-001	-1.15083E+000	3.57780E+000	10	...........
	10	0.146667	7.17506E-001	5.99357E-003	0.00000E+000	4.30042E-003	3.59960E-001	-1.15913E+000	3.57780E+000	10	...........
	11	0.16	7.24410E-001	5.99310E-003	0.00000E+000	4.34146E-003	3.59960E-001	-1.15799E+000	3.57780E+000	10	...........
	12	0.173333	7.31242E-001	5.99202E-003	0.00000E+000	4.38162E-003	3.59960E-001	-1.15079E+000	3.57780E+000	10	...........
	13	0.186667	7.38016E-001	5.99466E-003	0.00000E+000	4.42415E-003	3.59960E-001	-1.15902E+000	3.57780E+000	10	...........
	14	0.2	7.44818E-001	5.99372E-003	0.00000E+000	4.46423E-003	3.59960E-001	-1.15738E+000	3.57780E+000	10	...........
	15	0.213333	7.51557E-001	5.99354E-003	0.00000E+000	4.50449E-003	3.59960E-001	-1.15079E+000	3.57780E+000	10	...........
	16	0.226667	7.58273E-001	5.99115E-003	0.00000E+000	4.54293E-003	3.59960E-001	-1.15901E+000	3.57780E+000	10	...........
	17	0.24	7.64935E-001	5.99618E-003	0.00000E+000	4.58668E-003	3.59960E-001	-1.15701E+000	3.57780E+000	10	...........
	18	0.253333	7.71606E-001	5.99434E-003	0.00000E+000	4.62527E-003	3.59960E-001	-1.15014E+000	3.57780E+000	10	...........
	19	0.266667	7.78265E-001	5.99677E-003	0.00000E+000	4.66708E-003	3.59960E-001	-1.15864E+000	3.57780E+000	10	...........
	20	0.28	7.84859E-001	5.99155E-003	0.00000E+000	4.70252E-003	3.59960E-001	-1.15701E+000	3.57780E+000	10	...........
	21	0.293333	7.91454E-001	5.99476E-003	0.00000E+000	4.74458E-003	3.59960E-001	-1.15042E+000	3.57780E+000	10	...........
	22	0.306667	7.98094E-001	5.99554E-003	0.00000E+000	4.78501E-003	3.59960E-001	-1.15865E+000	3.57780E+000	10	...........
	23	0.32	8.04600E-001	5.99542E-003	0.00000E+000	4.82392E-003	3.59960E-001	-1.15684E+000	3.57780E+000	10	...........
	24	0.333333	8.11150E-001	5.99492E-003	0.00000E+000	4.86278E-003	3.59960E-001	-1.15045E+000	3.57780E+000	10	...........
	25	0.346667	8.17714E-001	5.99178E-003	0.00000E+000	4.89956E-003	3.59960E-001	-1.15877E+000	3.57780E+000	10	...........
	26	0.36	8.24246E-001	5.99477E-003	0.00000E+000	4.94117E-003	3.59960E-001	-1.15666E+000	3.57780E+000	10	...........
	27	0.373333	8.30680E-001	5.99162E-003	0.00000E+000	4.97712E-003	3.59960E-001	-1.15028E+000	3.57780E+000	10	...........
	28	0.386667	8.37138E-001	5.99312E-003	0.00000E+000	5.01707E-003	3.59960E-001	-1.15866E+000	3.57780E+000	10	...........
	29	0.4	8.43619E-001	5.99570E-003	0.00000E+000	5.05808E-003	3.59960E-001	-1.15669E+000	3.57780E+000	10	...........
	30	0.413333	8.50042E-001	5.99553E-003	0.00000E+000	5.09646E-003	3.59960E-001	-1.15020E+000	3.57780E+000	10	...........
	31	0.426667	8.56428E-001	5.99176E-003	0.00000E+000	5.13151E-003	3.59960E-001	-1.15876E+000	3.57780E+000	10	...........
	32	0.44	8.62803E-001	5.99178E-003	0.00000E+000	5.16973E-003	3.59960E-001	-1.15645E+000	3.57780E+000	10	...........
	33	0.453333	8.69129E-001	5.99305E-003	0.00000E+000	5.20874E-003	3.59960E-001	-1.15040E+000	3.57780E+000	10	...........
	34	0.466667	8.75474E-001	5.98784E-003	0.00000E+000	5.24220E-003	3.59960E-001	-1.15874E+000	3.57780E+000	10	...........
	35	0.48	8.81783E-001	5.99123E-003	0.00000E+000	5.28296E-003	3.59960E-001	-1.15674E+000	3.57780E+000	10	...........
	36	0.493333	8.88041E-001	5.99362E-003	0.00000E+000	5.32259E-003	3.59960E-001	-1.15051E+000	3.57780E+000	10	...........
	37	0.506667	8.94276E-001	5.99529E-003	0.00000E+000	5.36145E-003	3.59960E-001	-1.15902E+000	3.57780E+000	10	...........
	38	0.52	9.00522E-001	5.99579E-003	0.00000E+000	5.39935E-003	3.59960E-001	-1.15653E+000	3.57780E+000	10	...........
	39	0.533333	9.06704E-001	5.99138E-003	0.00000E+000	5.43241E-003	3.59960E-001	-1.15028E+000	3.57780E+000	10	...........
	40	0.546667	9.12854E-001	5.99371E-003	0.00000E+000	5.47138E-003	3.59960E-001	-1.15894E+000	3.57780E+000	10	...........
	41	0.56	9.18985E-001	5.99623E-003	0.00000E+000	5.51045E-003	3.59960E-001	-1.15630E+000	3.57780E+000	10	...........
	42	0.573333	9.25119E-001	5.99640E-003	0.00000E+000	5.54738E-003	3.59960E-001	-1.14998E+000	3.57780E+000	10	...........
	43	0.586667	9.31166E-001	5.99031E-003	0.00000E+000	5.57797E-003	3.59960E-001	-1.15837E+000	3.57780E+000	10	...........
	44	0.6	9.37173E-001	5.99918E-003	0.00000E+000	5.62228E-003	3.59960E-001	-1.15598E+000	3.57780E+000	10	...........
	45	0.613333	9.43092E-001	5.99429E-003	0.00000E+000	5.65317E-003	3.59960E-001	-1.15004E+000	3.57780E+000	10	...........
	46	0.626667	9.49013E-001	5.99148E-003	0.00000E+000	5.68599E-003	3.59960E-001	-1.15872E+000	3.57780E+000	10	...........
	47	0.64	9.54849E-001	5.99047E-003	0.00000E+000	5.72000E-003	3.59960E-001	-1.15593E+000	3.57780E+000	10	...........
	48	0.653333	9.60672E-001	5.99319E-003	0.00000E+000	5.75749E-003	3.59960E-001	-1.14986E+000	3.57780E+000	10	...........
	49	0.666667	9.66444E-001	5.99487E-003	0.00000E+000	5.79370E-003	3.59960E-001	-1.15882E+000	3.57780E+000	10	...........
	50	0.68	9.72186E-001	5.99290E-003	0.00000E+000	5.82622E-003	3.59960E-001	-1.15615E+000	3.57780E+000	10	...........
	51	0.693333	9.77913E-001	5.99761E-003	0.00000E+000	5.86514E-003	3.59960E-001	-1.15032E+000	3.57780E+000	10	...........
	52	0.706667	9.83569E-001	5.99804E-003	0.00000E+000	5.89948E-003	3.59960E-001	-1.15870E+000	3.57780E+000	10	...........
	53	0.72	9.89151E-001	5.99572E-003	0.00000E+000	5.93067E-003	3.59960E-001	-1.15593E+000	3.57780E+000	10	...........
	54	0.733333	9.94683E-001	5.99328E-003	0.00000E+000	5.96142E-003	3.59960E-001	-1.14980E+000	3.57780E+000	10	...........
	55	0.741667	9.99170E-001	5.99501E-003	0.00000E+000	5.99003E-003	3.59960E-001	-1.16426E+000	3.57780E+000	10	...........
STARTTIMEOFFSET	QUANT	1118.006	Start Time Offset (s)