File: Data/CV_CRGO300517_1/PWRCCD_CRGO300517_1/CHARGE_DISCHARGE/CHARGE_#498.DTA
EXPLAIN
TAG	PWR800_CHARGE
TITLE	LABEL	PWR Cyclic Charge Discharge (Cell) - Charge Step	Test &Identifier
DATE	LABEL	22-6-2017	Date
TIME	LABEL	15:55:51	Time
NOTES	NOTES	3	&Notes...
	supercap test cell
	0.6mg
	6M KOH
PSTAT	PSTAT	IFC5000-01520	Potentiostat
CAPACITY	QUANT	1.00000E-003	Capacity (A-hr)
CELLTYPE	SELECTOR	1	&Cell Type
WORKINGCONNECTION	SELECTOR	0	&Working Lead
MAXCHARGETIME	VARIABLEANDUNITS	1.00000E+002	s	1.00000E+002	second(s)	Max &Charge Time
CHARGECURRENT	QUANT	6.00000E-003	&Charge Current (A)
VOLTAGEFINISH	TWOPARAM	F	1.00000E-003	3.60000E+003	&Voltage Finish	 I (A) < 	Max Time(s)
SAMPLETIME	QUANT	1.00000E-002	Sa&mple Period (s)
CHARGESTOPAT1	MULTIPARAM	4	1.00000E+000	Charge Stop At &1	Voltage > Limit	V
CHARGESTOPAT2	MULTIPARAM	0	0.00000E+000	Charge Stop At &2	None	N/A
AESBHCSELECTOR	TOGGLE	F	Save Both Half Cells
IRCOMP	TOGGLE	F	IR &Measure
EOC	QUANT	0	Open Circuit (V)
SEQUENCER	TOGGLE	TRUE	Run as Sequence
PSTATMODEL	IQUANT	53	Pstat Model
PSTATSECTION	LABEL	IFC5000-01520	Pstat Section
PSTATSERIALNO	LABEL	01520	Pstat Serial Number
CTRLMODE	IQUANT	0	Control Mode
ELECTROMETER	IQUANT	1	RE=0 or CS=1
IESTAB	IQUANT	0	I/E Stability
CASPEED	IQUANT	4	Control Amp Speed
CONVENTION	IQUANT	1	Current Convention
ICHRANGE	IQUANT	2	Ich Range
ICHRANGEMODE	TOGGLE	T	Ich Auto Range
ICHOFFSETENABLE	TOGGLE	F	Ich Offset Enable
ICHOFFSET	QUANT	0	Ich Offset (V)
ICHFILTER	IQUANT	1	Ich Filter
VCHRANGE	IQUANT	2	Vch Range
VCHRANGEMODE	TOGGLE	T	Vch Auto Range
VCHOFFSETENABLE	TOGGLE	F	Vch Offset Enable
VCHOFFSET	QUANT	0	Vch Offset (V)
VCHFILTER	IQUANT	1	Vch Filter
IERANGELOWERLIMIT	IQUANT	9	I/E Range Lower Limit
IERANGEMODE	TOGGLE	F	I/E AutoRange
IERANGE	IQUANT	10	I/E Range
ACHSELECT	IQUANT	1	Ach Select
ACHRANGE	IQUANT	2	Ach Range
ACHOFFSETENABLE	TOGGLE	F	Ach Offset Enable
ACHOFFSET	QUANT	0	Ach Offset (V)
ACHFILTER	IQUANT	1	Ach Filter
CABLEID	IQUANT	14	Cable ID
DCCALDATE	LABEL	20-10-2016	DC Calibration Date
ACCALDATE	LABEL	12/3/2015	AC Calibration Date
FRAMEWORKVERSION	QUANT	7.01	Framework Version
INSTRUMENTVERSION	LABEL	4.00	Instrument Version
CURVE	TABLE	58
	Pt	T	Vf	Im	Vu	Pwr	Sig	Ach	Temp	IERange	Over
	#	s	V	A	V	W	V	V	deg C	#	bits
	0	0.013333	6.31993E-001	6.00071E-003	0.00000E+000	3.79240E-003	3.59960E-001	-1.14278E+000	3.57710E+000	10	...........
	1	0.026667	6.40829E-001	5.99596E-003	0.00000E+000	3.84238E-003	3.59960E-001	-1.13260E+000	3.57710E+000	10	...........
	2	0.04	6.48973E-001	5.99317E-003	0.00000E+000	3.88940E-003	3.59960E-001	-1.13505E+000	3.57710E+000	10	...........
	3	0.053333	6.56745E-001	5.99057E-003	0.00000E+000	3.93427E-003	3.59960E-001	-1.14235E+000	3.57710E+000	10	...........
	4	0.066667	6.64177E-001	5.99604E-003	0.00000E+000	3.98244E-003	3.59960E-001	-1.13238E+000	3.57710E+000	10	...........
	5	0.08	6.71465E-001	5.99236E-003	0.00000E+000	4.02366E-003	3.59960E-001	-1.13501E+000	3.57710E+000	10	...........
	6	0.093333	6.78586E-001	5.99269E-003	0.00000E+000	4.06655E-003	3.59960E-001	-1.14247E+000	3.57710E+000	10	...........
	7	0.106667	6.85619E-001	5.99010E-003	0.00000E+000	4.10693E-003	3.59960E-001	-1.13235E+000	3.57710E+000	10	...........
	8	0.12	6.92557E-001	5.99164E-003	0.00000E+000	4.14955E-003	3.59960E-001	-1.13444E+000	3.57710E+000	10	...........
	9	0.133333	6.99430E-001	5.99302E-003	0.00000E+000	4.19170E-003	3.59960E-001	-1.14219E+000	3.57710E+000	10	...........
	10	0.146667	7.06189E-001	5.99223E-003	0.00000E+000	4.23165E-003	3.59960E-001	-1.13226E+000	3.57710E+000	10	...........
	11	0.16	7.12922E-001	5.99299E-003	0.00000E+000	4.27253E-003	3.59960E-001	-1.13477E+000	3.57710E+000	10	...........
	12	0.173333	7.19670E-001	5.99396E-003	0.00000E+000	4.31367E-003	3.59960E-001	-1.14174E+000	3.57710E+000	10	...........
	13	0.186667	7.26330E-001	5.99601E-003	0.00000E+000	4.35509E-003	3.59960E-001	-1.13143E+000	3.57710E+000	10	...........
	14	0.2	7.32948E-001	5.99279E-003	0.00000E+000	4.39240E-003	3.59960E-001	-1.13404E+000	3.57714E+000	10	...........
	15	0.213333	7.39561E-001	5.99497E-003	0.00000E+000	4.43365E-003	3.59960E-001	-1.14146E+000	3.57720E+000	10	...........
	16	0.226667	7.46131E-001	5.99631E-003	0.00000E+000	4.47403E-003	3.59960E-001	-1.13136E+000	3.57720E+000	10	...........
	17	0.24	7.52664E-001	5.99536E-003	0.00000E+000	4.51249E-003	3.59960E-001	-1.13368E+000	3.57720E+000	10	...........
	18	0.253333	7.59220E-001	5.99313E-003	0.00000E+000	4.55011E-003	3.59960E-001	-1.14087E+000	3.57720E+000	10	...........
	19	0.266667	7.65719E-001	5.99843E-003	0.00000E+000	4.59311E-003	3.59960E-001	-1.13120E+000	3.57720E+000	10	...........
	20	0.28	7.72244E-001	5.99400E-003	0.00000E+000	4.62883E-003	3.59960E-001	-1.13370E+000	3.57720E+000	10	...........
	21	0.293333	7.78687E-001	5.99306E-003	0.00000E+000	4.66672E-003	3.59960E-001	-1.14094E+000	3.57720E+000	10	...........
	22	0.306667	7.85151E-001	5.99335E-003	0.00000E+000	4.70569E-003	3.59960E-001	-1.13093E+000	3.57720E+000	10	...........
	23	0.32	7.91627E-001	5.99299E-003	0.00000E+000	4.74421E-003	3.59960E-001	-1.13327E+000	3.57720E+000	10	...........
	24	0.333333	7.98064E-001	5.99259E-003	0.00000E+000	4.78247E-003	3.59960E-001	-1.14068E+000	3.57720E+000	10	...........
	25	0.346667	8.04490E-001	5.99202E-003	0.00000E+000	4.82052E-003	3.59960E-001	-1.13074E+000	3.57720E+000	10	...........
	26	0.36	8.10910E-001	5.99302E-003	0.00000E+000	4.85980E-003	3.59960E-001	-1.13331E+000	3.57720E+000	10	...........
	27	0.373333	8.17280E-001	5.99130E-003	0.00000E+000	4.89657E-003	3.59960E-001	-1.14049E+000	3.57720E+000	10	...........
	28	0.386667	8.23708E-001	5.99551E-003	0.00000E+000	4.93855E-003	3.59960E-001	-1.13042E+000	3.57720E+000	10	...........
	29	0.4	8.30087E-001	5.99625E-003	0.00000E+000	4.97741E-003	3.59960E-001	-1.13302E+000	3.57720E+000	10	...........
	30	0.413333	8.36421E-001	5.99290E-003	0.00000E+000	5.01259E-003	3.59960E-001	-1.14067E+000	3.57720E+000	10	...........
	31	0.426667	8.42705E-001	5.99529E-003	0.00000E+000	5.05226E-003	3.59960E-001	-1.13036E+000	3.57720E+000	10	...........
	32	0.44	8.49059E-001	5.99197E-003	0.00000E+000	5.08753E-003	3.59960E-001	-1.13287E+000	3.57720E+000	10	...........
	33	0.453333	8.55349E-001	5.99407E-003	0.00000E+000	5.12703E-003	3.59960E-001	-1.13999E+000	3.57720E+000	10	...........
	34	0.466667	8.61642E-001	5.99310E-003	0.00000E+000	5.16391E-003	3.59960E-001	-1.12993E+000	3.57720E+000	10	...........
	35	0.48	8.67863E-001	5.99653E-003	0.00000E+000	5.20417E-003	3.59960E-001	-1.13263E+000	3.57720E+000	10	...........
	36	0.493333	8.74080E-001	5.99526E-003	0.00000E+000	5.24034E-003	3.59960E-001	-1.13972E+000	3.57720E+000	10	...........
	37	0.506667	8.80295E-001	5.99269E-003	0.00000E+000	5.27533E-003	3.59960E-001	-1.12957E+000	3.57720E+000	10	...........
	38	0.52	8.86493E-001	5.99199E-003	0.00000E+000	5.31186E-003	3.59960E-001	-1.13188E+000	3.57720E+000	10	...........
	39	0.533333	8.92634E-001	5.99694E-003	0.00000E+000	5.35308E-003	3.59960E-001	-1.13936E+000	3.57720E+000	10	...........
	40	0.546667	8.98762E-001	5.99600E-003	0.00000E+000	5.38898E-003	3.59960E-001	-1.12958E+000	3.57720E+000	10	...........
	41	0.56	9.04824E-001	5.99225E-003	0.00000E+000	5.42193E-003	3.59960E-001	-1.13196E+000	3.57720E+000	10	...........
	42	0.573333	9.10935E-001	5.98985E-003	0.00000E+000	5.45636E-003	3.59960E-001	-1.13948E+000	3.57720E+000	10	...........
	43	0.586667	9.16963E-001	5.99786E-003	0.00000E+000	5.49982E-003	3.59960E-001	-1.12939E+000	3.57720E+000	10	...........
	44	0.6	9.23027E-001	5.98853E-003	0.00000E+000	5.52758E-003	3.59960E-001	-1.13172E+000	3.57720E+000	10	...........
	45	0.613333	9.29008E-001	5.99292E-003	0.00000E+000	5.56746E-003	3.59960E-001	-1.13936E+000	3.57720E+000	10	...........
	46	0.626667	9.34934E-001	5.99314E-003	0.00000E+000	5.60319E-003	3.59960E-001	-1.12931E+000	3.57720E+000	10	...........
	47	0.64	9.40815E-001	5.99442E-003	0.00000E+000	5.63964E-003	3.59960E-001	-1.13170E+000	3.57720E+000	10	...........
	48	0.653333	9.46707E-001	5.99325E-003	0.00000E+000	5.67385E-003	3.59960E-001	-1.13907E+000	3.57720E+000	10	...........
	49	0.666667	9.52589E-001	5.99417E-003	0.00000E+000	5.70998E-003	3.59960E-001	-1.12907E+000	3.57720E+000	10	...........
	50	0.68	9.58372E-001	5.99352E-003	0.00000E+000	5.74402E-003	3.59960E-001	-1.13182E+000	3.57720E+000	10	...........
	51	0.693333	9.64116E-001	5.99076E-003	0.00000E+000	5.77578E-003	3.59960E-001	-1.13956E+000	3.57720E+000	10	...........
	52	0.706667	9.69799E-001	5.99693E-003	0.00000E+000	5.81582E-003	3.59960E-001	-1.12934E+000	3.57720E+000	10	...........
	53	0.72	9.75502E-001	5.99288E-003	0.00000E+000	5.84607E-003	3.59960E-001	-1.13178E+000	3.57720E+000	10	...........
	54	0.733333	9.81106E-001	5.98966E-003	0.00000E+000	5.87649E-003	3.59960E-001	-1.13959E+000	3.57720E+000	10	...........
	55	0.746667	9.86700E-001	5.99468E-003	0.00000E+000	5.91495E-003	3.59960E-001	-1.12973E+000	3.57720E+000	10	...........
	56	0.76	9.92200E-001	6.00025E-003	0.00000E+000	5.95345E-003	3.59960E-001	-1.13254E+000	3.57720E+000	10	...........
	57	0.773333	9.97674E-001	5.99107E-003	0.00000E+000	5.97714E-003	3.59960E-001	-1.13994E+000	3.57720E+000	10	...........
STARTTIMEOFFSET	QUANT	855.9503	Start Time Offset (s)