File: Data/CV_CRGO300517_1/PWRCCD_CRGO300517_1/CHARGE_DISCHARGE/CHARGE_#873.DTA
EXPLAIN
TAG	PWR800_CHARGE
TITLE	LABEL	PWR Cyclic Charge Discharge (Cell) - Charge Step	Test &Identifier
DATE	LABEL	22-6-2017	Date
TIME	LABEL	16:09:59	Time
NOTES	NOTES	3	&Notes...
	supercap test cell
	0.6mg
	6M KOH
PSTAT	PSTAT	IFC5000-01520	Potentiostat
CAPACITY	QUANT	1.00000E-003	Capacity (A-hr)
CELLTYPE	SELECTOR	1	&Cell Type
WORKINGCONNECTION	SELECTOR	0	&Working Lead
MAXCHARGETIME	VARIABLEANDUNITS	1.00000E+002	s	1.00000E+002	second(s)	Max &Charge Time
CHARGECURRENT	QUANT	6.00000E-003	&Charge Current (A)
VOLTAGEFINISH	TWOPARAM	F	1.00000E-003	3.60000E+003	&Voltage Finish	 I (A) < 	Max Time(s)
SAMPLETIME	QUANT	1.00000E-002	Sa&mple Period (s)
CHARGESTOPAT1	MULTIPARAM	4	1.00000E+000	Charge Stop At &1	Voltage > Limit	V
CHARGESTOPAT2	MULTIPARAM	0	0.00000E+000	Charge Stop At &2	None	N/A
AESBHCSELECTOR	TOGGLE	F	Save Both Half Cells
IRCOMP	TOGGLE	F	IR &Measure
EOC	QUANT	0	Open Circuit (V)
SEQUENCER	TOGGLE	TRUE	Run as Sequence
PSTATMODEL	IQUANT	53	Pstat Model
PSTATSECTION	LABEL	IFC5000-01520	Pstat Section
PSTATSERIALNO	LABEL	01520	Pstat Serial Number
CTRLMODE	IQUANT	0	Control Mode
ELECTROMETER	IQUANT	1	RE=0 or CS=1
IESTAB	IQUANT	0	I/E Stability
CASPEED	IQUANT	4	Control Amp Speed
CONVENTION	IQUANT	1	Current Convention
ICHRANGE	IQUANT	2	Ich Range
ICHRANGEMODE	TOGGLE	T	Ich Auto Range
ICHOFFSETENABLE	TOGGLE	F	Ich Offset Enable
ICHOFFSET	QUANT	0	Ich Offset (V)
ICHFILTER	IQUANT	1	Ich Filter
VCHRANGE	IQUANT	2	Vch Range
VCHRANGEMODE	TOGGLE	T	Vch Auto Range
VCHOFFSETENABLE	TOGGLE	F	Vch Offset Enable
VCHOFFSET	QUANT	0	Vch Offset (V)
VCHFILTER	IQUANT	1	Vch Filter
IERANGELOWERLIMIT	IQUANT	9	I/E Range Lower Limit
IERANGEMODE	TOGGLE	F	I/E AutoRange
IERANGE	IQUANT	10	I/E Range
ACHSELECT	IQUANT	1	Ach Select
ACHRANGE	IQUANT	2	Ach Range
ACHOFFSETENABLE	TOGGLE	F	Ach Offset Enable
ACHOFFSET	QUANT	0	Ach Offset (V)
ACHFILTER	IQUANT	1	Ach Filter
CABLEID	IQUANT	14	Cable ID
DCCALDATE	LABEL	20-10-2016	DC Calibration Date
ACCALDATE	LABEL	12/3/2015	AC Calibration Date
FRAMEWORKVERSION	QUANT	7.01	Framework Version
INSTRUMENTVERSION	LABEL	4.00	Instrument Version
CURVE	TABLE	54
	Pt	T	Vf	Im	Vu	Pwr	Sig	Ach	Temp	IERange	Over
	#	s	V	A	V	W	V	V	deg C	#	bits
	0	0.013333	6.52288E-001	5.99133E-003	0.00000E+000	3.90807E-003	3.59960E-001	-1.17151E+000	3.57780E+000	10	...........
	1	0.026667	6.61566E-001	5.99419E-003	0.00000E+000	3.96555E-003	3.59960E-001	-1.17163E+000	3.57780E+000	10	...........
	2	0.04	6.70081E-001	5.99303E-003	0.00000E+000	4.01581E-003	3.59960E-001	-1.16426E+000	3.57780E+000	10	...........
	3	0.053333	6.78156E-001	5.99112E-003	0.00000E+000	4.06292E-003	3.59960E-001	-1.17169E+000	3.57780E+000	10	...........
	4	0.066667	6.85899E-001	5.99049E-003	0.00000E+000	4.10887E-003	3.59960E-001	-1.17146E+000	3.57780E+000	10	...........
	5	0.08	6.93489E-001	5.99281E-003	0.00000E+000	4.15595E-003	3.59960E-001	-1.16413E+000	3.57780E+000	10	...........
	6	0.093333	7.00943E-001	5.99458E-003	0.00000E+000	4.20186E-003	3.59960E-001	-1.17113E+000	3.57780E+000	10	...........
	7	0.106667	7.08224E-001	5.99359E-003	0.00000E+000	4.24480E-003	3.59960E-001	-1.17112E+000	3.57780E+000	10	...........
	8	0.12	7.15420E-001	5.99549E-003	0.00000E+000	4.28929E-003	3.59960E-001	-1.16414E+000	3.57780E+000	10	...........
	9	0.133333	7.22588E-001	5.99495E-003	0.00000E+000	4.33188E-003	3.59960E-001	-1.17137E+000	3.57780E+000	10	...........
	10	0.146667	7.29677E-001	5.99571E-003	0.00000E+000	4.37493E-003	3.59960E-001	-1.17102E+000	3.57780E+000	10	...........
	11	0.16	7.36665E-001	5.98998E-003	0.00000E+000	4.41261E-003	3.59960E-001	-1.16376E+000	3.57780E+000	10	...........
	12	0.173333	7.43678E-001	5.99385E-003	0.00000E+000	4.45750E-003	3.59960E-001	-1.17136E+000	3.57780E+000	10	...........
	13	0.186667	7.50631E-001	5.99370E-003	0.00000E+000	4.49905E-003	3.59960E-001	-1.17104E+000	3.57780E+000	10	...........
	14	0.2	7.57553E-001	5.99338E-003	0.00000E+000	4.54031E-003	3.59960E-001	-1.16383E+000	3.57780E+000	10	...........
	15	0.213333	7.64398E-001	5.99441E-003	0.00000E+000	4.58211E-003	3.59960E-001	-1.17130E+000	3.57780E+000	10	...........
	16	0.226667	7.71184E-001	5.99471E-003	0.00000E+000	4.62303E-003	3.59960E-001	-1.17071E+000	3.57780E+000	10	...........
	17	0.24	7.77998E-001	5.99010E-003	0.00000E+000	4.66029E-003	3.59960E-001	-1.16389E+000	3.57780E+000	10	...........
	18	0.253333	7.84806E-001	5.99516E-003	0.00000E+000	4.70503E-003	3.59960E-001	-1.17139E+000	3.57780E+000	10	...........
	19	0.266667	7.91532E-001	5.99266E-003	0.00000E+000	4.74339E-003	3.59960E-001	-1.17060E+000	3.57780E+000	10	...........
	20	0.28	7.98239E-001	5.99840E-003	0.00000E+000	4.78816E-003	3.59960E-001	-1.16369E+000	3.57780E+000	10	...........
	21	0.293333	8.04926E-001	5.99102E-003	0.00000E+000	4.82232E-003	3.59960E-001	-1.17108E+000	3.57780E+000	10	...........
	22	0.306667	8.11571E-001	5.99104E-003	0.00000E+000	4.86215E-003	3.59960E-001	-1.17037E+000	3.57780E+000	10	...........
	23	0.32	8.18231E-001	5.99582E-003	0.00000E+000	4.90596E-003	3.59960E-001	-1.16337E+000	3.57780E+000	10	...........
	24	0.333333	8.24896E-001	5.99600E-003	0.00000E+000	4.94608E-003	3.59960E-001	-1.17088E+000	3.57780E+000	10	...........
	25	0.346667	8.31493E-001	5.99724E-003	0.00000E+000	4.98667E-003	3.59960E-001	-1.16986E+000	3.57780E+000	10	...........
	26	0.36	8.38070E-001	5.99224E-003	0.00000E+000	5.02192E-003	3.59960E-001	-1.16320E+000	3.57780E+000	10	...........
	27	0.373333	8.44657E-001	5.99617E-003	0.00000E+000	5.06470E-003	3.59960E-001	-1.17105E+000	3.57780E+000	10	...........
	28	0.386667	8.51160E-001	5.99003E-003	0.00000E+000	5.09847E-003	3.59960E-001	-1.17016E+000	3.57780E+000	10	...........
	29	0.4	8.57653E-001	5.99175E-003	0.00000E+000	5.13884E-003	3.59960E-001	-1.16323E+000	3.57780E+000	10	...........
	30	0.413333	8.64144E-001	5.99992E-003	0.00000E+000	5.18480E-003	3.59960E-001	-1.17101E+000	3.57780E+000	10	...........
	31	0.426667	8.70621E-001	5.99739E-003	0.00000E+000	5.22145E-003	3.59960E-001	-1.16969E+000	3.57780E+000	10	...........
	32	0.44	8.77010E-001	5.99153E-003	0.00000E+000	5.25463E-003	3.59960E-001	-1.16305E+000	3.57780E+000	10	...........
	33	0.453333	8.83410E-001	5.99441E-003	0.00000E+000	5.29552E-003	3.59960E-001	-1.17113E+000	3.57780E+000	10	...........
	34	0.466667	8.89776E-001	5.99550E-003	0.00000E+000	5.33465E-003	3.59960E-001	-1.16970E+000	3.57780E+000	10	...........
	35	0.48	8.96078E-001	5.99228E-003	0.00000E+000	5.36955E-003	3.59960E-001	-1.16306E+000	3.57780E+000	10	...........
	36	0.493333	9.02377E-001	5.98979E-003	0.00000E+000	5.40504E-003	3.59960E-001	-1.17081E+000	3.57780E+000	10	...........
	37	0.506667	9.08603E-001	5.99602E-003	0.00000E+000	5.44800E-003	3.59960E-001	-1.16961E+000	3.57780E+000	10	...........
	38	0.52	9.14810E-001	5.99747E-003	0.00000E+000	5.48655E-003	3.59960E-001	-1.16344E+000	3.57780E+000	10	...........
	39	0.533333	9.20974E-001	5.99201E-003	0.00000E+000	5.51848E-003	3.59960E-001	-1.17126E+000	3.57780E+000	10	...........
	40	0.546667	9.27158E-001	5.99408E-003	0.00000E+000	5.55746E-003	3.59960E-001	-1.16954E+000	3.57780E+000	10	...........
	41	0.56	9.33292E-001	5.99387E-003	0.00000E+000	5.59403E-003	3.59960E-001	-1.16322E+000	3.57780E+000	10	...........
	42	0.573333	9.39312E-001	5.99716E-003	0.00000E+000	5.63320E-003	3.59960E-001	-1.17122E+000	3.57780E+000	10	...........
	43	0.586667	9.45307E-001	5.99491E-003	0.00000E+000	5.66703E-003	3.59960E-001	-1.16952E+000	3.57780E+000	10	...........
	44	0.6	9.51281E-001	5.99450E-003	0.00000E+000	5.70245E-003	3.59960E-001	-1.16328E+000	3.57780E+000	10	...........
	45	0.613333	9.57147E-001	5.99448E-003	0.00000E+000	5.73760E-003	3.59960E-001	-1.17119E+000	3.57780E+000	10	...........
	46	0.626667	9.63004E-001	5.99211E-003	0.00000E+000	5.77043E-003	3.59960E-001	-1.16915E+000	3.57780E+000	10	...........
	47	0.64	9.68770E-001	5.99327E-003	0.00000E+000	5.80610E-003	3.59960E-001	-1.16271E+000	3.57780E+000	10	...........
	48	0.653333	9.74607E-001	5.99243E-003	0.00000E+000	5.84026E-003	3.59960E-001	-1.17093E+000	3.57780E+000	10	...........
	49	0.666667	9.80325E-001	5.99930E-003	0.00000E+000	5.88126E-003	3.59960E-001	-1.16922E+000	3.57780E+000	10	...........
	50	0.68	9.85974E-001	5.99448E-003	0.00000E+000	5.91040E-003	3.59960E-001	-1.16274E+000	3.57780E+000	10	...........
	51	0.693333	9.91553E-001	5.99626E-003	0.00000E+000	5.94562E-003	3.59960E-001	-1.17089E+000	3.57780E+000	10	...........
	52	0.706667	9.97107E-001	5.99425E-003	0.00000E+000	5.97691E-003	3.59960E-001	-1.16890E+000	3.57780E+000	10	...........
	53	0.708333	1.00022E+000	5.99404E-003	0.00000E+000	5.99538E-003	3.59960E-001	-1.17479E+000	3.57780E+000	10	...........
STARTTIMEOFFSET	QUANT	1408.017	Start Time Offset (s)