File: Data/CV_CRGO300517_1/PWRCCD_CRGO300517_1/CHARGE_DISCHARGE/CHARGE_#628.DTA
EXPLAIN
TAG	PWR800_CHARGE
TITLE	LABEL	PWR Cyclic Charge Discharge (Cell) - Charge Step	Test &Identifier
DATE	LABEL	22-6-2017	Date
TIME	LABEL	16:00:50	Time
NOTES	NOTES	3	&Notes...
	supercap test cell
	0.6mg
	6M KOH
PSTAT	PSTAT	IFC5000-01520	Potentiostat
CAPACITY	QUANT	1.00000E-003	Capacity (A-hr)
CELLTYPE	SELECTOR	1	&Cell Type
WORKINGCONNECTION	SELECTOR	0	&Working Lead
MAXCHARGETIME	VARIABLEANDUNITS	1.00000E+002	s	1.00000E+002	second(s)	Max &Charge Time
CHARGECURRENT	QUANT	6.00000E-003	&Charge Current (A)
VOLTAGEFINISH	TWOPARAM	F	1.00000E-003	3.60000E+003	&Voltage Finish	 I (A) < 	Max Time(s)
SAMPLETIME	QUANT	1.00000E-002	Sa&mple Period (s)
CHARGESTOPAT1	MULTIPARAM	4	1.00000E+000	Charge Stop At &1	Voltage > Limit	V
CHARGESTOPAT2	MULTIPARAM	0	0.00000E+000	Charge Stop At &2	None	N/A
AESBHCSELECTOR	TOGGLE	F	Save Both Half Cells
IRCOMP	TOGGLE	F	IR &Measure
EOC	QUANT	0	Open Circuit (V)
SEQUENCER	TOGGLE	TRUE	Run as Sequence
PSTATMODEL	IQUANT	53	Pstat Model
PSTATSECTION	LABEL	IFC5000-01520	Pstat Section
PSTATSERIALNO	LABEL	01520	Pstat Serial Number
CTRLMODE	IQUANT	0	Control Mode
ELECTROMETER	IQUANT	1	RE=0 or CS=1
IESTAB	IQUANT	0	I/E Stability
CASPEED	IQUANT	4	Control Amp Speed
CONVENTION	IQUANT	1	Current Convention
ICHRANGE	IQUANT	2	Ich Range
ICHRANGEMODE	TOGGLE	T	Ich Auto Range
ICHOFFSETENABLE	TOGGLE	F	Ich Offset Enable
ICHOFFSET	QUANT	0	Ich Offset (V)
ICHFILTER	IQUANT	1	Ich Filter
VCHRANGE	IQUANT	2	Vch Range
VCHRANGEMODE	TOGGLE	T	Vch Auto Range
VCHOFFSETENABLE	TOGGLE	F	Vch Offset Enable
VCHOFFSET	QUANT	0	Vch Offset (V)
VCHFILTER	IQUANT	1	Vch Filter
IERANGELOWERLIMIT	IQUANT	9	I/E Range Lower Limit
IERANGEMODE	TOGGLE	F	I/E AutoRange
IERANGE	IQUANT	10	I/E Range
ACHSELECT	IQUANT	1	Ach Select
ACHRANGE	IQUANT	2	Ach Range
ACHOFFSETENABLE	TOGGLE	F	Ach Offset Enable
ACHOFFSET	QUANT	0	Ach Offset (V)
ACHFILTER	IQUANT	1	Ach Filter
CABLEID	IQUANT	14	Cable ID
DCCALDATE	LABEL	20-10-2016	DC Calibration Date
ACCALDATE	LABEL	12/3/2015	AC Calibration Date
FRAMEWORKVERSION	QUANT	7.01	Framework Version
INSTRUMENTVERSION	LABEL	4.00	Instrument Version
CURVE	TABLE	57
	Pt	T	Vf	Im	Vu	Pwr	Sig	Ach	Temp	IERange	Over
	#	s	V	A	V	W	V	V	deg C	#	bits
	0	0.013333	6.39316E-001	5.99065E-003	0.00000E+000	3.82992E-003	3.59960E-001	-1.14136E+000	3.57690E+000	10	...........
	1	0.026667	6.48335E-001	5.99379E-003	0.00000E+000	3.88599E-003	3.59960E-001	-1.14920E+000	3.57690E+000	10	...........
	2	0.04	6.56626E-001	5.99240E-003	0.00000E+000	3.93477E-003	3.59960E-001	-1.14761E+000	3.57690E+000	10	...........
	3	0.053333	6.64507E-001	5.99653E-003	0.00000E+000	3.98474E-003	3.59960E-001	-1.14140E+000	3.57690E+000	10	...........
	4	0.066667	6.72137E-001	5.99642E-003	0.00000E+000	4.03041E-003	3.59960E-001	-1.14935E+000	3.57690E+000	10	...........
	5	0.08	6.79570E-001	5.99802E-003	0.00000E+000	4.07607E-003	3.59960E-001	-1.14733E+000	3.57690E+000	10	...........
	6	0.093333	6.86792E-001	5.99664E-003	0.00000E+000	4.11844E-003	3.59960E-001	-1.14104E+000	3.57690E+000	10	...........
	7	0.106667	6.93948E-001	5.99060E-003	0.00000E+000	4.15717E-003	3.59960E-001	-1.14910E+000	3.57690E+000	10	...........
	8	0.12	7.00937E-001	5.99652E-003	0.00000E+000	4.20319E-003	3.59960E-001	-1.14729E+000	3.57690E+000	10	...........
	9	0.133333	7.07905E-001	5.99313E-003	0.00000E+000	4.24257E-003	3.59960E-001	-1.14087E+000	3.57690E+000	10	...........
	10	0.146667	7.14807E-001	5.98904E-003	0.00000E+000	4.28101E-003	3.59960E-001	-1.14909E+000	3.57690E+000	10	...........
	11	0.16	7.21720E-001	5.99537E-003	0.00000E+000	4.32697E-003	3.59960E-001	-1.14676E+000	3.57690E+000	10	...........
	12	0.173333	7.28501E-001	5.99351E-003	0.00000E+000	4.36628E-003	3.59960E-001	-1.14086E+000	3.57690E+000	10	...........
	13	0.186667	7.35216E-001	5.99539E-003	0.00000E+000	4.40791E-003	3.59960E-001	-1.14925E+000	3.57690E+000	10	...........
	14	0.2	7.41997E-001	5.99084E-003	0.00000E+000	4.44519E-003	3.59960E-001	-1.14657E+000	3.57690E+000	10	...........
	15	0.213333	7.48732E-001	5.99616E-003	0.00000E+000	4.48952E-003	3.59960E-001	-1.14063E+000	3.57690E+000	10	...........
	16	0.226667	7.55414E-001	5.99414E-003	0.00000E+000	4.52805E-003	3.59960E-001	-1.14917E+000	3.57690E+000	10	...........
	17	0.24	7.62039E-001	5.99503E-003	0.00000E+000	4.56845E-003	3.59960E-001	-1.14661E+000	3.57690E+000	10	...........
	18	0.253333	7.68708E-001	5.99376E-003	0.00000E+000	4.60745E-003	3.59960E-001	-1.14076E+000	3.57690E+000	10	...........
	19	0.266667	7.75342E-001	5.99559E-003	0.00000E+000	4.64863E-003	3.59960E-001	-1.14922E+000	3.57690E+000	10	...........
	20	0.28	7.81910E-001	5.99578E-003	0.00000E+000	4.68816E-003	3.59960E-001	-1.14627E+000	3.57690E+000	10	...........
	21	0.293333	7.88497E-001	5.99743E-003	0.00000E+000	4.72896E-003	3.59960E-001	-1.14053E+000	3.57690E+000	10	...........
	22	0.306667	7.95091E-001	5.99396E-003	0.00000E+000	4.76574E-003	3.59960E-001	-1.14931E+000	3.57690E+000	10	...........
	23	0.32	8.01602E-001	5.99628E-003	0.00000E+000	4.80663E-003	3.59960E-001	-1.14632E+000	3.57690E+000	10	...........
	24	0.333333	8.08192E-001	5.99437E-003	0.00000E+000	4.84460E-003	3.59960E-001	-1.14047E+000	3.57690E+000	10	...........
	25	0.346667	8.14650E-001	5.99287E-003	0.00000E+000	4.88210E-003	3.59960E-001	-1.14880E+000	3.57690E+000	10	...........
	26	0.36	8.21142E-001	5.99850E-003	0.00000E+000	4.92561E-003	3.59960E-001	-1.14544E+000	3.57690E+000	10	...........
	27	0.373333	8.27626E-001	5.99682E-003	0.00000E+000	4.96312E-003	3.59960E-001	-1.14018E+000	3.57690E+000	10	...........
	28	0.386667	8.34046E-001	5.99671E-003	0.00000E+000	5.00154E-003	3.59960E-001	-1.14907E+000	3.57690E+000	10	...........
	29	0.4	8.40440E-001	5.99255E-003	0.00000E+000	5.03638E-003	3.59960E-001	-1.14550E+000	3.57690E+000	10	...........
	30	0.413333	8.46872E-001	5.99518E-003	0.00000E+000	5.07715E-003	3.59960E-001	-1.13984E+000	3.57690E+000	10	...........
	31	0.426667	8.53246E-001	5.99221E-003	0.00000E+000	5.11283E-003	3.59960E-001	-1.14873E+000	3.57690E+000	10	...........
	32	0.44	8.59645E-001	5.99627E-003	0.00000E+000	5.15466E-003	3.59960E-001	-1.14539E+000	3.57690E+000	10	...........
	33	0.453333	8.65963E-001	5.99316E-003	0.00000E+000	5.18985E-003	3.59960E-001	-1.13994E+000	3.57690E+000	10	...........
	34	0.466667	8.72334E-001	5.99349E-003	0.00000E+000	5.22833E-003	3.59960E-001	-1.14894E+000	3.57690E+000	10	...........
	35	0.48	8.78595E-001	5.99131E-003	0.00000E+000	5.26394E-003	3.59960E-001	-1.14509E+000	3.57690E+000	10	...........
	36	0.493333	8.84896E-001	5.99439E-003	0.00000E+000	5.30441E-003	3.59960E-001	-1.13963E+000	3.57690E+000	10	...........
	37	0.506667	8.91124E-001	5.99286E-003	0.00000E+000	5.34038E-003	3.59960E-001	-1.14885E+000	3.57690E+000	10	...........
	38	0.52	8.97330E-001	5.99288E-003	0.00000E+000	5.37759E-003	3.59960E-001	-1.14507E+000	3.57690E+000	10	...........
	39	0.533333	9.03486E-001	5.99217E-003	0.00000E+000	5.41384E-003	3.59960E-001	-1.13966E+000	3.57690E+000	10	...........
	40	0.546667	9.09637E-001	5.99625E-003	0.00000E+000	5.45441E-003	3.59960E-001	-1.14901E+000	3.57690E+000	10	...........
	41	0.56	9.15748E-001	5.99331E-003	0.00000E+000	5.48836E-003	3.59960E-001	-1.14474E+000	3.57690E+000	10	...........
	42	0.573333	9.21885E-001	5.99466E-003	0.00000E+000	5.52639E-003	3.59960E-001	-1.13978E+000	3.57690E+000	10	...........
	43	0.586667	9.27875E-001	5.99685E-003	0.00000E+000	5.56432E-003	3.59960E-001	-1.14936E+000	3.57690E+000	10	...........
	44	0.6	9.33825E-001	5.99329E-003	0.00000E+000	5.59668E-003	3.59960E-001	-1.14491E+000	3.57690E+000	10	...........
	45	0.613333	9.39809E-001	5.99520E-003	0.00000E+000	5.63434E-003	3.59960E-001	-1.13975E+000	3.57690E+000	10	...........
	46	0.626667	9.45785E-001	5.99434E-003	0.00000E+000	5.66936E-003	3.59960E-001	-1.14931E+000	3.57690E+000	10	...........
	47	0.64	9.51629E-001	5.99446E-003	0.00000E+000	5.70450E-003	3.59960E-001	-1.14455E+000	3.57690E+000	10	...........
	48	0.653333	9.57501E-001	5.99679E-003	0.00000E+000	5.74193E-003	3.59960E-001	-1.13966E+000	3.57690E+000	10	...........
	49	0.666667	9.63243E-001	5.99133E-003	0.00000E+000	5.77111E-003	3.59960E-001	-1.14899E+000	3.57690E+000	10	...........
	50	0.68	9.69013E-001	5.99059E-003	0.00000E+000	5.80496E-003	3.59960E-001	-1.14386E+000	3.57690E+000	10	...........
	51	0.693333	9.74775E-001	5.99602E-003	0.00000E+000	5.84477E-003	3.59960E-001	-1.13914E+000	3.57690E+000	10	...........
	52	0.706667	9.80421E-001	5.98783E-003	0.00000E+000	5.87059E-003	3.59960E-001	-1.14901E+000	3.57690E+000	10	...........
	53	0.72	9.85984E-001	5.99692E-003	0.00000E+000	5.91287E-003	3.59960E-001	-1.14404E+000	3.57690E+000	10	...........
	54	0.733333	9.91516E-001	5.99517E-003	0.00000E+000	5.94430E-003	3.59960E-001	-1.13906E+000	3.57690E+000	10	...........
	55	0.746667	9.97002E-001	5.99707E-003	0.00000E+000	5.97909E-003	3.59960E-001	-1.14886E+000	3.57690E+000	10	...........
	56	0.748333	1.00012E+000	5.99029E-003	0.00000E+000	5.99103E-003	3.59960E-001	-1.12696E+000	3.57690E+000	10	...........
STARTTIMEOFFSET	QUANT	1052.773	Start Time Offset (s)