File: Data/CV_CRGO300517_1/PWRCCD_CRGO300517_1/CHARGE_DISCHARGE/CHARGE_#306.DTA
EXPLAIN
TAG	PWR800_CHARGE
TITLE	LABEL	PWR Cyclic Charge Discharge (Cell) - Charge Step	Test &Identifier
DATE	LABEL	22-6-2017	Date
TIME	LABEL	15:48:10	Time
NOTES	NOTES	3	&Notes...
	supercap test cell
	0.6mg
	6M KOH
PSTAT	PSTAT	IFC5000-01520	Potentiostat
CAPACITY	QUANT	1.00000E-003	Capacity (A-hr)
CELLTYPE	SELECTOR	1	&Cell Type
WORKINGCONNECTION	SELECTOR	0	&Working Lead
MAXCHARGETIME	VARIABLEANDUNITS	1.00000E+002	s	1.00000E+002	second(s)	Max &Charge Time
CHARGECURRENT	QUANT	6.00000E-003	&Charge Current (A)
VOLTAGEFINISH	TWOPARAM	F	1.00000E-003	3.60000E+003	&Voltage Finish	 I (A) < 	Max Time(s)
SAMPLETIME	QUANT	1.00000E-002	Sa&mple Period (s)
CHARGESTOPAT1	MULTIPARAM	4	1.00000E+000	Charge Stop At &1	Voltage > Limit	V
CHARGESTOPAT2	MULTIPARAM	0	0.00000E+000	Charge Stop At &2	None	N/A
AESBHCSELECTOR	TOGGLE	F	Save Both Half Cells
IRCOMP	TOGGLE	F	IR &Measure
EOC	QUANT	0	Open Circuit (V)
SEQUENCER	TOGGLE	TRUE	Run as Sequence
PSTATMODEL	IQUANT	53	Pstat Model
PSTATSECTION	LABEL	IFC5000-01520	Pstat Section
PSTATSERIALNO	LABEL	01520	Pstat Serial Number
CTRLMODE	IQUANT	0	Control Mode
ELECTROMETER	IQUANT	1	RE=0 or CS=1
IESTAB	IQUANT	0	I/E Stability
CASPEED	IQUANT	4	Control Amp Speed
CONVENTION	IQUANT	1	Current Convention
ICHRANGE	IQUANT	2	Ich Range
ICHRANGEMODE	TOGGLE	T	Ich Auto Range
ICHOFFSETENABLE	TOGGLE	F	Ich Offset Enable
ICHOFFSET	QUANT	0	Ich Offset (V)
ICHFILTER	IQUANT	1	Ich Filter
VCHRANGE	IQUANT	2	Vch Range
VCHRANGEMODE	TOGGLE	T	Vch Auto Range
VCHOFFSETENABLE	TOGGLE	F	Vch Offset Enable
VCHOFFSET	QUANT	0	Vch Offset (V)
VCHFILTER	IQUANT	1	Vch Filter
IERANGELOWERLIMIT	IQUANT	9	I/E Range Lower Limit
IERANGEMODE	TOGGLE	F	I/E AutoRange
IERANGE	IQUANT	10	I/E Range
ACHSELECT	IQUANT	1	Ach Select
ACHRANGE	IQUANT	2	Ach Range
ACHOFFSETENABLE	TOGGLE	F	Ach Offset Enable
ACHOFFSET	QUANT	0	Ach Offset (V)
ACHFILTER	IQUANT	1	Ach Filter
CABLEID	IQUANT	14	Cable ID
DCCALDATE	LABEL	20-10-2016	DC Calibration Date
ACCALDATE	LABEL	12/3/2015	AC Calibration Date
FRAMEWORKVERSION	QUANT	7.01	Framework Version
INSTRUMENTVERSION	LABEL	4.00	Instrument Version
CURVE	TABLE	62
	Pt	T	Vf	Im	Vu	Pwr	Sig	Ach	Temp	IERange	Over
	#	s	V	A	V	W	V	V	deg C	#	bits
	0	0.013333	6.17261E-001	5.99300E-003	0.00000E+000	3.69925E-003	3.59960E-001	-1.10846E+000	3.57810E+000	10	...........
	1	0.026667	6.25879E-001	5.99352E-003	0.00000E+000	3.75122E-003	3.59960E-001	-1.11309E+000	3.57810E+000	10	...........
	2	0.04	6.33809E-001	5.99499E-003	0.00000E+000	3.79968E-003	3.59960E-001	-1.10447E+000	3.57810E+000	10	...........
	3	0.053333	6.41331E-001	5.99734E-003	0.00000E+000	3.84628E-003	3.59960E-001	-1.10830E+000	3.57810E+000	10	...........
	4	0.066667	6.48569E-001	5.99186E-003	0.00000E+000	3.88614E-003	3.59960E-001	-1.11285E+000	3.57810E+000	10	...........
	5	0.08	6.55595E-001	5.99422E-003	0.00000E+000	3.92978E-003	3.59960E-001	-1.10443E+000	3.57810E+000	10	...........
	6	0.093333	6.62490E-001	5.99948E-003	0.00000E+000	3.97460E-003	3.59960E-001	-1.10848E+000	3.57810E+000	10	...........
	7	0.106667	6.69337E-001	5.99885E-003	0.00000E+000	4.01525E-003	3.59960E-001	-1.11315E+000	3.57810E+000	10	...........
	8	0.12	6.76048E-001	5.99109E-003	0.00000E+000	4.05026E-003	3.59960E-001	-1.10434E+000	3.57810E+000	10	...........
	9	0.133333	6.82705E-001	5.99830E-003	0.00000E+000	4.09507E-003	3.59960E-001	-1.10804E+000	3.57810E+000	10	...........
	10	0.146667	6.89245E-001	5.99732E-003	0.00000E+000	4.13362E-003	3.59960E-001	-1.11310E+000	3.57810E+000	10	...........
	11	0.16	6.95763E-001	5.99680E-003	0.00000E+000	4.17235E-003	3.59960E-001	-1.10454E+000	3.57810E+000	10	...........
	12	0.173333	7.02278E-001	5.99343E-003	0.00000E+000	4.20905E-003	3.59960E-001	-1.10823E+000	3.57810E+000	10	...........
	13	0.186667	7.08696E-001	5.99353E-003	0.00000E+000	4.24759E-003	3.59960E-001	-1.11318E+000	3.57810E+000	10	...........
	14	0.2	7.15175E-001	5.99570E-003	0.00000E+000	4.28797E-003	3.59960E-001	-1.10429E+000	3.57810E+000	10	...........
	15	0.213333	7.21582E-001	5.99455E-003	0.00000E+000	4.32556E-003	3.59960E-001	-1.10810E+000	3.57810E+000	10	...........
	16	0.226667	7.27927E-001	5.99363E-003	0.00000E+000	4.36293E-003	3.59960E-001	-1.11335E+000	3.57810E+000	10	...........
	17	0.24	7.34309E-001	5.99294E-003	0.00000E+000	4.40067E-003	3.59960E-001	-1.10448E+000	3.57810E+000	10	...........
	18	0.253333	7.40668E-001	5.99808E-003	0.00000E+000	4.44259E-003	3.59960E-001	-1.10795E+000	3.57810E+000	10	...........
	19	0.266667	7.47018E-001	5.99269E-003	0.00000E+000	4.47664E-003	3.59960E-001	-1.11313E+000	3.57810E+000	10	...........
	20	0.28	7.53318E-001	5.99166E-003	0.00000E+000	4.51363E-003	3.59960E-001	-1.10437E+000	3.57810E+000	10	...........
	21	0.293333	7.59654E-001	5.99072E-003	0.00000E+000	4.55088E-003	3.59960E-001	-1.10797E+000	3.57810E+000	10	...........
	22	0.306667	7.65959E-001	5.99646E-003	0.00000E+000	4.59304E-003	3.59960E-001	-1.11329E+000	3.57810E+000	10	...........
	23	0.32	7.72226E-001	5.99762E-003	0.00000E+000	4.63152E-003	3.59960E-001	-1.10410E+000	3.57810E+000	10	...........
	24	0.333333	7.78492E-001	5.99481E-003	0.00000E+000	4.66691E-003	3.59960E-001	-1.10720E+000	3.57810E+000	10	...........
	25	0.346667	7.84727E-001	5.99282E-003	0.00000E+000	4.70273E-003	3.59960E-001	-1.11286E+000	3.57810E+000	10	...........
	26	0.36	7.90962E-001	5.99632E-003	0.00000E+000	4.74286E-003	3.59960E-001	-1.10400E+000	3.57810E+000	10	...........
	27	0.373333	7.97183E-001	5.99410E-003	0.00000E+000	4.77840E-003	3.59960E-001	-1.10732E+000	3.57810E+000	10	...........
	28	0.386667	8.03426E-001	5.99352E-003	0.00000E+000	4.81535E-003	3.59960E-001	-1.11252E+000	3.57810E+000	10	...........
	29	0.4	8.09632E-001	5.99451E-003	0.00000E+000	4.85335E-003	3.59960E-001	-1.10346E+000	3.57810E+000	10	...........
	30	0.413333	8.15841E-001	5.99552E-003	0.00000E+000	4.89139E-003	3.59960E-001	-1.10724E+000	3.57810E+000	10	...........
	31	0.426667	8.22081E-001	5.99379E-003	0.00000E+000	4.92738E-003	3.59960E-001	-1.11290E+000	3.57810E+000	10	...........
	32	0.44	8.28253E-001	5.99202E-003	0.00000E+000	4.96291E-003	3.59960E-001	-1.10354E+000	3.57810E+000	10	...........
	33	0.453333	8.34418E-001	5.99425E-003	0.00000E+000	5.00171E-003	3.59960E-001	-1.10664E+000	3.57810E+000	10	...........
	34	0.466667	8.40563E-001	5.99440E-003	0.00000E+000	5.03866E-003	3.59960E-001	-1.11263E+000	3.57714E+000	10	...........
	35	0.48	8.46760E-001	5.99454E-003	0.00000E+000	5.07594E-003	3.59960E-001	-1.10364E+000	3.57700E+000	10	...........
	36	0.493333	8.52878E-001	5.99448E-003	0.00000E+000	5.11256E-003	3.59960E-001	-1.10683E+000	3.57700E+000	10	...........
	37	0.506667	8.59004E-001	5.99551E-003	0.00000E+000	5.15017E-003	3.59960E-001	-1.11265E+000	3.57700E+000	10	...........
	38	0.52	8.65108E-001	5.99683E-003	0.00000E+000	5.18790E-003	3.59960E-001	-1.10325E+000	3.57700E+000	10	...........
	39	0.533333	8.71234E-001	5.99324E-003	0.00000E+000	5.22151E-003	3.59960E-001	-1.10671E+000	3.57700E+000	10	...........
	40	0.546667	8.77321E-001	5.99177E-003	0.00000E+000	5.25670E-003	3.59960E-001	-1.11281E+000	3.57700E+000	10	...........
	41	0.56	8.83351E-001	5.99456E-003	0.00000E+000	5.29530E-003	3.59960E-001	-1.10367E+000	3.57700E+000	10	...........
	42	0.573333	8.89364E-001	5.99685E-003	0.00000E+000	5.33338E-003	3.59960E-001	-1.10671E+000	3.57700E+000	10	...........
	43	0.586667	8.95345E-001	5.99399E-003	0.00000E+000	5.36669E-003	3.59960E-001	-1.11283E+000	3.57700E+000	10	...........
	44	0.6	9.01332E-001	5.99710E-003	0.00000E+000	5.40538E-003	3.59960E-001	-1.10365E+000	3.57700E+000	10	...........
	45	0.613333	9.07276E-001	5.98898E-003	0.00000E+000	5.43366E-003	3.59960E-001	-1.10668E+000	3.57700E+000	10	...........
	46	0.626667	9.13219E-001	5.99016E-003	0.00000E+000	5.47033E-003	3.59960E-001	-1.11313E+000	3.57700E+000	10	...........
	47	0.64	9.19190E-001	5.99354E-003	0.00000E+000	5.50921E-003	3.59960E-001	-1.10327E+000	3.57700E+000	10	...........
	48	0.653333	9.25133E-001	5.99580E-003	0.00000E+000	5.54691E-003	3.59960E-001	-1.10614E+000	3.57700E+000	10	...........
	49	0.666667	9.31031E-001	5.99235E-003	0.00000E+000	5.57907E-003	3.59960E-001	-1.11271E+000	3.57700E+000	10	...........
	50	0.68	9.36862E-001	5.99185E-003	0.00000E+000	5.61354E-003	3.59960E-001	-1.10340E+000	3.57700E+000	10	...........
	51	0.693333	9.42664E-001	5.99034E-003	0.00000E+000	5.64688E-003	3.59960E-001	-1.10635E+000	3.57700E+000	10	...........
	52	0.706667	9.48452E-001	5.99057E-003	0.00000E+000	5.68177E-003	3.59960E-001	-1.11308E+000	3.57700E+000	10	...........
	53	0.72	9.54170E-001	5.99642E-003	0.00000E+000	5.72160E-003	3.59960E-001	-1.10356E+000	3.57700E+000	10	...........
	54	0.733333	9.59858E-001	5.99874E-003	0.00000E+000	5.75793E-003	3.59960E-001	-1.10635E+000	3.57700E+000	10	...........
	55	0.746667	9.65482E-001	5.99696E-003	0.00000E+000	5.78996E-003	3.59960E-001	-1.11326E+000	3.57700E+000	10	...........
	56	0.76	9.71108E-001	5.99594E-003	0.00000E+000	5.82271E-003	3.59960E-001	-1.10363E+000	3.57700E+000	10	...........
	57	0.773333	9.76678E-001	5.99693E-003	0.00000E+000	5.85707E-003	3.59960E-001	-1.10643E+000	3.57700E+000	10	...........
	58	0.786667	9.82201E-001	5.99440E-003	0.00000E+000	5.88770E-003	3.59960E-001	-1.11315E+000	3.57700E+000	10	...........
	59	0.8	9.87707E-001	5.99260E-003	0.00000E+000	5.91893E-003	3.59960E-001	-1.10338E+000	3.57700E+000	10	...........
	60	0.813333	9.93145E-001	5.99277E-003	0.00000E+000	5.95169E-003	3.59960E-001	-1.10614E+000	3.57700E+000	10	...........
	61	0.825	9.98273E-001	5.99497E-003	0.00000E+000	5.98462E-003	3.59960E-001	-1.11321E+000	3.57700E+000	10	...........
STARTTIMEOFFSET	QUANT	551.0066	Start Time Offset (s)