File: Data/CV_CRGO300517_1/PWRCCD_CRGO300517_1/CHARGE_DISCHARGE/CHARGE_#696.DTA
EXPLAIN
TAG	PWR800_CHARGE
TITLE	LABEL	PWR Cyclic Charge Discharge (Cell) - Charge Step	Test &Identifier
DATE	LABEL	22-6-2017	Date
TIME	LABEL	16:03:24	Time
NOTES	NOTES	3	&Notes...
	supercap test cell
	0.6mg
	6M KOH
PSTAT	PSTAT	IFC5000-01520	Potentiostat
CAPACITY	QUANT	1.00000E-003	Capacity (A-hr)
CELLTYPE	SELECTOR	1	&Cell Type
WORKINGCONNECTION	SELECTOR	0	&Working Lead
MAXCHARGETIME	VARIABLEANDUNITS	1.00000E+002	s	1.00000E+002	second(s)	Max &Charge Time
CHARGECURRENT	QUANT	6.00000E-003	&Charge Current (A)
VOLTAGEFINISH	TWOPARAM	F	1.00000E-003	3.60000E+003	&Voltage Finish	 I (A) < 	Max Time(s)
SAMPLETIME	QUANT	1.00000E-002	Sa&mple Period (s)
CHARGESTOPAT1	MULTIPARAM	4	1.00000E+000	Charge Stop At &1	Voltage > Limit	V
CHARGESTOPAT2	MULTIPARAM	0	0.00000E+000	Charge Stop At &2	None	N/A
AESBHCSELECTOR	TOGGLE	F	Save Both Half Cells
IRCOMP	TOGGLE	F	IR &Measure
EOC	QUANT	0	Open Circuit (V)
SEQUENCER	TOGGLE	TRUE	Run as Sequence
PSTATMODEL	IQUANT	53	Pstat Model
PSTATSECTION	LABEL	IFC5000-01520	Pstat Section
PSTATSERIALNO	LABEL	01520	Pstat Serial Number
CTRLMODE	IQUANT	0	Control Mode
ELECTROMETER	IQUANT	1	RE=0 or CS=1
IESTAB	IQUANT	0	I/E Stability
CASPEED	IQUANT	4	Control Amp Speed
CONVENTION	IQUANT	1	Current Convention
ICHRANGE	IQUANT	2	Ich Range
ICHRANGEMODE	TOGGLE	T	Ich Auto Range
ICHOFFSETENABLE	TOGGLE	F	Ich Offset Enable
ICHOFFSET	QUANT	0	Ich Offset (V)
ICHFILTER	IQUANT	1	Ich Filter
VCHRANGE	IQUANT	2	Vch Range
VCHRANGEMODE	TOGGLE	T	Vch Auto Range
VCHOFFSETENABLE	TOGGLE	F	Vch Offset Enable
VCHOFFSET	QUANT	0	Vch Offset (V)
VCHFILTER	IQUANT	1	Vch Filter
IERANGELOWERLIMIT	IQUANT	9	I/E Range Lower Limit
IERANGEMODE	TOGGLE	F	I/E AutoRange
IERANGE	IQUANT	10	I/E Range
ACHSELECT	IQUANT	1	Ach Select
ACHRANGE	IQUANT	2	Ach Range
ACHOFFSETENABLE	TOGGLE	F	Ach Offset Enable
ACHOFFSET	QUANT	0	Ach Offset (V)
ACHFILTER	IQUANT	1	Ach Filter
CABLEID	IQUANT	14	Cable ID
DCCALDATE	LABEL	20-10-2016	DC Calibration Date
ACCALDATE	LABEL	12/3/2015	AC Calibration Date
FRAMEWORKVERSION	QUANT	7.01	Framework Version
INSTRUMENTVERSION	LABEL	4.00	Instrument Version
CURVE	TABLE	56
	Pt	T	Vf	Im	Vu	Pwr	Sig	Ach	Temp	IERange	Over
	#	s	V	A	V	W	V	V	deg C	#	bits
	0	0.013333	6.42748E-001	5.98985E-003	0.00000E+000	3.84996E-003	3.59960E-001	-1.15266E+000	3.57780E+000	10	...........
	1	0.026667	6.51771E-001	5.99240E-003	0.00000E+000	3.90568E-003	3.59960E-001	-1.16160E+000	3.57780E+000	10	...........
	2	0.04	6.60112E-001	5.99457E-003	0.00000E+000	3.95709E-003	3.59960E-001	-1.15811E+000	3.57780E+000	10	...........
	3	0.053333	6.68061E-001	5.99021E-003	0.00000E+000	4.00183E-003	3.59960E-001	-1.15250E+000	3.57780E+000	10	...........
	4	0.066667	6.75664E-001	5.99593E-003	0.00000E+000	4.05123E-003	3.59960E-001	-1.16163E+000	3.57780E+000	10	...........
	5	0.08	6.83141E-001	5.99307E-003	0.00000E+000	4.09411E-003	3.59960E-001	-1.15790E+000	3.57780E+000	10	...........
	6	0.093333	6.90430E-001	5.99399E-003	0.00000E+000	4.13843E-003	3.59960E-001	-1.15261E+000	3.57780E+000	10	...........
	7	0.106667	6.97607E-001	5.99479E-003	0.00000E+000	4.18201E-003	3.59960E-001	-1.16170E+000	3.57780E+000	10	...........
	8	0.12	7.04690E-001	5.99363E-003	0.00000E+000	4.22365E-003	3.59960E-001	-1.15803E+000	3.57780E+000	10	...........
	9	0.133333	7.11691E-001	5.99123E-003	0.00000E+000	4.26390E-003	3.59960E-001	-1.15238E+000	3.57780E+000	10	...........
	10	0.146667	7.18697E-001	5.99592E-003	0.00000E+000	4.30925E-003	3.59960E-001	-1.16154E+000	3.57780E+000	10	...........
	11	0.16	7.25604E-001	5.99604E-003	0.00000E+000	4.35075E-003	3.59960E-001	-1.15770E+000	3.57780E+000	10	...........
	12	0.173333	7.32449E-001	5.99723E-003	0.00000E+000	4.39267E-003	3.59960E-001	-1.15234E+000	3.57780E+000	10	...........
	13	0.186667	7.39220E-001	5.99369E-003	0.00000E+000	4.43065E-003	3.59960E-001	-1.16153E+000	3.57780E+000	10	...........
	14	0.2	7.45985E-001	5.98725E-003	0.00000E+000	4.46640E-003	3.59960E-001	-1.15773E+000	3.57780E+000	10	...........
	15	0.213333	7.52730E-001	5.99492E-003	0.00000E+000	4.51255E-003	3.59960E-001	-1.15230E+000	3.57780E+000	10	...........
	16	0.226667	7.59453E-001	5.99401E-003	0.00000E+000	4.55217E-003	3.59960E-001	-1.16133E+000	3.57780E+000	10	...........
	17	0.24	7.66186E-001	5.99142E-003	0.00000E+000	4.59055E-003	3.59960E-001	-1.15789E+000	3.57780E+000	10	...........
	18	0.253333	7.72866E-001	5.99522E-003	0.00000E+000	4.63350E-003	3.59960E-001	-1.15258E+000	3.57780E+000	10	...........
	19	0.266667	7.79575E-001	5.99700E-003	0.00000E+000	4.67511E-003	3.59960E-001	-1.16131E+000	3.57780E+000	10	...........
	20	0.28	7.86196E-001	5.99268E-003	0.00000E+000	4.71142E-003	3.59960E-001	-1.15774E+000	3.57780E+000	10	...........
	21	0.293333	7.92805E-001	5.99636E-003	0.00000E+000	4.75394E-003	3.59960E-001	-1.15223E+000	3.57780E+000	10	...........
	22	0.306667	7.99396E-001	5.99266E-003	0.00000E+000	4.79051E-003	3.59960E-001	-1.16136E+000	3.57780E+000	10	...........
	23	0.32	8.05922E-001	5.99266E-003	0.00000E+000	4.82962E-003	3.59960E-001	-1.15744E+000	3.57780E+000	10	...........
	24	0.333333	8.12482E-001	5.99166E-003	0.00000E+000	4.86812E-003	3.59960E-001	-1.15195E+000	3.57780E+000	10	...........
	25	0.346667	8.19002E-001	5.99432E-003	0.00000E+000	4.90936E-003	3.59960E-001	-1.16071E+000	3.57780E+000	10	...........
	26	0.36	8.25548E-001	5.99275E-003	0.00000E+000	4.94730E-003	3.59960E-001	-1.15759E+000	3.57780E+000	10	...........
	27	0.373333	8.32053E-001	5.99195E-003	0.00000E+000	4.98562E-003	3.59960E-001	-1.15198E+000	3.57780E+000	10	...........
	28	0.386667	8.38501E-001	5.99342E-003	0.00000E+000	5.02548E-003	3.59960E-001	-1.16124E+000	3.57780E+000	10	...........
	29	0.4	8.44905E-001	5.99665E-003	0.00000E+000	5.06660E-003	3.59960E-001	-1.15757E+000	3.57780E+000	10	...........
	30	0.413333	8.51369E-001	5.99321E-003	0.00000E+000	5.10243E-003	3.59960E-001	-1.15211E+000	3.57780E+000	10	...........
	31	0.426667	8.57765E-001	5.99694E-003	0.00000E+000	5.14397E-003	3.59960E-001	-1.16101E+000	3.57780E+000	10	...........
	32	0.44	8.64124E-001	5.98912E-003	0.00000E+000	5.17534E-003	3.59960E-001	-1.15739E+000	3.57780E+000	10	...........
	33	0.453333	8.70515E-001	5.99106E-003	0.00000E+000	5.21530E-003	3.59960E-001	-1.15201E+000	3.57780E+000	10	...........
	34	0.466667	8.76835E-001	5.99380E-003	0.00000E+000	5.25557E-003	3.59960E-001	-1.16087E+000	3.57780E+000	10	...........
	35	0.48	8.83152E-001	5.99094E-003	0.00000E+000	5.29091E-003	3.59960E-001	-1.15716E+000	3.57780E+000	10	...........
	36	0.493333	8.89403E-001	5.99391E-003	0.00000E+000	5.33100E-003	3.59960E-001	-1.15164E+000	3.57780E+000	10	...........
	37	0.506667	8.95690E-001	5.99375E-003	0.00000E+000	5.36854E-003	3.59960E-001	-1.16100E+000	3.57780E+000	10	...........
	38	0.52	9.01886E-001	5.99244E-003	0.00000E+000	5.40450E-003	3.59960E-001	-1.15727E+000	3.57780E+000	10	...........
	39	0.533333	9.08096E-001	5.99777E-003	0.00000E+000	5.44655E-003	3.59960E-001	-1.15203E+000	3.57780E+000	10	...........
	40	0.546667	9.14249E-001	5.99120E-003	0.00000E+000	5.47745E-003	3.59960E-001	-1.16099E+000	3.57780E+000	10	...........
	41	0.56	9.20376E-001	5.99012E-003	0.00000E+000	5.51316E-003	3.59960E-001	-1.15730E+000	3.57780E+000	10	...........
	42	0.573333	9.26463E-001	5.99224E-003	0.00000E+000	5.55159E-003	3.59960E-001	-1.15184E+000	3.57780E+000	10	...........
	43	0.586667	9.32488E-001	5.99607E-003	0.00000E+000	5.59126E-003	3.59960E-001	-1.16095E+000	3.57780E+000	10	...........
	44	0.6	9.38472E-001	5.99425E-003	0.00000E+000	5.62544E-003	3.59960E-001	-1.15736E+000	3.57780E+000	10	...........
	45	0.613333	9.44415E-001	5.98836E-003	0.00000E+000	5.65549E-003	3.59960E-001	-1.15171E+000	3.57780E+000	10	...........
	46	0.626667	9.50347E-001	5.99335E-003	0.00000E+000	5.69576E-003	3.59960E-001	-1.16074E+000	3.57780E+000	10	...........
	47	0.64	9.56188E-001	5.99768E-003	0.00000E+000	5.73491E-003	3.59960E-001	-1.15694E+000	3.57780E+000	10	...........
	48	0.653333	9.62000E-001	5.98695E-003	0.00000E+000	5.75944E-003	3.59960E-001	-1.15136E+000	3.57780E+000	10	...........
	49	0.666667	9.67798E-001	5.99465E-003	0.00000E+000	5.80161E-003	3.59960E-001	-1.16032E+000	3.57789E+000	10	...........
	50	0.68	9.73564E-001	5.99535E-003	0.00000E+000	5.83685E-003	3.59960E-001	-1.15661E+000	3.57790E+000	10	...........
	51	0.693333	9.79245E-001	5.99826E-003	0.00000E+000	5.87376E-003	3.59960E-001	-1.15121E+000	3.57790E+000	10	...........
	52	0.706667	9.84881E-001	5.99880E-003	0.00000E+000	5.90810E-003	3.59960E-001	-1.16059E+000	3.57790E+000	10	...........
	53	0.72	9.90448E-001	5.99642E-003	0.00000E+000	5.93914E-003	3.59960E-001	-1.15689E+000	3.57790E+000	10	...........
	54	0.733333	9.95989E-001	5.99069E-003	0.00000E+000	5.96666E-003	3.59960E-001	-1.15131E+000	3.57790E+000	10	...........
	55	0.738333	9.99771E-001	5.99655E-003	0.00000E+000	5.99517E-003	3.59960E-001	-1.16607E+000	3.57790E+000	10	...........
STARTTIMEOFFSET	QUANT	1153.347	Start Time Offset (s)