File: Data/CV_CRGO300517_1/PWRCCD_CRGO300517_1/CHARGE_DISCHARGE/CHARGE_#556.DTA
EXPLAIN
TAG	PWR800_CHARGE
TITLE	LABEL	PWR Cyclic Charge Discharge (Cell) - Charge Step	Test &Identifier
DATE	LABEL	22-6-2017	Date
TIME	LABEL	15:58:05	Time
NOTES	NOTES	3	&Notes...
	supercap test cell
	0.6mg
	6M KOH
PSTAT	PSTAT	IFC5000-01520	Potentiostat
CAPACITY	QUANT	1.00000E-003	Capacity (A-hr)
CELLTYPE	SELECTOR	1	&Cell Type
WORKINGCONNECTION	SELECTOR	0	&Working Lead
MAXCHARGETIME	VARIABLEANDUNITS	1.00000E+002	s	1.00000E+002	second(s)	Max &Charge Time
CHARGECURRENT	QUANT	6.00000E-003	&Charge Current (A)
VOLTAGEFINISH	TWOPARAM	F	1.00000E-003	3.60000E+003	&Voltage Finish	 I (A) < 	Max Time(s)
SAMPLETIME	QUANT	1.00000E-002	Sa&mple Period (s)
CHARGESTOPAT1	MULTIPARAM	4	1.00000E+000	Charge Stop At &1	Voltage > Limit	V
CHARGESTOPAT2	MULTIPARAM	0	0.00000E+000	Charge Stop At &2	None	N/A
AESBHCSELECTOR	TOGGLE	F	Save Both Half Cells
IRCOMP	TOGGLE	F	IR &Measure
EOC	QUANT	0	Open Circuit (V)
SEQUENCER	TOGGLE	TRUE	Run as Sequence
PSTATMODEL	IQUANT	53	Pstat Model
PSTATSECTION	LABEL	IFC5000-01520	Pstat Section
PSTATSERIALNO	LABEL	01520	Pstat Serial Number
CTRLMODE	IQUANT	0	Control Mode
ELECTROMETER	IQUANT	1	RE=0 or CS=1
IESTAB	IQUANT	0	I/E Stability
CASPEED	IQUANT	4	Control Amp Speed
CONVENTION	IQUANT	1	Current Convention
ICHRANGE	IQUANT	2	Ich Range
ICHRANGEMODE	TOGGLE	T	Ich Auto Range
ICHOFFSETENABLE	TOGGLE	F	Ich Offset Enable
ICHOFFSET	QUANT	0	Ich Offset (V)
ICHFILTER	IQUANT	1	Ich Filter
VCHRANGE	IQUANT	2	Vch Range
VCHRANGEMODE	TOGGLE	T	Vch Auto Range
VCHOFFSETENABLE	TOGGLE	F	Vch Offset Enable
VCHOFFSET	QUANT	0	Vch Offset (V)
VCHFILTER	IQUANT	1	Vch Filter
IERANGELOWERLIMIT	IQUANT	9	I/E Range Lower Limit
IERANGEMODE	TOGGLE	F	I/E AutoRange
IERANGE	IQUANT	10	I/E Range
ACHSELECT	IQUANT	1	Ach Select
ACHRANGE	IQUANT	2	Ach Range
ACHOFFSETENABLE	TOGGLE	F	Ach Offset Enable
ACHOFFSET	QUANT	0	Ach Offset (V)
ACHFILTER	IQUANT	1	Ach Filter
CABLEID	IQUANT	14	Cable ID
DCCALDATE	LABEL	20-10-2016	DC Calibration Date
ACCALDATE	LABEL	12/3/2015	AC Calibration Date
FRAMEWORKVERSION	QUANT	7.01	Framework Version
INSTRUMENTVERSION	LABEL	4.00	Instrument Version
CURVE	TABLE	58
	Pt	T	Vf	Im	Vu	Pwr	Sig	Ach	Temp	IERange	Over
	#	s	V	A	V	W	V	V	deg C	#	bits
	0	0.013333	6.35378E-001	5.99336E-003	0.00000E+000	3.80805E-003	3.59960E-001	-1.14324E+000	3.57650E+000	10	...........
	1	0.026667	6.44388E-001	5.99348E-003	0.00000E+000	3.86212E-003	3.59960E-001	-1.14585E+000	3.57650E+000	10	...........
	2	0.04	6.52616E-001	5.99295E-003	0.00000E+000	3.91109E-003	3.59960E-001	-1.13774E+000	3.57650E+000	10	...........
	3	0.053333	6.60387E-001	5.99746E-003	0.00000E+000	3.96065E-003	3.59960E-001	-1.14315E+000	3.57650E+000	10	...........
	4	0.066667	6.67940E-001	5.99557E-003	0.00000E+000	4.00468E-003	3.59960E-001	-1.14576E+000	3.57650E+000	10	...........
	5	0.08	6.75264E-001	5.99305E-003	0.00000E+000	4.04689E-003	3.59960E-001	-1.13688E+000	3.57650E+000	10	...........
	6	0.093333	6.82437E-001	5.98921E-003	0.00000E+000	4.08726E-003	3.59960E-001	-1.14241E+000	3.57668E+000	10	...........
	7	0.106667	6.89532E-001	5.99521E-003	0.00000E+000	4.13389E-003	3.59960E-001	-1.14550E+000	3.57670E+000	10	...........
	8	0.12	6.96482E-001	5.99755E-003	0.00000E+000	4.17718E-003	3.59960E-001	-1.13715E+000	3.57670E+000	10	...........
	9	0.133333	7.03392E-001	5.99343E-003	0.00000E+000	4.21573E-003	3.59960E-001	-1.14249E+000	3.57670E+000	10	...........
	10	0.146667	7.10248E-001	5.99377E-003	0.00000E+000	4.25706E-003	3.59960E-001	-1.14519E+000	3.57670E+000	10	...........
	11	0.16	7.17064E-001	5.99293E-003	0.00000E+000	4.29731E-003	3.59960E-001	-1.13703E+000	3.57670E+000	10	...........
	12	0.173333	7.23827E-001	5.98815E-003	0.00000E+000	4.33438E-003	3.59960E-001	-1.14236E+000	3.57670E+000	10	...........
	13	0.186667	7.30523E-001	5.99026E-003	0.00000E+000	4.37602E-003	3.59960E-001	-1.14552E+000	3.57670E+000	10	...........
	14	0.2	7.37231E-001	5.99519E-003	0.00000E+000	4.41984E-003	3.59960E-001	-1.13687E+000	3.57670E+000	10	...........
	15	0.213333	7.43877E-001	5.99603E-003	0.00000E+000	4.46031E-003	3.59960E-001	-1.14212E+000	3.57670E+000	10	...........
	16	0.226667	7.50513E-001	5.99308E-003	0.00000E+000	4.49789E-003	3.59960E-001	-1.14532E+000	3.57670E+000	10	...........
	17	0.24	7.57118E-001	5.99385E-003	0.00000E+000	4.53805E-003	3.59960E-001	-1.13706E+000	3.57670E+000	10	...........
	18	0.253333	7.63679E-001	5.99330E-003	0.00000E+000	4.57696E-003	3.59960E-001	-1.14253E+000	3.57670E+000	10	...........
	19	0.266667	7.70279E-001	5.99061E-003	0.00000E+000	4.61444E-003	3.59960E-001	-1.14548E+000	3.57670E+000	10	...........
	20	0.28	7.76843E-001	5.98883E-003	0.00000E+000	4.65238E-003	3.59960E-001	-1.13703E+000	3.57670E+000	10	...........
	21	0.293333	7.83388E-001	5.99644E-003	0.00000E+000	4.69754E-003	3.59960E-001	-1.14227E+000	3.57670E+000	10	...........
	22	0.306667	7.89865E-001	5.99142E-003	0.00000E+000	4.73242E-003	3.59960E-001	-1.14563E+000	3.57670E+000	10	...........
	23	0.32	7.96416E-001	5.98932E-003	0.00000E+000	4.76999E-003	3.59960E-001	-1.13714E+000	3.57670E+000	10	...........
	24	0.333333	8.02891E-001	5.99313E-003	0.00000E+000	4.81183E-003	3.59960E-001	-1.14217E+000	3.57670E+000	10	...........
	25	0.346667	8.09368E-001	5.99433E-003	0.00000E+000	4.85162E-003	3.59960E-001	-1.14547E+000	3.57670E+000	10	...........
	26	0.36	8.15801E-001	5.99330E-003	0.00000E+000	4.88934E-003	3.59960E-001	-1.13694E+000	3.57670E+000	10	...........
	27	0.373333	8.22238E-001	5.99426E-003	0.00000E+000	4.92871E-003	3.59960E-001	-1.14214E+000	3.57670E+000	10	...........
	28	0.386667	8.28611E-001	5.99051E-003	0.00000E+000	4.96380E-003	3.59960E-001	-1.14561E+000	3.57670E+000	10	...........
	29	0.4	8.35014E-001	5.99386E-003	0.00000E+000	5.00496E-003	3.59960E-001	-1.13653E+000	3.57670E+000	10	...........
	30	0.413333	8.41383E-001	5.99466E-003	0.00000E+000	5.04380E-003	3.59960E-001	-1.14159E+000	3.57670E+000	10	...........
	31	0.426667	8.47774E-001	5.99275E-003	0.00000E+000	5.08050E-003	3.59960E-001	-1.14533E+000	3.57670E+000	10	...........
	32	0.44	8.54098E-001	5.99367E-003	0.00000E+000	5.11918E-003	3.59960E-001	-1.13675E+000	3.57670E+000	10	...........
	33	0.453333	8.60380E-001	5.99459E-003	0.00000E+000	5.15763E-003	3.59960E-001	-1.14163E+000	3.57670E+000	10	...........
	34	0.466667	8.66717E-001	5.99486E-003	0.00000E+000	5.19584E-003	3.59960E-001	-1.14533E+000	3.57670E+000	10	...........
	35	0.48	8.72976E-001	5.99503E-003	0.00000E+000	5.23352E-003	3.59960E-001	-1.13651E+000	3.57670E+000	10	...........
	36	0.493333	8.79218E-001	5.99953E-003	0.00000E+000	5.27489E-003	3.59960E-001	-1.14172E+000	3.57670E+000	10	...........
	37	0.506667	8.85430E-001	5.99160E-003	0.00000E+000	5.30515E-003	3.59960E-001	-1.14551E+000	3.57670E+000	10	...........
	38	0.52	8.91608E-001	5.99103E-003	0.00000E+000	5.34165E-003	3.59960E-001	-1.13671E+000	3.57670E+000	10	...........
	39	0.533333	8.97775E-001	5.99467E-003	0.00000E+000	5.38186E-003	3.59960E-001	-1.14153E+000	3.57670E+000	10	...........
	40	0.546667	9.03925E-001	5.99692E-003	0.00000E+000	5.42076E-003	3.59960E-001	-1.14535E+000	3.57670E+000	10	...........
	41	0.56	9.10041E-001	5.99633E-003	0.00000E+000	5.45690E-003	3.59960E-001	-1.13671E+000	3.57670E+000	10	...........
	42	0.573333	9.16122E-001	5.99369E-003	0.00000E+000	5.49095E-003	3.59960E-001	-1.14154E+000	3.57670E+000	10	...........
	43	0.586667	9.22228E-001	5.99805E-003	0.00000E+000	5.53156E-003	3.59960E-001	-1.14556E+000	3.57670E+000	10	...........
	44	0.6	9.28256E-001	5.99590E-003	0.00000E+000	5.56573E-003	3.59960E-001	-1.13678E+000	3.57670E+000	10	...........
	45	0.613333	9.34242E-001	5.99495E-003	0.00000E+000	5.60073E-003	3.59960E-001	-1.14154E+000	3.57670E+000	10	...........
	46	0.626667	9.40146E-001	5.98965E-003	0.00000E+000	5.63114E-003	3.59960E-001	-1.14559E+000	3.57670E+000	10	...........
	47	0.64	9.46063E-001	5.99264E-003	0.00000E+000	5.66942E-003	3.59960E-001	-1.13687E+000	3.57670E+000	10	...........
	48	0.653333	9.51935E-001	6.00035E-003	0.00000E+000	5.71194E-003	3.59960E-001	-1.14179E+000	3.57670E+000	10	...........
	49	0.666667	9.57738E-001	5.99475E-003	0.00000E+000	5.74140E-003	3.59960E-001	-1.14547E+000	3.57670E+000	10	...........
	50	0.68	9.63508E-001	5.99081E-003	0.00000E+000	5.77219E-003	3.59960E-001	-1.13681E+000	3.57670E+000	10	...........
	51	0.693333	9.69228E-001	5.99507E-003	0.00000E+000	5.81059E-003	3.59960E-001	-1.14165E+000	3.57670E+000	10	...........
	52	0.706667	9.74958E-001	5.98984E-003	0.00000E+000	5.83984E-003	3.59960E-001	-1.14553E+000	3.57670E+000	10	...........
	53	0.72	9.80599E-001	5.99624E-003	0.00000E+000	5.87991E-003	3.59960E-001	-1.13644E+000	3.57670E+000	10	...........
	54	0.733333	9.86170E-001	5.99773E-003	0.00000E+000	5.91479E-003	3.59960E-001	-1.14109E+000	3.57670E+000	10	...........
	55	0.746667	9.91720E-001	5.99321E-003	0.00000E+000	5.94358E-003	3.59960E-001	-1.14526E+000	3.57670E+000	10	...........
	56	0.76	9.97230E-001	6.00234E-003	0.00000E+000	5.98572E-003	3.59960E-001	-1.13654E+000	3.57670E+000	10	...........
	57	0.761667	1.00029E+000	5.99521E-003	0.00000E+000	5.99697E-003	3.59960E-001	-1.15135E+000	3.57670E+000	10	...........
STARTTIMEOFFSET	QUANT	944.6017	Start Time Offset (s)