File: Data/CV_CRGO300517_1/PWRCCD_CRGO300517_1/CHARGE_DISCHARGE/CHARGE_#797.DTA
EXPLAIN
TAG	PWR800_CHARGE
TITLE	LABEL	PWR Cyclic Charge Discharge (Cell) - Charge Step	Test &Identifier
DATE	LABEL	22-6-2017	Date
TIME	LABEL	16:07:10	Time
NOTES	NOTES	3	&Notes...
	supercap test cell
	0.6mg
	6M KOH
PSTAT	PSTAT	IFC5000-01520	Potentiostat
CAPACITY	QUANT	1.00000E-003	Capacity (A-hr)
CELLTYPE	SELECTOR	1	&Cell Type
WORKINGCONNECTION	SELECTOR	0	&Working Lead
MAXCHARGETIME	VARIABLEANDUNITS	1.00000E+002	s	1.00000E+002	second(s)	Max &Charge Time
CHARGECURRENT	QUANT	6.00000E-003	&Charge Current (A)
VOLTAGEFINISH	TWOPARAM	F	1.00000E-003	3.60000E+003	&Voltage Finish	 I (A) < 	Max Time(s)
SAMPLETIME	QUANT	1.00000E-002	Sa&mple Period (s)
CHARGESTOPAT1	MULTIPARAM	4	1.00000E+000	Charge Stop At &1	Voltage > Limit	V
CHARGESTOPAT2	MULTIPARAM	0	0.00000E+000	Charge Stop At &2	None	N/A
AESBHCSELECTOR	TOGGLE	F	Save Both Half Cells
IRCOMP	TOGGLE	F	IR &Measure
EOC	QUANT	0	Open Circuit (V)
SEQUENCER	TOGGLE	TRUE	Run as Sequence
PSTATMODEL	IQUANT	53	Pstat Model
PSTATSECTION	LABEL	IFC5000-01520	Pstat Section
PSTATSERIALNO	LABEL	01520	Pstat Serial Number
CTRLMODE	IQUANT	0	Control Mode
ELECTROMETER	IQUANT	1	RE=0 or CS=1
IESTAB	IQUANT	0	I/E Stability
CASPEED	IQUANT	4	Control Amp Speed
CONVENTION	IQUANT	1	Current Convention
ICHRANGE	IQUANT	2	Ich Range
ICHRANGEMODE	TOGGLE	T	Ich Auto Range
ICHOFFSETENABLE	TOGGLE	F	Ich Offset Enable
ICHOFFSET	QUANT	0	Ich Offset (V)
ICHFILTER	IQUANT	1	Ich Filter
VCHRANGE	IQUANT	2	Vch Range
VCHRANGEMODE	TOGGLE	T	Vch Auto Range
VCHOFFSETENABLE	TOGGLE	F	Vch Offset Enable
VCHOFFSET	QUANT	0	Vch Offset (V)
VCHFILTER	IQUANT	1	Vch Filter
IERANGELOWERLIMIT	IQUANT	9	I/E Range Lower Limit
IERANGEMODE	TOGGLE	F	I/E AutoRange
IERANGE	IQUANT	10	I/E Range
ACHSELECT	IQUANT	1	Ach Select
ACHRANGE	IQUANT	2	Ach Range
ACHOFFSETENABLE	TOGGLE	F	Ach Offset Enable
ACHOFFSET	QUANT	0	Ach Offset (V)
ACHFILTER	IQUANT	1	Ach Filter
CABLEID	IQUANT	14	Cable ID
DCCALDATE	LABEL	20-10-2016	DC Calibration Date
ACCALDATE	LABEL	12/3/2015	AC Calibration Date
FRAMEWORKVERSION	QUANT	7.01	Framework Version
INSTRUMENTVERSION	LABEL	4.00	Instrument Version
CURVE	TABLE	54
	Pt	T	Vf	Im	Vu	Pwr	Sig	Ach	Temp	IERange	Over
	#	s	V	A	V	W	V	V	deg C	#	bits
	0	0.013333	6.48300E-001	5.99508E-003	0.00000E+000	3.88661E-003	3.59960E-001	-1.16515E+000	3.57700E+000	10	...........
	1	0.026667	6.57495E-001	5.99110E-003	0.00000E+000	3.93912E-003	3.59960E-001	-1.17236E+000	3.57700E+000	10	...........
	2	0.04	6.65994E-001	5.99697E-003	0.00000E+000	3.99395E-003	3.59960E-001	-1.17217E+000	3.57700E+000	10	...........
	3	0.053333	6.74033E-001	5.99512E-003	0.00000E+000	4.04091E-003	3.59960E-001	-1.16486E+000	3.57700E+000	10	...........
	4	0.066667	6.81773E-001	5.99498E-003	0.00000E+000	4.08721E-003	3.59960E-001	-1.17220E+000	3.57700E+000	10	...........
	5	0.08	6.89317E-001	5.99116E-003	0.00000E+000	4.12981E-003	3.59960E-001	-1.17177E+000	3.57700E+000	10	...........
	6	0.093333	6.96684E-001	5.98890E-003	0.00000E+000	4.17237E-003	3.59960E-001	-1.16435E+000	3.57700E+000	10	...........
	7	0.106667	7.03918E-001	5.99171E-003	0.00000E+000	4.21767E-003	3.59960E-001	-1.17199E+000	3.57700E+000	10	...........
	8	0.12	7.11036E-001	5.99186E-003	0.00000E+000	4.26043E-003	3.59960E-001	-1.17178E+000	3.57700E+000	10	...........
	9	0.133333	7.18104E-001	5.99166E-003	0.00000E+000	4.30263E-003	3.59960E-001	-1.16452E+000	3.57700E+000	10	...........
	10	0.146667	7.25185E-001	5.99372E-003	0.00000E+000	4.34655E-003	3.59960E-001	-1.17185E+000	3.57700E+000	10	...........
	11	0.16	7.32160E-001	5.99809E-003	0.00000E+000	4.39156E-003	3.59960E-001	-1.17138E+000	3.57700E+000	10	...........
	12	0.173333	7.39094E-001	5.99952E-003	0.00000E+000	4.43421E-003	3.59960E-001	-1.16423E+000	3.57700E+000	10	...........
	13	0.186667	7.46021E-001	5.99282E-003	0.00000E+000	4.47077E-003	3.59960E-001	-1.17174E+000	3.57700E+000	10	...........
	14	0.2	7.52846E-001	5.99739E-003	0.00000E+000	4.51511E-003	3.59960E-001	-1.17146E+000	3.57700E+000	10	...........
	15	0.213333	7.59661E-001	5.99139E-003	0.00000E+000	4.55143E-003	3.59960E-001	-1.16415E+000	3.57700E+000	10	...........
	16	0.226667	7.66471E-001	5.99408E-003	0.00000E+000	4.59429E-003	3.59960E-001	-1.17166E+000	3.57700E+000	10	...........
	17	0.24	7.73265E-001	5.99251E-003	0.00000E+000	4.63380E-003	3.59960E-001	-1.17127E+000	3.57700E+000	10	...........
	18	0.253333	7.80038E-001	5.98821E-003	0.00000E+000	4.67103E-003	3.59960E-001	-1.16421E+000	3.57700E+000	10	...........
	19	0.266667	7.86760E-001	5.99243E-003	0.00000E+000	4.71460E-003	3.59960E-001	-1.17190E+000	3.57700E+000	10	...........
	20	0.28	7.93445E-001	5.99221E-003	0.00000E+000	4.75449E-003	3.59960E-001	-1.17126E+000	3.57700E+000	10	...........
	21	0.293333	8.00095E-001	5.99881E-003	0.00000E+000	4.79962E-003	3.59960E-001	-1.16401E+000	3.57700E+000	10	...........
	22	0.306667	8.06728E-001	5.99018E-003	0.00000E+000	4.83245E-003	3.59960E-001	-1.17154E+000	3.57700E+000	10	...........
	23	0.32	8.13336E-001	5.99270E-003	0.00000E+000	4.87408E-003	3.59960E-001	-1.17130E+000	3.57700E+000	10	...........
	24	0.333333	8.19962E-001	5.99514E-003	0.00000E+000	4.91579E-003	3.59960E-001	-1.16414E+000	3.57700E+000	10	...........
	25	0.346667	8.26541E-001	5.99219E-003	0.00000E+000	4.95279E-003	3.59960E-001	-1.17161E+000	3.57700E+000	10	...........
	26	0.36	8.33090E-001	5.99502E-003	0.00000E+000	4.99439E-003	3.59960E-001	-1.17086E+000	3.57700E+000	10	...........
	27	0.373333	8.39578E-001	5.99393E-003	0.00000E+000	5.03237E-003	3.59960E-001	-1.16387E+000	3.57700E+000	10	...........
	28	0.386667	8.46175E-001	5.99519E-003	0.00000E+000	5.07298E-003	3.59960E-001	-1.17113E+000	3.57700E+000	10	...........
	29	0.4	8.52658E-001	5.99326E-003	0.00000E+000	5.11020E-003	3.59960E-001	-1.17062E+000	3.57700E+000	10	...........
	30	0.413333	8.59103E-001	5.99487E-003	0.00000E+000	5.15021E-003	3.59960E-001	-1.16352E+000	3.57700E+000	10	...........
	31	0.426667	8.65559E-001	5.99030E-003	0.00000E+000	5.18496E-003	3.59960E-001	-1.17110E+000	3.57700E+000	10	...........
	32	0.44	8.71979E-001	5.99322E-003	0.00000E+000	5.22596E-003	3.59960E-001	-1.17075E+000	3.57700E+000	10	...........
	33	0.453333	8.78340E-001	5.99308E-003	0.00000E+000	5.26397E-003	3.59960E-001	-1.16368E+000	3.57700E+000	10	...........
	34	0.466667	8.84695E-001	5.99011E-003	0.00000E+000	5.29942E-003	3.59960E-001	-1.17122E+000	3.57700E+000	10	...........
	35	0.48	8.91005E-001	5.99401E-003	0.00000E+000	5.34069E-003	3.59960E-001	-1.17054E+000	3.57700E+000	10	...........
	36	0.493333	8.97302E-001	5.99280E-003	0.00000E+000	5.37735E-003	3.59960E-001	-1.16369E+000	3.57700E+000	10	...........
	37	0.506667	9.03567E-001	5.99258E-003	0.00000E+000	5.41470E-003	3.59960E-001	-1.17107E+000	3.57700E+000	10	...........
	38	0.52	9.09784E-001	5.98779E-003	0.00000E+000	5.44760E-003	3.59960E-001	-1.17064E+000	3.57700E+000	10	...........
	39	0.533333	9.15948E-001	5.98944E-003	0.00000E+000	5.48602E-003	3.59960E-001	-1.16360E+000	3.57700E+000	10	...........
	40	0.546667	9.22139E-001	5.99316E-003	0.00000E+000	5.52652E-003	3.59960E-001	-1.17109E+000	3.57700E+000	10	...........
	41	0.56	9.28210E-001	5.99080E-003	0.00000E+000	5.56072E-003	3.59960E-001	-1.17041E+000	3.57700E+000	10	...........
	42	0.573333	9.34253E-001	5.99699E-003	0.00000E+000	5.60271E-003	3.59960E-001	-1.16353E+000	3.57700E+000	10	...........
	43	0.586667	9.40249E-001	5.99060E-003	0.00000E+000	5.63266E-003	3.59960E-001	-1.17122E+000	3.57700E+000	10	...........
	44	0.6	9.46205E-001	5.99268E-003	0.00000E+000	5.67030E-003	3.59960E-001	-1.17060E+000	3.57700E+000	10	...........
	45	0.613333	9.52100E-001	5.99154E-003	0.00000E+000	5.70454E-003	3.59960E-001	-1.16351E+000	3.57700E+000	10	...........
	46	0.626667	9.57976E-001	5.99381E-003	0.00000E+000	5.74193E-003	3.59960E-001	-1.17117E+000	3.57700E+000	10	...........
	47	0.64	9.63826E-001	5.99404E-003	0.00000E+000	5.77721E-003	3.59960E-001	-1.17053E+000	3.57700E+000	10	...........
	48	0.653333	9.69620E-001	5.99198E-003	0.00000E+000	5.80994E-003	3.59960E-001	-1.16375E+000	3.57700E+000	10	...........
	49	0.666667	9.75410E-001	5.99916E-003	0.00000E+000	5.85164E-003	3.59960E-001	-1.17146E+000	3.57700E+000	10	...........
	50	0.68	9.81102E-001	5.99308E-003	0.00000E+000	5.87982E-003	3.59960E-001	-1.17041E+000	3.57700E+000	10	...........
	51	0.693333	9.86705E-001	5.99641E-003	0.00000E+000	5.91669E-003	3.59960E-001	-1.16339E+000	3.57700E+000	10	...........
	52	0.706667	9.92286E-001	5.99210E-003	0.00000E+000	5.94588E-003	3.59960E-001	-1.17103E+000	3.57700E+000	10	...........
	53	0.72	9.97819E-001	5.99275E-003	0.00000E+000	5.97968E-003	3.59960E-001	-1.17016E+000	3.57700E+000	10	...........
STARTTIMEOFFSET	QUANT	1299.818	Start Time Offset (s)