File: Data/CV_CRGO300517_1/PWRCCD_CRGO300517_1/CHARGE_DISCHARGE/CHARGE_#235.DTA
EXPLAIN
TAG	PWR800_CHARGE
TITLE	LABEL	PWR Cyclic Charge Discharge (Cell) - Charge Step	Test &Identifier
DATE	LABEL	22-6-2017	Date
TIME	LABEL	15:45:15	Time
NOTES	NOTES	3	&Notes...
	supercap test cell
	0.6mg
	6M KOH
PSTAT	PSTAT	IFC5000-01520	Potentiostat
CAPACITY	QUANT	1.00000E-003	Capacity (A-hr)
CELLTYPE	SELECTOR	1	&Cell Type
WORKINGCONNECTION	SELECTOR	0	&Working Lead
MAXCHARGETIME	VARIABLEANDUNITS	1.00000E+002	s	1.00000E+002	second(s)	Max &Charge Time
CHARGECURRENT	QUANT	6.00000E-003	&Charge Current (A)
VOLTAGEFINISH	TWOPARAM	F	1.00000E-003	3.60000E+003	&Voltage Finish	 I (A) < 	Max Time(s)
SAMPLETIME	QUANT	1.00000E-002	Sa&mple Period (s)
CHARGESTOPAT1	MULTIPARAM	4	1.00000E+000	Charge Stop At &1	Voltage > Limit	V
CHARGESTOPAT2	MULTIPARAM	0	0.00000E+000	Charge Stop At &2	None	N/A
AESBHCSELECTOR	TOGGLE	F	Save Both Half Cells
IRCOMP	TOGGLE	F	IR &Measure
EOC	QUANT	0	Open Circuit (V)
SEQUENCER	TOGGLE	TRUE	Run as Sequence
PSTATMODEL	IQUANT	53	Pstat Model
PSTATSECTION	LABEL	IFC5000-01520	Pstat Section
PSTATSERIALNO	LABEL	01520	Pstat Serial Number
CTRLMODE	IQUANT	0	Control Mode
ELECTROMETER	IQUANT	1	RE=0 or CS=1
IESTAB	IQUANT	0	I/E Stability
CASPEED	IQUANT	4	Control Amp Speed
CONVENTION	IQUANT	1	Current Convention
ICHRANGE	IQUANT	2	Ich Range
ICHRANGEMODE	TOGGLE	T	Ich Auto Range
ICHOFFSETENABLE	TOGGLE	F	Ich Offset Enable
ICHOFFSET	QUANT	0	Ich Offset (V)
ICHFILTER	IQUANT	1	Ich Filter
VCHRANGE	IQUANT	2	Vch Range
VCHRANGEMODE	TOGGLE	T	Vch Auto Range
VCHOFFSETENABLE	TOGGLE	F	Vch Offset Enable
VCHOFFSET	QUANT	0	Vch Offset (V)
VCHFILTER	IQUANT	1	Vch Filter
IERANGELOWERLIMIT	IQUANT	9	I/E Range Lower Limit
IERANGEMODE	TOGGLE	F	I/E AutoRange
IERANGE	IQUANT	10	I/E Range
ACHSELECT	IQUANT	1	Ach Select
ACHRANGE	IQUANT	2	Ach Range
ACHOFFSETENABLE	TOGGLE	F	Ach Offset Enable
ACHOFFSET	QUANT	0	Ach Offset (V)
ACHFILTER	IQUANT	1	Ach Filter
CABLEID	IQUANT	14	Cable ID
DCCALDATE	LABEL	20-10-2016	DC Calibration Date
ACCALDATE	LABEL	12/3/2015	AC Calibration Date
FRAMEWORKVERSION	QUANT	7.01	Framework Version
INSTRUMENTVERSION	LABEL	4.00	Instrument Version
CURVE	TABLE	64
	Pt	T	Vf	Im	Vu	Pwr	Sig	Ach	Temp	IERange	Over
	#	s	V	A	V	W	V	V	deg C	#	bits
	0	0.013333	6.10209E-001	6.00039E-003	0.00000E+000	3.66149E-003	3.59960E-001	-1.09715E+000	3.57670E+000	10	...........
	1	0.026667	6.18727E-001	5.99475E-003	0.00000E+000	3.70911E-003	3.59960E-001	-1.08832E+000	3.57670E+000	10	...........
	2	0.04	6.26565E-001	6.00044E-003	0.00000E+000	3.75966E-003	3.59960E-001	-1.09181E+000	3.57670E+000	10	...........
	3	0.053333	6.33946E-001	5.99858E-003	0.00000E+000	3.80278E-003	3.59960E-001	-1.09685E+000	3.57670E+000	10	...........
	4	0.066667	6.41118E-001	5.99736E-003	0.00000E+000	3.84501E-003	3.59960E-001	-1.08820E+000	3.57670E+000	10	...........
	5	0.08	6.48088E-001	5.99352E-003	0.00000E+000	3.88433E-003	3.59960E-001	-1.09145E+000	3.57670E+000	10	...........
	6	0.093333	6.54950E-001	5.99363E-003	0.00000E+000	3.92553E-003	3.59960E-001	-1.09630E+000	3.57670E+000	10	...........
	7	0.106667	6.61661E-001	5.99781E-003	0.00000E+000	3.96852E-003	3.59960E-001	-1.08754E+000	3.57670E+000	10	...........
	8	0.12	6.68304E-001	5.99710E-003	0.00000E+000	4.00788E-003	3.59960E-001	-1.09118E+000	3.57670E+000	10	...........
	9	0.133333	6.74857E-001	5.99861E-003	0.00000E+000	4.04821E-003	3.59960E-001	-1.09628E+000	3.57670E+000	10	...........
	10	0.146667	6.81347E-001	5.99785E-003	0.00000E+000	4.08662E-003	3.59960E-001	-1.08785E+000	3.57670E+000	10	...........
	11	0.16	6.87754E-001	5.99226E-003	0.00000E+000	4.12120E-003	3.59960E-001	-1.09130E+000	3.57670E+000	10	...........
	12	0.173333	6.94181E-001	5.99121E-003	0.00000E+000	4.15899E-003	3.59960E-001	-1.09635E+000	3.57670E+000	10	...........
	13	0.186667	7.00534E-001	5.99701E-003	0.00000E+000	4.20112E-003	3.59960E-001	-1.08791E+000	3.57670E+000	10	...........
	14	0.2	7.06866E-001	5.99514E-003	0.00000E+000	4.23776E-003	3.59960E-001	-1.09144E+000	3.57670E+000	10	...........
	15	0.213333	7.13187E-001	5.99398E-003	0.00000E+000	4.27483E-003	3.59960E-001	-1.09637E+000	3.57670E+000	10	...........
	16	0.226667	7.19497E-001	5.99426E-003	0.00000E+000	4.31285E-003	3.59960E-001	-1.08789E+000	3.57670E+000	10	...........
	17	0.24	7.25796E-001	5.99007E-003	0.00000E+000	4.34757E-003	3.59960E-001	-1.09139E+000	3.57670E+000	10	...........
	18	0.253333	7.32022E-001	5.99975E-003	0.00000E+000	4.39195E-003	3.59960E-001	-1.09660E+000	3.57670E+000	10	...........
	19	0.266667	7.38237E-001	5.99539E-003	0.00000E+000	4.42602E-003	3.59960E-001	-1.08802E+000	3.57670E+000	10	...........
	20	0.28	7.44507E-001	5.99207E-003	0.00000E+000	4.46114E-003	3.59960E-001	-1.09166E+000	3.57670E+000	10	...........
	21	0.293333	7.50686E-001	5.99567E-003	0.00000E+000	4.50086E-003	3.59960E-001	-1.09656E+000	3.57673E+000	10	...........
	22	0.306667	7.56919E-001	5.99655E-003	0.00000E+000	4.53890E-003	3.59960E-001	-1.08805E+000	3.57690E+000	10	...........
	23	0.32	7.63105E-001	5.99513E-003	0.00000E+000	4.57491E-003	3.59960E-001	-1.09141E+000	3.57690E+000	10	...........
	24	0.333333	7.69321E-001	5.99840E-003	0.00000E+000	4.61470E-003	3.59960E-001	-1.09637E+000	3.57690E+000	10	...........
	25	0.346667	7.75465E-001	5.99207E-003	0.00000E+000	4.64664E-003	3.59960E-001	-1.08757E+000	3.57690E+000	10	...........
	26	0.36	7.81651E-001	5.99594E-003	0.00000E+000	4.68673E-003	3.59960E-001	-1.09093E+000	3.57690E+000	10	...........
	27	0.373333	7.87771E-001	5.99373E-003	0.00000E+000	4.72168E-003	3.59960E-001	-1.09580E+000	3.57690E+000	10	...........
	28	0.386667	7.93927E-001	5.99305E-003	0.00000E+000	4.75804E-003	3.59960E-001	-1.08665E+000	3.57690E+000	10	...........
	29	0.4	8.00063E-001	5.99245E-003	0.00000E+000	4.79433E-003	3.59960E-001	-1.08990E+000	3.57690E+000	10	...........
	30	0.413333	8.06197E-001	5.98925E-003	0.00000E+000	4.82852E-003	3.59960E-001	-1.09428E+000	3.57690E+000	10	...........
	31	0.426667	8.12342E-001	5.99492E-003	0.00000E+000	4.86992E-003	3.59960E-001	-1.08529E+000	3.57690E+000	10	...........
	32	0.44	8.18472E-001	5.99460E-003	0.00000E+000	4.90642E-003	3.59960E-001	-1.08845E+000	3.57690E+000	10	...........
	33	0.453333	8.24582E-001	5.99300E-003	0.00000E+000	4.94172E-003	3.59960E-001	-1.09304E+000	3.57690E+000	10	...........
	34	0.466667	8.30698E-001	5.99625E-003	0.00000E+000	4.98107E-003	3.59960E-001	-1.08439E+000	3.57690E+000	10	...........
	35	0.48	8.36776E-001	5.98933E-003	0.00000E+000	5.01173E-003	3.59960E-001	-1.08773E+000	3.57690E+000	10	...........
	36	0.493333	8.42853E-001	5.99433E-003	0.00000E+000	5.05234E-003	3.59960E-001	-1.09232E+000	3.57690E+000	10	...........
	37	0.506667	8.48951E-001	5.99112E-003	0.00000E+000	5.08617E-003	3.59960E-001	-1.08338E+000	3.57690E+000	10	...........
	38	0.52	8.55003E-001	5.99098E-003	0.00000E+000	5.12230E-003	3.59960E-001	-1.08695E+000	3.57690E+000	10	...........
	39	0.533333	8.61043E-001	5.99283E-003	0.00000E+000	5.16008E-003	3.59960E-001	-1.09184E+000	3.57690E+000	10	...........
	40	0.546667	8.67074E-001	5.99700E-003	0.00000E+000	5.19984E-003	3.59960E-001	-1.08323E+000	3.57690E+000	10	...........
	41	0.56	8.73143E-001	5.99190E-003	0.00000E+000	5.23179E-003	3.59960E-001	-1.08682E+000	3.57690E+000	10	...........
	42	0.573333	8.79106E-001	5.98948E-003	0.00000E+000	5.26539E-003	3.59960E-001	-1.09173E+000	3.57690E+000	10	...........
	43	0.586667	8.85064E-001	5.99488E-003	0.00000E+000	5.30585E-003	3.59960E-001	-1.08325E+000	3.57690E+000	10	...........
	44	0.6	8.91041E-001	5.99233E-003	0.00000E+000	5.33941E-003	3.59960E-001	-1.08684E+000	3.57690E+000	10	...........
	45	0.613333	8.96953E-001	5.99593E-003	0.00000E+000	5.37807E-003	3.59960E-001	-1.09181E+000	3.57690E+000	10	...........
	46	0.626667	9.02893E-001	5.99763E-003	0.00000E+000	5.41522E-003	3.59960E-001	-1.08322E+000	3.57690E+000	10	...........
	47	0.64	9.08794E-001	5.99361E-003	0.00000E+000	5.44696E-003	3.59960E-001	-1.08683E+000	3.57690E+000	10	...........
	48	0.653333	9.14681E-001	5.99085E-003	0.00000E+000	5.47972E-003	3.59960E-001	-1.09196E+000	3.57690E+000	10	...........
	49	0.666667	9.20558E-001	5.99393E-003	0.00000E+000	5.51776E-003	3.59960E-001	-1.08331E+000	3.57690E+000	10	...........
	50	0.68	9.26409E-001	5.99318E-003	0.00000E+000	5.55213E-003	3.59960E-001	-1.08687E+000	3.57690E+000	10	...........
	51	0.693333	9.32183E-001	5.99632E-003	0.00000E+000	5.58966E-003	3.59960E-001	-1.09180E+000	3.57690E+000	10	...........
	52	0.706667	9.37944E-001	5.99149E-003	0.00000E+000	5.61968E-003	3.59960E-001	-1.08327E+000	3.57690E+000	10	...........
	53	0.72	9.43694E-001	5.99187E-003	0.00000E+000	5.65450E-003	3.59960E-001	-1.08694E+000	3.57690E+000	10	...........
	54	0.733333	9.49428E-001	5.99466E-003	0.00000E+000	5.69149E-003	3.59960E-001	-1.09202E+000	3.57690E+000	10	...........
	55	0.746667	9.55084E-001	5.99500E-003	0.00000E+000	5.72573E-003	3.59960E-001	-1.08313E+000	3.57690E+000	10	...........
	56	0.76	9.60726E-001	5.99790E-003	0.00000E+000	5.76234E-003	3.59960E-001	-1.08677E+000	3.57690E+000	10	...........
	57	0.773333	9.66353E-001	5.99162E-003	0.00000E+000	5.79002E-003	3.59960E-001	-1.09161E+000	3.57690E+000	10	...........
	58	0.786667	9.71935E-001	5.99677E-003	0.00000E+000	5.82847E-003	3.59960E-001	-1.08330E+000	3.57690E+000	10	...........
	59	0.8	9.77503E-001	5.99167E-003	0.00000E+000	5.85688E-003	3.59960E-001	-1.08714E+000	3.57690E+000	10	...........
	60	0.813333	9.83000E-001	5.99603E-003	0.00000E+000	5.89410E-003	3.59960E-001	-1.09226E+000	3.57690E+000	10	...........
	61	0.826667	9.88443E-001	5.99007E-003	0.00000E+000	5.92084E-003	3.59960E-001	-1.08359E+000	3.57690E+000	10	...........
	62	0.84	9.93860E-001	5.98803E-003	0.00000E+000	5.95127E-003	3.59960E-001	-1.08738E+000	3.57690E+000	10	...........
	63	0.85	9.98583E-001	5.99390E-003	0.00000E+000	5.98541E-003	3.59960E-001	-1.09198E+000	3.57690E+000	10	...........
STARTTIMEOFFSET	QUANT	432.675	Start Time Offset (s)