File: Data/CV_CRGO300517_1/PWRCCD_CRGO300517_1/CHARGE_DISCHARGE/CHARGE_#857.DTA
EXPLAIN
TAG	PWR800_CHARGE
TITLE	LABEL	PWR Cyclic Charge Discharge (Cell) - Charge Step	Test &Identifier
DATE	LABEL	22-6-2017	Date
TIME	LABEL	16:09:23	Time
NOTES	NOTES	3	&Notes...
	supercap test cell
	0.6mg
	6M KOH
PSTAT	PSTAT	IFC5000-01520	Potentiostat
CAPACITY	QUANT	1.00000E-003	Capacity (A-hr)
CELLTYPE	SELECTOR	1	&Cell Type
WORKINGCONNECTION	SELECTOR	0	&Working Lead
MAXCHARGETIME	VARIABLEANDUNITS	1.00000E+002	s	1.00000E+002	second(s)	Max &Charge Time
CHARGECURRENT	QUANT	6.00000E-003	&Charge Current (A)
VOLTAGEFINISH	TWOPARAM	F	1.00000E-003	3.60000E+003	&Voltage Finish	 I (A) < 	Max Time(s)
SAMPLETIME	QUANT	1.00000E-002	Sa&mple Period (s)
CHARGESTOPAT1	MULTIPARAM	4	1.00000E+000	Charge Stop At &1	Voltage > Limit	V
CHARGESTOPAT2	MULTIPARAM	0	0.00000E+000	Charge Stop At &2	None	N/A
AESBHCSELECTOR	TOGGLE	F	Save Both Half Cells
IRCOMP	TOGGLE	F	IR &Measure
EOC	QUANT	0	Open Circuit (V)
SEQUENCER	TOGGLE	TRUE	Run as Sequence
PSTATMODEL	IQUANT	53	Pstat Model
PSTATSECTION	LABEL	IFC5000-01520	Pstat Section
PSTATSERIALNO	LABEL	01520	Pstat Serial Number
CTRLMODE	IQUANT	0	Control Mode
ELECTROMETER	IQUANT	1	RE=0 or CS=1
IESTAB	IQUANT	0	I/E Stability
CASPEED	IQUANT	4	Control Amp Speed
CONVENTION	IQUANT	1	Current Convention
ICHRANGE	IQUANT	2	Ich Range
ICHRANGEMODE	TOGGLE	T	Ich Auto Range
ICHOFFSETENABLE	TOGGLE	F	Ich Offset Enable
ICHOFFSET	QUANT	0	Ich Offset (V)
ICHFILTER	IQUANT	1	Ich Filter
VCHRANGE	IQUANT	2	Vch Range
VCHRANGEMODE	TOGGLE	T	Vch Auto Range
VCHOFFSETENABLE	TOGGLE	F	Vch Offset Enable
VCHOFFSET	QUANT	0	Vch Offset (V)
VCHFILTER	IQUANT	1	Vch Filter
IERANGELOWERLIMIT	IQUANT	9	I/E Range Lower Limit
IERANGEMODE	TOGGLE	F	I/E AutoRange
IERANGE	IQUANT	10	I/E Range
ACHSELECT	IQUANT	1	Ach Select
ACHRANGE	IQUANT	2	Ach Range
ACHOFFSETENABLE	TOGGLE	F	Ach Offset Enable
ACHOFFSET	QUANT	0	Ach Offset (V)
ACHFILTER	IQUANT	1	Ach Filter
CABLEID	IQUANT	14	Cable ID
DCCALDATE	LABEL	20-10-2016	DC Calibration Date
ACCALDATE	LABEL	12/3/2015	AC Calibration Date
FRAMEWORKVERSION	QUANT	7.01	Framework Version
INSTRUMENTVERSION	LABEL	4.00	Instrument Version
CURVE	TABLE	54
	Pt	T	Vf	Im	Vu	Pwr	Sig	Ach	Temp	IERange	Over
	#	s	V	A	V	W	V	V	deg C	#	bits
	0	0.013333	6.50967E-001	5.99686E-003	0.00000E+000	3.90376E-003	3.59960E-001	-1.17171E+000	3.57630E+000	10	...........
	1	0.026667	6.60190E-001	5.99117E-003	0.00000E+000	3.95531E-003	3.59960E-001	-1.16852E+000	3.57630E+000	10	...........
	2	0.04	6.68733E-001	5.99099E-003	0.00000E+000	4.00637E-003	3.59960E-001	-1.16299E+000	3.57630E+000	10	...........
	3	0.053333	6.76761E-001	5.99430E-003	0.00000E+000	4.05671E-003	3.59960E-001	-1.17188E+000	3.57630E+000	10	...........
	4	0.066667	6.84514E-001	5.99959E-003	0.00000E+000	4.10680E-003	3.59960E-001	-1.16843E+000	3.57630E+000	10	...........
	5	0.08	6.92069E-001	5.99694E-003	0.00000E+000	4.15030E-003	3.59960E-001	-1.16296E+000	3.57630E+000	10	...........
	6	0.093333	6.99474E-001	5.99442E-003	0.00000E+000	4.19294E-003	3.59960E-001	-1.17144E+000	3.57630E+000	10	...........
	7	0.106667	7.06749E-001	5.99593E-003	0.00000E+000	4.23762E-003	3.59960E-001	-1.16806E+000	3.57630E+000	10	...........
	8	0.12	7.13972E-001	5.99424E-003	0.00000E+000	4.27972E-003	3.59960E-001	-1.16250E+000	3.57630E+000	10	...........
	9	0.133333	7.21151E-001	5.99299E-003	0.00000E+000	4.32185E-003	3.59960E-001	-1.17137E+000	3.57630E+000	10	...........
	10	0.146667	7.28208E-001	5.99779E-003	0.00000E+000	4.36764E-003	3.59960E-001	-1.16759E+000	3.57630E+000	10	...........
	11	0.16	7.35235E-001	5.99621E-003	0.00000E+000	4.40862E-003	3.59960E-001	-1.16221E+000	3.57630E+000	10	...........
	12	0.173333	7.42184E-001	5.99461E-003	0.00000E+000	4.44910E-003	3.59960E-001	-1.17119E+000	3.57630E+000	10	...........
	13	0.186667	7.49109E-001	5.99412E-003	0.00000E+000	4.49024E-003	3.59960E-001	-1.16766E+000	3.57630E+000	10	...........
	14	0.2	7.55993E-001	5.99494E-003	0.00000E+000	4.53213E-003	3.59960E-001	-1.16227E+000	3.57630E+000	10	...........
	15	0.213333	7.62795E-001	5.99569E-003	0.00000E+000	4.57348E-003	3.59960E-001	-1.17125E+000	3.57630E+000	10	...........
	16	0.226667	7.69626E-001	5.99172E-003	0.00000E+000	4.61138E-003	3.59960E-001	-1.16723E+000	3.57630E+000	10	...........
	17	0.24	7.76448E-001	5.99423E-003	0.00000E+000	4.65420E-003	3.59960E-001	-1.16194E+000	3.57630E+000	10	...........
	18	0.253333	7.83226E-001	5.99176E-003	0.00000E+000	4.69290E-003	3.59960E-001	-1.17136E+000	3.57630E+000	10	...........
	19	0.266667	7.89974E-001	5.99499E-003	0.00000E+000	4.73589E-003	3.59960E-001	-1.16740E+000	3.57630E+000	10	...........
	20	0.28	7.96710E-001	5.99220E-003	0.00000E+000	4.77404E-003	3.59960E-001	-1.16212E+000	3.57630E+000	10	...........
	21	0.293333	8.03374E-001	5.99612E-003	0.00000E+000	4.81712E-003	3.59960E-001	-1.17115E+000	3.57630E+000	10	...........
	22	0.306667	8.10012E-001	5.99327E-003	0.00000E+000	4.85462E-003	3.59960E-001	-1.16715E+000	3.57630E+000	10	...........
	23	0.32	8.16616E-001	5.99365E-003	0.00000E+000	4.89451E-003	3.59960E-001	-1.16205E+000	3.57630E+000	10	...........
	24	0.333333	8.23276E-001	5.99508E-003	0.00000E+000	4.93561E-003	3.59960E-001	-1.17161E+000	3.57645E+000	10	...........
	25	0.346667	8.29876E-001	5.99413E-003	0.00000E+000	4.97438E-003	3.59960E-001	-1.16700E+000	3.57650E+000	10	...........
	26	0.36	8.36445E-001	5.99584E-003	0.00000E+000	5.01519E-003	3.59960E-001	-1.16200E+000	3.57650E+000	10	...........
	27	0.373333	8.42972E-001	5.99109E-003	0.00000E+000	5.05032E-003	3.59960E-001	-1.17144E+000	3.57650E+000	10	...........
	28	0.386667	8.49501E-001	5.99117E-003	0.00000E+000	5.08951E-003	3.59960E-001	-1.16718E+000	3.57650E+000	10	...........
	29	0.4	8.55969E-001	5.98915E-003	0.00000E+000	5.12653E-003	3.59960E-001	-1.16208E+000	3.57650E+000	10	...........
	30	0.413333	8.62412E-001	5.99207E-003	0.00000E+000	5.16763E-003	3.59960E-001	-1.17130E+000	3.57650E+000	10	...........
	31	0.426667	8.68900E-001	5.99198E-003	0.00000E+000	5.20643E-003	3.59960E-001	-1.16682E+000	3.57650E+000	10	...........
	32	0.44	8.75323E-001	5.99221E-003	0.00000E+000	5.24512E-003	3.59960E-001	-1.16165E+000	3.57650E+000	10	...........
	33	0.453333	8.81716E-001	5.99125E-003	0.00000E+000	5.28258E-003	3.59960E-001	-1.17120E+000	3.57650E+000	10	...........
	34	0.466667	8.88114E-001	5.99109E-003	0.00000E+000	5.32077E-003	3.59960E-001	-1.16686E+000	3.57650E+000	10	...........
	35	0.48	8.94402E-001	5.99466E-003	0.00000E+000	5.36164E-003	3.59960E-001	-1.16178E+000	3.57650E+000	10	...........
	36	0.493333	9.00679E-001	5.99565E-003	0.00000E+000	5.40015E-003	3.59960E-001	-1.17124E+000	3.57650E+000	10	...........
	37	0.506667	9.06941E-001	5.99347E-003	0.00000E+000	5.43572E-003	3.59960E-001	-1.16654E+000	3.57650E+000	10	...........
	38	0.52	9.13172E-001	5.99149E-003	0.00000E+000	5.47126E-003	3.59960E-001	-1.16190E+000	3.57650E+000	10	...........
	39	0.533333	9.19344E-001	5.99410E-003	0.00000E+000	5.51064E-003	3.59960E-001	-1.17159E+000	3.57650E+000	10	...........
	40	0.546667	9.25529E-001	5.99353E-003	0.00000E+000	5.54719E-003	3.59960E-001	-1.16656E+000	3.57650E+000	10	...........
	41	0.56	9.31620E-001	5.99854E-003	0.00000E+000	5.58836E-003	3.59960E-001	-1.16163E+000	3.57650E+000	10	...........
	42	0.573333	9.37646E-001	5.99500E-003	0.00000E+000	5.62119E-003	3.59960E-001	-1.17132E+000	3.57650E+000	10	...........
	43	0.586667	9.43613E-001	5.99536E-003	0.00000E+000	5.65730E-003	3.59960E-001	-1.16662E+000	3.57650E+000	10	...........
	44	0.6	9.49655E-001	5.99212E-003	0.00000E+000	5.69045E-003	3.59960E-001	-1.16190E+000	3.57650E+000	10	...........
	45	0.613333	9.55537E-001	5.99490E-003	0.00000E+000	5.72835E-003	3.59960E-001	-1.17142E+000	3.57650E+000	10	...........
	46	0.626667	9.61378E-001	5.99439E-003	0.00000E+000	5.76287E-003	3.59960E-001	-1.16636E+000	3.57650E+000	10	...........
	47	0.64	9.67198E-001	5.99065E-003	0.00000E+000	5.79415E-003	3.59960E-001	-1.16153E+000	3.57650E+000	10	...........
	48	0.653333	9.72973E-001	5.99722E-003	0.00000E+000	5.83514E-003	3.59960E-001	-1.17190E+000	3.57650E+000	10	...........
	49	0.666667	9.78707E-001	5.99422E-003	0.00000E+000	5.86659E-003	3.59960E-001	-1.16668E+000	3.57650E+000	10	...........
	50	0.68	9.84404E-001	5.99950E-003	0.00000E+000	5.90593E-003	3.59960E-001	-1.16205E+000	3.57650E+000	10	...........
	51	0.693333	9.90004E-001	5.99033E-003	0.00000E+000	5.93045E-003	3.59960E-001	-1.17177E+000	3.57650E+000	10	...........
	52	0.706667	9.95562E-001	5.99390E-003	0.00000E+000	5.96730E-003	3.59960E-001	-1.16644E+000	3.57650E+000	10	...........
	53	0.711667	9.99347E-001	5.98993E-003	0.00000E+000	5.98601E-003	3.59960E-001	-1.17166E+000	3.57650E+000	10	...........
STARTTIMEOFFSET	QUANT	1385.376	Start Time Offset (s)