File: Data/CV_CRGO300517_1/PWRCCD_CRGO300517_1/CHARGE_DISCHARGE/CHARGE_#210.DTA
EXPLAIN
TAG	PWR800_CHARGE
TITLE	LABEL	PWR Cyclic Charge Discharge (Cell) - Charge Step	Test &Identifier
DATE	LABEL	22-6-2017	Date
TIME	LABEL	15:44:13	Time
NOTES	NOTES	3	&Notes...
	supercap test cell
	0.6mg
	6M KOH
PSTAT	PSTAT	IFC5000-01520	Potentiostat
CAPACITY	QUANT	1.00000E-003	Capacity (A-hr)
CELLTYPE	SELECTOR	1	&Cell Type
WORKINGCONNECTION	SELECTOR	0	&Working Lead
MAXCHARGETIME	VARIABLEANDUNITS	1.00000E+002	s	1.00000E+002	second(s)	Max &Charge Time
CHARGECURRENT	QUANT	6.00000E-003	&Charge Current (A)
VOLTAGEFINISH	TWOPARAM	F	1.00000E-003	3.60000E+003	&Voltage Finish	 I (A) < 	Max Time(s)
SAMPLETIME	QUANT	1.00000E-002	Sa&mple Period (s)
CHARGESTOPAT1	MULTIPARAM	4	1.00000E+000	Charge Stop At &1	Voltage > Limit	V
CHARGESTOPAT2	MULTIPARAM	0	0.00000E+000	Charge Stop At &2	None	N/A
AESBHCSELECTOR	TOGGLE	F	Save Both Half Cells
IRCOMP	TOGGLE	F	IR &Measure
EOC	QUANT	0	Open Circuit (V)
SEQUENCER	TOGGLE	TRUE	Run as Sequence
PSTATMODEL	IQUANT	53	Pstat Model
PSTATSECTION	LABEL	IFC5000-01520	Pstat Section
PSTATSERIALNO	LABEL	01520	Pstat Serial Number
CTRLMODE	IQUANT	0	Control Mode
ELECTROMETER	IQUANT	1	RE=0 or CS=1
IESTAB	IQUANT	0	I/E Stability
CASPEED	IQUANT	4	Control Amp Speed
CONVENTION	IQUANT	1	Current Convention
ICHRANGE	IQUANT	2	Ich Range
ICHRANGEMODE	TOGGLE	T	Ich Auto Range
ICHOFFSETENABLE	TOGGLE	F	Ich Offset Enable
ICHOFFSET	QUANT	0	Ich Offset (V)
ICHFILTER	IQUANT	1	Ich Filter
VCHRANGE	IQUANT	2	Vch Range
VCHRANGEMODE	TOGGLE	T	Vch Auto Range
VCHOFFSETENABLE	TOGGLE	F	Vch Offset Enable
VCHOFFSET	QUANT	0	Vch Offset (V)
VCHFILTER	IQUANT	1	Vch Filter
IERANGELOWERLIMIT	IQUANT	9	I/E Range Lower Limit
IERANGEMODE	TOGGLE	F	I/E AutoRange
IERANGE	IQUANT	10	I/E Range
ACHSELECT	IQUANT	1	Ach Select
ACHRANGE	IQUANT	2	Ach Range
ACHOFFSETENABLE	TOGGLE	F	Ach Offset Enable
ACHOFFSET	QUANT	0	Ach Offset (V)
ACHFILTER	IQUANT	1	Ach Filter
CABLEID	IQUANT	14	Cable ID
DCCALDATE	LABEL	20-10-2016	DC Calibration Date
ACCALDATE	LABEL	12/3/2015	AC Calibration Date
FRAMEWORKVERSION	QUANT	7.01	Framework Version
INSTRUMENTVERSION	LABEL	4.00	Instrument Version
CURVE	TABLE	65
	Pt	T	Vf	Im	Vu	Pwr	Sig	Ach	Temp	IERange	Over
	#	s	V	A	V	W	V	V	deg C	#	bits
	0	0.013333	6.07406E-001	5.99054E-003	0.00000E+000	3.63869E-003	3.59960E-001	-1.08744E+000	3.57820E+000	10	...........
	1	0.026667	6.16005E-001	5.98992E-003	0.00000E+000	3.68982E-003	3.59960E-001	-1.09701E+000	3.57820E+000	10	...........
	2	0.04	6.23797E-001	5.99671E-003	0.00000E+000	3.74073E-003	3.59960E-001	-1.08907E+000	3.57820E+000	10	...........
	3	0.053333	6.31173E-001	5.99377E-003	0.00000E+000	3.78310E-003	3.59960E-001	-1.08696E+000	3.57820E+000	10	...........
	4	0.066667	6.38286E-001	5.99536E-003	0.00000E+000	3.82675E-003	3.59960E-001	-1.09691E+000	3.57820E+000	10	...........
	5	0.08	6.45210E-001	5.99193E-003	0.00000E+000	3.86606E-003	3.59960E-001	-1.08935E+000	3.57820E+000	10	...........
	6	0.093333	6.52009E-001	5.99402E-003	0.00000E+000	3.90816E-003	3.59960E-001	-1.08725E+000	3.57820E+000	10	...........
	7	0.106667	6.58689E-001	5.99756E-003	0.00000E+000	3.95052E-003	3.59960E-001	-1.09661E+000	3.57820E+000	10	...........
	8	0.12	6.65257E-001	5.99014E-003	0.00000E+000	3.98498E-003	3.59960E-001	-1.08878E+000	3.57820E+000	10	...........
	9	0.133333	6.71739E-001	5.99265E-003	0.00000E+000	4.02550E-003	3.59960E-001	-1.08656E+000	3.57820E+000	10	...........
	10	0.146667	6.78173E-001	5.99294E-003	0.00000E+000	4.06424E-003	3.59960E-001	-1.09639E+000	3.57820E+000	10	...........
	11	0.16	6.84517E-001	5.99221E-003	0.00000E+000	4.10177E-003	3.59960E-001	-1.08916E+000	3.57820E+000	10	...........
	12	0.173333	6.90897E-001	5.99387E-003	0.00000E+000	4.14115E-003	3.59960E-001	-1.08657E+000	3.57820E+000	10	...........
	13	0.186667	6.97256E-001	5.99414E-003	0.00000E+000	4.17945E-003	3.59960E-001	-1.09634E+000	3.57820E+000	10	...........
	14	0.2	7.03514E-001	5.99615E-003	0.00000E+000	4.21838E-003	3.59960E-001	-1.08898E+000	3.57820E+000	10	...........
	15	0.213333	7.09792E-001	5.98974E-003	0.00000E+000	4.25147E-003	3.59960E-001	-1.08646E+000	3.57820E+000	10	...........
	16	0.226667	7.16065E-001	5.99236E-003	0.00000E+000	4.29092E-003	3.59960E-001	-1.09638E+000	3.57820E+000	10	...........
	17	0.24	7.22309E-001	5.99090E-003	0.00000E+000	4.32728E-003	3.59960E-001	-1.08892E+000	3.57820E+000	10	...........
	18	0.253333	7.28534E-001	5.99161E-003	0.00000E+000	4.36509E-003	3.59960E-001	-1.08609E+000	3.57820E+000	10	...........
	19	0.266667	7.34713E-001	5.99263E-003	0.00000E+000	4.40287E-003	3.59960E-001	-1.09596E+000	3.57820E+000	10	...........
	20	0.28	7.40909E-001	5.99779E-003	0.00000E+000	4.44382E-003	3.59960E-001	-1.08928E+000	3.57820E+000	10	...........
	21	0.293333	7.47114E-001	5.99667E-003	0.00000E+000	4.48020E-003	3.59960E-001	-1.08630E+000	3.57820E+000	10	...........
	22	0.306667	7.53300E-001	5.99568E-003	0.00000E+000	4.51655E-003	3.59960E-001	-1.09577E+000	3.57820E+000	10	...........
	23	0.32	7.59416E-001	5.99493E-003	0.00000E+000	4.55265E-003	3.59960E-001	-1.08912E+000	3.57820E+000	10	...........
	24	0.333333	7.65549E-001	5.99342E-003	0.00000E+000	4.58825E-003	3.59960E-001	-1.08620E+000	3.57820E+000	10	...........
	25	0.346667	7.71716E-001	5.99796E-003	0.00000E+000	4.62872E-003	3.59960E-001	-1.09609E+000	3.57820E+000	10	...........
	26	0.36	7.77876E-001	5.99543E-003	0.00000E+000	4.66370E-003	3.59960E-001	-1.08955E+000	3.57820E+000	10	...........
	27	0.373333	7.84025E-001	5.99174E-003	0.00000E+000	4.69767E-003	3.59960E-001	-1.08609E+000	3.57820E+000	10	...........
	28	0.386667	7.90139E-001	5.99771E-003	0.00000E+000	4.73903E-003	3.59960E-001	-1.09567E+000	3.57820E+000	10	...........
	29	0.4	7.96266E-001	5.99317E-003	0.00000E+000	4.77215E-003	3.59960E-001	-1.08920E+000	3.57820E+000	10	...........
	30	0.413333	8.02376E-001	5.99448E-003	0.00000E+000	4.80983E-003	3.59960E-001	-1.08607E+000	3.57820E+000	10	...........
	31	0.426667	8.08467E-001	5.99353E-003	0.00000E+000	4.84557E-003	3.59960E-001	-1.09555E+000	3.57820E+000	10	...........
	32	0.44	8.14519E-001	5.99384E-003	0.00000E+000	4.88210E-003	3.59960E-001	-1.08905E+000	3.57820E+000	10	...........
	33	0.453333	8.20648E-001	5.99724E-003	0.00000E+000	4.92162E-003	3.59960E-001	-1.08552E+000	3.57820E+000	10	...........
	34	0.466667	8.26691E-001	5.99082E-003	0.00000E+000	4.95256E-003	3.59960E-001	-1.09512E+000	3.57820E+000	10	...........
	35	0.48	8.32731E-001	5.99813E-003	0.00000E+000	4.99483E-003	3.59960E-001	-1.08915E+000	3.57820E+000	10	...........
	36	0.493333	8.38773E-001	5.99508E-003	0.00000E+000	5.02852E-003	3.59960E-001	-1.08561E+000	3.57820E+000	10	...........
	37	0.506667	8.44853E-001	5.99643E-003	0.00000E+000	5.06610E-003	3.59960E-001	-1.09499E+000	3.57820E+000	10	...........
	38	0.52	8.50871E-001	5.99440E-003	0.00000E+000	5.10046E-003	3.59960E-001	-1.08900E+000	3.57790E+000	10	...........
	39	0.533333	8.56886E-001	5.99064E-003	0.00000E+000	5.13330E-003	3.59960E-001	-1.08545E+000	3.57790E+000	10	...........
	40	0.546667	8.62886E-001	5.98895E-003	0.00000E+000	5.16778E-003	3.59960E-001	-1.09478E+000	3.57790E+000	10	...........
	41	0.56	8.68904E-001	5.99269E-003	0.00000E+000	5.20707E-003	3.59960E-001	-1.08911E+000	3.57790E+000	10	...........
	42	0.573333	8.74861E-001	5.99446E-003	0.00000E+000	5.24432E-003	3.59960E-001	-1.08547E+000	3.57790E+000	10	...........
	43	0.586667	8.80814E-001	5.99640E-003	0.00000E+000	5.28171E-003	3.59960E-001	-1.09437E+000	3.57790E+000	10	...........
	44	0.6	8.86808E-001	5.99485E-003	0.00000E+000	5.31628E-003	3.59960E-001	-1.08905E+000	3.57790E+000	10	...........
	45	0.613333	8.92717E-001	6.00099E-003	0.00000E+000	5.35718E-003	3.59960E-001	-1.08538E+000	3.57790E+000	10	...........
	46	0.626667	8.98653E-001	5.99055E-003	0.00000E+000	5.38342E-003	3.59960E-001	-1.09454E+000	3.57790E+000	10	...........
	47	0.64	9.04535E-001	5.99331E-003	0.00000E+000	5.42116E-003	3.59960E-001	-1.08932E+000	3.57790E+000	10	...........
	48	0.653333	9.10418E-001	5.99379E-003	0.00000E+000	5.45686E-003	3.59960E-001	-1.08532E+000	3.57790E+000	10	...........
	49	0.666667	9.16263E-001	5.99430E-003	0.00000E+000	5.49236E-003	3.59960E-001	-1.09460E+000	3.57790E+000	10	...........
	50	0.68	9.22138E-001	5.99768E-003	0.00000E+000	5.53069E-003	3.59960E-001	-1.08962E+000	3.57790E+000	10	...........
	51	0.693333	9.27914E-001	5.99681E-003	0.00000E+000	5.56452E-003	3.59960E-001	-1.08544E+000	3.57790E+000	10	...........
	52	0.706667	9.33691E-001	5.99040E-003	0.00000E+000	5.59318E-003	3.59960E-001	-1.09418E+000	3.57790E+000	10	...........
	53	0.72	9.39464E-001	5.99513E-003	0.00000E+000	5.63221E-003	3.59960E-001	-1.08959E+000	3.57790E+000	10	...........
	54	0.733333	9.45201E-001	5.99519E-003	0.00000E+000	5.66666E-003	3.59960E-001	-1.08521E+000	3.57790E+000	10	...........
	55	0.746667	9.50920E-001	5.99370E-003	0.00000E+000	5.69952E-003	3.59960E-001	-1.09425E+000	3.57790E+000	10	...........
	56	0.76	9.56563E-001	5.99650E-003	0.00000E+000	5.73603E-003	3.59960E-001	-1.08958E+000	3.57790E+000	10	...........
	57	0.773333	9.62181E-001	5.99481E-003	0.00000E+000	5.76810E-003	3.59960E-001	-1.08510E+000	3.57790E+000	10	...........
	58	0.786667	9.67801E-001	5.99481E-003	0.00000E+000	5.80179E-003	3.59960E-001	-1.09373E+000	3.57790E+000	10	...........
	59	0.8	9.73369E-001	5.99581E-003	0.00000E+000	5.83614E-003	3.59960E-001	-1.08961E+000	3.57790E+000	10	...........
	60	0.813333	9.78884E-001	5.99852E-003	0.00000E+000	5.87185E-003	3.59960E-001	-1.08520E+000	3.57790E+000	10	...........
	61	0.826667	9.84323E-001	5.99223E-003	0.00000E+000	5.89829E-003	3.59960E-001	-1.09368E+000	3.57790E+000	10	...........
	62	0.84	9.89769E-001	5.99004E-003	0.00000E+000	5.92875E-003	3.59960E-001	-1.08950E+000	3.57790E+000	10	...........
	63	0.853333	9.95178E-001	5.99464E-003	0.00000E+000	5.96573E-003	3.59960E-001	-1.08502E+000	3.57790E+000	10	...........
	64	0.86	9.99214E-001	5.99481E-003	0.00000E+000	5.99010E-003	3.59960E-001	-1.09821E+000	3.57790E+000	10	...........
STARTTIMEOFFSET	QUANT	390.1283	Start Time Offset (s)