File: Data/CV_CRGO300517_1/PWRCCD_CRGO300517_1/CHARGE_DISCHARGE/CHARGE_#495.DTA
EXPLAIN
TAG	PWR800_CHARGE
TITLE	LABEL	PWR Cyclic Charge Discharge (Cell) - Charge Step	Test &Identifier
DATE	LABEL	22-6-2017	Date
TIME	LABEL	15:55:44	Time
NOTES	NOTES	3	&Notes...
	supercap test cell
	0.6mg
	6M KOH
PSTAT	PSTAT	IFC5000-01520	Potentiostat
CAPACITY	QUANT	1.00000E-003	Capacity (A-hr)
CELLTYPE	SELECTOR	1	&Cell Type
WORKINGCONNECTION	SELECTOR	0	&Working Lead
MAXCHARGETIME	VARIABLEANDUNITS	1.00000E+002	s	1.00000E+002	second(s)	Max &Charge Time
CHARGECURRENT	QUANT	6.00000E-003	&Charge Current (A)
VOLTAGEFINISH	TWOPARAM	F	1.00000E-003	3.60000E+003	&Voltage Finish	 I (A) < 	Max Time(s)
SAMPLETIME	QUANT	1.00000E-002	Sa&mple Period (s)
CHARGESTOPAT1	MULTIPARAM	4	1.00000E+000	Charge Stop At &1	Voltage > Limit	V
CHARGESTOPAT2	MULTIPARAM	0	0.00000E+000	Charge Stop At &2	None	N/A
AESBHCSELECTOR	TOGGLE	F	Save Both Half Cells
IRCOMP	TOGGLE	F	IR &Measure
EOC	QUANT	0	Open Circuit (V)
SEQUENCER	TOGGLE	TRUE	Run as Sequence
PSTATMODEL	IQUANT	53	Pstat Model
PSTATSECTION	LABEL	IFC5000-01520	Pstat Section
PSTATSERIALNO	LABEL	01520	Pstat Serial Number
CTRLMODE	IQUANT	0	Control Mode
ELECTROMETER	IQUANT	1	RE=0 or CS=1
IESTAB	IQUANT	0	I/E Stability
CASPEED	IQUANT	4	Control Amp Speed
CONVENTION	IQUANT	1	Current Convention
ICHRANGE	IQUANT	2	Ich Range
ICHRANGEMODE	TOGGLE	T	Ich Auto Range
ICHOFFSETENABLE	TOGGLE	F	Ich Offset Enable
ICHOFFSET	QUANT	0	Ich Offset (V)
ICHFILTER	IQUANT	1	Ich Filter
VCHRANGE	IQUANT	2	Vch Range
VCHRANGEMODE	TOGGLE	T	Vch Auto Range
VCHOFFSETENABLE	TOGGLE	F	Vch Offset Enable
VCHOFFSET	QUANT	0	Vch Offset (V)
VCHFILTER	IQUANT	1	Vch Filter
IERANGELOWERLIMIT	IQUANT	9	I/E Range Lower Limit
IERANGEMODE	TOGGLE	F	I/E AutoRange
IERANGE	IQUANT	10	I/E Range
ACHSELECT	IQUANT	1	Ach Select
ACHRANGE	IQUANT	2	Ach Range
ACHOFFSETENABLE	TOGGLE	F	Ach Offset Enable
ACHOFFSET	QUANT	0	Ach Offset (V)
ACHFILTER	IQUANT	1	Ach Filter
CABLEID	IQUANT	14	Cable ID
DCCALDATE	LABEL	20-10-2016	DC Calibration Date
ACCALDATE	LABEL	12/3/2015	AC Calibration Date
FRAMEWORKVERSION	QUANT	7.01	Framework Version
INSTRUMENTVERSION	LABEL	4.00	Instrument Version
CURVE	TABLE	59
	Pt	T	Vf	Im	Vu	Pwr	Sig	Ach	Temp	IERange	Over
	#	s	V	A	V	W	V	V	deg C	#	bits
	0	0.013333	6.31728E-001	5.99315E-003	0.00000E+000	3.78604E-003	3.59960E-001	-1.12899E+000	3.57690E+000	10	...........
	1	0.026667	6.40626E-001	5.99348E-003	0.00000E+000	3.83958E-003	3.59960E-001	-1.12453E+000	3.57690E+000	10	...........
	2	0.04	6.48784E-001	5.99075E-003	0.00000E+000	3.88670E-003	3.59960E-001	-1.13406E+000	3.57690E+000	10	...........
	3	0.053333	6.56513E-001	5.99500E-003	0.00000E+000	3.93580E-003	3.59960E-001	-1.12917E+000	3.57690E+000	10	...........
	4	0.066667	6.63937E-001	5.99409E-003	0.00000E+000	3.97970E-003	3.59960E-001	-1.12458E+000	3.57690E+000	10	...........
	5	0.08	6.71246E-001	5.99906E-003	0.00000E+000	4.02685E-003	3.59960E-001	-1.13392E+000	3.57690E+000	10	...........
	6	0.093333	6.78330E-001	5.99022E-003	0.00000E+000	4.06335E-003	3.59960E-001	-1.12917E+000	3.57690E+000	10	...........
	7	0.106667	6.85328E-001	5.99551E-003	0.00000E+000	4.10889E-003	3.59960E-001	-1.12455E+000	3.57690E+000	10	...........
	8	0.12	6.92278E-001	5.99280E-003	0.00000E+000	4.14868E-003	3.59960E-001	-1.13406E+000	3.57690E+000	10	...........
	9	0.133333	6.99134E-001	5.99527E-003	0.00000E+000	4.19150E-003	3.59960E-001	-1.12927E+000	3.57690E+000	10	...........
	10	0.146667	7.05934E-001	5.99664E-003	0.00000E+000	4.23323E-003	3.59960E-001	-1.12452E+000	3.57690E+000	10	...........
	11	0.16	7.12675E-001	5.99103E-003	0.00000E+000	4.26966E-003	3.59960E-001	-1.13391E+000	3.57690E+000	10	...........
	12	0.173333	7.19434E-001	5.99224E-003	0.00000E+000	4.31102E-003	3.59960E-001	-1.12972E+000	3.57690E+000	10	...........
	13	0.186667	7.26093E-001	5.99040E-003	0.00000E+000	4.34959E-003	3.59960E-001	-1.12487E+000	3.57742E+000	10	...........
	14	0.2	7.32733E-001	5.99128E-003	0.00000E+000	4.39001E-003	3.59960E-001	-1.13394E+000	3.57750E+000	10	...........
	15	0.213333	7.39315E-001	5.99985E-003	0.00000E+000	4.43578E-003	3.59960E-001	-1.12960E+000	3.57750E+000	10	...........
	16	0.226667	7.45940E-001	5.99697E-003	0.00000E+000	4.47338E-003	3.59960E-001	-1.12470E+000	3.57750E+000	10	...........
	17	0.24	7.52474E-001	5.99370E-003	0.00000E+000	4.51010E-003	3.59960E-001	-1.13405E+000	3.57750E+000	10	...........
	18	0.253333	7.59014E-001	5.99321E-003	0.00000E+000	4.54893E-003	3.59960E-001	-1.12982E+000	3.57750E+000	10	...........
	19	0.266667	7.65524E-001	5.99453E-003	0.00000E+000	4.58896E-003	3.59960E-001	-1.12484E+000	3.57750E+000	10	...........
	20	0.28	7.72048E-001	5.99133E-003	0.00000E+000	4.62560E-003	3.59960E-001	-1.13415E+000	3.57750E+000	10	...........
	21	0.293333	7.78528E-001	5.99218E-003	0.00000E+000	4.66509E-003	3.59960E-001	-1.12968E+000	3.57750E+000	10	...........
	22	0.306667	7.85002E-001	5.99272E-003	0.00000E+000	4.70429E-003	3.59960E-001	-1.12497E+000	3.57750E+000	10	...........
	23	0.32	7.91452E-001	5.99566E-003	0.00000E+000	4.74528E-003	3.59960E-001	-1.13418E+000	3.57750E+000	10	...........
	24	0.333333	7.97940E-001	5.99711E-003	0.00000E+000	4.78534E-003	3.59960E-001	-1.13002E+000	3.57750E+000	10	...........
	25	0.346667	8.04342E-001	5.99326E-003	0.00000E+000	4.82063E-003	3.59960E-001	-1.12505E+000	3.57750E+000	10	...........
	26	0.36	8.10738E-001	5.99469E-003	0.00000E+000	4.86012E-003	3.59960E-001	-1.13427E+000	3.57750E+000	10	...........
	27	0.373333	8.17114E-001	5.99543E-003	0.00000E+000	4.89895E-003	3.59960E-001	-1.13002E+000	3.57750E+000	10	...........
	28	0.386667	8.23510E-001	5.98935E-003	0.00000E+000	4.93229E-003	3.59960E-001	-1.12507E+000	3.57750E+000	10	...........
	29	0.4	8.29854E-001	5.99217E-003	0.00000E+000	4.97263E-003	3.59960E-001	-1.13415E+000	3.57750E+000	10	...........
	30	0.413333	8.36186E-001	5.99590E-003	0.00000E+000	5.01369E-003	3.59960E-001	-1.13003E+000	3.57750E+000	10	...........
	31	0.426667	8.42578E-001	5.99379E-003	0.00000E+000	5.05024E-003	3.59960E-001	-1.12462E+000	3.57750E+000	10	...........
	32	0.44	8.48836E-001	5.99842E-003	0.00000E+000	5.09167E-003	3.59960E-001	-1.13404E+000	3.57750E+000	10	...........
	33	0.453333	8.55124E-001	5.99276E-003	0.00000E+000	5.12455E-003	3.59960E-001	-1.12968E+000	3.57750E+000	10	...........
	34	0.466667	8.61376E-001	5.99112E-003	0.00000E+000	5.16061E-003	3.59960E-001	-1.12455E+000	3.57750E+000	10	...........
	35	0.48	8.67629E-001	5.99190E-003	0.00000E+000	5.19875E-003	3.59960E-001	-1.13331E+000	3.57750E+000	10	...........
	36	0.493333	8.73886E-001	5.99362E-003	0.00000E+000	5.23775E-003	3.59960E-001	-1.12956E+000	3.57750E+000	10	...........
	37	0.506667	8.80100E-001	5.99401E-003	0.00000E+000	5.27533E-003	3.59960E-001	-1.12476E+000	3.57750E+000	10	...........
	38	0.52	8.86282E-001	5.99568E-003	0.00000E+000	5.31386E-003	3.59960E-001	-1.13348E+000	3.57750E+000	10	...........
	39	0.533333	8.92434E-001	5.99274E-003	0.00000E+000	5.34812E-003	3.59960E-001	-1.12970E+000	3.57750E+000	10	...........
	40	0.546667	8.98555E-001	5.99702E-003	0.00000E+000	5.38866E-003	3.59960E-001	-1.12460E+000	3.57750E+000	10	...........
	41	0.56	9.04670E-001	5.99307E-003	0.00000E+000	5.42175E-003	3.59960E-001	-1.13350E+000	3.57750E+000	10	...........
	42	0.573333	9.10751E-001	5.99810E-003	0.00000E+000	5.46278E-003	3.59960E-001	-1.12980E+000	3.57750E+000	10	...........
	43	0.586667	9.16798E-001	5.99173E-003	0.00000E+000	5.49320E-003	3.59960E-001	-1.12480E+000	3.57750E+000	10	...........
	44	0.6	9.22885E-001	5.99511E-003	0.00000E+000	5.53280E-003	3.59960E-001	-1.13349E+000	3.57750E+000	10	...........
	45	0.613333	9.28841E-001	5.99109E-003	0.00000E+000	5.56477E-003	3.59960E-001	-1.12964E+000	3.57750E+000	10	...........
	46	0.626667	9.34760E-001	5.99408E-003	0.00000E+000	5.60303E-003	3.59960E-001	-1.12458E+000	3.57750E+000	10	...........
	47	0.64	9.40640E-001	5.99390E-003	0.00000E+000	5.63810E-003	3.59960E-001	-1.13342E+000	3.57750E+000	10	...........
	48	0.653333	9.46503E-001	5.99187E-003	0.00000E+000	5.67132E-003	3.59960E-001	-1.12953E+000	3.57750E+000	10	...........
	49	0.666667	9.52359E-001	5.99762E-003	0.00000E+000	5.71189E-003	3.59960E-001	-1.12417E+000	3.57750E+000	10	...........
	50	0.68	9.58108E-001	5.98968E-003	0.00000E+000	5.73877E-003	3.59960E-001	-1.13294E+000	3.57750E+000	10	...........
	51	0.693333	9.63873E-001	5.99715E-003	0.00000E+000	5.78049E-003	3.59960E-001	-1.12917E+000	3.57750E+000	10	...........
	52	0.706667	9.69573E-001	5.99701E-003	0.00000E+000	5.81454E-003	3.59960E-001	-1.12403E+000	3.57750E+000	10	...........
	53	0.72	9.75266E-001	5.99561E-003	0.00000E+000	5.84731E-003	3.59960E-001	-1.13305E+000	3.57750E+000	10	...........
	54	0.733333	9.80902E-001	5.99298E-003	0.00000E+000	5.87852E-003	3.59960E-001	-1.12930E+000	3.57750E+000	10	...........
	55	0.746667	9.86446E-001	5.99572E-003	0.00000E+000	5.91446E-003	3.59960E-001	-1.12338E+000	3.57750E+000	10	...........
	56	0.76	9.91991E-001	5.99495E-003	0.00000E+000	5.94694E-003	3.59960E-001	-1.13204E+000	3.57750E+000	10	...........
	57	0.773333	9.97463E-001	5.99534E-003	0.00000E+000	5.98012E-003	3.59960E-001	-1.12870E+000	3.57750E+000	10	...........
	58	0.775	1.00052E+000	5.98745E-003	0.00000E+000	5.99059E-003	3.59960E-001	-1.13552E+000	3.57750E+000	10	...........
STARTTIMEOFFSET	QUANT	851.3253	Start Time Offset (s)