File: Data/CV_CRGO300517_1/PWRCCD_CRGO300517_1/CHARGE_DISCHARGE/CHARGE_#326.DTA
EXPLAIN
TAG	PWR800_CHARGE
TITLE	LABEL	PWR Cyclic Charge Discharge (Cell) - Charge Step	Test &Identifier
DATE	LABEL	22-6-2017	Date
TIME	LABEL	15:48:59	Time
NOTES	NOTES	3	&Notes...
	supercap test cell
	0.6mg
	6M KOH
PSTAT	PSTAT	IFC5000-01520	Potentiostat
CAPACITY	QUANT	1.00000E-003	Capacity (A-hr)
CELLTYPE	SELECTOR	1	&Cell Type
WORKINGCONNECTION	SELECTOR	0	&Working Lead
MAXCHARGETIME	VARIABLEANDUNITS	1.00000E+002	s	1.00000E+002	second(s)	Max &Charge Time
CHARGECURRENT	QUANT	6.00000E-003	&Charge Current (A)
VOLTAGEFINISH	TWOPARAM	F	1.00000E-003	3.60000E+003	&Voltage Finish	 I (A) < 	Max Time(s)
SAMPLETIME	QUANT	1.00000E-002	Sa&mple Period (s)
CHARGESTOPAT1	MULTIPARAM	4	1.00000E+000	Charge Stop At &1	Voltage > Limit	V
CHARGESTOPAT2	MULTIPARAM	0	0.00000E+000	Charge Stop At &2	None	N/A
AESBHCSELECTOR	TOGGLE	F	Save Both Half Cells
IRCOMP	TOGGLE	F	IR &Measure
EOC	QUANT	0	Open Circuit (V)
SEQUENCER	TOGGLE	TRUE	Run as Sequence
PSTATMODEL	IQUANT	53	Pstat Model
PSTATSECTION	LABEL	IFC5000-01520	Pstat Section
PSTATSERIALNO	LABEL	01520	Pstat Serial Number
CTRLMODE	IQUANT	0	Control Mode
ELECTROMETER	IQUANT	1	RE=0 or CS=1
IESTAB	IQUANT	0	I/E Stability
CASPEED	IQUANT	4	Control Amp Speed
CONVENTION	IQUANT	1	Current Convention
ICHRANGE	IQUANT	2	Ich Range
ICHRANGEMODE	TOGGLE	T	Ich Auto Range
ICHOFFSETENABLE	TOGGLE	F	Ich Offset Enable
ICHOFFSET	QUANT	0	Ich Offset (V)
ICHFILTER	IQUANT	1	Ich Filter
VCHRANGE	IQUANT	2	Vch Range
VCHRANGEMODE	TOGGLE	T	Vch Auto Range
VCHOFFSETENABLE	TOGGLE	F	Vch Offset Enable
VCHOFFSET	QUANT	0	Vch Offset (V)
VCHFILTER	IQUANT	1	Vch Filter
IERANGELOWERLIMIT	IQUANT	9	I/E Range Lower Limit
IERANGEMODE	TOGGLE	F	I/E AutoRange
IERANGE	IQUANT	10	I/E Range
ACHSELECT	IQUANT	1	Ach Select
ACHRANGE	IQUANT	2	Ach Range
ACHOFFSETENABLE	TOGGLE	F	Ach Offset Enable
ACHOFFSET	QUANT	0	Ach Offset (V)
ACHFILTER	IQUANT	1	Ach Filter
CABLEID	IQUANT	14	Cable ID
DCCALDATE	LABEL	20-10-2016	DC Calibration Date
ACCALDATE	LABEL	12/3/2015	AC Calibration Date
FRAMEWORKVERSION	QUANT	7.01	Framework Version
INSTRUMENTVERSION	LABEL	4.00	Instrument Version
CURVE	TABLE	62
	Pt	T	Vf	Im	Vu	Pwr	Sig	Ach	Temp	IERange	Over
	#	s	V	A	V	W	V	V	deg C	#	bits
	0	0.013333	6.18302E-001	5.99843E-003	0.00000E+000	3.70884E-003	3.59960E-001	-1.11079E+000	3.57670E+000	10	...........
	1	0.026667	6.26951E-001	5.99070E-003	0.00000E+000	3.75588E-003	3.59960E-001	-1.11560E+000	3.57670E+000	10	...........
	2	0.04	6.34902E-001	5.99550E-003	0.00000E+000	3.80655E-003	3.59960E-001	-1.11914E+000	3.57670E+000	10	...........
	3	0.053333	6.42502E-001	5.99631E-003	0.00000E+000	3.85264E-003	3.59960E-001	-1.11061E+000	3.57670E+000	10	...........
	4	0.066667	6.49779E-001	5.99116E-003	0.00000E+000	3.89293E-003	3.59960E-001	-1.11483E+000	3.57670E+000	10	...........
	5	0.08	6.56840E-001	5.99450E-003	0.00000E+000	3.93743E-003	3.59960E-001	-1.11869E+000	3.57670E+000	10	...........
	6	0.093333	6.63772E-001	5.99112E-003	0.00000E+000	3.97674E-003	3.59960E-001	-1.11027E+000	3.57670E+000	10	...........
	7	0.106667	6.70607E-001	5.99563E-003	0.00000E+000	4.02071E-003	3.59960E-001	-1.11505E+000	3.57670E+000	10	...........
	8	0.12	6.77341E-001	5.99430E-003	0.00000E+000	4.06019E-003	3.59960E-001	-1.11870E+000	3.57670E+000	10	...........
	9	0.133333	6.84007E-001	5.99758E-003	0.00000E+000	4.10239E-003	3.59960E-001	-1.11004E+000	3.57670E+000	10	...........
	10	0.146667	6.90588E-001	5.99210E-003	0.00000E+000	4.13808E-003	3.59960E-001	-1.11437E+000	3.57670E+000	10	...........
	11	0.16	6.97163E-001	5.99723E-003	0.00000E+000	4.18105E-003	3.59960E-001	-1.11882E+000	3.57670E+000	10	...........
	12	0.173333	7.03691E-001	5.99618E-003	0.00000E+000	4.21946E-003	3.59960E-001	-1.11015E+000	3.57670E+000	10	...........
	13	0.186667	7.10139E-001	5.99936E-003	0.00000E+000	4.26038E-003	3.59960E-001	-1.11438E+000	3.57670E+000	10	...........
	14	0.2	7.16605E-001	5.99151E-003	0.00000E+000	4.29355E-003	3.59960E-001	-1.11828E+000	3.57670E+000	10	...........
	15	0.213333	7.23074E-001	5.99530E-003	0.00000E+000	4.33505E-003	3.59960E-001	-1.10984E+000	3.57670E+000	10	...........
	16	0.226667	7.29446E-001	5.98823E-003	0.00000E+000	4.36809E-003	3.59960E-001	-1.11433E+000	3.57670E+000	10	...........
	17	0.24	7.35819E-001	5.99203E-003	0.00000E+000	4.40905E-003	3.59960E-001	-1.11870E+000	3.57670E+000	10	...........
	18	0.253333	7.42195E-001	5.99382E-003	0.00000E+000	4.44858E-003	3.59960E-001	-1.10994E+000	3.57670E+000	10	...........
	19	0.266667	7.48556E-001	5.99552E-003	0.00000E+000	4.48798E-003	3.59960E-001	-1.11379E+000	3.57670E+000	10	...........
	20	0.28	7.54940E-001	5.99418E-003	0.00000E+000	4.52524E-003	3.59960E-001	-1.11851E+000	3.57670E+000	10	...........
	21	0.293333	7.61252E-001	5.99181E-003	0.00000E+000	4.56128E-003	3.59960E-001	-1.10988E+000	3.57670E+000	10	...........
	22	0.306667	7.67549E-001	5.99694E-003	0.00000E+000	4.60295E-003	3.59960E-001	-1.11412E+000	3.57670E+000	10	...........
	23	0.32	7.73839E-001	5.99449E-003	0.00000E+000	4.63877E-003	3.59960E-001	-1.11870E+000	3.57670E+000	10	...........
	24	0.333333	7.80144E-001	5.99444E-003	0.00000E+000	4.67653E-003	3.59960E-001	-1.10948E+000	3.57670E+000	10	...........
	25	0.346667	7.86439E-001	5.98994E-003	0.00000E+000	4.71072E-003	3.59960E-001	-1.11378E+000	3.57670E+000	10	...........
	26	0.36	7.92726E-001	5.99337E-003	0.00000E+000	4.75110E-003	3.59960E-001	-1.11854E+000	3.57670E+000	10	...........
	27	0.373333	7.99000E-001	5.98857E-003	0.00000E+000	4.78486E-003	3.59960E-001	-1.10947E+000	3.57670E+000	10	...........
	28	0.386667	8.05259E-001	5.99252E-003	0.00000E+000	4.82553E-003	3.59960E-001	-1.11311E+000	3.57670E+000	10	...........
	29	0.4	8.11461E-001	5.98955E-003	0.00000E+000	4.86028E-003	3.59960E-001	-1.11835E+000	3.57670E+000	10	...........
	30	0.413333	8.17700E-001	5.99289E-003	0.00000E+000	4.90039E-003	3.59960E-001	-1.10943E+000	3.57670E+000	10	...........
	31	0.426667	8.23925E-001	5.99447E-003	0.00000E+000	4.93899E-003	3.59960E-001	-1.11345E+000	3.57670E+000	10	...........
	32	0.44	8.30142E-001	5.99495E-003	0.00000E+000	4.97666E-003	3.59960E-001	-1.11858E+000	3.57670E+000	10	...........
	33	0.453333	8.36327E-001	5.99565E-003	0.00000E+000	5.01432E-003	3.59960E-001	-1.10935E+000	3.57670E+000	10	...........
	34	0.466667	8.42511E-001	5.99506E-003	0.00000E+000	5.05091E-003	3.59960E-001	-1.11329E+000	3.57670E+000	10	...........
	35	0.48	8.48727E-001	5.99568E-003	0.00000E+000	5.08869E-003	3.59960E-001	-1.11852E+000	3.57670E+000	10	...........
	36	0.493333	8.54909E-001	5.99256E-003	0.00000E+000	5.12309E-003	3.59960E-001	-1.10956E+000	3.57670E+000	10	...........
	37	0.506667	8.61046E-001	5.99023E-003	0.00000E+000	5.15787E-003	3.59960E-001	-1.11334E+000	3.57670E+000	10	...........
	38	0.52	8.67120E-001	5.99006E-003	0.00000E+000	5.19410E-003	3.59960E-001	-1.11870E+000	3.57670E+000	10	...........
	39	0.533333	8.73256E-001	5.99155E-003	0.00000E+000	5.23215E-003	3.59960E-001	-1.10965E+000	3.57670E+000	10	...........
	40	0.546667	8.79322E-001	5.99613E-003	0.00000E+000	5.27253E-003	3.59960E-001	-1.11348E+000	3.57670E+000	10	...........
	41	0.56	8.85400E-001	5.98966E-003	0.00000E+000	5.30325E-003	3.59960E-001	-1.11888E+000	3.57670E+000	10	...........
	42	0.573333	8.91413E-001	5.99235E-003	0.00000E+000	5.34166E-003	3.59960E-001	-1.10973E+000	3.57670E+000	10	...........
	43	0.586667	8.97409E-001	5.99331E-003	0.00000E+000	5.37845E-003	3.59960E-001	-1.11349E+000	3.57670E+000	10	...........
	44	0.6	9.03411E-001	5.99640E-003	0.00000E+000	5.41721E-003	3.59960E-001	-1.11922E+000	3.57670E+000	10	...........
	45	0.613333	9.09423E-001	5.99551E-003	0.00000E+000	5.45246E-003	3.59960E-001	-1.11002E+000	3.57670E+000	10	...........
	46	0.626667	9.15376E-001	5.98836E-003	0.00000E+000	5.48160E-003	3.59960E-001	-1.11331E+000	3.57670E+000	10	...........
	47	0.64	9.21356E-001	5.99295E-003	0.00000E+000	5.52164E-003	3.59960E-001	-1.11926E+000	3.57670E+000	10	...........
	48	0.653333	9.27221E-001	5.99738E-003	0.00000E+000	5.56089E-003	3.59960E-001	-1.10980E+000	3.57670E+000	10	...........
	49	0.666667	9.33092E-001	5.99500E-003	0.00000E+000	5.59389E-003	3.59960E-001	-1.11351E+000	3.57670E+000	10	...........
	50	0.68	9.38895E-001	5.99518E-003	0.00000E+000	5.62884E-003	3.59960E-001	-1.11911E+000	3.57670E+000	10	...........
	51	0.693333	9.44711E-001	5.99537E-003	0.00000E+000	5.66389E-003	3.59960E-001	-1.10970E+000	3.57670E+000	10	...........
	52	0.706667	9.50524E-001	5.99312E-003	0.00000E+000	5.69661E-003	3.59960E-001	-1.11312E+000	3.57670E+000	10	...........
	53	0.72	9.56227E-001	5.99631E-003	0.00000E+000	5.73383E-003	3.59960E-001	-1.11891E+000	3.57670E+000	10	...........
	54	0.733333	9.61895E-001	5.99341E-003	0.00000E+000	5.76503E-003	3.59960E-001	-1.10946E+000	3.57670E+000	10	...........
	55	0.746667	9.67519E-001	5.98991E-003	0.00000E+000	5.79536E-003	3.59960E-001	-1.11306E+000	3.57670E+000	10	...........
	56	0.76	9.73167E-001	5.99850E-003	0.00000E+000	5.83754E-003	3.59960E-001	-1.11917E+000	3.57670E+000	10	...........
	57	0.773333	9.78744E-001	5.99641E-003	0.00000E+000	5.86895E-003	3.59960E-001	-1.10975E+000	3.57767E+000	10	...........
	58	0.786667	9.84278E-001	5.99505E-003	0.00000E+000	5.90080E-003	3.59960E-001	-1.11313E+000	3.57800E+000	10	...........
	59	0.8	9.89760E-001	5.99501E-003	0.00000E+000	5.93362E-003	3.59960E-001	-1.11909E+000	3.57800E+000	10	...........
	60	0.813333	9.95202E-001	5.98838E-003	0.00000E+000	5.95965E-003	3.59960E-001	-1.10943E+000	3.57800E+000	10	...........
	61	0.82	9.99299E-001	5.99506E-003	0.00000E+000	5.99086E-003	3.59960E-001	-1.12226E+000	3.57800E+000	10	...........
STARTTIMEOFFSET	QUANT	583.7297	Start Time Offset (s)