File: Data/CV_CRGO300517_1/PWRCCD_CRGO300517_1/CHARGE_DISCHARGE/CHARGE_#143.DTA
EXPLAIN
TAG	PWR800_CHARGE
TITLE	LABEL	PWR Cyclic Charge Discharge (Cell) - Charge Step	Test &Identifier
DATE	LABEL	22-6-2017	Date
TIME	LABEL	15:41:23	Time
NOTES	NOTES	3	&Notes...
	supercap test cell
	0.6mg
	6M KOH
PSTAT	PSTAT	IFC5000-01520	Potentiostat
CAPACITY	QUANT	1.00000E-003	Capacity (A-hr)
CELLTYPE	SELECTOR	1	&Cell Type
WORKINGCONNECTION	SELECTOR	0	&Working Lead
MAXCHARGETIME	VARIABLEANDUNITS	1.00000E+002	s	1.00000E+002	second(s)	Max &Charge Time
CHARGECURRENT	QUANT	6.00000E-003	&Charge Current (A)
VOLTAGEFINISH	TWOPARAM	F	1.00000E-003	3.60000E+003	&Voltage Finish	 I (A) < 	Max Time(s)
SAMPLETIME	QUANT	1.00000E-002	Sa&mple Period (s)
CHARGESTOPAT1	MULTIPARAM	4	1.00000E+000	Charge Stop At &1	Voltage > Limit	V
CHARGESTOPAT2	MULTIPARAM	0	0.00000E+000	Charge Stop At &2	None	N/A
AESBHCSELECTOR	TOGGLE	F	Save Both Half Cells
IRCOMP	TOGGLE	F	IR &Measure
EOC	QUANT	0	Open Circuit (V)
SEQUENCER	TOGGLE	TRUE	Run as Sequence
PSTATMODEL	IQUANT	53	Pstat Model
PSTATSECTION	LABEL	IFC5000-01520	Pstat Section
PSTATSERIALNO	LABEL	01520	Pstat Serial Number
CTRLMODE	IQUANT	0	Control Mode
ELECTROMETER	IQUANT	1	RE=0 or CS=1
IESTAB	IQUANT	0	I/E Stability
CASPEED	IQUANT	4	Control Amp Speed
CONVENTION	IQUANT	1	Current Convention
ICHRANGE	IQUANT	2	Ich Range
ICHRANGEMODE	TOGGLE	T	Ich Auto Range
ICHOFFSETENABLE	TOGGLE	F	Ich Offset Enable
ICHOFFSET	QUANT	0	Ich Offset (V)
ICHFILTER	IQUANT	1	Ich Filter
VCHRANGE	IQUANT	2	Vch Range
VCHRANGEMODE	TOGGLE	T	Vch Auto Range
VCHOFFSETENABLE	TOGGLE	F	Vch Offset Enable
VCHOFFSET	QUANT	0	Vch Offset (V)
VCHFILTER	IQUANT	1	Vch Filter
IERANGELOWERLIMIT	IQUANT	9	I/E Range Lower Limit
IERANGEMODE	TOGGLE	F	I/E AutoRange
IERANGE	IQUANT	10	I/E Range
ACHSELECT	IQUANT	1	Ach Select
ACHRANGE	IQUANT	2	Ach Range
ACHOFFSETENABLE	TOGGLE	F	Ach Offset Enable
ACHOFFSET	QUANT	0	Ach Offset (V)
ACHFILTER	IQUANT	1	Ach Filter
CABLEID	IQUANT	14	Cable ID
DCCALDATE	LABEL	20-10-2016	DC Calibration Date
ACCALDATE	LABEL	12/3/2015	AC Calibration Date
FRAMEWORKVERSION	QUANT	7.01	Framework Version
INSTRUMENTVERSION	LABEL	4.00	Instrument Version
CURVE	TABLE	68
	Pt	T	Vf	Im	Vu	Pwr	Sig	Ach	Temp	IERange	Over
	#	s	V	A	V	W	V	V	deg C	#	bits
	0	0.013333	5.96859E-001	5.99907E-003	0.00000E+000	3.58060E-003	3.59960E-001	-1.07454E+000	3.57720E+000	10	...........
	1	0.026667	6.05151E-001	5.99280E-003	0.00000E+000	3.62655E-003	3.59960E-001	-1.07530E+000	3.57720E+000	10	...........
	2	0.04	6.12827E-001	5.99520E-003	0.00000E+000	3.67402E-003	3.59960E-001	-1.06764E+000	3.57720E+000	10	...........
	3	0.053333	6.20117E-001	5.99456E-003	0.00000E+000	3.71733E-003	3.59960E-001	-1.07412E+000	3.57720E+000	10	...........
	4	0.066667	6.27071E-001	5.99392E-003	0.00000E+000	3.75861E-003	3.59960E-001	-1.07473E+000	3.57720E+000	10	...........
	5	0.08	6.33835E-001	5.99142E-003	0.00000E+000	3.79757E-003	3.59960E-001	-1.06730E+000	3.57720E+000	10	...........
	6	0.093333	6.40534E-001	5.99379E-003	0.00000E+000	3.83922E-003	3.59960E-001	-1.07392E+000	3.57720E+000	10	...........
	7	0.106667	6.47060E-001	5.99074E-003	0.00000E+000	3.87636E-003	3.59960E-001	-1.07457E+000	3.57720E+000	10	...........
	8	0.12	6.53541E-001	5.99123E-003	0.00000E+000	3.91551E-003	3.59960E-001	-1.06688E+000	3.57720E+000	10	...........
	9	0.133333	6.59922E-001	5.99248E-003	0.00000E+000	3.95457E-003	3.59960E-001	-1.07351E+000	3.57720E+000	10	...........
	10	0.146667	6.66284E-001	5.99636E-003	0.00000E+000	3.99528E-003	3.59960E-001	-1.07441E+000	3.57720E+000	10	...........
	11	0.16	6.72562E-001	5.99098E-003	0.00000E+000	4.02930E-003	3.59960E-001	-1.06721E+000	3.57720E+000	10	...........
	12	0.173333	6.78820E-001	5.99448E-003	0.00000E+000	4.06917E-003	3.59960E-001	-1.07361E+000	3.57720E+000	10	...........
	13	0.186667	6.85006E-001	6.00087E-003	0.00000E+000	4.11064E-003	3.59960E-001	-1.07437E+000	3.57720E+000	10	...........
	14	0.2	6.91154E-001	5.99624E-003	0.00000E+000	4.14432E-003	3.59960E-001	-1.06692E+000	3.57720E+000	10	...........
	15	0.213333	6.97298E-001	5.99520E-003	0.00000E+000	4.18044E-003	3.59960E-001	-1.07349E+000	3.57720E+000	10	...........
	16	0.226667	7.03446E-001	5.99382E-003	0.00000E+000	4.21633E-003	3.59960E-001	-1.07442E+000	3.57720E+000	10	...........
	17	0.24	7.09553E-001	5.99634E-003	0.00000E+000	4.25472E-003	3.59960E-001	-1.06662E+000	3.57720E+000	10	...........
	18	0.253333	7.15641E-001	5.98999E-003	0.00000E+000	4.28669E-003	3.59960E-001	-1.07287E+000	3.57720E+000	10	...........
	19	0.266667	7.21759E-001	5.99338E-003	0.00000E+000	4.32578E-003	3.59960E-001	-1.07374E+000	3.57720E+000	10	...........
	20	0.28	7.27801E-001	5.99303E-003	0.00000E+000	4.36173E-003	3.59960E-001	-1.06602E+000	3.57720E+000	10	...........
	21	0.293333	7.33848E-001	5.99206E-003	0.00000E+000	4.39726E-003	3.59960E-001	-1.07241E+000	3.57720E+000	10	...........
	22	0.306667	7.39912E-001	5.99764E-003	0.00000E+000	4.43772E-003	3.59960E-001	-1.07354E+000	3.57720E+000	10	...........
	23	0.32	7.45920E-001	5.99293E-003	0.00000E+000	4.47024E-003	3.59960E-001	-1.06582E+000	3.57720E+000	10	...........
	24	0.333333	7.51989E-001	5.99521E-003	0.00000E+000	4.50833E-003	3.59960E-001	-1.07211E+000	3.57720E+000	10	...........
	25	0.346667	7.57976E-001	5.99275E-003	0.00000E+000	4.54236E-003	3.59960E-001	-1.07353E+000	3.57720E+000	10	...........
	26	0.36	7.63989E-001	5.99326E-003	0.00000E+000	4.57879E-003	3.59960E-001	-1.06613E+000	3.57720E+000	10	...........
	27	0.373333	7.70046E-001	5.99328E-003	0.00000E+000	4.61510E-003	3.59960E-001	-1.07257E+000	3.57720E+000	10	...........
	28	0.386667	7.76065E-001	5.99035E-003	0.00000E+000	4.64890E-003	3.59960E-001	-1.07372E+000	3.57720E+000	10	...........
	29	0.4	7.82096E-001	5.99513E-003	0.00000E+000	4.68876E-003	3.59960E-001	-1.06570E+000	3.57720E+000	10	...........
	30	0.413333	7.88082E-001	5.99182E-003	0.00000E+000	4.72204E-003	3.59960E-001	-1.07196E+000	3.57720E+000	10	...........
	31	0.426667	7.94107E-001	5.99490E-003	0.00000E+000	4.76059E-003	3.59960E-001	-1.07310E+000	3.57720E+000	10	...........
	32	0.44	8.00094E-001	5.99502E-003	0.00000E+000	4.79658E-003	3.59960E-001	-1.06514E+000	3.57720E+000	10	...........
	33	0.453333	8.06037E-001	5.99525E-003	0.00000E+000	4.83240E-003	3.59960E-001	-1.07132E+000	3.57720E+000	10	...........
	34	0.466667	8.12032E-001	5.99282E-003	0.00000E+000	4.86636E-003	3.59960E-001	-1.07253E+000	3.57720E+000	10	...........
	35	0.48	8.18029E-001	5.99289E-003	0.00000E+000	4.90236E-003	3.59960E-001	-1.06497E+000	3.57720E+000	10	...........
	36	0.493333	8.23991E-001	5.99330E-003	0.00000E+000	4.93843E-003	3.59960E-001	-1.07127E+000	3.57720E+000	10	...........
	37	0.506667	8.29920E-001	5.99544E-003	0.00000E+000	4.97573E-003	3.59960E-001	-1.07290E+000	3.57720E+000	10	...........
	38	0.52	8.35880E-001	5.99153E-003	0.00000E+000	5.00820E-003	3.59960E-001	-1.06486E+000	3.57720E+000	10	...........
	39	0.533333	8.41824E-001	5.99350E-003	0.00000E+000	5.04547E-003	3.59960E-001	-1.07138E+000	3.57720E+000	10	...........
	40	0.546667	8.47793E-001	5.99447E-003	0.00000E+000	5.08207E-003	3.59960E-001	-1.07319E+000	3.57720E+000	10	...........
	41	0.56	8.53720E-001	5.99881E-003	0.00000E+000	5.12130E-003	3.59960E-001	-1.06572E+000	3.57720E+000	10	...........
	42	0.573333	8.59595E-001	5.99261E-003	0.00000E+000	5.15122E-003	3.59960E-001	-1.07183E+000	3.57720E+000	10	...........
	43	0.586667	8.65521E-001	5.99220E-003	0.00000E+000	5.18637E-003	3.59960E-001	-1.07343E+000	3.57720E+000	10	...........
	44	0.6	8.71490E-001	5.99280E-003	0.00000E+000	5.22267E-003	3.59960E-001	-1.06598E+000	3.57720E+000	10	...........
	45	0.613333	8.77390E-001	5.99444E-003	0.00000E+000	5.25946E-003	3.59960E-001	-1.07232E+000	3.57720E+000	10	...........
	46	0.626667	8.83243E-001	5.99532E-003	0.00000E+000	5.29533E-003	3.59960E-001	-1.07421E+000	3.57720E+000	10	...........
	47	0.64	8.89114E-001	5.99345E-003	0.00000E+000	5.32886E-003	3.59960E-001	-1.06659E+000	3.57720E+000	10	...........
	48	0.653333	8.94988E-001	5.99192E-003	0.00000E+000	5.36270E-003	3.59960E-001	-1.07275E+000	3.57720E+000	10	...........
	49	0.666667	9.00777E-001	5.99271E-003	0.00000E+000	5.39809E-003	3.59960E-001	-1.07469E+000	3.57720E+000	10	...........
	50	0.68	9.06583E-001	5.99791E-003	0.00000E+000	5.43761E-003	3.59960E-001	-1.06717E+000	3.57720E+000	10	...........
	51	0.693333	9.12383E-001	5.99808E-003	0.00000E+000	5.47254E-003	3.59960E-001	-1.07340E+000	3.57720E+000	10	...........
	52	0.706667	9.18169E-001	5.99585E-003	0.00000E+000	5.50520E-003	3.59960E-001	-1.07498E+000	3.57720E+000	10	...........
	53	0.72	9.23965E-001	5.99452E-003	0.00000E+000	5.53873E-003	3.59960E-001	-1.06694E+000	3.57720E+000	10	...........
	54	0.733333	9.29724E-001	5.99656E-003	0.00000E+000	5.57514E-003	3.59960E-001	-1.07265E+000	3.57738E+000	10	...........
	55	0.746667	9.35385E-001	5.99234E-003	0.00000E+000	5.60515E-003	3.59960E-001	-1.07488E+000	3.57830E+000	10	...........
	56	0.76	9.41065E-001	5.99401E-003	0.00000E+000	5.64075E-003	3.59960E-001	-1.06721E+000	3.57830E+000	10	...........
	57	0.773333	9.46747E-001	5.99390E-003	0.00000E+000	5.67470E-003	3.59960E-001	-1.07297E+000	3.57830E+000	10	...........
	58	0.786667	9.52405E-001	5.99507E-003	0.00000E+000	5.70974E-003	3.59960E-001	-1.07510E+000	3.57830E+000	10	...........
	59	0.8	9.57985E-001	5.99240E-003	0.00000E+000	5.74063E-003	3.59960E-001	-1.06739E+000	3.57830E+000	10	...........
	60	0.813333	9.63517E-001	5.99421E-003	0.00000E+000	5.77552E-003	3.59960E-001	-1.07347E+000	3.57830E+000	10	...........
	61	0.826667	9.69045E-001	5.99523E-003	0.00000E+000	5.80965E-003	3.59960E-001	-1.07549E+000	3.57830E+000	10	...........
	62	0.84	9.74608E-001	5.99821E-003	0.00000E+000	5.84591E-003	3.59960E-001	-1.06765E+000	3.57830E+000	10	...........
	63	0.853333	9.80110E-001	5.99454E-003	0.00000E+000	5.87531E-003	3.59960E-001	-1.07355E+000	3.57830E+000	10	...........
	64	0.866667	9.85507E-001	5.98947E-003	0.00000E+000	5.90267E-003	3.59960E-001	-1.07558E+000	3.57830E+000	10	...........
	65	0.88	9.90931E-001	5.99864E-003	0.00000E+000	5.94424E-003	3.59960E-001	-1.06786E+000	3.57830E+000	10	...........
	66	0.893333	9.96280E-001	5.99719E-003	0.00000E+000	5.97488E-003	3.59960E-001	-1.07382E+000	3.57830E+000	10	...........
	67	0.898333	9.99961E-001	5.99182E-003	0.00000E+000	5.99158E-003	3.59960E-001	-1.06652E+000	3.57830E+000	10	...........
STARTTIMEOFFSET	QUANT	273.1484	Start Time Offset (s)