File: Data/CV_CRGO300517_1/PWRCCD_CRGO300517_1/CHARGE_DISCHARGE/CHARGE_#660.DTA
EXPLAIN
TAG	PWR800_CHARGE
TITLE	LABEL	PWR Cyclic Charge Discharge (Cell) - Charge Step	Test &Identifier
DATE	LABEL	22-6-2017	Date
TIME	LABEL	16:02:03	Time
NOTES	NOTES	3	&Notes...
	supercap test cell
	0.6mg
	6M KOH
PSTAT	PSTAT	IFC5000-01520	Potentiostat
CAPACITY	QUANT	1.00000E-003	Capacity (A-hr)
CELLTYPE	SELECTOR	1	&Cell Type
WORKINGCONNECTION	SELECTOR	0	&Working Lead
MAXCHARGETIME	VARIABLEANDUNITS	1.00000E+002	s	1.00000E+002	second(s)	Max &Charge Time
CHARGECURRENT	QUANT	6.00000E-003	&Charge Current (A)
VOLTAGEFINISH	TWOPARAM	F	1.00000E-003	3.60000E+003	&Voltage Finish	 I (A) < 	Max Time(s)
SAMPLETIME	QUANT	1.00000E-002	Sa&mple Period (s)
CHARGESTOPAT1	MULTIPARAM	4	1.00000E+000	Charge Stop At &1	Voltage > Limit	V
CHARGESTOPAT2	MULTIPARAM	0	0.00000E+000	Charge Stop At &2	None	N/A
AESBHCSELECTOR	TOGGLE	F	Save Both Half Cells
IRCOMP	TOGGLE	F	IR &Measure
EOC	QUANT	0	Open Circuit (V)
SEQUENCER	TOGGLE	TRUE	Run as Sequence
PSTATMODEL	IQUANT	53	Pstat Model
PSTATSECTION	LABEL	IFC5000-01520	Pstat Section
PSTATSERIALNO	LABEL	01520	Pstat Serial Number
CTRLMODE	IQUANT	0	Control Mode
ELECTROMETER	IQUANT	1	RE=0 or CS=1
IESTAB	IQUANT	0	I/E Stability
CASPEED	IQUANT	4	Control Amp Speed
CONVENTION	IQUANT	1	Current Convention
ICHRANGE	IQUANT	2	Ich Range
ICHRANGEMODE	TOGGLE	T	Ich Auto Range
ICHOFFSETENABLE	TOGGLE	F	Ich Offset Enable
ICHOFFSET	QUANT	0	Ich Offset (V)
ICHFILTER	IQUANT	1	Ich Filter
VCHRANGE	IQUANT	2	Vch Range
VCHRANGEMODE	TOGGLE	T	Vch Auto Range
VCHOFFSETENABLE	TOGGLE	F	Vch Offset Enable
VCHOFFSET	QUANT	0	Vch Offset (V)
VCHFILTER	IQUANT	1	Vch Filter
IERANGELOWERLIMIT	IQUANT	9	I/E Range Lower Limit
IERANGEMODE	TOGGLE	F	I/E AutoRange
IERANGE	IQUANT	10	I/E Range
ACHSELECT	IQUANT	1	Ach Select
ACHRANGE	IQUANT	2	Ach Range
ACHOFFSETENABLE	TOGGLE	F	Ach Offset Enable
ACHOFFSET	QUANT	0	Ach Offset (V)
ACHFILTER	IQUANT	1	Ach Filter
CABLEID	IQUANT	14	Cable ID
DCCALDATE	LABEL	20-10-2016	DC Calibration Date
ACCALDATE	LABEL	12/3/2015	AC Calibration Date
FRAMEWORKVERSION	QUANT	7.01	Framework Version
INSTRUMENTVERSION	LABEL	4.00	Instrument Version
CURVE	TABLE	56
	Pt	T	Vf	Im	Vu	Pwr	Sig	Ach	Temp	IERange	Over
	#	s	V	A	V	W	V	V	deg C	#	bits
	0	0.013333	6.40700E-001	5.98978E-003	0.00000E+000	3.83765E-003	3.59960E-001	-1.15883E+000	3.57670E+000	10	...........
	1	0.026667	6.49743E-001	5.99286E-003	0.00000E+000	3.89382E-003	3.59960E-001	-1.14979E+000	3.57670E+000	10	...........
	2	0.04	6.58089E-001	5.99404E-003	0.00000E+000	3.94461E-003	3.59960E-001	-1.14748E+000	3.57670E+000	10	...........
	3	0.053333	6.66047E-001	5.99463E-003	0.00000E+000	3.99270E-003	3.59960E-001	-1.15884E+000	3.57670E+000	10	...........
	4	0.066667	6.73655E-001	5.99233E-003	0.00000E+000	4.03676E-003	3.59960E-001	-1.14970E+000	3.57670E+000	10	...........
	5	0.08	6.81031E-001	5.99515E-003	0.00000E+000	4.08288E-003	3.59960E-001	-1.14763E+000	3.57670E+000	10	...........
	6	0.093333	6.88306E-001	5.99658E-003	0.00000E+000	4.12748E-003	3.59960E-001	-1.15855E+000	3.57670E+000	10	...........
	7	0.106667	6.95446E-001	5.99766E-003	0.00000E+000	4.17105E-003	3.59960E-001	-1.14932E+000	3.57670E+000	10	...........
	8	0.12	7.02528E-001	5.99542E-003	0.00000E+000	4.21195E-003	3.59960E-001	-1.14739E+000	3.57670E+000	10	...........
	9	0.133333	7.09517E-001	5.99376E-003	0.00000E+000	4.25267E-003	3.59960E-001	-1.15856E+000	3.57670E+000	10	...........
	10	0.146667	7.16487E-001	5.99701E-003	0.00000E+000	4.29678E-003	3.59960E-001	-1.14902E+000	3.57670E+000	10	...........
	11	0.16	7.23373E-001	5.99742E-003	0.00000E+000	4.33837E-003	3.59960E-001	-1.14683E+000	3.57670E+000	10	...........
	12	0.173333	7.30163E-001	5.99330E-003	0.00000E+000	4.37609E-003	3.59960E-001	-1.15799E+000	3.57670E+000	10	...........
	13	0.186667	7.36944E-001	5.99441E-003	0.00000E+000	4.41754E-003	3.59960E-001	-1.14851E+000	3.57670E+000	10	...........
	14	0.2	7.43743E-001	5.99589E-003	0.00000E+000	4.45940E-003	3.59960E-001	-1.14717E+000	3.57670E+000	10	...........
	15	0.213333	7.50438E-001	5.99272E-003	0.00000E+000	4.49716E-003	3.59960E-001	-1.15848E+000	3.57670E+000	10	...........
	16	0.226667	7.57142E-001	5.99617E-003	0.00000E+000	4.53995E-003	3.59960E-001	-1.14812E+000	3.57670E+000	10	...........
	17	0.24	7.63860E-001	5.99569E-003	0.00000E+000	4.57987E-003	3.59960E-001	-1.14675E+000	3.57670E+000	10	...........
	18	0.253333	7.70514E-001	5.99427E-003	0.00000E+000	4.61867E-003	3.59960E-001	-1.15797E+000	3.57670E+000	10	...........
	19	0.266667	7.77144E-001	5.99080E-003	0.00000E+000	4.65571E-003	3.59960E-001	-1.14791E+000	3.57670E+000	10	...........
	20	0.28	7.83769E-001	5.99275E-003	0.00000E+000	4.69693E-003	3.59960E-001	-1.14682E+000	3.57670E+000	10	...........
	21	0.293333	7.90434E-001	5.99565E-003	0.00000E+000	4.73916E-003	3.59960E-001	-1.15800E+000	3.57670E+000	10	...........
	22	0.306667	7.97036E-001	5.99373E-003	0.00000E+000	4.77722E-003	3.59960E-001	-1.14758E+000	3.57670E+000	10	...........
	23	0.32	8.03571E-001	5.99504E-003	0.00000E+000	4.81744E-003	3.59960E-001	-1.14677E+000	3.57670E+000	10	...........
	24	0.333333	8.10099E-001	5.99328E-003	0.00000E+000	4.85515E-003	3.59960E-001	-1.15796E+000	3.57670E+000	10	...........
	25	0.346667	8.16612E-001	5.99229E-003	0.00000E+000	4.89338E-003	3.59960E-001	-1.14762E+000	3.57670E+000	10	...........
	26	0.36	8.23181E-001	5.99614E-003	0.00000E+000	4.93591E-003	3.59960E-001	-1.14668E+000	3.57670E+000	10	...........
	27	0.373333	8.29647E-001	5.99253E-003	0.00000E+000	4.97169E-003	3.59960E-001	-1.15748E+000	3.57670E+000	10	...........
	28	0.386667	8.36083E-001	5.99593E-003	0.00000E+000	5.01310E-003	3.59960E-001	-1.14731E+000	3.57670E+000	10	...........
	29	0.4	8.42572E-001	5.99172E-003	0.00000E+000	5.04845E-003	3.59960E-001	-1.14695E+000	3.57670E+000	10	...........
	30	0.413333	8.48988E-001	5.99580E-003	0.00000E+000	5.09037E-003	3.59960E-001	-1.15779E+000	3.57670E+000	10	...........
	31	0.426667	8.55432E-001	5.99760E-003	0.00000E+000	5.13054E-003	3.59960E-001	-1.14722E+000	3.57670E+000	10	...........
	32	0.44	8.61783E-001	5.99381E-003	0.00000E+000	5.16537E-003	3.59960E-001	-1.14687E+000	3.57670E+000	10	...........
	33	0.453333	8.68140E-001	5.99601E-003	0.00000E+000	5.20538E-003	3.59960E-001	-1.15753E+000	3.57670E+000	10	...........
	34	0.466667	8.74478E-001	5.99120E-003	0.00000E+000	5.23917E-003	3.59960E-001	-1.14685E+000	3.57670E+000	10	...........
	35	0.48	8.80757E-001	5.99752E-003	0.00000E+000	5.28236E-003	3.59960E-001	-1.14651E+000	3.57670E+000	10	...........
	36	0.493333	8.87008E-001	5.99407E-003	0.00000E+000	5.31679E-003	3.59960E-001	-1.15697E+000	3.57670E+000	10	...........
	37	0.506667	8.93239E-001	5.99573E-003	0.00000E+000	5.35562E-003	3.59960E-001	-1.14651E+000	3.57670E+000	10	...........
	38	0.52	8.99449E-001	5.99708E-003	0.00000E+000	5.39407E-003	3.59960E-001	-1.14634E+000	3.57670E+000	10	...........
	39	0.533333	9.05655E-001	5.99117E-003	0.00000E+000	5.42594E-003	3.59960E-001	-1.15684E+000	3.57670E+000	10	...........
	40	0.546667	9.11821E-001	5.99582E-003	0.00000E+000	5.46711E-003	3.59960E-001	-1.14628E+000	3.57670E+000	10	...........
	41	0.56	9.17914E-001	5.99770E-003	0.00000E+000	5.50537E-003	3.59960E-001	-1.14651E+000	3.57670E+000	10	...........
	42	0.573333	9.24078E-001	5.99706E-003	0.00000E+000	5.54175E-003	3.59960E-001	-1.15634E+000	3.57670E+000	10	...........
	43	0.586667	9.30113E-001	5.99723E-003	0.00000E+000	5.57811E-003	3.59960E-001	-1.14544E+000	3.57670E+000	10	...........
	44	0.6	9.36034E-001	5.99391E-003	0.00000E+000	5.61050E-003	3.59960E-001	-1.14622E+000	3.57670E+000	10	...........
	45	0.613333	9.41976E-001	5.99574E-003	0.00000E+000	5.64785E-003	3.59960E-001	-1.15657E+000	3.57670E+000	10	...........
	46	0.626667	9.47967E-001	5.99444E-003	0.00000E+000	5.68253E-003	3.59960E-001	-1.14559E+000	3.57670E+000	10	...........
	47	0.64	9.53854E-001	5.99670E-003	0.00000E+000	5.71998E-003	3.59960E-001	-1.14587E+000	3.57670E+000	10	...........
	48	0.653333	9.59640E-001	5.99696E-003	0.00000E+000	5.75493E-003	3.59960E-001	-1.15616E+000	3.57670E+000	10	...........
	49	0.666667	9.65401E-001	5.99020E-003	0.00000E+000	5.78295E-003	3.59960E-001	-1.14563E+000	3.57670E+000	10	...........
	50	0.68	9.71188E-001	5.99356E-003	0.00000E+000	5.82088E-003	3.59960E-001	-1.14627E+000	3.57670E+000	10	...........
	51	0.693333	9.76949E-001	5.99160E-003	0.00000E+000	5.85349E-003	3.59960E-001	-1.15614E+000	3.57670E+000	10	...........
	52	0.706667	9.82593E-001	5.99931E-003	0.00000E+000	5.89488E-003	3.59960E-001	-1.14517E+000	3.57670E+000	10	...........
	53	0.72	9.88225E-001	5.99467E-003	0.00000E+000	5.92408E-003	3.59960E-001	-1.14625E+000	3.57670E+000	10	...........
	54	0.733333	9.93792E-001	5.99601E-003	0.00000E+000	5.95879E-003	3.59960E-001	-1.15620E+000	3.57670E+000	10	...........
	55	0.743333	9.98590E-001	5.99738E-003	0.00000E+000	5.98892E-003	3.59960E-001	-1.14077E+000	3.57670E+000	10	...........
STARTTIMEOFFSET	QUANT	1100.293	Start Time Offset (s)