File: Data/CV_CRGO300517_1/PWRCCD_CRGO300517_1/CHARGE_DISCHARGE/CHARGE_#414.DTA
EXPLAIN
TAG	PWR800_CHARGE
TITLE	LABEL	PWR Cyclic Charge Discharge (Cell) - Charge Step	Test &Identifier
DATE	LABEL	22-6-2017	Date
TIME	LABEL	15:52:31	Time
NOTES	NOTES	3	&Notes...
	supercap test cell
	0.6mg
	6M KOH
PSTAT	PSTAT	IFC5000-01520	Potentiostat
CAPACITY	QUANT	1.00000E-003	Capacity (A-hr)
CELLTYPE	SELECTOR	1	&Cell Type
WORKINGCONNECTION	SELECTOR	0	&Working Lead
MAXCHARGETIME	VARIABLEANDUNITS	1.00000E+002	s	1.00000E+002	second(s)	Max &Charge Time
CHARGECURRENT	QUANT	6.00000E-003	&Charge Current (A)
VOLTAGEFINISH	TWOPARAM	F	1.00000E-003	3.60000E+003	&Voltage Finish	 I (A) < 	Max Time(s)
SAMPLETIME	QUANT	1.00000E-002	Sa&mple Period (s)
CHARGESTOPAT1	MULTIPARAM	4	1.00000E+000	Charge Stop At &1	Voltage > Limit	V
CHARGESTOPAT2	MULTIPARAM	0	0.00000E+000	Charge Stop At &2	None	N/A
AESBHCSELECTOR	TOGGLE	F	Save Both Half Cells
IRCOMP	TOGGLE	F	IR &Measure
EOC	QUANT	0	Open Circuit (V)
SEQUENCER	TOGGLE	TRUE	Run as Sequence
PSTATMODEL	IQUANT	53	Pstat Model
PSTATSECTION	LABEL	IFC5000-01520	Pstat Section
PSTATSERIALNO	LABEL	01520	Pstat Serial Number
CTRLMODE	IQUANT	0	Control Mode
ELECTROMETER	IQUANT	1	RE=0 or CS=1
IESTAB	IQUANT	0	I/E Stability
CASPEED	IQUANT	4	Control Amp Speed
CONVENTION	IQUANT	1	Current Convention
ICHRANGE	IQUANT	2	Ich Range
ICHRANGEMODE	TOGGLE	T	Ich Auto Range
ICHOFFSETENABLE	TOGGLE	F	Ich Offset Enable
ICHOFFSET	QUANT	0	Ich Offset (V)
ICHFILTER	IQUANT	1	Ich Filter
VCHRANGE	IQUANT	2	Vch Range
VCHRANGEMODE	TOGGLE	T	Vch Auto Range
VCHOFFSETENABLE	TOGGLE	F	Vch Offset Enable
VCHOFFSET	QUANT	0	Vch Offset (V)
VCHFILTER	IQUANT	1	Vch Filter
IERANGELOWERLIMIT	IQUANT	9	I/E Range Lower Limit
IERANGEMODE	TOGGLE	F	I/E AutoRange
IERANGE	IQUANT	10	I/E Range
ACHSELECT	IQUANT	1	Ach Select
ACHRANGE	IQUANT	2	Ach Range
ACHOFFSETENABLE	TOGGLE	F	Ach Offset Enable
ACHOFFSET	QUANT	0	Ach Offset (V)
ACHFILTER	IQUANT	1	Ach Filter
CABLEID	IQUANT	14	Cable ID
DCCALDATE	LABEL	20-10-2016	DC Calibration Date
ACCALDATE	LABEL	12/3/2015	AC Calibration Date
FRAMEWORKVERSION	QUANT	7.01	Framework Version
INSTRUMENTVERSION	LABEL	4.00	Instrument Version
CURVE	TABLE	60
	Pt	T	Vf	Im	Vu	Pwr	Sig	Ach	Temp	IERange	Over
	#	s	V	A	V	W	V	V	deg C	#	bits
	0	0.013333	6.26107E-001	5.99375E-003	0.00000E+000	3.75273E-003	3.59960E-001	-1.12826E+000	3.57650E+000	10	...........
	1	0.026667	6.34836E-001	5.99957E-003	0.00000E+000	3.80875E-003	3.59960E-001	-1.13675E+000	3.57650E+000	10	...........
	2	0.04	6.42904E-001	5.99308E-003	0.00000E+000	3.85298E-003	3.59960E-001	-1.13379E+000	3.57650E+000	10	...........
	3	0.053333	6.50526E-001	5.99498E-003	0.00000E+000	3.89989E-003	3.59960E-001	-1.12857E+000	3.57650E+000	10	...........
	4	0.066667	6.57902E-001	5.99295E-003	0.00000E+000	3.94277E-003	3.59960E-001	-1.13715E+000	3.57650E+000	10	...........
	5	0.08	6.65053E-001	5.99378E-003	0.00000E+000	3.98618E-003	3.59960E-001	-1.13379E+000	3.57650E+000	10	...........
	6	0.093333	6.72101E-001	5.99287E-003	0.00000E+000	4.02782E-003	3.59960E-001	-1.12824E+000	3.57650E+000	10	...........
	7	0.106667	6.79059E-001	5.99478E-003	0.00000E+000	4.07081E-003	3.59960E-001	-1.13700E+000	3.57650E+000	10	...........
	8	0.12	6.85908E-001	5.99327E-003	0.00000E+000	4.11083E-003	3.59960E-001	-1.13385E+000	3.57650E+000	10	...........
	9	0.133333	6.92634E-001	5.99437E-003	0.00000E+000	4.15190E-003	3.59960E-001	-1.12821E+000	3.57650E+000	10	...........
	10	0.146667	6.99350E-001	5.99726E-003	0.00000E+000	4.19419E-003	3.59960E-001	-1.13678E+000	3.57650E+000	10	...........
	11	0.16	7.06032E-001	5.98880E-003	0.00000E+000	4.22828E-003	3.59960E-001	-1.13323E+000	3.57650E+000	10	...........
	12	0.173333	7.12621E-001	5.99381E-003	0.00000E+000	4.27132E-003	3.59960E-001	-1.12784E+000	3.57650E+000	10	...........
	13	0.186667	7.19230E-001	5.99738E-003	0.00000E+000	4.31350E-003	3.59960E-001	-1.13670E+000	3.57650E+000	10	...........
	14	0.2	7.25765E-001	5.99036E-003	0.00000E+000	4.34759E-003	3.59960E-001	-1.13305E+000	3.57650E+000	10	...........
	15	0.213333	7.32296E-001	5.99199E-003	0.00000E+000	4.38791E-003	3.59960E-001	-1.12761E+000	3.57650E+000	10	...........
	16	0.226667	7.38802E-001	5.99941E-003	0.00000E+000	4.43238E-003	3.59960E-001	-1.13654E+000	3.57650E+000	10	...........
	17	0.24	7.45315E-001	5.99709E-003	0.00000E+000	4.46972E-003	3.59960E-001	-1.13313E+000	3.57650E+000	10	...........
	18	0.253333	7.51775E-001	5.99273E-003	0.00000E+000	4.50518E-003	3.59960E-001	-1.12775E+000	3.57650E+000	10	...........
	19	0.266667	7.58208E-001	5.99355E-003	0.00000E+000	4.54436E-003	3.59960E-001	-1.13644E+000	3.57650E+000	10	...........
	20	0.28	7.64586E-001	5.99353E-003	0.00000E+000	4.58257E-003	3.59960E-001	-1.13272E+000	3.57650E+000	10	...........
	21	0.293333	7.71038E-001	5.99711E-003	0.00000E+000	4.62400E-003	3.59960E-001	-1.12757E+000	3.57650E+000	10	...........
	22	0.306667	7.77413E-001	5.99569E-003	0.00000E+000	4.66113E-003	3.59960E-001	-1.13645E+000	3.57675E+000	10	...........
	23	0.32	7.83807E-001	5.98959E-003	0.00000E+000	4.69468E-003	3.59960E-001	-1.13265E+000	3.57690E+000	10	...........
	24	0.333333	7.90210E-001	5.99350E-003	0.00000E+000	4.73612E-003	3.59960E-001	-1.12731E+000	3.57690E+000	10	...........
	25	0.346667	7.96615E-001	5.99499E-003	0.00000E+000	4.77570E-003	3.59960E-001	-1.13613E+000	3.57690E+000	10	...........
	26	0.36	8.02906E-001	5.99273E-003	0.00000E+000	4.81160E-003	3.59960E-001	-1.13265E+000	3.57690E+000	10	...........
	27	0.373333	8.09226E-001	5.99566E-003	0.00000E+000	4.85184E-003	3.59960E-001	-1.12745E+000	3.57690E+000	10	...........
	28	0.386667	8.15566E-001	5.99285E-003	0.00000E+000	4.88757E-003	3.59960E-001	-1.13651E+000	3.57690E+000	10	...........
	29	0.4	8.21866E-001	5.99548E-003	0.00000E+000	4.92748E-003	3.59960E-001	-1.13252E+000	3.57690E+000	10	...........
	30	0.413333	8.28164E-001	5.99449E-003	0.00000E+000	4.96442E-003	3.59960E-001	-1.12730E+000	3.57690E+000	10	...........
	31	0.426667	8.34429E-001	5.99366E-003	0.00000E+000	5.00128E-003	3.59960E-001	-1.13626E+000	3.57690E+000	10	...........
	32	0.44	8.40693E-001	5.99162E-003	0.00000E+000	5.03711E-003	3.59960E-001	-1.13247E+000	3.57690E+000	10	...........
	33	0.453333	8.46975E-001	5.99979E-003	0.00000E+000	5.08167E-003	3.59960E-001	-1.12756E+000	3.57690E+000	10	...........
	34	0.466667	8.53191E-001	5.99055E-003	0.00000E+000	5.11108E-003	3.59960E-001	-1.13636E+000	3.57690E+000	10	...........
	35	0.48	8.59393E-001	5.99589E-003	0.00000E+000	5.15283E-003	3.59960E-001	-1.13180E+000	3.57690E+000	10	...........
	36	0.493333	8.65551E-001	5.99564E-003	0.00000E+000	5.18953E-003	3.59960E-001	-1.12698E+000	3.57690E+000	10	...........
	37	0.506667	8.71779E-001	5.99331E-003	0.00000E+000	5.22484E-003	3.59960E-001	-1.13608E+000	3.57690E+000	10	...........
	38	0.52	8.77918E-001	5.99397E-003	0.00000E+000	5.26221E-003	3.59960E-001	-1.13186E+000	3.57690E+000	10	...........
	39	0.533333	8.84064E-001	5.99726E-003	0.00000E+000	5.30196E-003	3.59960E-001	-1.12659E+000	3.57690E+000	10	...........
	40	0.546667	8.90170E-001	5.99527E-003	0.00000E+000	5.33681E-003	3.59960E-001	-1.13602E+000	3.57690E+000	10	...........
	41	0.56	8.96261E-001	5.99650E-003	0.00000E+000	5.37443E-003	3.59960E-001	-1.13150E+000	3.57690E+000	10	...........
	42	0.573333	9.02323E-001	5.99653E-003	0.00000E+000	5.41081E-003	3.59960E-001	-1.12675E+000	3.57690E+000	10	...........
	43	0.586667	9.08318E-001	5.99534E-003	0.00000E+000	5.44567E-003	3.59960E-001	-1.13598E+000	3.57690E+000	10	...........
	44	0.6	9.14352E-001	5.98951E-003	0.00000E+000	5.47653E-003	3.59960E-001	-1.13150E+000	3.57690E+000	10	...........
	45	0.613333	9.20361E-001	5.99984E-003	0.00000E+000	5.52202E-003	3.59960E-001	-1.12651E+000	3.57690E+000	10	...........
	46	0.626667	9.26324E-001	5.99048E-003	0.00000E+000	5.54913E-003	3.59960E-001	-1.13583E+000	3.57690E+000	10	...........
	47	0.64	9.32265E-001	5.99711E-003	0.00000E+000	5.59090E-003	3.59960E-001	-1.13153E+000	3.57690E+000	10	...........
	48	0.653333	9.38171E-001	5.99895E-003	0.00000E+000	5.62805E-003	3.59960E-001	-1.12663E+000	3.57690E+000	10	...........
	49	0.666667	9.43980E-001	5.99344E-003	0.00000E+000	5.65768E-003	3.59960E-001	-1.13578E+000	3.57690E+000	10	...........
	50	0.68	9.49813E-001	5.99424E-003	0.00000E+000	5.69341E-003	3.59960E-001	-1.13113E+000	3.57690E+000	10	...........
	51	0.693333	9.55546E-001	5.99070E-003	0.00000E+000	5.72439E-003	3.59960E-001	-1.12647E+000	3.57690E+000	10	...........
	52	0.706667	9.61302E-001	5.99789E-003	0.00000E+000	5.76578E-003	3.59960E-001	-1.13631E+000	3.57690E+000	10	...........
	53	0.72	9.67008E-001	5.99580E-003	0.00000E+000	5.79799E-003	3.59960E-001	-1.13128E+000	3.57690E+000	10	...........
	54	0.733333	9.72680E-001	5.99441E-003	0.00000E+000	5.83064E-003	3.59960E-001	-1.12654E+000	3.57690E+000	10	...........
	55	0.746667	9.78336E-001	5.99493E-003	0.00000E+000	5.86505E-003	3.59960E-001	-1.13608E+000	3.57690E+000	10	...........
	56	0.76	9.83911E-001	5.99744E-003	0.00000E+000	5.90095E-003	3.59960E-001	-1.13115E+000	3.57690E+000	10	...........
	57	0.773333	9.89405E-001	5.99752E-003	0.00000E+000	5.93397E-003	3.59960E-001	-1.12667E+000	3.57690E+000	10	...........
	58	0.786667	9.94871E-001	5.99498E-003	0.00000E+000	5.96423E-003	3.59960E-001	-1.13615E+000	3.57690E+000	10	...........
	59	0.793333	9.99011E-001	5.99857E-003	0.00000E+000	5.99264E-003	3.59960E-001	-1.12128E+000	3.57690E+000	10	...........
STARTTIMEOFFSET	QUANT	724.8468	Start Time Offset (s)