File: Data/CV_CRGO300517_1/PWRCCD_CRGO300517_1/CHARGE_DISCHARGE/CHARGE_#519.DTA
EXPLAIN
TAG	PWR800_CHARGE
TITLE	LABEL	PWR Cyclic Charge Discharge (Cell) - Charge Step	Test &Identifier
DATE	LABEL	22-6-2017	Date
TIME	LABEL	15:56:39	Time
NOTES	NOTES	3	&Notes...
	supercap test cell
	0.6mg
	6M KOH
PSTAT	PSTAT	IFC5000-01520	Potentiostat
CAPACITY	QUANT	1.00000E-003	Capacity (A-hr)
CELLTYPE	SELECTOR	1	&Cell Type
WORKINGCONNECTION	SELECTOR	0	&Working Lead
MAXCHARGETIME	VARIABLEANDUNITS	1.00000E+002	s	1.00000E+002	second(s)	Max &Charge Time
CHARGECURRENT	QUANT	6.00000E-003	&Charge Current (A)
VOLTAGEFINISH	TWOPARAM	F	1.00000E-003	3.60000E+003	&Voltage Finish	 I (A) < 	Max Time(s)
SAMPLETIME	QUANT	1.00000E-002	Sa&mple Period (s)
CHARGESTOPAT1	MULTIPARAM	4	1.00000E+000	Charge Stop At &1	Voltage > Limit	V
CHARGESTOPAT2	MULTIPARAM	0	0.00000E+000	Charge Stop At &2	None	N/A
AESBHCSELECTOR	TOGGLE	F	Save Both Half Cells
IRCOMP	TOGGLE	F	IR &Measure
EOC	QUANT	0	Open Circuit (V)
SEQUENCER	TOGGLE	TRUE	Run as Sequence
PSTATMODEL	IQUANT	53	Pstat Model
PSTATSECTION	LABEL	IFC5000-01520	Pstat Section
PSTATSERIALNO	LABEL	01520	Pstat Serial Number
CTRLMODE	IQUANT	0	Control Mode
ELECTROMETER	IQUANT	1	RE=0 or CS=1
IESTAB	IQUANT	0	I/E Stability
CASPEED	IQUANT	4	Control Amp Speed
CONVENTION	IQUANT	1	Current Convention
ICHRANGE	IQUANT	2	Ich Range
ICHRANGEMODE	TOGGLE	T	Ich Auto Range
ICHOFFSETENABLE	TOGGLE	F	Ich Offset Enable
ICHOFFSET	QUANT	0	Ich Offset (V)
ICHFILTER	IQUANT	1	Ich Filter
VCHRANGE	IQUANT	2	Vch Range
VCHRANGEMODE	TOGGLE	T	Vch Auto Range
VCHOFFSETENABLE	TOGGLE	F	Vch Offset Enable
VCHOFFSET	QUANT	0	Vch Offset (V)
VCHFILTER	IQUANT	1	Vch Filter
IERANGELOWERLIMIT	IQUANT	9	I/E Range Lower Limit
IERANGEMODE	TOGGLE	F	I/E AutoRange
IERANGE	IQUANT	10	I/E Range
ACHSELECT	IQUANT	1	Ach Select
ACHRANGE	IQUANT	2	Ach Range
ACHOFFSETENABLE	TOGGLE	F	Ach Offset Enable
ACHOFFSET	QUANT	0	Ach Offset (V)
ACHFILTER	IQUANT	1	Ach Filter
CABLEID	IQUANT	14	Cable ID
DCCALDATE	LABEL	20-10-2016	DC Calibration Date
ACCALDATE	LABEL	12/3/2015	AC Calibration Date
FRAMEWORKVERSION	QUANT	7.01	Framework Version
INSTRUMENTVERSION	LABEL	4.00	Instrument Version
CURVE	TABLE	58
	Pt	T	Vf	Im	Vu	Pwr	Sig	Ach	Temp	IERange	Over
	#	s	V	A	V	W	V	V	deg C	#	bits
	0	0.013333	6.32587E-001	5.99777E-003	0.00000E+000	3.79411E-003	3.59960E-001	-1.13244E+000	3.57780E+000	10	...........
	1	0.026667	6.41480E-001	5.99463E-003	0.00000E+000	3.84543E-003	3.59960E-001	-1.12348E+000	3.57780E+000	10	...........
	2	0.04	6.49732E-001	5.99389E-003	0.00000E+000	3.89442E-003	3.59960E-001	-1.12038E+000	3.57780E+000	10	...........
	3	0.053333	6.57494E-001	5.99034E-003	0.00000E+000	3.93861E-003	3.59960E-001	-1.13096E+000	3.57780E+000	10	...........
	4	0.066667	6.64990E-001	5.99431E-003	0.00000E+000	3.98616E-003	3.59960E-001	-1.12274E+000	3.57780E+000	10	...........
	5	0.08	6.72320E-001	5.99080E-003	0.00000E+000	4.02774E-003	3.59960E-001	-1.12068E+000	3.57780E+000	10	...........
	6	0.093333	6.79442E-001	5.98873E-003	0.00000E+000	4.06900E-003	3.59960E-001	-1.13116E+000	3.57780E+000	10	...........
	7	0.106667	6.86489E-001	5.99473E-003	0.00000E+000	4.11532E-003	3.59960E-001	-1.12228E+000	3.57780E+000	10	...........
	8	0.12	6.93446E-001	5.99425E-003	0.00000E+000	4.15669E-003	3.59960E-001	-1.11920E+000	3.57780E+000	10	...........
	9	0.133333	7.00289E-001	5.98787E-003	0.00000E+000	4.19324E-003	3.59960E-001	-1.13036E+000	3.57780E+000	10	...........
	10	0.146667	7.07091E-001	5.99428E-003	0.00000E+000	4.23850E-003	3.59960E-001	-1.12214E+000	3.57780E+000	10	...........
	11	0.16	7.13868E-001	5.99358E-003	0.00000E+000	4.27863E-003	3.59960E-001	-1.11954E+000	3.57780E+000	10	...........
	12	0.173333	7.20588E-001	5.99435E-003	0.00000E+000	4.31946E-003	3.59960E-001	-1.12994E+000	3.57780E+000	10	...........
	13	0.186667	7.27282E-001	5.99704E-003	0.00000E+000	4.36154E-003	3.59960E-001	-1.12135E+000	3.57780E+000	10	...........
	14	0.2	7.33907E-001	5.98894E-003	0.00000E+000	4.39533E-003	3.59960E-001	-1.11876E+000	3.57780E+000	10	...........
	15	0.213333	7.40542E-001	5.99056E-003	0.00000E+000	4.43626E-003	3.59960E-001	-1.12982E+000	3.57780E+000	10	...........
	16	0.226667	7.47159E-001	5.99302E-003	0.00000E+000	4.47774E-003	3.59960E-001	-1.12151E+000	3.57780E+000	10	...........
	17	0.24	7.53744E-001	5.99237E-003	0.00000E+000	4.51672E-003	3.59960E-001	-1.11865E+000	3.57780E+000	10	...........
	18	0.253333	7.60290E-001	5.99262E-003	0.00000E+000	4.55613E-003	3.59960E-001	-1.12955E+000	3.57780E+000	10	...........
	19	0.266667	7.66804E-001	5.99403E-003	0.00000E+000	4.59625E-003	3.59960E-001	-1.12098E+000	3.57780E+000	10	...........
	20	0.28	7.73396E-001	5.99428E-003	0.00000E+000	4.63596E-003	3.59960E-001	-1.11868E+000	3.57780E+000	10	...........
	21	0.293333	7.79908E-001	5.99289E-003	0.00000E+000	4.67390E-003	3.59960E-001	-1.12968E+000	3.57780E+000	10	...........
	22	0.306667	7.86401E-001	5.98662E-003	0.00000E+000	4.70788E-003	3.59960E-001	-1.12059E+000	3.57780E+000	10	...........
	23	0.32	7.92865E-001	5.99535E-003	0.00000E+000	4.75350E-003	3.59960E-001	-1.11814E+000	3.57780E+000	10	...........
	24	0.333333	7.99319E-001	5.99196E-003	0.00000E+000	4.78948E-003	3.59960E-001	-1.12912E+000	3.57780E+000	10	...........
	25	0.346667	8.05738E-001	5.99564E-003	0.00000E+000	4.83092E-003	3.59960E-001	-1.12025E+000	3.57780E+000	10	...........
	26	0.36	8.12116E-001	5.99419E-003	0.00000E+000	4.86797E-003	3.59960E-001	-1.11822E+000	3.57780E+000	10	...........
	27	0.373333	8.18542E-001	5.99169E-003	0.00000E+000	4.90445E-003	3.59960E-001	-1.12916E+000	3.57780E+000	10	...........
	28	0.386667	8.24961E-001	5.99744E-003	0.00000E+000	4.94765E-003	3.59960E-001	-1.12032E+000	3.57780E+000	10	...........
	29	0.4	8.31305E-001	5.99481E-003	0.00000E+000	4.98352E-003	3.59960E-001	-1.11817E+000	3.57780E+000	10	...........
	30	0.413333	8.37672E-001	5.98977E-003	0.00000E+000	5.01746E-003	3.59960E-001	-1.12894E+000	3.57780E+000	10	...........
	31	0.426667	8.44034E-001	5.99210E-003	0.00000E+000	5.05754E-003	3.59960E-001	-1.12000E+000	3.57780E+000	10	...........
	32	0.44	8.50405E-001	5.99467E-003	0.00000E+000	5.09789E-003	3.59960E-001	-1.11825E+000	3.57780E+000	10	...........
	33	0.453333	8.56685E-001	5.99437E-003	0.00000E+000	5.13528E-003	3.59960E-001	-1.12886E+000	3.57780E+000	10	...........
	34	0.466667	8.62977E-001	5.99507E-003	0.00000E+000	5.17361E-003	3.59960E-001	-1.11913E+000	3.57780E+000	10	...........
	35	0.48	8.69222E-001	5.98996E-003	0.00000E+000	5.20661E-003	3.59960E-001	-1.11650E+000	3.57780E+000	10	...........
	36	0.493333	8.75495E-001	5.99380E-003	0.00000E+000	5.24755E-003	3.59960E-001	-1.12696E+000	3.57780E+000	10	...........
	37	0.506667	8.81714E-001	5.99284E-003	0.00000E+000	5.28397E-003	3.59960E-001	-1.11652E+000	3.57780E+000	10	...........
	38	0.52	8.87890E-001	5.99356E-003	0.00000E+000	5.32162E-003	3.59960E-001	-1.11299E+000	3.57780E+000	10	...........
	39	0.533333	8.94024E-001	5.99104E-003	0.00000E+000	5.35613E-003	3.59960E-001	-1.12358E+000	3.57757E+000	10	...........
	40	0.546667	9.00195E-001	5.99538E-003	0.00000E+000	5.39701E-003	3.59960E-001	-1.11392E+000	3.57720E+000	10	...........
	41	0.56	9.06329E-001	5.99256E-003	0.00000E+000	5.43123E-003	3.59960E-001	-1.11051E+000	3.57720E+000	10	...........
	42	0.573333	9.12413E-001	5.99597E-003	0.00000E+000	5.47080E-003	3.59960E-001	-1.12272E+000	3.57720E+000	10	...........
	43	0.586667	9.18449E-001	5.99044E-003	0.00000E+000	5.50192E-003	3.59960E-001	-1.11189E+000	3.57720E+000	10	...........
	44	0.6	9.24517E-001	5.99780E-003	0.00000E+000	5.54507E-003	3.59960E-001	-1.10718E+000	3.57720E+000	10	...........
	45	0.613333	9.30492E-001	5.99592E-003	0.00000E+000	5.57916E-003	3.59960E-001	-1.11794E+000	3.57720E+000	10	...........
	46	0.626667	9.36438E-001	5.99562E-003	0.00000E+000	5.61452E-003	3.59960E-001	-1.10793E+000	3.57720E+000	10	...........
	47	0.64	9.42340E-001	5.99422E-003	0.00000E+000	5.64859E-003	3.59960E-001	-1.10443E+000	3.57720E+000	10	...........
	48	0.653333	9.48206E-001	5.99305E-003	0.00000E+000	5.68265E-003	3.59960E-001	-1.11331E+000	3.57720E+000	10	...........
	49	0.666667	9.54049E-001	5.99334E-003	0.00000E+000	5.71795E-003	3.59960E-001	-1.10285E+000	3.57720E+000	10	...........
	50	0.68	9.59855E-001	5.99520E-003	0.00000E+000	5.75452E-003	3.59960E-001	-1.09995E+000	3.57720E+000	10	...........
	51	0.693333	9.65598E-001	5.99421E-003	0.00000E+000	5.78799E-003	3.59960E-001	-1.11041E+000	3.57720E+000	10	...........
	52	0.706667	9.71313E-001	5.99544E-003	0.00000E+000	5.82345E-003	3.59960E-001	-1.10195E+000	3.57720E+000	10	...........
	53	0.72	9.76965E-001	5.99301E-003	0.00000E+000	5.85496E-003	3.59960E-001	-1.09923E+000	3.57720E+000	10	...........
	54	0.733333	9.82589E-001	5.99444E-003	0.00000E+000	5.89007E-003	3.59960E-001	-1.10788E+000	3.57720E+000	10	...........
	55	0.746667	9.88137E-001	5.98830E-003	0.00000E+000	5.91727E-003	3.59960E-001	-1.09696E+000	3.57720E+000	10	...........
	56	0.76	9.93662E-001	5.99304E-003	0.00000E+000	5.95505E-003	3.59960E-001	-1.09459E+000	3.57720E+000	10	...........
	57	0.77	9.98452E-001	5.99278E-003	0.00000E+000	5.98350E-003	3.59960E-001	-1.10692E+000	3.57720E+000	10	...........
STARTTIMEOFFSET	QUANT	888.2118	Start Time Offset (s)