File: Data/CV_CRGO300517_1/PWRCCD_CRGO300517_1/CHARGE_DISCHARGE/CHARGE_#973.DTA
EXPLAIN
TAG	PWR800_CHARGE
TITLE	LABEL	PWR Cyclic Charge Discharge (Cell) - Charge Step	Test &Identifier
DATE	LABEL	22-6-2017	Date
TIME	LABEL	16:13:39	Time
NOTES	NOTES	3	&Notes...
	supercap test cell
	0.6mg
	6M KOH
PSTAT	PSTAT	IFC5000-01520	Potentiostat
CAPACITY	QUANT	1.00000E-003	Capacity (A-hr)
CELLTYPE	SELECTOR	1	&Cell Type
WORKINGCONNECTION	SELECTOR	0	&Working Lead
MAXCHARGETIME	VARIABLEANDUNITS	1.00000E+002	s	1.00000E+002	second(s)	Max &Charge Time
CHARGECURRENT	QUANT	6.00000E-003	&Charge Current (A)
VOLTAGEFINISH	TWOPARAM	F	1.00000E-003	3.60000E+003	&Voltage Finish	 I (A) < 	Max Time(s)
SAMPLETIME	QUANT	1.00000E-002	Sa&mple Period (s)
CHARGESTOPAT1	MULTIPARAM	4	1.00000E+000	Charge Stop At &1	Voltage > Limit	V
CHARGESTOPAT2	MULTIPARAM	0	0.00000E+000	Charge Stop At &2	None	N/A
AESBHCSELECTOR	TOGGLE	F	Save Both Half Cells
IRCOMP	TOGGLE	F	IR &Measure
EOC	QUANT	0	Open Circuit (V)
SEQUENCER	TOGGLE	TRUE	Run as Sequence
PSTATMODEL	IQUANT	53	Pstat Model
PSTATSECTION	LABEL	IFC5000-01520	Pstat Section
PSTATSERIALNO	LABEL	01520	Pstat Serial Number
CTRLMODE	IQUANT	0	Control Mode
ELECTROMETER	IQUANT	1	RE=0 or CS=1
IESTAB	IQUANT	0	I/E Stability
CASPEED	IQUANT	4	Control Amp Speed
CONVENTION	IQUANT	1	Current Convention
ICHRANGE	IQUANT	2	Ich Range
ICHRANGEMODE	TOGGLE	T	Ich Auto Range
ICHOFFSETENABLE	TOGGLE	F	Ich Offset Enable
ICHOFFSET	QUANT	0	Ich Offset (V)
ICHFILTER	IQUANT	1	Ich Filter
VCHRANGE	IQUANT	2	Vch Range
VCHRANGEMODE	TOGGLE	T	Vch Auto Range
VCHOFFSETENABLE	TOGGLE	F	Vch Offset Enable
VCHOFFSET	QUANT	0	Vch Offset (V)
VCHFILTER	IQUANT	1	Vch Filter
IERANGELOWERLIMIT	IQUANT	9	I/E Range Lower Limit
IERANGEMODE	TOGGLE	F	I/E AutoRange
IERANGE	IQUANT	10	I/E Range
ACHSELECT	IQUANT	1	Ach Select
ACHRANGE	IQUANT	2	Ach Range
ACHOFFSETENABLE	TOGGLE	F	Ach Offset Enable
ACHOFFSET	QUANT	0	Ach Offset (V)
ACHFILTER	IQUANT	1	Ach Filter
CABLEID	IQUANT	14	Cable ID
DCCALDATE	LABEL	20-10-2016	DC Calibration Date
ACCALDATE	LABEL	12/3/2015	AC Calibration Date
FRAMEWORKVERSION	QUANT	7.01	Framework Version
INSTRUMENTVERSION	LABEL	4.00	Instrument Version
CURVE	TABLE	53
	Pt	T	Vf	Im	Vu	Pwr	Sig	Ach	Temp	IERange	Over
	#	s	V	A	V	W	V	V	deg C	#	bits
	0	0.013333	6.56096E-001	5.99104E-003	0.00000E+000	3.93069E-003	3.59960E-001	-1.17236E+000	3.57860E+000	10	...........
	1	0.026667	6.65485E-001	5.99491E-003	0.00000E+000	3.98952E-003	3.59960E-001	-1.18236E+000	3.57860E+000	10	...........
	2	0.04	6.74069E-001	5.99278E-003	0.00000E+000	4.03954E-003	3.59960E-001	-1.17139E+000	3.57860E+000	10	...........
	3	0.053333	6.82229E-001	5.99053E-003	0.00000E+000	4.08691E-003	3.59960E-001	-1.17213E+000	3.57860E+000	10	...........
	4	0.066667	6.90092E-001	5.99243E-003	0.00000E+000	4.13532E-003	3.59960E-001	-1.18208E+000	3.57860E+000	10	...........
	5	0.08	6.97696E-001	5.99204E-003	0.00000E+000	4.18062E-003	3.59960E-001	-1.17155E+000	3.57860E+000	10	...........
	6	0.093333	7.05222E-001	5.99276E-003	0.00000E+000	4.22623E-003	3.59960E-001	-1.17192E+000	3.57860E+000	10	...........
	7	0.106667	7.12608E-001	5.99629E-003	0.00000E+000	4.27301E-003	3.59960E-001	-1.18217E+000	3.57860E+000	10	...........
	8	0.12	7.19890E-001	5.98902E-003	0.00000E+000	4.31144E-003	3.59960E-001	-1.17152E+000	3.57860E+000	10	...........
	9	0.133333	7.27076E-001	5.99589E-003	0.00000E+000	4.35946E-003	3.59960E-001	-1.17215E+000	3.57860E+000	10	...........
	10	0.146667	7.34263E-001	5.99484E-003	0.00000E+000	4.40179E-003	3.59960E-001	-1.18233E+000	3.57860E+000	10	...........
	11	0.16	7.41335E-001	5.99214E-003	0.00000E+000	4.44218E-003	3.59960E-001	-1.17177E+000	3.57860E+000	10	...........
	12	0.173333	7.48353E-001	5.99529E-003	0.00000E+000	4.48660E-003	3.59960E-001	-1.17217E+000	3.57860E+000	10	...........
	13	0.186667	7.55339E-001	5.99627E-003	0.00000E+000	4.52922E-003	3.59960E-001	-1.18214E+000	3.57860E+000	10	...........
	14	0.2	7.62274E-001	5.99373E-003	0.00000E+000	4.56886E-003	3.59960E-001	-1.17157E+000	3.57860E+000	10	...........
	15	0.213333	7.69182E-001	5.99788E-003	0.00000E+000	4.61346E-003	3.59960E-001	-1.17201E+000	3.57860E+000	10	...........
	16	0.226667	7.76094E-001	5.99248E-003	0.00000E+000	4.65072E-003	3.59960E-001	-1.18183E+000	3.57860E+000	10	...........
	17	0.24	7.82925E-001	5.99496E-003	0.00000E+000	4.69360E-003	3.59960E-001	-1.17106E+000	3.57860E+000	10	...........
	18	0.253333	7.89719E-001	5.99559E-003	0.00000E+000	4.73483E-003	3.59960E-001	-1.17153E+000	3.57860E+000	10	...........
	19	0.266667	7.96560E-001	5.99522E-003	0.00000E+000	4.77555E-003	3.59960E-001	-1.18170E+000	3.57860E+000	10	...........
	20	0.28	8.03290E-001	5.98684E-003	0.00000E+000	4.80917E-003	3.59960E-001	-1.17127E+000	3.57860E+000	10	...........
	21	0.293333	8.10016E-001	5.99307E-003	0.00000E+000	4.85449E-003	3.59960E-001	-1.17156E+000	3.57860E+000	10	...........
	22	0.306667	8.16750E-001	5.99379E-003	0.00000E+000	4.89543E-003	3.59960E-001	-1.18154E+000	3.57860E+000	10	...........
	23	0.32	8.23439E-001	5.99159E-003	0.00000E+000	4.93371E-003	3.59960E-001	-1.17097E+000	3.57860E+000	10	...........
	24	0.333333	8.30105E-001	5.99386E-003	0.00000E+000	4.97554E-003	3.59960E-001	-1.17147E+000	3.57860E+000	10	...........
	25	0.346667	8.36731E-001	5.99629E-003	0.00000E+000	5.01729E-003	3.59960E-001	-1.18176E+000	3.57860E+000	10	...........
	26	0.36	8.43310E-001	5.99182E-003	0.00000E+000	5.05296E-003	3.59960E-001	-1.17097E+000	3.57860E+000	10	...........
	27	0.373333	8.49866E-001	5.99795E-003	0.00000E+000	5.09746E-003	3.59960E-001	-1.17136E+000	3.57860E+000	10	...........
	28	0.386667	8.56458E-001	5.99637E-003	0.00000E+000	5.13564E-003	3.59960E-001	-1.18166E+000	3.57860E+000	10	...........
	29	0.4	8.62992E-001	5.99584E-003	0.00000E+000	5.17436E-003	3.59960E-001	-1.17093E+000	3.57860E+000	10	...........
	30	0.413333	8.69486E-001	5.99834E-003	0.00000E+000	5.21547E-003	3.59960E-001	-1.17172E+000	3.57860E+000	10	...........
	31	0.426667	8.75937E-001	5.98648E-003	0.00000E+000	5.24378E-003	3.59960E-001	-1.18172E+000	3.57860E+000	10	...........
	32	0.44	8.82408E-001	5.99354E-003	0.00000E+000	5.28875E-003	3.59960E-001	-1.17106E+000	3.57860E+000	10	...........
	33	0.453333	8.88815E-001	5.99085E-003	0.00000E+000	5.32476E-003	3.59960E-001	-1.17141E+000	3.57860E+000	10	...........
	34	0.466667	8.95201E-001	5.99160E-003	0.00000E+000	5.36369E-003	3.59960E-001	-1.18165E+000	3.57860E+000	10	...........
	35	0.48	9.01541E-001	5.99108E-003	0.00000E+000	5.40121E-003	3.59960E-001	-1.17130E+000	3.57860E+000	10	...........
	36	0.493333	9.07835E-001	5.99365E-003	0.00000E+000	5.44124E-003	3.59960E-001	-1.17159E+000	3.57860E+000	10	...........
	37	0.506667	9.14070E-001	5.99349E-003	0.00000E+000	5.47847E-003	3.59960E-001	-1.18161E+000	3.57860E+000	10	...........
	38	0.52	9.20347E-001	5.99281E-003	0.00000E+000	5.51547E-003	3.59960E-001	-1.17095E+000	3.57860E+000	10	...........
	39	0.533333	9.26524E-001	5.99816E-003	0.00000E+000	5.55744E-003	3.59960E-001	-1.17130E+000	3.57860E+000	10	...........
	40	0.546667	9.32623E-001	5.99590E-003	0.00000E+000	5.59191E-003	3.59960E-001	-1.18133E+000	3.57860E+000	10	...........
	41	0.56	9.38689E-001	5.99554E-003	0.00000E+000	5.62795E-003	3.59960E-001	-1.17069E+000	3.57746E+000	10	...........
	42	0.573333	9.44710E-001	5.99171E-003	0.00000E+000	5.66042E-003	3.59960E-001	-1.17082E+000	3.57730E+000	10	...........
	43	0.586667	9.50701E-001	5.99159E-003	0.00000E+000	5.69621E-003	3.59960E-001	-1.18127E+000	3.57730E+000	10	...........
	44	0.6	9.56617E-001	5.99325E-003	0.00000E+000	5.73324E-003	3.59960E-001	-1.17075E+000	3.57730E+000	10	...........
	45	0.613333	9.62478E-001	5.99425E-003	0.00000E+000	5.76933E-003	3.59960E-001	-1.17139E+000	3.57730E+000	10	...........
	46	0.626667	9.68290E-001	5.99389E-003	0.00000E+000	5.80382E-003	3.59960E-001	-1.18133E+000	3.57730E+000	10	...........
	47	0.64	9.74124E-001	5.99733E-003	0.00000E+000	5.84214E-003	3.59960E-001	-1.17071E+000	3.57730E+000	10	...........
	48	0.653333	9.79805E-001	5.99309E-003	0.00000E+000	5.87206E-003	3.59960E-001	-1.17106E+000	3.57730E+000	10	...........
	49	0.666667	9.85451E-001	5.99078E-003	0.00000E+000	5.90362E-003	3.59960E-001	-1.18122E+000	3.57730E+000	10	...........
	50	0.68	9.91054E-001	5.99138E-003	0.00000E+000	5.93778E-003	3.59960E-001	-1.17083E+000	3.57730E+000	10	...........
	51	0.693333	9.96629E-001	5.99297E-003	0.00000E+000	5.97276E-003	3.59960E-001	-1.17100E+000	3.57730E+000	10	...........
	52	0.696667	1.00010E+000	5.99442E-003	0.00000E+000	5.99501E-003	3.59960E-001	-1.17730E+000	3.57730E+000	10	...........
STARTTIMEOFFSET	QUANT	1547.931	Start Time Offset (s)