File: Data/CV_CRGO300517_1/PWRCCD_CRGO300517_1/CHARGE_DISCHARGE/CHARGE_#394.DTA
EXPLAIN
TAG	PWR800_CHARGE
TITLE	LABEL	PWR Cyclic Charge Discharge (Cell) - Charge Step	Test &Identifier
DATE	LABEL	22-6-2017	Date
TIME	LABEL	15:51:44	Time
NOTES	NOTES	3	&Notes...
	supercap test cell
	0.6mg
	6M KOH
PSTAT	PSTAT	IFC5000-01520	Potentiostat
CAPACITY	QUANT	1.00000E-003	Capacity (A-hr)
CELLTYPE	SELECTOR	1	&Cell Type
WORKINGCONNECTION	SELECTOR	0	&Working Lead
MAXCHARGETIME	VARIABLEANDUNITS	1.00000E+002	s	1.00000E+002	second(s)	Max &Charge Time
CHARGECURRENT	QUANT	6.00000E-003	&Charge Current (A)
VOLTAGEFINISH	TWOPARAM	F	1.00000E-003	3.60000E+003	&Voltage Finish	 I (A) < 	Max Time(s)
SAMPLETIME	QUANT	1.00000E-002	Sa&mple Period (s)
CHARGESTOPAT1	MULTIPARAM	4	1.00000E+000	Charge Stop At &1	Voltage > Limit	V
CHARGESTOPAT2	MULTIPARAM	0	0.00000E+000	Charge Stop At &2	None	N/A
AESBHCSELECTOR	TOGGLE	F	Save Both Half Cells
IRCOMP	TOGGLE	F	IR &Measure
EOC	QUANT	0	Open Circuit (V)
SEQUENCER	TOGGLE	TRUE	Run as Sequence
PSTATMODEL	IQUANT	53	Pstat Model
PSTATSECTION	LABEL	IFC5000-01520	Pstat Section
PSTATSERIALNO	LABEL	01520	Pstat Serial Number
CTRLMODE	IQUANT	0	Control Mode
ELECTROMETER	IQUANT	1	RE=0 or CS=1
IESTAB	IQUANT	0	I/E Stability
CASPEED	IQUANT	4	Control Amp Speed
CONVENTION	IQUANT	1	Current Convention
ICHRANGE	IQUANT	2	Ich Range
ICHRANGEMODE	TOGGLE	T	Ich Auto Range
ICHOFFSETENABLE	TOGGLE	F	Ich Offset Enable
ICHOFFSET	QUANT	0	Ich Offset (V)
ICHFILTER	IQUANT	1	Ich Filter
VCHRANGE	IQUANT	2	Vch Range
VCHRANGEMODE	TOGGLE	T	Vch Auto Range
VCHOFFSETENABLE	TOGGLE	F	Vch Offset Enable
VCHOFFSET	QUANT	0	Vch Offset (V)
VCHFILTER	IQUANT	1	Vch Filter
IERANGELOWERLIMIT	IQUANT	9	I/E Range Lower Limit
IERANGEMODE	TOGGLE	F	I/E AutoRange
IERANGE	IQUANT	10	I/E Range
ACHSELECT	IQUANT	1	Ach Select
ACHRANGE	IQUANT	2	Ach Range
ACHOFFSETENABLE	TOGGLE	F	Ach Offset Enable
ACHOFFSET	QUANT	0	Ach Offset (V)
ACHFILTER	IQUANT	1	Ach Filter
CABLEID	IQUANT	14	Cable ID
DCCALDATE	LABEL	20-10-2016	DC Calibration Date
ACCALDATE	LABEL	12/3/2015	AC Calibration Date
FRAMEWORKVERSION	QUANT	7.01	Framework Version
INSTRUMENTVERSION	LABEL	4.00	Instrument Version
CURVE	TABLE	60
	Pt	T	Vf	Im	Vu	Pwr	Sig	Ach	Temp	IERange	Over
	#	s	V	A	V	W	V	V	deg C	#	bits
	0	0.013333	6.24119E-001	5.99401E-003	0.00000E+000	3.74097E-003	3.59960E-001	-1.13212E+000	3.57740E+000	10	...........
	1	0.026667	6.32828E-001	5.99225E-003	0.00000E+000	3.79206E-003	3.59960E-001	-1.12157E+000	3.57740E+000	10	...........
	2	0.04	6.40875E-001	5.99595E-003	0.00000E+000	3.84265E-003	3.59960E-001	-1.12290E+000	3.57740E+000	10	...........
	3	0.053333	6.48473E-001	5.99146E-003	0.00000E+000	3.88530E-003	3.59960E-001	-1.13194E+000	3.57740E+000	10	...........
	4	0.066667	6.55848E-001	5.99486E-003	0.00000E+000	3.93171E-003	3.59960E-001	-1.12139E+000	3.57740E+000	10	...........
	5	0.08	6.62996E-001	5.99503E-003	0.00000E+000	3.97468E-003	3.59960E-001	-1.12281E+000	3.57740E+000	10	...........
	6	0.093333	6.69987E-001	5.99452E-003	0.00000E+000	4.01625E-003	3.59960E-001	-1.13199E+000	3.57740E+000	10	...........
	7	0.106667	6.76883E-001	5.99016E-003	0.00000E+000	4.05464E-003	3.59960E-001	-1.12132E+000	3.57740E+000	10	...........
	8	0.12	6.83717E-001	5.99598E-003	0.00000E+000	4.09955E-003	3.59960E-001	-1.12261E+000	3.57740E+000	10	...........
	9	0.133333	6.90422E-001	5.99612E-003	0.00000E+000	4.13985E-003	3.59960E-001	-1.13178E+000	3.57740E+000	10	...........
	10	0.146667	6.97105E-001	5.99348E-003	0.00000E+000	4.17808E-003	3.59960E-001	-1.12148E+000	3.57740E+000	10	...........
	11	0.16	7.03762E-001	5.99526E-003	0.00000E+000	4.21924E-003	3.59960E-001	-1.12289E+000	3.57740E+000	10	...........
	12	0.173333	7.10342E-001	5.99403E-003	0.00000E+000	4.25781E-003	3.59960E-001	-1.13198E+000	3.57740E+000	10	...........
	13	0.186667	7.16901E-001	5.99143E-003	0.00000E+000	4.29526E-003	3.59960E-001	-1.12118E+000	3.57740E+000	10	...........
	14	0.2	7.23466E-001	5.99439E-003	0.00000E+000	4.33673E-003	3.59960E-001	-1.12257E+000	3.57740E+000	10	...........
	15	0.213333	7.29965E-001	5.99613E-003	0.00000E+000	4.37697E-003	3.59960E-001	-1.13184E+000	3.57740E+000	10	...........
	16	0.226667	7.36435E-001	5.99796E-003	0.00000E+000	4.41711E-003	3.59960E-001	-1.12123E+000	3.57740E+000	10	...........
	17	0.24	7.42931E-001	5.99788E-003	0.00000E+000	4.45601E-003	3.59960E-001	-1.12241E+000	3.57740E+000	10	...........
	18	0.253333	7.49376E-001	5.99350E-003	0.00000E+000	4.49139E-003	3.59960E-001	-1.13118E+000	3.57740E+000	10	...........
	19	0.266667	7.55829E-001	5.99158E-003	0.00000E+000	4.52861E-003	3.59960E-001	-1.12067E+000	3.57740E+000	10	...........
	20	0.28	7.62224E-001	5.99410E-003	0.00000E+000	4.56885E-003	3.59960E-001	-1.12223E+000	3.57740E+000	10	...........
	21	0.293333	7.68615E-001	5.99598E-003	0.00000E+000	4.60860E-003	3.59960E-001	-1.13140E+000	3.57740E+000	10	...........
	22	0.306667	7.75036E-001	5.99830E-003	0.00000E+000	4.64890E-003	3.59960E-001	-1.12086E+000	3.57740E+000	10	...........
	23	0.32	7.81414E-001	5.99403E-003	0.00000E+000	4.68382E-003	3.59960E-001	-1.12190E+000	3.57740E+000	10	...........
	24	0.333333	7.87741E-001	5.99405E-003	0.00000E+000	4.72176E-003	3.59960E-001	-1.13127E+000	3.57740E+000	10	...........
	25	0.346667	7.94094E-001	5.99465E-003	0.00000E+000	4.76031E-003	3.59960E-001	-1.12079E+000	3.57740E+000	10	...........
	26	0.36	8.00458E-001	5.99675E-003	0.00000E+000	4.80015E-003	3.59960E-001	-1.12208E+000	3.57740E+000	10	...........
	27	0.373333	8.06770E-001	5.99562E-003	0.00000E+000	4.83708E-003	3.59960E-001	-1.13125E+000	3.57740E+000	10	...........
	28	0.386667	8.13045E-001	5.99040E-003	0.00000E+000	4.87047E-003	3.59960E-001	-1.12043E+000	3.57740E+000	10	...........
	29	0.4	8.19341E-001	5.99537E-003	0.00000E+000	4.91225E-003	3.59960E-001	-1.12171E+000	3.57740E+000	10	...........
	30	0.413333	8.25670E-001	5.99592E-003	0.00000E+000	4.95065E-003	3.59960E-001	-1.13106E+000	3.57740E+000	10	...........
	31	0.426667	8.31923E-001	5.99212E-003	0.00000E+000	4.98499E-003	3.59960E-001	-1.12064E+000	3.57740E+000	10	...........
	32	0.44	8.38150E-001	5.99747E-003	0.00000E+000	5.02678E-003	3.59960E-001	-1.12184E+000	3.57740E+000	10	...........
	33	0.453333	8.44403E-001	5.99311E-003	0.00000E+000	5.06060E-003	3.59960E-001	-1.13119E+000	3.57740E+000	10	...........
	34	0.466667	8.50624E-001	5.99262E-003	0.00000E+000	5.09747E-003	3.59960E-001	-1.12056E+000	3.57740E+000	10	...........
	35	0.48	8.56829E-001	5.99383E-003	0.00000E+000	5.13569E-003	3.59960E-001	-1.12223E+000	3.57740E+000	10	...........
	36	0.493333	8.63055E-001	5.99799E-003	0.00000E+000	5.17660E-003	3.59960E-001	-1.13131E+000	3.57740E+000	10	...........
	37	0.506667	8.69233E-001	5.99829E-003	0.00000E+000	5.21391E-003	3.59960E-001	-1.12047E+000	3.57740E+000	10	...........
	38	0.52	8.75382E-001	5.99816E-003	0.00000E+000	5.25068E-003	3.59960E-001	-1.12196E+000	3.57740E+000	10	...........
	39	0.533333	8.81466E-001	5.99819E-003	0.00000E+000	5.28721E-003	3.59960E-001	-1.13100E+000	3.57740E+000	10	...........
	40	0.546667	8.87606E-001	5.98810E-003	0.00000E+000	5.31507E-003	3.59960E-001	-1.12043E+000	3.57740E+000	10	...........
	41	0.56	8.93698E-001	5.99540E-003	0.00000E+000	5.35808E-003	3.59960E-001	-1.12174E+000	3.57740E+000	10	...........
	42	0.573333	8.99792E-001	5.99595E-003	0.00000E+000	5.39511E-003	3.59960E-001	-1.13056E+000	3.57740E+000	10	...........
	43	0.586667	9.05833E-001	5.99398E-003	0.00000E+000	5.42954E-003	3.59960E-001	-1.12002E+000	3.57740E+000	10	...........
	44	0.6	9.11810E-001	5.99688E-003	0.00000E+000	5.46802E-003	3.59960E-001	-1.12142E+000	3.57740E+000	10	...........
	45	0.613333	9.17819E-001	5.99553E-003	0.00000E+000	5.50281E-003	3.59960E-001	-1.13082E+000	3.57740E+000	10	...........
	46	0.626667	9.23821E-001	5.99560E-003	0.00000E+000	5.53886E-003	3.59960E-001	-1.12014E+000	3.57740E+000	10	...........
	47	0.64	9.29743E-001	5.99566E-003	0.00000E+000	5.57442E-003	3.59960E-001	-1.12118E+000	3.57740E+000	10	...........
	48	0.653333	9.35643E-001	5.99221E-003	0.00000E+000	5.60656E-003	3.59960E-001	-1.13061E+000	3.57740E+000	10	...........
	49	0.666667	9.41512E-001	5.99683E-003	0.00000E+000	5.64609E-003	3.59960E-001	-1.12000E+000	3.57740E+000	10	...........
	50	0.68	9.47322E-001	5.99292E-003	0.00000E+000	5.67722E-003	3.59960E-001	-1.12140E+000	3.57740E+000	10	...........
	51	0.693333	9.53137E-001	5.99120E-003	0.00000E+000	5.71044E-003	3.59960E-001	-1.13066E+000	3.57740E+000	10	...........
	52	0.706667	9.58889E-001	5.99261E-003	0.00000E+000	5.74625E-003	3.59960E-001	-1.12014E+000	3.57740E+000	10	...........
	53	0.72	9.64573E-001	5.99544E-003	0.00000E+000	5.78304E-003	3.59960E-001	-1.12124E+000	3.57740E+000	10	...........
	54	0.733333	9.70227E-001	5.99106E-003	0.00000E+000	5.81269E-003	3.59960E-001	-1.13062E+000	3.57740E+000	10	...........
	55	0.746667	9.75901E-001	5.99196E-003	0.00000E+000	5.84756E-003	3.59960E-001	-1.11988E+000	3.57740E+000	10	...........
	56	0.76	9.81507E-001	5.99488E-003	0.00000E+000	5.88401E-003	3.59960E-001	-1.12125E+000	3.57740E+000	10	...........
	57	0.773333	9.87035E-001	5.99441E-003	0.00000E+000	5.91669E-003	3.59960E-001	-1.13045E+000	3.57740E+000	10	...........
	58	0.786667	9.92519E-001	5.99163E-003	0.00000E+000	5.94681E-003	3.59960E-001	-1.12009E+000	3.57740E+000	10	...........
	59	0.8	9.97988E-001	5.99435E-003	0.00000E+000	5.98230E-003	3.59960E-001	-1.12120E+000	3.57740E+000	10	...........
STARTTIMEOFFSET	QUANT	693.1334	Start Time Offset (s)