File: Data/CV_CRGO300517_1/PWRCCD_CRGO300517_1/CHARGE_DISCHARGE/CHARGE_#361.DTA
EXPLAIN
TAG	PWR800_CHARGE
TITLE	LABEL	PWR Cyclic Charge Discharge (Cell) - Charge Step	Test &Identifier
DATE	LABEL	22-6-2017	Date
TIME	LABEL	15:50:25	Time
NOTES	NOTES	3	&Notes...
	supercap test cell
	0.6mg
	6M KOH
PSTAT	PSTAT	IFC5000-01520	Potentiostat
CAPACITY	QUANT	1.00000E-003	Capacity (A-hr)
CELLTYPE	SELECTOR	1	&Cell Type
WORKINGCONNECTION	SELECTOR	0	&Working Lead
MAXCHARGETIME	VARIABLEANDUNITS	1.00000E+002	s	1.00000E+002	second(s)	Max &Charge Time
CHARGECURRENT	QUANT	6.00000E-003	&Charge Current (A)
VOLTAGEFINISH	TWOPARAM	F	1.00000E-003	3.60000E+003	&Voltage Finish	 I (A) < 	Max Time(s)
SAMPLETIME	QUANT	1.00000E-002	Sa&mple Period (s)
CHARGESTOPAT1	MULTIPARAM	4	1.00000E+000	Charge Stop At &1	Voltage > Limit	V
CHARGESTOPAT2	MULTIPARAM	0	0.00000E+000	Charge Stop At &2	None	N/A
AESBHCSELECTOR	TOGGLE	F	Save Both Half Cells
IRCOMP	TOGGLE	F	IR &Measure
EOC	QUANT	0	Open Circuit (V)
SEQUENCER	TOGGLE	TRUE	Run as Sequence
PSTATMODEL	IQUANT	53	Pstat Model
PSTATSECTION	LABEL	IFC5000-01520	Pstat Section
PSTATSERIALNO	LABEL	01520	Pstat Serial Number
CTRLMODE	IQUANT	0	Control Mode
ELECTROMETER	IQUANT	1	RE=0 or CS=1
IESTAB	IQUANT	0	I/E Stability
CASPEED	IQUANT	4	Control Amp Speed
CONVENTION	IQUANT	1	Current Convention
ICHRANGE	IQUANT	2	Ich Range
ICHRANGEMODE	TOGGLE	T	Ich Auto Range
ICHOFFSETENABLE	TOGGLE	F	Ich Offset Enable
ICHOFFSET	QUANT	0	Ich Offset (V)
ICHFILTER	IQUANT	1	Ich Filter
VCHRANGE	IQUANT	2	Vch Range
VCHRANGEMODE	TOGGLE	T	Vch Auto Range
VCHOFFSETENABLE	TOGGLE	F	Vch Offset Enable
VCHOFFSET	QUANT	0	Vch Offset (V)
VCHFILTER	IQUANT	1	Vch Filter
IERANGELOWERLIMIT	IQUANT	9	I/E Range Lower Limit
IERANGEMODE	TOGGLE	F	I/E AutoRange
IERANGE	IQUANT	10	I/E Range
ACHSELECT	IQUANT	1	Ach Select
ACHRANGE	IQUANT	2	Ach Range
ACHOFFSETENABLE	TOGGLE	F	Ach Offset Enable
ACHOFFSET	QUANT	0	Ach Offset (V)
ACHFILTER	IQUANT	1	Ach Filter
CABLEID	IQUANT	14	Cable ID
DCCALDATE	LABEL	20-10-2016	DC Calibration Date
ACCALDATE	LABEL	12/3/2015	AC Calibration Date
FRAMEWORKVERSION	QUANT	7.01	Framework Version
INSTRUMENTVERSION	LABEL	4.00	Instrument Version
CURVE	TABLE	61
	Pt	T	Vf	Im	Vu	Pwr	Sig	Ach	Temp	IERange	Over
	#	s	V	A	V	W	V	V	deg C	#	bits
	0	0.013333	6.21708E-001	5.99325E-003	0.00000E+000	3.72605E-003	3.59960E-001	-1.12264E+000	3.57760E+000	10	...........
	1	0.026667	6.30405E-001	5.99752E-003	0.00000E+000	3.78086E-003	3.59960E-001	-1.12882E+000	3.57760E+000	10	...........
	2	0.04	6.38420E-001	5.99686E-003	0.00000E+000	3.82852E-003	3.59960E-001	-1.11832E+000	3.57760E+000	10	...........
	3	0.053333	6.45998E-001	5.99779E-003	0.00000E+000	3.87456E-003	3.59960E-001	-1.12208E+000	3.57760E+000	10	...........
	4	0.066667	6.53300E-001	5.99224E-003	0.00000E+000	3.91473E-003	3.59960E-001	-1.12824E+000	3.57760E+000	10	...........
	5	0.08	6.60436E-001	5.99990E-003	0.00000E+000	3.96255E-003	3.59960E-001	-1.11828E+000	3.57760E+000	10	...........
	6	0.093333	6.67447E-001	5.99615E-003	0.00000E+000	4.00211E-003	3.59960E-001	-1.12221E+000	3.57760E+000	10	...........
	7	0.106667	6.74326E-001	5.99224E-003	0.00000E+000	4.04072E-003	3.59960E-001	-1.12869E+000	3.57760E+000	10	...........
	8	0.12	6.81107E-001	5.99571E-003	0.00000E+000	4.08372E-003	3.59960E-001	-1.11839E+000	3.57760E+000	10	...........
	9	0.133333	6.87771E-001	5.99035E-003	0.00000E+000	4.11999E-003	3.59960E-001	-1.12166E+000	3.57760E+000	10	...........
	10	0.146667	6.94468E-001	5.99989E-003	0.00000E+000	4.16674E-003	3.59960E-001	-1.12859E+000	3.57760E+000	10	...........
	11	0.16	7.01062E-001	5.99627E-003	0.00000E+000	4.20376E-003	3.59960E-001	-1.11851E+000	3.57760E+000	10	...........
	12	0.173333	7.07608E-001	5.99318E-003	0.00000E+000	4.24082E-003	3.59960E-001	-1.12178E+000	3.57760E+000	10	...........
	13	0.186667	7.14097E-001	5.99182E-003	0.00000E+000	4.27874E-003	3.59960E-001	-1.12872E+000	3.57760E+000	10	...........
	14	0.2	7.20659E-001	5.99573E-003	0.00000E+000	4.32088E-003	3.59960E-001	-1.11816E+000	3.57760E+000	10	...........
	15	0.213333	7.27128E-001	5.99424E-003	0.00000E+000	4.35858E-003	3.59960E-001	-1.12137E+000	3.57760E+000	10	...........
	16	0.226667	7.33550E-001	5.99085E-003	0.00000E+000	4.39459E-003	3.59960E-001	-1.12872E+000	3.57760E+000	10	...........
	17	0.24	7.40039E-001	5.99384E-003	0.00000E+000	4.43568E-003	3.59960E-001	-1.11829E+000	3.57760E+000	10	...........
	18	0.253333	7.46493E-001	5.99187E-003	0.00000E+000	4.47289E-003	3.59960E-001	-1.12143E+000	3.57760E+000	10	...........
	19	0.266667	7.52868E-001	5.99172E-003	0.00000E+000	4.51097E-003	3.59960E-001	-1.12920E+000	3.57760E+000	10	...........
	20	0.28	7.59246E-001	5.99811E-003	0.00000E+000	4.55404E-003	3.59960E-001	-1.11862E+000	3.57760E+000	10	...........
	21	0.293333	7.65606E-001	5.99091E-003	0.00000E+000	4.58668E-003	3.59960E-001	-1.12145E+000	3.57760E+000	10	...........
	22	0.306667	7.71973E-001	5.99745E-003	0.00000E+000	4.62987E-003	3.59960E-001	-1.12932E+000	3.57760E+000	10	...........
	23	0.32	7.78289E-001	5.99876E-003	0.00000E+000	4.66877E-003	3.59960E-001	-1.11858E+000	3.57760E+000	10	...........
	24	0.333333	7.84629E-001	5.99349E-003	0.00000E+000	4.70267E-003	3.59960E-001	-1.12112E+000	3.57760E+000	10	...........
	25	0.346667	7.90957E-001	5.99280E-003	0.00000E+000	4.74005E-003	3.59960E-001	-1.12913E+000	3.57760E+000	10	...........
	26	0.36	7.97259E-001	5.99070E-003	0.00000E+000	4.77614E-003	3.59960E-001	-1.11807E+000	3.57760E+000	10	...........
	27	0.373333	8.03550E-001	5.99503E-003	0.00000E+000	4.81731E-003	3.59960E-001	-1.12076E+000	3.57760E+000	10	...........
	28	0.386667	8.09875E-001	5.99875E-003	0.00000E+000	4.85823E-003	3.59960E-001	-1.12908E+000	3.57760E+000	10	...........
	29	0.4	8.16080E-001	5.99270E-003	0.00000E+000	4.89052E-003	3.59960E-001	-1.11795E+000	3.57760E+000	10	...........
	30	0.413333	8.22368E-001	5.99290E-003	0.00000E+000	4.92838E-003	3.59960E-001	-1.12045E+000	3.57760E+000	10	...........
	31	0.426667	8.28624E-001	5.99794E-003	0.00000E+000	4.97004E-003	3.59960E-001	-1.12908E+000	3.57760E+000	10	...........
	32	0.44	8.34829E-001	5.99327E-003	0.00000E+000	5.00336E-003	3.59960E-001	-1.11815E+000	3.57760E+000	10	...........
	33	0.453333	8.41023E-001	5.98926E-003	0.00000E+000	5.03711E-003	3.59960E-001	-1.12043E+000	3.57760E+000	10	...........
	34	0.466667	8.47236E-001	5.99075E-003	0.00000E+000	5.07558E-003	3.59960E-001	-1.12896E+000	3.57760E+000	10	...........
	35	0.48	8.53467E-001	5.99380E-003	0.00000E+000	5.11551E-003	3.59960E-001	-1.11831E+000	3.57760E+000	10	...........
	36	0.493333	8.59631E-001	5.99569E-003	0.00000E+000	5.15408E-003	3.59960E-001	-1.12033E+000	3.57760E+000	10	...........
	37	0.506667	8.65769E-001	5.99166E-003	0.00000E+000	5.18740E-003	3.59960E-001	-1.12905E+000	3.57760E+000	10	...........
	38	0.52	8.71962E-001	5.99108E-003	0.00000E+000	5.22399E-003	3.59960E-001	-1.11822E+000	3.57760E+000	10	...........
	39	0.533333	8.78118E-001	5.99125E-003	0.00000E+000	5.26102E-003	3.59960E-001	-1.12019E+000	3.57760E+000	10	...........
	40	0.546667	8.84216E-001	5.99156E-003	0.00000E+000	5.29783E-003	3.59960E-001	-1.12925E+000	3.57760E+000	10	...........
	41	0.56	8.90308E-001	5.98933E-003	0.00000E+000	5.33235E-003	3.59960E-001	-1.11837E+000	3.57760E+000	10	...........
	42	0.573333	8.96384E-001	5.99556E-003	0.00000E+000	5.37433E-003	3.59960E-001	-1.12043E+000	3.57760E+000	10	...........
	43	0.586667	9.02398E-001	5.99681E-003	0.00000E+000	5.41151E-003	3.59960E-001	-1.12960E+000	3.57760E+000	10	...........
	44	0.6	9.08423E-001	5.99537E-003	0.00000E+000	5.44633E-003	3.59960E-001	-1.11857E+000	3.57760E+000	10	...........
	45	0.613333	9.14419E-001	5.99304E-003	0.00000E+000	5.48015E-003	3.59960E-001	-1.12031E+000	3.57760E+000	10	...........
	46	0.626667	9.20402E-001	5.99624E-003	0.00000E+000	5.51895E-003	3.59960E-001	-1.12970E+000	3.57760E+000	10	...........
	47	0.64	9.26387E-001	5.99521E-003	0.00000E+000	5.55388E-003	3.59960E-001	-1.11870E+000	3.57760E+000	10	...........
	48	0.653333	9.32255E-001	5.99233E-003	0.00000E+000	5.58638E-003	3.59960E-001	-1.12025E+000	3.57760E+000	10	...........
	49	0.666667	9.38107E-001	5.99645E-003	0.00000E+000	5.62532E-003	3.59960E-001	-1.12975E+000	3.57760E+000	10	...........
	50	0.68	9.43916E-001	5.98976E-003	0.00000E+000	5.65382E-003	3.59960E-001	-1.11820E+000	3.57760E+000	10	...........
	51	0.693333	9.49742E-001	5.99342E-003	0.00000E+000	5.69220E-003	3.59960E-001	-1.11969E+000	3.57760E+000	10	...........
	52	0.706667	9.55467E-001	5.99602E-003	0.00000E+000	5.72901E-003	3.59960E-001	-1.12941E+000	3.57760E+000	10	...........
	53	0.72	9.61215E-001	5.99817E-003	0.00000E+000	5.76553E-003	3.59960E-001	-1.11843E+000	3.57760E+000	10	...........
	54	0.733333	9.66848E-001	5.99389E-003	0.00000E+000	5.79518E-003	3.59960E-001	-1.11953E+000	3.57760E+000	10	...........
	55	0.746667	9.72513E-001	5.99138E-003	0.00000E+000	5.82669E-003	3.59960E-001	-1.12945E+000	3.57760E+000	10	...........
	56	0.76	9.78155E-001	5.99197E-003	0.00000E+000	5.86107E-003	3.59960E-001	-1.11847E+000	3.57760E+000	10	...........
	57	0.773333	9.83683E-001	5.99271E-003	0.00000E+000	5.89492E-003	3.59960E-001	-1.11970E+000	3.57760E+000	10	...........
	58	0.786667	9.89194E-001	5.99487E-003	0.00000E+000	5.93008E-003	3.59960E-001	-1.12960E+000	3.57760E+000	10	...........
	59	0.8	9.94639E-001	5.99411E-003	0.00000E+000	5.96198E-003	3.59960E-001	-1.11855E+000	3.57760E+000	10	...........
	60	0.808333	9.99096E-001	5.99099E-003	0.00000E+000	5.98557E-003	3.59960E-001	-1.12750E+000	3.57760E+000	10	...........
STARTTIMEOFFSET	QUANT	640.3798	Start Time Offset (s)