File: Data/CV_CRGO300517_1/PWRCCD_CRGO300517_1/CHARGE_DISCHARGE/CHARGE_#881.DTA
EXPLAIN
TAG	PWR800_CHARGE
TITLE	LABEL	PWR Cyclic Charge Discharge (Cell) - Charge Step	Test &Identifier
DATE	LABEL	22-6-2017	Date
TIME	LABEL	16:10:16	Time
NOTES	NOTES	3	&Notes...
	supercap test cell
	0.6mg
	6M KOH
PSTAT	PSTAT	IFC5000-01520	Potentiostat
CAPACITY	QUANT	1.00000E-003	Capacity (A-hr)
CELLTYPE	SELECTOR	1	&Cell Type
WORKINGCONNECTION	SELECTOR	0	&Working Lead
MAXCHARGETIME	VARIABLEANDUNITS	1.00000E+002	s	1.00000E+002	second(s)	Max &Charge Time
CHARGECURRENT	QUANT	6.00000E-003	&Charge Current (A)
VOLTAGEFINISH	TWOPARAM	F	1.00000E-003	3.60000E+003	&Voltage Finish	 I (A) < 	Max Time(s)
SAMPLETIME	QUANT	1.00000E-002	Sa&mple Period (s)
CHARGESTOPAT1	MULTIPARAM	4	1.00000E+000	Charge Stop At &1	Voltage > Limit	V
CHARGESTOPAT2	MULTIPARAM	0	0.00000E+000	Charge Stop At &2	None	N/A
AESBHCSELECTOR	TOGGLE	F	Save Both Half Cells
IRCOMP	TOGGLE	F	IR &Measure
EOC	QUANT	0	Open Circuit (V)
SEQUENCER	TOGGLE	TRUE	Run as Sequence
PSTATMODEL	IQUANT	53	Pstat Model
PSTATSECTION	LABEL	IFC5000-01520	Pstat Section
PSTATSERIALNO	LABEL	01520	Pstat Serial Number
CTRLMODE	IQUANT	0	Control Mode
ELECTROMETER	IQUANT	1	RE=0 or CS=1
IESTAB	IQUANT	0	I/E Stability
CASPEED	IQUANT	4	Control Amp Speed
CONVENTION	IQUANT	1	Current Convention
ICHRANGE	IQUANT	2	Ich Range
ICHRANGEMODE	TOGGLE	T	Ich Auto Range
ICHOFFSETENABLE	TOGGLE	F	Ich Offset Enable
ICHOFFSET	QUANT	0	Ich Offset (V)
ICHFILTER	IQUANT	1	Ich Filter
VCHRANGE	IQUANT	2	Vch Range
VCHRANGEMODE	TOGGLE	T	Vch Auto Range
VCHOFFSETENABLE	TOGGLE	F	Vch Offset Enable
VCHOFFSET	QUANT	0	Vch Offset (V)
VCHFILTER	IQUANT	1	Vch Filter
IERANGELOWERLIMIT	IQUANT	9	I/E Range Lower Limit
IERANGEMODE	TOGGLE	F	I/E AutoRange
IERANGE	IQUANT	10	I/E Range
ACHSELECT	IQUANT	1	Ach Select
ACHRANGE	IQUANT	2	Ach Range
ACHOFFSETENABLE	TOGGLE	F	Ach Offset Enable
ACHOFFSET	QUANT	0	Ach Offset (V)
ACHFILTER	IQUANT	1	Ach Filter
CABLEID	IQUANT	14	Cable ID
DCCALDATE	LABEL	20-10-2016	DC Calibration Date
ACCALDATE	LABEL	12/3/2015	AC Calibration Date
FRAMEWORKVERSION	QUANT	7.01	Framework Version
INSTRUMENTVERSION	LABEL	4.00	Instrument Version
CURVE	TABLE	54
	Pt	T	Vf	Im	Vu	Pwr	Sig	Ach	Temp	IERange	Over
	#	s	V	A	V	W	V	V	deg C	#	bits
	0	0.013333	6.52209E-001	5.99720E-003	0.00000E+000	3.91143E-003	3.59960E-001	-1.16475E+000	3.57630E+000	10	...........
	1	0.026667	6.61470E-001	5.99393E-003	0.00000E+000	3.96480E-003	3.59960E-001	-1.17130E+000	3.57630E+000	10	...........
	2	0.04	6.69984E-001	5.99405E-003	0.00000E+000	4.01592E-003	3.59960E-001	-1.16138E+000	3.57630E+000	10	...........
	3	0.053333	6.78055E-001	5.99213E-003	0.00000E+000	4.06300E-003	3.59960E-001	-1.16474E+000	3.57630E+000	10	...........
	4	0.066667	6.85819E-001	5.99470E-003	0.00000E+000	4.11128E-003	3.59960E-001	-1.17170E+000	3.57630E+000	10	...........
	5	0.08	6.93394E-001	5.99590E-003	0.00000E+000	4.15752E-003	3.59960E-001	-1.16156E+000	3.57630E+000	10	...........
	6	0.093333	7.00836E-001	5.99354E-003	0.00000E+000	4.20049E-003	3.59960E-001	-1.16461E+000	3.57630E+000	10	...........
	7	0.106667	7.08170E-001	5.99614E-003	0.00000E+000	4.24628E-003	3.59960E-001	-1.17168E+000	3.57630E+000	10	...........
	8	0.12	7.15394E-001	5.99465E-003	0.00000E+000	4.28853E-003	3.59960E-001	-1.16168E+000	3.57630E+000	10	...........
	9	0.133333	7.22526E-001	5.99616E-003	0.00000E+000	4.33238E-003	3.59960E-001	-1.16477E+000	3.57630E+000	10	...........
	10	0.146667	7.29575E-001	5.99179E-003	0.00000E+000	4.37146E-003	3.59960E-001	-1.17203E+000	3.57630E+000	10	...........
	11	0.16	7.36560E-001	5.99124E-003	0.00000E+000	4.41291E-003	3.59960E-001	-1.16159E+000	3.57630E+000	10	...........
	12	0.173333	7.43579E-001	5.99374E-003	0.00000E+000	4.45682E-003	3.59960E-001	-1.16467E+000	3.57630E+000	10	...........
	13	0.186667	7.50501E-001	5.99214E-003	0.00000E+000	4.49711E-003	3.59960E-001	-1.17237E+000	3.57630E+000	10	...........
	14	0.2	7.57399E-001	5.99442E-003	0.00000E+000	4.54017E-003	3.59960E-001	-1.16209E+000	3.57630E+000	10	...........
	15	0.213333	7.64247E-001	5.99067E-003	0.00000E+000	4.57835E-003	3.59960E-001	-1.16456E+000	3.57630E+000	10	...........
	16	0.226667	7.71089E-001	5.99527E-003	0.00000E+000	4.62289E-003	3.59960E-001	-1.17239E+000	3.57630E+000	10	...........
	17	0.24	7.77904E-001	5.99559E-003	0.00000E+000	4.66399E-003	3.59960E-001	-1.16192E+000	3.57630E+000	10	...........
	18	0.253333	7.84646E-001	5.99316E-003	0.00000E+000	4.70250E-003	3.59960E-001	-1.16468E+000	3.57630E+000	10	...........
	19	0.266667	7.91478E-001	5.99258E-003	0.00000E+000	4.74300E-003	3.59960E-001	-1.17267E+000	3.57630E+000	10	...........
	20	0.28	7.98179E-001	5.99070E-003	0.00000E+000	4.78166E-003	3.59960E-001	-1.16197E+000	3.57630E+000	10	...........
	21	0.293333	8.04877E-001	5.99475E-003	0.00000E+000	4.82504E-003	3.59960E-001	-1.16450E+000	3.57645E+000	10	...........
	22	0.306667	8.11541E-001	5.99195E-003	0.00000E+000	4.86271E-003	3.59960E-001	-1.17233E+000	3.57650E+000	10	...........
	23	0.32	8.18202E-001	5.98969E-003	0.00000E+000	4.90078E-003	3.59960E-001	-1.16190E+000	3.57650E+000	10	...........
	24	0.333333	8.24879E-001	5.99217E-003	0.00000E+000	4.94282E-003	3.59960E-001	-1.16439E+000	3.57650E+000	10	...........
	25	0.346667	8.31453E-001	5.99431E-003	0.00000E+000	4.98399E-003	3.59960E-001	-1.17233E+000	3.57650E+000	10	...........
	26	0.36	8.38022E-001	5.98996E-003	0.00000E+000	5.01972E-003	3.59960E-001	-1.16164E+000	3.57650E+000	10	...........
	27	0.373333	8.44605E-001	5.99629E-003	0.00000E+000	5.06450E-003	3.59960E-001	-1.16429E+000	3.57650E+000	10	...........
	28	0.386667	8.51126E-001	5.99519E-003	0.00000E+000	5.10266E-003	3.59960E-001	-1.17290E+000	3.57650E+000	10	...........
	29	0.4	8.57621E-001	5.99595E-003	0.00000E+000	5.14226E-003	3.59960E-001	-1.16212E+000	3.57650E+000	10	...........
	30	0.413333	8.64106E-001	5.99721E-003	0.00000E+000	5.18223E-003	3.59960E-001	-1.16424E+000	3.57650E+000	10	...........
	31	0.426667	8.70549E-001	5.99635E-003	0.00000E+000	5.22011E-003	3.59960E-001	-1.17277E+000	3.57650E+000	10	...........
	32	0.44	8.76978E-001	5.99190E-003	0.00000E+000	5.25477E-003	3.59960E-001	-1.16230E+000	3.57650E+000	10	...........
	33	0.453333	8.83386E-001	5.99480E-003	0.00000E+000	5.29572E-003	3.59960E-001	-1.16438E+000	3.57650E+000	10	...........
	34	0.466667	8.89756E-001	5.99531E-003	0.00000E+000	5.33437E-003	3.59960E-001	-1.17313E+000	3.57650E+000	10	...........
	35	0.48	8.96063E-001	5.99079E-003	0.00000E+000	5.36812E-003	3.59960E-001	-1.16258E+000	3.57650E+000	10	...........
	36	0.493333	9.02357E-001	5.99563E-003	0.00000E+000	5.41019E-003	3.59960E-001	-1.16435E+000	3.57650E+000	10	...........
	37	0.506667	9.08609E-001	5.99352E-003	0.00000E+000	5.44577E-003	3.59960E-001	-1.17324E+000	3.57650E+000	10	...........
	38	0.52	9.14824E-001	5.99476E-003	0.00000E+000	5.48415E-003	3.59960E-001	-1.16280E+000	3.57650E+000	10	...........
	39	0.533333	9.21039E-001	5.99514E-003	0.00000E+000	5.52175E-003	3.59960E-001	-1.16465E+000	3.57650E+000	10	...........
	40	0.546667	9.27183E-001	5.99560E-003	0.00000E+000	5.55902E-003	3.59960E-001	-1.17362E+000	3.57650E+000	10	...........
	41	0.56	9.33249E-001	5.99394E-003	0.00000E+000	5.59384E-003	3.59960E-001	-1.16296E+000	3.57650E+000	10	...........
	42	0.573333	9.39282E-001	5.99191E-003	0.00000E+000	5.62809E-003	3.59960E-001	-1.16486E+000	3.57650E+000	10	...........
	43	0.586667	9.45284E-001	5.99031E-003	0.00000E+000	5.66254E-003	3.59960E-001	-1.17400E+000	3.57650E+000	10	...........
	44	0.6	9.51266E-001	5.99510E-003	0.00000E+000	5.70293E-003	3.59960E-001	-1.16301E+000	3.57650E+000	10	...........
	45	0.613333	9.57164E-001	5.99136E-003	0.00000E+000	5.73472E-003	3.59960E-001	-1.16464E+000	3.57650E+000	10	...........
	46	0.626667	9.62994E-001	5.99663E-003	0.00000E+000	5.77472E-003	3.59960E-001	-1.17371E+000	3.57650E+000	10	...........
	47	0.64	9.68794E-001	5.99658E-003	0.00000E+000	5.80944E-003	3.59960E-001	-1.16265E+000	3.57650E+000	10	...........
	48	0.653333	9.74598E-001	5.99535E-003	0.00000E+000	5.84305E-003	3.59960E-001	-1.16425E+000	3.57650E+000	10	...........
	49	0.666667	9.80300E-001	5.99536E-003	0.00000E+000	5.87725E-003	3.59960E-001	-1.17369E+000	3.57650E+000	10	...........
	50	0.68	9.85897E-001	5.98986E-003	0.00000E+000	5.90539E-003	3.59960E-001	-1.16298E+000	3.57650E+000	10	...........
	51	0.693333	9.91503E-001	5.99599E-003	0.00000E+000	5.94505E-003	3.59960E-001	-1.16437E+000	3.57650E+000	10	...........
	52	0.706667	9.97083E-001	5.99238E-003	0.00000E+000	5.97490E-003	3.59960E-001	-1.17398E+000	3.57650E+000	10	...........
	53	0.708333	1.00019E+000	5.98778E-003	0.00000E+000	5.98894E-003	3.59960E-001	-1.16078E+000	3.57650E+000	10	...........
STARTTIMEOFFSET	QUANT	1419.313	Start Time Offset (s)