File: Data/CV_CRGO300517_1/PWRCCD_CRGO300517_1/CHARGE_DISCHARGE/CHARGE_#206.DTA
EXPLAIN
TAG	PWR800_CHARGE
TITLE	LABEL	PWR Cyclic Charge Discharge (Cell) - Charge Step	Test &Identifier
DATE	LABEL	22-6-2017	Date
TIME	LABEL	15:44:03	Time
NOTES	NOTES	3	&Notes...
	supercap test cell
	0.6mg
	6M KOH
PSTAT	PSTAT	IFC5000-01520	Potentiostat
CAPACITY	QUANT	1.00000E-003	Capacity (A-hr)
CELLTYPE	SELECTOR	1	&Cell Type
WORKINGCONNECTION	SELECTOR	0	&Working Lead
MAXCHARGETIME	VARIABLEANDUNITS	1.00000E+002	s	1.00000E+002	second(s)	Max &Charge Time
CHARGECURRENT	QUANT	6.00000E-003	&Charge Current (A)
VOLTAGEFINISH	TWOPARAM	F	1.00000E-003	3.60000E+003	&Voltage Finish	 I (A) < 	Max Time(s)
SAMPLETIME	QUANT	1.00000E-002	Sa&mple Period (s)
CHARGESTOPAT1	MULTIPARAM	4	1.00000E+000	Charge Stop At &1	Voltage > Limit	V
CHARGESTOPAT2	MULTIPARAM	0	0.00000E+000	Charge Stop At &2	None	N/A
AESBHCSELECTOR	TOGGLE	F	Save Both Half Cells
IRCOMP	TOGGLE	F	IR &Measure
EOC	QUANT	0	Open Circuit (V)
SEQUENCER	TOGGLE	TRUE	Run as Sequence
PSTATMODEL	IQUANT	53	Pstat Model
PSTATSECTION	LABEL	IFC5000-01520	Pstat Section
PSTATSERIALNO	LABEL	01520	Pstat Serial Number
CTRLMODE	IQUANT	0	Control Mode
ELECTROMETER	IQUANT	1	RE=0 or CS=1
IESTAB	IQUANT	0	I/E Stability
CASPEED	IQUANT	4	Control Amp Speed
CONVENTION	IQUANT	1	Current Convention
ICHRANGE	IQUANT	2	Ich Range
ICHRANGEMODE	TOGGLE	T	Ich Auto Range
ICHOFFSETENABLE	TOGGLE	F	Ich Offset Enable
ICHOFFSET	QUANT	0	Ich Offset (V)
ICHFILTER	IQUANT	1	Ich Filter
VCHRANGE	IQUANT	2	Vch Range
VCHRANGEMODE	TOGGLE	T	Vch Auto Range
VCHOFFSETENABLE	TOGGLE	F	Vch Offset Enable
VCHOFFSET	QUANT	0	Vch Offset (V)
VCHFILTER	IQUANT	1	Vch Filter
IERANGELOWERLIMIT	IQUANT	9	I/E Range Lower Limit
IERANGEMODE	TOGGLE	F	I/E AutoRange
IERANGE	IQUANT	10	I/E Range
ACHSELECT	IQUANT	1	Ach Select
ACHRANGE	IQUANT	2	Ach Range
ACHOFFSETENABLE	TOGGLE	F	Ach Offset Enable
ACHOFFSET	QUANT	0	Ach Offset (V)
ACHFILTER	IQUANT	1	Ach Filter
CABLEID	IQUANT	14	Cable ID
DCCALDATE	LABEL	20-10-2016	DC Calibration Date
ACCALDATE	LABEL	12/3/2015	AC Calibration Date
FRAMEWORKVERSION	QUANT	7.01	Framework Version
INSTRUMENTVERSION	LABEL	4.00	Instrument Version
CURVE	TABLE	65
	Pt	T	Vf	Im	Vu	Pwr	Sig	Ach	Temp	IERange	Over
	#	s	V	A	V	W	V	V	deg C	#	bits
	0	0.013333	6.06531E-001	5.99281E-003	0.00000E+000	3.63483E-003	3.59960E-001	-1.08559E+000	3.57820E+000	10	...........
	1	0.026667	6.15077E-001	5.99657E-003	0.00000E+000	3.68835E-003	3.59960E-001	-1.08935E+000	3.57820E+000	10	...........
	2	0.04	6.22848E-001	5.99454E-003	0.00000E+000	3.73369E-003	3.59960E-001	-1.09352E+000	3.57820E+000	10	...........
	3	0.053333	6.30187E-001	5.99264E-003	0.00000E+000	3.77649E-003	3.59960E-001	-1.08511E+000	3.57820E+000	10	...........
	4	0.066667	6.37310E-001	5.99518E-003	0.00000E+000	3.82079E-003	3.59960E-001	-1.08924E+000	3.57820E+000	10	...........
	5	0.08	6.44239E-001	5.99229E-003	0.00000E+000	3.86046E-003	3.59960E-001	-1.09348E+000	3.57820E+000	10	...........
	6	0.093333	6.50985E-001	5.99691E-003	0.00000E+000	3.90390E-003	3.59960E-001	-1.08498E+000	3.57820E+000	10	...........
	7	0.106667	6.57666E-001	5.98989E-003	0.00000E+000	3.93935E-003	3.59960E-001	-1.08895E+000	3.57820E+000	10	...........
	8	0.12	6.64242E-001	5.99496E-003	0.00000E+000	3.98211E-003	3.59960E-001	-1.09333E+000	3.57820E+000	10	...........
	9	0.133333	6.70790E-001	5.99240E-003	0.00000E+000	4.01964E-003	3.59960E-001	-1.08516E+000	3.57820E+000	10	...........
	10	0.146667	6.77245E-001	5.99634E-003	0.00000E+000	4.06099E-003	3.59960E-001	-1.08922E+000	3.57820E+000	10	...........
	11	0.16	6.83603E-001	5.99595E-003	0.00000E+000	4.09885E-003	3.59960E-001	-1.09324E+000	3.57820E+000	10	...........
	12	0.173333	6.90003E-001	5.99308E-003	0.00000E+000	4.13525E-003	3.59960E-001	-1.08501E+000	3.57820E+000	10	...........
	13	0.186667	6.96310E-001	5.99576E-003	0.00000E+000	4.17491E-003	3.59960E-001	-1.08884E+000	3.57820E+000	10	...........
	14	0.2	7.02588E-001	5.99327E-003	0.00000E+000	4.21080E-003	3.59960E-001	-1.09314E+000	3.57820E+000	10	...........
	15	0.213333	7.08860E-001	5.99213E-003	0.00000E+000	4.24758E-003	3.59960E-001	-1.08441E+000	3.57820E+000	10	...........
	16	0.226667	7.15134E-001	5.99882E-003	0.00000E+000	4.28996E-003	3.59960E-001	-1.08843E+000	3.57820E+000	10	...........
	17	0.24	7.21390E-001	5.99445E-003	0.00000E+000	4.32433E-003	3.59960E-001	-1.09273E+000	3.57820E+000	10	...........
	18	0.253333	7.27587E-001	5.99527E-003	0.00000E+000	4.36208E-003	3.59960E-001	-1.08448E+000	3.57820E+000	10	...........
	19	0.266667	7.33726E-001	5.99227E-003	0.00000E+000	4.39668E-003	3.59960E-001	-1.08834E+000	3.57820E+000	10	...........
	20	0.28	7.39904E-001	5.99570E-003	0.00000E+000	4.43624E-003	3.59960E-001	-1.09251E+000	3.57820E+000	10	...........
	21	0.293333	7.46114E-001	5.99098E-003	0.00000E+000	4.46995E-003	3.59960E-001	-1.08420E+000	3.57820E+000	10	...........
	22	0.306667	7.52267E-001	5.99330E-003	0.00000E+000	4.50856E-003	3.59960E-001	-1.08839E+000	3.57820E+000	10	...........
	23	0.32	7.58413E-001	5.99275E-003	0.00000E+000	4.54498E-003	3.59960E-001	-1.09255E+000	3.57820E+000	10	...........
	24	0.333333	7.64557E-001	5.99517E-003	0.00000E+000	4.58365E-003	3.59960E-001	-1.08438E+000	3.57820E+000	10	...........
	25	0.346667	7.70673E-001	5.99623E-003	0.00000E+000	4.62113E-003	3.59960E-001	-1.08810E+000	3.57820E+000	10	...........
	26	0.36	7.76783E-001	5.99374E-003	0.00000E+000	4.65583E-003	3.59960E-001	-1.09241E+000	3.57820E+000	10	...........
	27	0.373333	7.82930E-001	5.98753E-003	0.00000E+000	4.68782E-003	3.59960E-001	-1.08389E+000	3.57820E+000	10	...........
	28	0.386667	7.89036E-001	5.99610E-003	0.00000E+000	4.73114E-003	3.59960E-001	-1.08793E+000	3.57820E+000	10	...........
	29	0.4	7.95161E-001	5.99623E-003	0.00000E+000	4.76797E-003	3.59960E-001	-1.09231E+000	3.57820E+000	10	...........
	30	0.413333	8.01262E-001	5.99201E-003	0.00000E+000	4.80117E-003	3.59960E-001	-1.08390E+000	3.57820E+000	10	...........
	31	0.426667	8.07353E-001	5.99433E-003	0.00000E+000	4.83954E-003	3.59960E-001	-1.08788E+000	3.57820E+000	10	...........
	32	0.44	8.13410E-001	5.99269E-003	0.00000E+000	4.87451E-003	3.59960E-001	-1.09234E+000	3.57820E+000	10	...........
	33	0.453333	8.19524E-001	5.99463E-003	0.00000E+000	4.91274E-003	3.59960E-001	-1.08395E+000	3.57820E+000	10	...........
	34	0.466667	8.25616E-001	5.99347E-003	0.00000E+000	4.94830E-003	3.59960E-001	-1.08796E+000	3.57820E+000	10	...........
	35	0.48	8.31682E-001	5.99213E-003	0.00000E+000	4.98355E-003	3.59960E-001	-1.09224E+000	3.57820E+000	10	...........
	36	0.493333	8.37688E-001	5.99365E-003	0.00000E+000	5.02080E-003	3.59960E-001	-1.08383E+000	3.57820E+000	10	...........
	37	0.506667	8.43751E-001	5.99665E-003	0.00000E+000	5.05968E-003	3.59960E-001	-1.08763E+000	3.57820E+000	10	...........
	38	0.52	8.49787E-001	5.99764E-003	0.00000E+000	5.09672E-003	3.59960E-001	-1.09201E+000	3.57820E+000	10	...........
	39	0.533333	8.55768E-001	5.99400E-003	0.00000E+000	5.12947E-003	3.59960E-001	-1.08351E+000	3.57820E+000	10	...........
	40	0.546667	8.61748E-001	5.99041E-003	0.00000E+000	5.16222E-003	3.59960E-001	-1.08733E+000	3.57820E+000	10	...........
	41	0.56	8.67735E-001	5.99894E-003	0.00000E+000	5.20549E-003	3.59960E-001	-1.09171E+000	3.57790E+000	10	...........
	42	0.573333	8.73759E-001	5.99217E-003	0.00000E+000	5.23571E-003	3.59960E-001	-1.08322E+000	3.57760E+000	10	...........
	43	0.586667	8.79684E-001	5.99351E-003	0.00000E+000	5.27240E-003	3.59960E-001	-1.08704E+000	3.57760E+000	10	...........
	44	0.6	8.85649E-001	5.99696E-003	0.00000E+000	5.31120E-003	3.59960E-001	-1.09178E+000	3.57760E+000	10	...........
	45	0.613333	8.91550E-001	5.99212E-003	0.00000E+000	5.34228E-003	3.59960E-001	-1.08327E+000	3.57760E+000	10	...........
	46	0.626667	8.97484E-001	5.99777E-003	0.00000E+000	5.38290E-003	3.59960E-001	-1.08709E+000	3.57760E+000	10	...........
	47	0.64	9.03354E-001	5.99486E-003	0.00000E+000	5.41548E-003	3.59960E-001	-1.09171E+000	3.57760E+000	10	...........
	48	0.653333	9.09248E-001	5.99357E-003	0.00000E+000	5.44964E-003	3.59960E-001	-1.08316E+000	3.57760E+000	10	...........
	49	0.666667	9.15111E-001	5.99393E-003	0.00000E+000	5.48511E-003	3.59960E-001	-1.08712E+000	3.57760E+000	10	...........
	50	0.68	9.20952E-001	5.99338E-003	0.00000E+000	5.51962E-003	3.59960E-001	-1.09153E+000	3.57760E+000	10	...........
	51	0.693333	9.26772E-001	5.99240E-003	0.00000E+000	5.55359E-003	3.59960E-001	-1.08319E+000	3.57760E+000	10	...........
	52	0.706667	9.32563E-001	5.99405E-003	0.00000E+000	5.58983E-003	3.59960E-001	-1.08675E+000	3.57760E+000	10	...........
	53	0.72	9.38280E-001	5.99179E-003	0.00000E+000	5.62197E-003	3.59960E-001	-1.09140E+000	3.57760E+000	10	...........
	54	0.733333	9.43993E-001	5.99296E-003	0.00000E+000	5.65731E-003	3.59960E-001	-1.08300E+000	3.57760E+000	10	...........
	55	0.746667	9.49730E-001	5.99600E-003	0.00000E+000	5.69459E-003	3.59960E-001	-1.08697E+000	3.57760E+000	10	...........
	56	0.76	9.55402E-001	5.99773E-003	0.00000E+000	5.73025E-003	3.59960E-001	-1.09159E+000	3.57760E+000	10	...........
	57	0.773333	9.61023E-001	5.99298E-003	0.00000E+000	5.75939E-003	3.59960E-001	-1.08275E+000	3.57760E+000	10	...........
	58	0.786667	9.66600E-001	5.99203E-003	0.00000E+000	5.79190E-003	3.59960E-001	-1.08684E+000	3.57760E+000	10	...........
	59	0.8	9.72150E-001	5.99851E-003	0.00000E+000	5.83145E-003	3.59960E-001	-1.09139E+000	3.57760E+000	10	...........
	60	0.813333	9.77689E-001	5.99033E-003	0.00000E+000	5.85668E-003	3.59960E-001	-1.08297E+000	3.57760E+000	10	...........
	61	0.826667	9.83188E-001	5.99236E-003	0.00000E+000	5.89162E-003	3.59960E-001	-1.08675E+000	3.57760E+000	10	...........
	62	0.84	9.88669E-001	5.99682E-003	0.00000E+000	5.92886E-003	3.59960E-001	-1.09136E+000	3.57760E+000	10	...........
	63	0.853333	9.94064E-001	5.99833E-003	0.00000E+000	5.96272E-003	3.59960E-001	-1.08256E+000	3.57760E+000	10	...........
	64	0.863333	9.98792E-001	5.99161E-003	0.00000E+000	5.98437E-003	3.59960E-001	-1.09159E+000	3.57760E+000	10	...........
STARTTIMEOFFSET	QUANT	383.275	Start Time Offset (s)