File: Data/CV_CRGO300517_1/PWRCCD_CRGO300517_1/CHARGE_DISCHARGE/CHARGE_#887.DTA
EXPLAIN
TAG	PWR800_CHARGE
TITLE	LABEL	PWR Cyclic Charge Discharge (Cell) - Charge Step	Test &Identifier
DATE	LABEL	22-6-2017	Date
TIME	LABEL	16:10:30	Time
NOTES	NOTES	3	&Notes...
	supercap test cell
	0.6mg
	6M KOH
PSTAT	PSTAT	IFC5000-01520	Potentiostat
CAPACITY	QUANT	1.00000E-003	Capacity (A-hr)
CELLTYPE	SELECTOR	1	&Cell Type
WORKINGCONNECTION	SELECTOR	0	&Working Lead
MAXCHARGETIME	VARIABLEANDUNITS	1.00000E+002	s	1.00000E+002	second(s)	Max &Charge Time
CHARGECURRENT	QUANT	6.00000E-003	&Charge Current (A)
VOLTAGEFINISH	TWOPARAM	F	1.00000E-003	3.60000E+003	&Voltage Finish	 I (A) < 	Max Time(s)
SAMPLETIME	QUANT	1.00000E-002	Sa&mple Period (s)
CHARGESTOPAT1	MULTIPARAM	4	1.00000E+000	Charge Stop At &1	Voltage > Limit	V
CHARGESTOPAT2	MULTIPARAM	0	0.00000E+000	Charge Stop At &2	None	N/A
AESBHCSELECTOR	TOGGLE	F	Save Both Half Cells
IRCOMP	TOGGLE	F	IR &Measure
EOC	QUANT	0	Open Circuit (V)
SEQUENCER	TOGGLE	TRUE	Run as Sequence
PSTATMODEL	IQUANT	53	Pstat Model
PSTATSECTION	LABEL	IFC5000-01520	Pstat Section
PSTATSERIALNO	LABEL	01520	Pstat Serial Number
CTRLMODE	IQUANT	0	Control Mode
ELECTROMETER	IQUANT	1	RE=0 or CS=1
IESTAB	IQUANT	0	I/E Stability
CASPEED	IQUANT	4	Control Amp Speed
CONVENTION	IQUANT	1	Current Convention
ICHRANGE	IQUANT	2	Ich Range
ICHRANGEMODE	TOGGLE	T	Ich Auto Range
ICHOFFSETENABLE	TOGGLE	F	Ich Offset Enable
ICHOFFSET	QUANT	0	Ich Offset (V)
ICHFILTER	IQUANT	1	Ich Filter
VCHRANGE	IQUANT	2	Vch Range
VCHRANGEMODE	TOGGLE	T	Vch Auto Range
VCHOFFSETENABLE	TOGGLE	F	Vch Offset Enable
VCHOFFSET	QUANT	0	Vch Offset (V)
VCHFILTER	IQUANT	1	Vch Filter
IERANGELOWERLIMIT	IQUANT	9	I/E Range Lower Limit
IERANGEMODE	TOGGLE	F	I/E AutoRange
IERANGE	IQUANT	10	I/E Range
ACHSELECT	IQUANT	1	Ach Select
ACHRANGE	IQUANT	2	Ach Range
ACHOFFSETENABLE	TOGGLE	F	Ach Offset Enable
ACHOFFSET	QUANT	0	Ach Offset (V)
ACHFILTER	IQUANT	1	Ach Filter
CABLEID	IQUANT	14	Cable ID
DCCALDATE	LABEL	20-10-2016	DC Calibration Date
ACCALDATE	LABEL	12/3/2015	AC Calibration Date
FRAMEWORKVERSION	QUANT	7.01	Framework Version
INSTRUMENTVERSION	LABEL	4.00	Instrument Version
CURVE	TABLE	54
	Pt	T	Vf	Im	Vu	Pwr	Sig	Ach	Temp	IERange	Over
	#	s	V	A	V	W	V	V	deg C	#	bits
	0	0.013333	6.52758E-001	5.99747E-003	0.00000E+000	3.91490E-003	3.59960E-001	-1.15663E+000	3.57650E+000	10	...........
	1	0.026667	6.61964E-001	5.99615E-003	0.00000E+000	3.96923E-003	3.59960E-001	-1.16083E+000	3.57650E+000	10	...........
	2	0.04	6.70483E-001	5.99722E-003	0.00000E+000	4.02104E-003	3.59960E-001	-1.16612E+000	3.57650E+000	10	...........
	3	0.053333	6.78529E-001	5.99247E-003	0.00000E+000	4.06606E-003	3.59960E-001	-1.15620E+000	3.57657E+000	10	...........
	4	0.066667	6.86288E-001	5.98895E-003	0.00000E+000	4.11015E-003	3.59960E-001	-1.16011E+000	3.57660E+000	10	...........
	5	0.08	6.93840E-001	5.99112E-003	0.00000E+000	4.15688E-003	3.59960E-001	-1.16597E+000	3.57660E+000	10	...........
	6	0.093333	7.01271E-001	5.99601E-003	0.00000E+000	4.20483E-003	3.59960E-001	-1.15655E+000	3.57660E+000	10	...........
	7	0.106667	7.08579E-001	5.99310E-003	0.00000E+000	4.24659E-003	3.59960E-001	-1.16068E+000	3.57660E+000	10	...........
	8	0.12	7.15805E-001	5.99356E-003	0.00000E+000	4.29022E-003	3.59960E-001	-1.16584E+000	3.57660E+000	10	...........
	9	0.133333	7.22972E-001	5.99371E-003	0.00000E+000	4.33328E-003	3.59960E-001	-1.15655E+000	3.57660E+000	10	...........
	10	0.146667	7.30028E-001	5.99528E-003	0.00000E+000	4.37672E-003	3.59960E-001	-1.16066E+000	3.57660E+000	10	...........
	11	0.16	7.37007E-001	5.99566E-003	0.00000E+000	4.41884E-003	3.59960E-001	-1.16610E+000	3.57660E+000	10	...........
	12	0.173333	7.43997E-001	5.99324E-003	0.00000E+000	4.45895E-003	3.59960E-001	-1.15644E+000	3.57660E+000	10	...........
	13	0.186667	7.50894E-001	5.99489E-003	0.00000E+000	4.50153E-003	3.59960E-001	-1.16059E+000	3.57660E+000	10	...........
	14	0.2	7.57866E-001	5.99473E-003	0.00000E+000	4.54320E-003	3.59960E-001	-1.16589E+000	3.57660E+000	10	...........
	15	0.213333	7.64726E-001	5.99406E-003	0.00000E+000	4.58381E-003	3.59960E-001	-1.15620E+000	3.57660E+000	10	...........
	16	0.226667	7.71573E-001	5.99647E-003	0.00000E+000	4.62672E-003	3.59960E-001	-1.16039E+000	3.57660E+000	10	...........
	17	0.24	7.78361E-001	5.99345E-003	0.00000E+000	4.66506E-003	3.59960E-001	-1.16520E+000	3.57660E+000	10	...........
	18	0.253333	7.85151E-001	5.99344E-003	0.00000E+000	4.70575E-003	3.59960E-001	-1.15580E+000	3.57660E+000	10	...........
	19	0.266667	7.91912E-001	5.98907E-003	0.00000E+000	4.74281E-003	3.59960E-001	-1.16010E+000	3.57660E+000	10	...........
	20	0.28	7.98620E-001	5.98849E-003	0.00000E+000	4.78253E-003	3.59960E-001	-1.16557E+000	3.57660E+000	10	...........
	21	0.293333	8.05332E-001	5.99387E-003	0.00000E+000	4.82706E-003	3.59960E-001	-1.15608E+000	3.57660E+000	10	...........
	22	0.306667	8.11988E-001	5.99003E-003	0.00000E+000	4.86383E-003	3.59960E-001	-1.16012E+000	3.57660E+000	10	...........
	23	0.32	8.18656E-001	5.99036E-003	0.00000E+000	4.90404E-003	3.59960E-001	-1.16503E+000	3.57660E+000	10	...........
	24	0.333333	8.25309E-001	5.99433E-003	0.00000E+000	4.94718E-003	3.59960E-001	-1.15584E+000	3.57660E+000	10	...........
	25	0.346667	8.31874E-001	5.99573E-003	0.00000E+000	4.98770E-003	3.59960E-001	-1.16040E+000	3.57660E+000	10	...........
	26	0.36	8.38472E-001	5.98978E-003	0.00000E+000	5.02226E-003	3.59960E-001	-1.16528E+000	3.57660E+000	10	...........
	27	0.373333	8.45060E-001	5.99512E-003	0.00000E+000	5.06624E-003	3.59960E-001	-1.15609E+000	3.57660E+000	10	...........
	28	0.386667	8.51567E-001	5.99300E-003	0.00000E+000	5.10344E-003	3.59960E-001	-1.16049E+000	3.57660E+000	10	...........
	29	0.4	8.58073E-001	5.99089E-003	0.00000E+000	5.14062E-003	3.59960E-001	-1.16535E+000	3.57660E+000	10	...........
	30	0.413333	8.64523E-001	5.99490E-003	0.00000E+000	5.18272E-003	3.59960E-001	-1.15644E+000	3.57660E+000	10	...........
	31	0.426667	8.71039E-001	5.99249E-003	0.00000E+000	5.21969E-003	3.59960E-001	-1.16107E+000	3.57660E+000	10	...........
	32	0.44	8.77450E-001	5.99962E-003	0.00000E+000	5.26437E-003	3.59960E-001	-1.16572E+000	3.57660E+000	10	...........
	33	0.453333	8.83850E-001	5.99401E-003	0.00000E+000	5.29780E-003	3.59960E-001	-1.15652E+000	3.57660E+000	10	...........
	34	0.466667	8.90162E-001	5.99420E-003	0.00000E+000	5.33581E-003	3.59960E-001	-1.16102E+000	3.57660E+000	10	...........
	35	0.48	8.96477E-001	5.99167E-003	0.00000E+000	5.37140E-003	3.59960E-001	-1.16590E+000	3.57660E+000	10	...........
	36	0.493333	9.02794E-001	5.99176E-003	0.00000E+000	5.40932E-003	3.59960E-001	-1.15675E+000	3.57660E+000	10	...........
	37	0.506667	9.09054E-001	5.99160E-003	0.00000E+000	5.44669E-003	3.59960E-001	-1.16103E+000	3.57660E+000	10	...........
	38	0.52	9.15273E-001	5.99029E-003	0.00000E+000	5.48275E-003	3.59960E-001	-1.16565E+000	3.57660E+000	10	...........
	39	0.533333	9.21471E-001	5.99222E-003	0.00000E+000	5.52165E-003	3.59960E-001	-1.15609E+000	3.57660E+000	10	...........
	40	0.546667	9.27641E-001	5.99410E-003	0.00000E+000	5.56038E-003	3.59960E-001	-1.16078E+000	3.57660E+000	10	...........
	41	0.56	9.33713E-001	5.99306E-003	0.00000E+000	5.59580E-003	3.59960E-001	-1.16521E+000	3.57660E+000	10	...........
	42	0.573333	9.39804E-001	5.99773E-003	0.00000E+000	5.63670E-003	3.59960E-001	-1.15587E+000	3.57660E+000	10	...........
	43	0.586667	9.45783E-001	5.99448E-003	0.00000E+000	5.66948E-003	3.59960E-001	-1.16055E+000	3.57660E+000	10	...........
	44	0.6	9.51755E-001	5.99414E-003	0.00000E+000	5.70495E-003	3.59960E-001	-1.16468E+000	3.57660E+000	10	...........
	45	0.613333	9.57631E-001	5.99152E-003	0.00000E+000	5.73766E-003	3.59960E-001	-1.15573E+000	3.57660E+000	10	...........
	46	0.626667	9.63479E-001	5.99708E-003	0.00000E+000	5.77806E-003	3.59960E-001	-1.16047E+000	3.57660E+000	10	...........
	47	0.64	9.69268E-001	5.99405E-003	0.00000E+000	5.80984E-003	3.59960E-001	-1.16430E+000	3.57660E+000	10	...........
	48	0.653333	9.75080E-001	5.99143E-003	0.00000E+000	5.84213E-003	3.59960E-001	-1.15549E+000	3.57660E+000	10	...........
	49	0.666667	9.80757E-001	5.99199E-003	0.00000E+000	5.87668E-003	3.59960E-001	-1.16026E+000	3.57660E+000	10	...........
	50	0.68	9.86359E-001	5.99393E-003	0.00000E+000	5.91216E-003	3.59960E-001	-1.16440E+000	3.57660E+000	10	...........
	51	0.693333	9.91962E-001	5.99357E-003	0.00000E+000	5.94540E-003	3.59960E-001	-1.15565E+000	3.57660E+000	10	...........
	52	0.706667	9.97528E-001	5.99757E-003	0.00000E+000	5.98274E-003	3.59960E-001	-1.16023E+000	3.57660E+000	10	...........
	53	0.708333	1.00070E+000	5.99421E-003	0.00000E+000	5.99843E-003	3.59960E-001	-1.14541E+000	3.57660E+000	10	...........
STARTTIMEOFFSET	QUANT	1427.776	Start Time Offset (s)