File: Data/CV_CRGO300517_1/PWRCCD_CRGO300517_1/CHARGE_DISCHARGE/CHARGE_#308.DTA
EXPLAIN
TAG	PWR800_CHARGE
TITLE	LABEL	PWR Cyclic Charge Discharge (Cell) - Charge Step	Test &Identifier
DATE	LABEL	22-6-2017	Date
TIME	LABEL	15:48:15	Time
NOTES	NOTES	3	&Notes...
	supercap test cell
	0.6mg
	6M KOH
PSTAT	PSTAT	IFC5000-01520	Potentiostat
CAPACITY	QUANT	1.00000E-003	Capacity (A-hr)
CELLTYPE	SELECTOR	1	&Cell Type
WORKINGCONNECTION	SELECTOR	0	&Working Lead
MAXCHARGETIME	VARIABLEANDUNITS	1.00000E+002	s	1.00000E+002	second(s)	Max &Charge Time
CHARGECURRENT	QUANT	6.00000E-003	&Charge Current (A)
VOLTAGEFINISH	TWOPARAM	F	1.00000E-003	3.60000E+003	&Voltage Finish	 I (A) < 	Max Time(s)
SAMPLETIME	QUANT	1.00000E-002	Sa&mple Period (s)
CHARGESTOPAT1	MULTIPARAM	4	1.00000E+000	Charge Stop At &1	Voltage > Limit	V
CHARGESTOPAT2	MULTIPARAM	0	0.00000E+000	Charge Stop At &2	None	N/A
AESBHCSELECTOR	TOGGLE	F	Save Both Half Cells
IRCOMP	TOGGLE	F	IR &Measure
EOC	QUANT	0	Open Circuit (V)
SEQUENCER	TOGGLE	TRUE	Run as Sequence
PSTATMODEL	IQUANT	53	Pstat Model
PSTATSECTION	LABEL	IFC5000-01520	Pstat Section
PSTATSERIALNO	LABEL	01520	Pstat Serial Number
CTRLMODE	IQUANT	0	Control Mode
ELECTROMETER	IQUANT	1	RE=0 or CS=1
IESTAB	IQUANT	0	I/E Stability
CASPEED	IQUANT	4	Control Amp Speed
CONVENTION	IQUANT	1	Current Convention
ICHRANGE	IQUANT	2	Ich Range
ICHRANGEMODE	TOGGLE	T	Ich Auto Range
ICHOFFSETENABLE	TOGGLE	F	Ich Offset Enable
ICHOFFSET	QUANT	0	Ich Offset (V)
ICHFILTER	IQUANT	1	Ich Filter
VCHRANGE	IQUANT	2	Vch Range
VCHRANGEMODE	TOGGLE	T	Vch Auto Range
VCHOFFSETENABLE	TOGGLE	F	Vch Offset Enable
VCHOFFSET	QUANT	0	Vch Offset (V)
VCHFILTER	IQUANT	1	Vch Filter
IERANGELOWERLIMIT	IQUANT	9	I/E Range Lower Limit
IERANGEMODE	TOGGLE	F	I/E AutoRange
IERANGE	IQUANT	10	I/E Range
ACHSELECT	IQUANT	1	Ach Select
ACHRANGE	IQUANT	2	Ach Range
ACHOFFSETENABLE	TOGGLE	F	Ach Offset Enable
ACHOFFSET	QUANT	0	Ach Offset (V)
ACHFILTER	IQUANT	1	Ach Filter
CABLEID	IQUANT	14	Cable ID
DCCALDATE	LABEL	20-10-2016	DC Calibration Date
ACCALDATE	LABEL	12/3/2015	AC Calibration Date
FRAMEWORKVERSION	QUANT	7.01	Framework Version
INSTRUMENTVERSION	LABEL	4.00	Instrument Version
CURVE	TABLE	62
	Pt	T	Vf	Im	Vu	Pwr	Sig	Ach	Temp	IERange	Over
	#	s	V	A	V	W	V	V	deg C	#	bits
	0	0.013333	6.17261E-001	5.99595E-003	0.00000E+000	3.70107E-003	3.59960E-001	-1.10661E+000	3.57810E+000	10	...........
	1	0.026667	6.25869E-001	5.99556E-003	0.00000E+000	3.75244E-003	3.59960E-001	-1.10966E+000	3.57810E+000	10	...........
	2	0.04	6.33802E-001	5.99750E-003	0.00000E+000	3.80123E-003	3.59960E-001	-1.11622E+000	3.57810E+000	10	...........
	3	0.053333	6.41303E-001	5.99162E-003	0.00000E+000	3.84244E-003	3.59960E-001	-1.10668E+000	3.57810E+000	10	...........
	4	0.066667	6.48513E-001	5.99108E-003	0.00000E+000	3.88529E-003	3.59960E-001	-1.10951E+000	3.57810E+000	10	...........
	5	0.08	6.55584E-001	5.99480E-003	0.00000E+000	3.93010E-003	3.59960E-001	-1.11622E+000	3.57810E+000	10	...........
	6	0.093333	6.62430E-001	5.99205E-003	0.00000E+000	3.96932E-003	3.59960E-001	-1.10630E+000	3.57810E+000	10	...........
	7	0.106667	6.69263E-001	5.99413E-003	0.00000E+000	4.01165E-003	3.59960E-001	-1.10935E+000	3.57810E+000	10	...........
	8	0.12	6.76008E-001	5.99352E-003	0.00000E+000	4.05167E-003	3.59960E-001	-1.11635E+000	3.57810E+000	10	...........
	9	0.133333	6.82635E-001	5.99310E-003	0.00000E+000	4.09110E-003	3.59960E-001	-1.10681E+000	3.57810E+000	10	...........
	10	0.146667	6.89202E-001	5.99327E-003	0.00000E+000	4.13057E-003	3.59960E-001	-1.10930E+000	3.57810E+000	10	...........
	11	0.16	6.95723E-001	5.99230E-003	0.00000E+000	4.16898E-003	3.59960E-001	-1.11605E+000	3.57810E+000	10	...........
	12	0.173333	7.02216E-001	5.99868E-003	0.00000E+000	4.21237E-003	3.59960E-001	-1.10647E+000	3.57810E+000	10	...........
	13	0.186667	7.08686E-001	5.99081E-003	0.00000E+000	4.24560E-003	3.59960E-001	-1.10925E+000	3.57810E+000	10	...........
	14	0.2	7.15129E-001	5.99394E-003	0.00000E+000	4.28644E-003	3.59960E-001	-1.11611E+000	3.57810E+000	10	...........
	15	0.213333	7.21531E-001	5.99652E-003	0.00000E+000	4.32668E-003	3.59960E-001	-1.10631E+000	3.57810E+000	10	...........
	16	0.226667	7.27910E-001	5.99163E-003	0.00000E+000	4.36137E-003	3.59960E-001	-1.10862E+000	3.57810E+000	10	...........
	17	0.24	7.34278E-001	5.99681E-003	0.00000E+000	4.40332E-003	3.59960E-001	-1.11580E+000	3.57810E+000	10	...........
	18	0.253333	7.40573E-001	5.98994E-003	0.00000E+000	4.43599E-003	3.59960E-001	-1.10616E+000	3.57810E+000	10	...........
	19	0.266667	7.46914E-001	5.99222E-003	0.00000E+000	4.47567E-003	3.59960E-001	-1.10863E+000	3.57810E+000	10	...........
	20	0.28	7.53235E-001	5.99301E-003	0.00000E+000	4.51415E-003	3.59960E-001	-1.11559E+000	3.57810E+000	10	...........
	21	0.293333	7.59529E-001	5.99787E-003	0.00000E+000	4.55556E-003	3.59960E-001	-1.10583E+000	3.57810E+000	10	...........
	22	0.306667	7.65789E-001	5.99587E-003	0.00000E+000	4.59157E-003	3.59960E-001	-1.10852E+000	3.57810E+000	10	...........
	23	0.32	7.72088E-001	5.99244E-003	0.00000E+000	4.62669E-003	3.59960E-001	-1.11601E+000	3.57810E+000	10	...........
	24	0.333333	7.78345E-001	5.99915E-003	0.00000E+000	4.66941E-003	3.59960E-001	-1.10615E+000	3.57810E+000	10	...........
	25	0.346667	7.84593E-001	5.99302E-003	0.00000E+000	4.70208E-003	3.59960E-001	-1.10846E+000	3.57810E+000	10	...........
	26	0.36	7.90838E-001	5.99891E-003	0.00000E+000	4.74417E-003	3.59960E-001	-1.11543E+000	3.57810E+000	10	...........
	27	0.373333	7.97130E-001	5.99138E-003	0.00000E+000	4.77591E-003	3.59960E-001	-1.10573E+000	3.57810E+000	10	...........
	28	0.386667	8.03296E-001	5.99337E-003	0.00000E+000	4.81446E-003	3.59960E-001	-1.10852E+000	3.57810E+000	10	...........
	29	0.4	8.09517E-001	5.99688E-003	0.00000E+000	4.85458E-003	3.59960E-001	-1.11577E+000	3.57810E+000	10	...........
	30	0.413333	8.15721E-001	5.99831E-003	0.00000E+000	4.89294E-003	3.59960E-001	-1.10576E+000	3.57810E+000	10	...........
	31	0.426667	8.21933E-001	5.99413E-003	0.00000E+000	4.92677E-003	3.59960E-001	-1.10845E+000	3.57810E+000	10	...........
	32	0.44	8.28105E-001	5.99702E-003	0.00000E+000	4.96617E-003	3.59960E-001	-1.11582E+000	3.57810E+000	10	...........
	33	0.453333	8.34256E-001	5.99604E-003	0.00000E+000	5.00224E-003	3.59960E-001	-1.10597E+000	3.57810E+000	10	...........
	34	0.466667	8.40412E-001	5.99089E-003	0.00000E+000	5.03482E-003	3.59960E-001	-1.10851E+000	3.57810E+000	10	...........
	35	0.48	8.46564E-001	5.99547E-003	0.00000E+000	5.07555E-003	3.59960E-001	-1.11570E+000	3.57810E+000	10	...........
	36	0.493333	8.52722E-001	5.99822E-003	0.00000E+000	5.11482E-003	3.59960E-001	-1.10598E+000	3.57810E+000	10	...........
	37	0.506667	8.58826E-001	5.99476E-003	0.00000E+000	5.14845E-003	3.59960E-001	-1.10842E+000	3.57810E+000	10	...........
	38	0.52	8.64938E-001	5.99685E-003	0.00000E+000	5.18690E-003	3.59960E-001	-1.11561E+000	3.57810E+000	10	...........
	39	0.533333	8.71071E-001	5.98925E-003	0.00000E+000	5.21707E-003	3.59960E-001	-1.10574E+000	3.57810E+000	10	...........
	40	0.546667	8.77164E-001	5.99334E-003	0.00000E+000	5.25714E-003	3.59960E-001	-1.10808E+000	3.57810E+000	10	...........
	41	0.56	8.83198E-001	5.99196E-003	0.00000E+000	5.29208E-003	3.59960E-001	-1.11511E+000	3.57741E+000	10	...........
	42	0.573333	8.89227E-001	5.99191E-003	0.00000E+000	5.32817E-003	3.59960E-001	-1.10559E+000	3.57700E+000	10	...........
	43	0.586667	8.95254E-001	5.99317E-003	0.00000E+000	5.36541E-003	3.59960E-001	-1.10811E+000	3.57700E+000	10	...........
	44	0.6	9.01274E-001	5.99392E-003	0.00000E+000	5.40216E-003	3.59960E-001	-1.11528E+000	3.57700E+000	10	...........
	45	0.613333	9.07228E-001	5.99746E-003	0.00000E+000	5.44107E-003	3.59960E-001	-1.10529E+000	3.57700E+000	10	...........
	46	0.626667	9.13123E-001	5.99482E-003	0.00000E+000	5.47401E-003	3.59960E-001	-1.10775E+000	3.57700E+000	10	...........
	47	0.64	9.19060E-001	5.99906E-003	0.00000E+000	5.51350E-003	3.59960E-001	-1.11537E+000	3.57700E+000	10	...........
	48	0.653333	9.24991E-001	5.99698E-003	0.00000E+000	5.54716E-003	3.59960E-001	-1.10543E+000	3.57700E+000	10	...........
	49	0.666667	9.30902E-001	5.99349E-003	0.00000E+000	5.57935E-003	3.59960E-001	-1.10782E+000	3.57700E+000	10	...........
	50	0.68	9.36742E-001	5.99237E-003	0.00000E+000	5.61331E-003	3.59960E-001	-1.11505E+000	3.57700E+000	10	...........
	51	0.693333	9.42484E-001	5.99205E-003	0.00000E+000	5.64741E-003	3.59960E-001	-1.10527E+000	3.57700E+000	10	...........
	52	0.706667	9.48300E-001	5.99599E-003	0.00000E+000	5.68600E-003	3.59960E-001	-1.10780E+000	3.57700E+000	10	...........
	53	0.72	9.54031E-001	5.99108E-003	0.00000E+000	5.71567E-003	3.59960E-001	-1.11523E+000	3.57700E+000	10	...........
	54	0.733333	9.59685E-001	5.98935E-003	0.00000E+000	5.74789E-003	3.59960E-001	-1.10525E+000	3.57700E+000	10	...........
	55	0.746667	9.65340E-001	5.99174E-003	0.00000E+000	5.78406E-003	3.59960E-001	-1.10743E+000	3.57700E+000	10	...........
	56	0.76	9.70958E-001	5.99352E-003	0.00000E+000	5.81946E-003	3.59960E-001	-1.11532E+000	3.57700E+000	10	...........
	57	0.773333	9.76579E-001	5.99437E-003	0.00000E+000	5.85397E-003	3.59960E-001	-1.10563E+000	3.57700E+000	10	...........
	58	0.786667	9.82094E-001	5.99722E-003	0.00000E+000	5.88983E-003	3.59960E-001	-1.10790E+000	3.57700E+000	10	...........
	59	0.8	9.87581E-001	5.98930E-003	0.00000E+000	5.91491E-003	3.59960E-001	-1.11538E+000	3.57700E+000	10	...........
	60	0.813333	9.93053E-001	5.99178E-003	0.00000E+000	5.95015E-003	3.59960E-001	-1.10523E+000	3.57700E+000	10	...........
	61	0.825	9.98109E-001	5.99458E-003	0.00000E+000	5.98324E-003	3.59960E-001	-1.10955E+000	3.57700E+000	10	...........
STARTTIMEOFFSET	QUANT	554.2899	Start Time Offset (s)