File: Data/CV_CRGO300517_1/PWRCCD_CRGO300517_1/CHARGE_DISCHARGE/CHARGE_#744.DTA
EXPLAIN
TAG	PWR800_CHARGE
TITLE	LABEL	PWR Cyclic Charge Discharge (Cell) - Charge Step	Test &Identifier
DATE	LABEL	22-6-2017	Date
TIME	LABEL	16:05:12	Time
NOTES	NOTES	3	&Notes...
	supercap test cell
	0.6mg
	6M KOH
PSTAT	PSTAT	IFC5000-01520	Potentiostat
CAPACITY	QUANT	1.00000E-003	Capacity (A-hr)
CELLTYPE	SELECTOR	1	&Cell Type
WORKINGCONNECTION	SELECTOR	0	&Working Lead
MAXCHARGETIME	VARIABLEANDUNITS	1.00000E+002	s	1.00000E+002	second(s)	Max &Charge Time
CHARGECURRENT	QUANT	6.00000E-003	&Charge Current (A)
VOLTAGEFINISH	TWOPARAM	F	1.00000E-003	3.60000E+003	&Voltage Finish	 I (A) < 	Max Time(s)
SAMPLETIME	QUANT	1.00000E-002	Sa&mple Period (s)
CHARGESTOPAT1	MULTIPARAM	4	1.00000E+000	Charge Stop At &1	Voltage > Limit	V
CHARGESTOPAT2	MULTIPARAM	0	0.00000E+000	Charge Stop At &2	None	N/A
AESBHCSELECTOR	TOGGLE	F	Save Both Half Cells
IRCOMP	TOGGLE	F	IR &Measure
EOC	QUANT	0	Open Circuit (V)
SEQUENCER	TOGGLE	TRUE	Run as Sequence
PSTATMODEL	IQUANT	53	Pstat Model
PSTATSECTION	LABEL	IFC5000-01520	Pstat Section
PSTATSERIALNO	LABEL	01520	Pstat Serial Number
CTRLMODE	IQUANT	0	Control Mode
ELECTROMETER	IQUANT	1	RE=0 or CS=1
IESTAB	IQUANT	0	I/E Stability
CASPEED	IQUANT	4	Control Amp Speed
CONVENTION	IQUANT	1	Current Convention
ICHRANGE	IQUANT	2	Ich Range
ICHRANGEMODE	TOGGLE	T	Ich Auto Range
ICHOFFSETENABLE	TOGGLE	F	Ich Offset Enable
ICHOFFSET	QUANT	0	Ich Offset (V)
ICHFILTER	IQUANT	1	Ich Filter
VCHRANGE	IQUANT	2	Vch Range
VCHRANGEMODE	TOGGLE	T	Vch Auto Range
VCHOFFSETENABLE	TOGGLE	F	Vch Offset Enable
VCHOFFSET	QUANT	0	Vch Offset (V)
VCHFILTER	IQUANT	1	Vch Filter
IERANGELOWERLIMIT	IQUANT	9	I/E Range Lower Limit
IERANGEMODE	TOGGLE	F	I/E AutoRange
IERANGE	IQUANT	10	I/E Range
ACHSELECT	IQUANT	1	Ach Select
ACHRANGE	IQUANT	2	Ach Range
ACHOFFSETENABLE	TOGGLE	F	Ach Offset Enable
ACHOFFSET	QUANT	0	Ach Offset (V)
ACHFILTER	IQUANT	1	Ach Filter
CABLEID	IQUANT	14	Cable ID
DCCALDATE	LABEL	20-10-2016	DC Calibration Date
ACCALDATE	LABEL	12/3/2015	AC Calibration Date
FRAMEWORKVERSION	QUANT	7.01	Framework Version
INSTRUMENTVERSION	LABEL	4.00	Instrument Version
CURVE	TABLE	55
	Pt	T	Vf	Im	Vu	Pwr	Sig	Ach	Temp	IERange	Over
	#	s	V	A	V	W	V	V	deg C	#	bits
	0	0.013333	6.46133E-001	5.99516E-003	0.00000E+000	3.87367E-003	3.59960E-001	-1.15366E+000	3.57660E+000	10	...........
	1	0.026667	6.55264E-001	5.99462E-003	0.00000E+000	3.92806E-003	3.59960E-001	-1.16426E+000	3.57660E+000	10	...........
	2	0.04	6.63657E-001	5.99535E-003	0.00000E+000	3.97885E-003	3.59960E-001	-1.15738E+000	3.57660E+000	10	...........
	3	0.053333	6.71639E-001	5.99214E-003	0.00000E+000	4.02456E-003	3.59960E-001	-1.15277E+000	3.57660E+000	10	...........
	4	0.066667	6.79305E-001	5.99182E-003	0.00000E+000	4.07028E-003	3.59960E-001	-1.16358E+000	3.57660E+000	10	...........
	5	0.08	6.86791E-001	5.99350E-003	0.00000E+000	4.11628E-003	3.59960E-001	-1.15675E+000	3.57660E+000	10	...........
	6	0.093333	6.94107E-001	5.98851E-003	0.00000E+000	4.15667E-003	3.59960E-001	-1.15315E+000	3.57660E+000	10	...........
	7	0.106667	7.01311E-001	5.99874E-003	0.00000E+000	4.20698E-003	3.59960E-001	-1.16378E+000	3.57660E+000	10	...........
	8	0.12	7.08449E-001	5.99059E-003	0.00000E+000	4.24402E-003	3.59960E-001	-1.15636E+000	3.57660E+000	10	...........
	9	0.133333	7.15498E-001	5.99057E-003	0.00000E+000	4.28624E-003	3.59960E-001	-1.15295E+000	3.57660E+000	10	...........
	10	0.146667	7.22538E-001	5.99127E-003	0.00000E+000	4.32892E-003	3.59960E-001	-1.16389E+000	3.57660E+000	10	...........
	11	0.16	7.29489E-001	5.99463E-003	0.00000E+000	4.37301E-003	3.59960E-001	-1.15637E+000	3.57660E+000	10	...........
	12	0.173333	7.36358E-001	5.98999E-003	0.00000E+000	4.41078E-003	3.59960E-001	-1.15280E+000	3.57660E+000	10	...........
	13	0.186667	7.43243E-001	5.99317E-003	0.00000E+000	4.45438E-003	3.59960E-001	-1.16387E+000	3.57660E+000	10	...........
	14	0.2	7.50028E-001	5.99216E-003	0.00000E+000	4.49429E-003	3.59960E-001	-1.15661E+000	3.57660E+000	10	...........
	15	0.213333	7.56852E-001	5.99733E-003	0.00000E+000	4.53909E-003	3.59960E-001	-1.15297E+000	3.57660E+000	10	...........
	16	0.226667	7.63569E-001	5.99146E-003	0.00000E+000	4.57489E-003	3.59960E-001	-1.16392E+000	3.57660E+000	10	...........
	17	0.24	7.70308E-001	5.99565E-003	0.00000E+000	4.61849E-003	3.59960E-001	-1.15611E+000	3.57660E+000	10	...........
	18	0.253333	7.77010E-001	5.98769E-003	0.00000E+000	4.65250E-003	3.59960E-001	-1.15299E+000	3.57660E+000	10	...........
	19	0.266667	7.83730E-001	5.98885E-003	0.00000E+000	4.69364E-003	3.59960E-001	-1.16404E+000	3.57660E+000	10	...........
	20	0.28	7.90398E-001	5.99361E-003	0.00000E+000	4.73734E-003	3.59960E-001	-1.15643E+000	3.57660E+000	10	...........
	21	0.293333	7.97036E-001	5.99163E-003	0.00000E+000	4.77555E-003	3.59960E-001	-1.15323E+000	3.57660E+000	10	...........
	22	0.306667	8.03600E-001	5.99302E-003	0.00000E+000	4.81599E-003	3.59960E-001	-1.16412E+000	3.57660E+000	10	...........
	23	0.32	8.10220E-001	5.98719E-003	0.00000E+000	4.85094E-003	3.59960E-001	-1.15603E+000	3.57660E+000	10	...........
	24	0.333333	8.16784E-001	5.99324E-003	0.00000E+000	4.89518E-003	3.59960E-001	-1.15309E+000	3.57660E+000	10	...........
	25	0.346667	8.23392E-001	5.99235E-003	0.00000E+000	4.93406E-003	3.59960E-001	-1.16430E+000	3.57660E+000	10	...........
	26	0.36	8.29916E-001	5.98713E-003	0.00000E+000	4.96881E-003	3.59960E-001	-1.15602E+000	3.57660E+000	10	...........
	27	0.373333	8.36405E-001	5.99284E-003	0.00000E+000	5.01244E-003	3.59960E-001	-1.15271E+000	3.57660E+000	10	...........
	28	0.386667	8.42892E-001	5.99224E-003	0.00000E+000	5.05081E-003	3.59960E-001	-1.16382E+000	3.57660E+000	10	...........
	29	0.4	8.49365E-001	5.99048E-003	0.00000E+000	5.08811E-003	3.59960E-001	-1.15547E+000	3.57660E+000	10	...........
	30	0.413333	8.55794E-001	5.99279E-003	0.00000E+000	5.12860E-003	3.59960E-001	-1.15282E+000	3.57660E+000	10	...........
	31	0.426667	8.62186E-001	5.99421E-003	0.00000E+000	5.16812E-003	3.59960E-001	-1.16396E+000	3.57660E+000	10	...........
	32	0.44	8.68599E-001	5.99098E-003	0.00000E+000	5.20376E-003	3.59960E-001	-1.15556E+000	3.57660E+000	10	...........
	33	0.453333	8.75004E-001	5.99534E-003	0.00000E+000	5.24594E-003	3.59960E-001	-1.15259E+000	3.57660E+000	10	...........
	34	0.466667	8.81355E-001	5.99390E-003	0.00000E+000	5.28275E-003	3.59960E-001	-1.16382E+000	3.57660E+000	10	...........
	35	0.48	8.87664E-001	5.99422E-003	0.00000E+000	5.32085E-003	3.59960E-001	-1.15534E+000	3.57660E+000	10	...........
	36	0.493333	8.93936E-001	5.99576E-003	0.00000E+000	5.35983E-003	3.59960E-001	-1.15289E+000	3.57660E+000	10	...........
	37	0.506667	9.00215E-001	5.99747E-003	0.00000E+000	5.39901E-003	3.59960E-001	-1.16397E+000	3.57660E+000	10	...........
	38	0.52	9.06399E-001	5.99292E-003	0.00000E+000	5.43197E-003	3.59960E-001	-1.15518E+000	3.57660E+000	10	...........
	39	0.533333	9.12548E-001	5.99588E-003	0.00000E+000	5.47153E-003	3.59960E-001	-1.15279E+000	3.57660E+000	10	...........
	40	0.546667	9.18674E-001	5.99130E-003	0.00000E+000	5.50405E-003	3.59960E-001	-1.16412E+000	3.57660E+000	10	...........
	41	0.56	9.24834E-001	5.99368E-003	0.00000E+000	5.54315E-003	3.59960E-001	-1.15524E+000	3.57660E+000	10	...........
	42	0.573333	9.30873E-001	5.99498E-003	0.00000E+000	5.58057E-003	3.59960E-001	-1.15287E+000	3.57660E+000	10	...........
	43	0.586667	9.36911E-001	5.99385E-003	0.00000E+000	5.61571E-003	3.59960E-001	-1.16427E+000	3.57660E+000	10	...........
	44	0.6	9.42924E-001	5.99121E-003	0.00000E+000	5.64926E-003	3.59960E-001	-1.15529E+000	3.57660E+000	10	...........
	45	0.613333	9.48884E-001	5.99640E-003	0.00000E+000	5.68989E-003	3.59960E-001	-1.15314E+000	3.57660E+000	10	...........
	46	0.626667	9.54736E-001	5.99178E-003	0.00000E+000	5.72057E-003	3.59960E-001	-1.16423E+000	3.57660E+000	10	...........
	47	0.64	9.60573E-001	6.00019E-003	0.00000E+000	5.76362E-003	3.59960E-001	-1.15514E+000	3.57660E+000	10	...........
	48	0.653333	9.66355E-001	5.99637E-003	0.00000E+000	5.79462E-003	3.59960E-001	-1.15305E+000	3.57660E+000	10	...........
	49	0.666667	9.72079E-001	5.99260E-003	0.00000E+000	5.82528E-003	3.59960E-001	-1.16433E+000	3.57660E+000	10	...........
	50	0.68	9.77844E-001	5.99224E-003	0.00000E+000	5.85948E-003	3.59960E-001	-1.15496E+000	3.57660E+000	10	...........
	51	0.693333	9.83537E-001	5.99425E-003	0.00000E+000	5.89556E-003	3.59960E-001	-1.15258E+000	3.57660E+000	10	...........
	52	0.706667	9.89111E-001	5.99320E-003	0.00000E+000	5.92794E-003	3.59960E-001	-1.16393E+000	3.57660E+000	10	...........
	53	0.72	9.94672E-001	5.99268E-003	0.00000E+000	5.96075E-003	3.59960E-001	-1.15441E+000	3.57660E+000	10	...........
	54	0.728333	9.99172E-001	5.99204E-003	0.00000E+000	5.98708E-003	3.59960E-001	-1.15848E+000	3.57660E+000	10	...........
STARTTIMEOFFSET	QUANT	1223.391	Start Time Offset (s)