File: Data/CV_CRGO300517_1/PWRCCD_CRGO300517_1/CHARGE_DISCHARGE/CHARGE_#878.DTA
EXPLAIN
TAG	PWR800_CHARGE
TITLE	LABEL	PWR Cyclic Charge Discharge (Cell) - Charge Step	Test &Identifier
DATE	LABEL	22-6-2017	Date
TIME	LABEL	16:10:10	Time
NOTES	NOTES	3	&Notes...
	supercap test cell
	0.6mg
	6M KOH
PSTAT	PSTAT	IFC5000-01520	Potentiostat
CAPACITY	QUANT	1.00000E-003	Capacity (A-hr)
CELLTYPE	SELECTOR	1	&Cell Type
WORKINGCONNECTION	SELECTOR	0	&Working Lead
MAXCHARGETIME	VARIABLEANDUNITS	1.00000E+002	s	1.00000E+002	second(s)	Max &Charge Time
CHARGECURRENT	QUANT	6.00000E-003	&Charge Current (A)
VOLTAGEFINISH	TWOPARAM	F	1.00000E-003	3.60000E+003	&Voltage Finish	 I (A) < 	Max Time(s)
SAMPLETIME	QUANT	1.00000E-002	Sa&mple Period (s)
CHARGESTOPAT1	MULTIPARAM	4	1.00000E+000	Charge Stop At &1	Voltage > Limit	V
CHARGESTOPAT2	MULTIPARAM	0	0.00000E+000	Charge Stop At &2	None	N/A
AESBHCSELECTOR	TOGGLE	F	Save Both Half Cells
IRCOMP	TOGGLE	F	IR &Measure
EOC	QUANT	0	Open Circuit (V)
SEQUENCER	TOGGLE	TRUE	Run as Sequence
PSTATMODEL	IQUANT	53	Pstat Model
PSTATSECTION	LABEL	IFC5000-01520	Pstat Section
PSTATSERIALNO	LABEL	01520	Pstat Serial Number
CTRLMODE	IQUANT	0	Control Mode
ELECTROMETER	IQUANT	1	RE=0 or CS=1
IESTAB	IQUANT	0	I/E Stability
CASPEED	IQUANT	4	Control Amp Speed
CONVENTION	IQUANT	1	Current Convention
ICHRANGE	IQUANT	2	Ich Range
ICHRANGEMODE	TOGGLE	T	Ich Auto Range
ICHOFFSETENABLE	TOGGLE	F	Ich Offset Enable
ICHOFFSET	QUANT	0	Ich Offset (V)
ICHFILTER	IQUANT	1	Ich Filter
VCHRANGE	IQUANT	2	Vch Range
VCHRANGEMODE	TOGGLE	T	Vch Auto Range
VCHOFFSETENABLE	TOGGLE	F	Vch Offset Enable
VCHOFFSET	QUANT	0	Vch Offset (V)
VCHFILTER	IQUANT	1	Vch Filter
IERANGELOWERLIMIT	IQUANT	9	I/E Range Lower Limit
IERANGEMODE	TOGGLE	F	I/E AutoRange
IERANGE	IQUANT	10	I/E Range
ACHSELECT	IQUANT	1	Ach Select
ACHRANGE	IQUANT	2	Ach Range
ACHOFFSETENABLE	TOGGLE	F	Ach Offset Enable
ACHOFFSET	QUANT	0	Ach Offset (V)
ACHFILTER	IQUANT	1	Ach Filter
CABLEID	IQUANT	14	Cable ID
DCCALDATE	LABEL	20-10-2016	DC Calibration Date
ACCALDATE	LABEL	12/3/2015	AC Calibration Date
FRAMEWORKVERSION	QUANT	7.01	Framework Version
INSTRUMENTVERSION	LABEL	4.00	Instrument Version
CURVE	TABLE	54
	Pt	T	Vf	Im	Vu	Pwr	Sig	Ach	Temp	IERange	Over
	#	s	V	A	V	W	V	V	deg C	#	bits
	0	0.013333	6.51598E-001	5.99022E-003	0.00000E+000	3.90322E-003	3.59960E-001	-1.16607E+000	3.57710E+000	10	...........
	1	0.026667	6.60859E-001	5.98880E-003	0.00000E+000	3.95775E-003	3.59960E-001	-1.16647E+000	3.57710E+000	10	...........
	2	0.04	6.69392E-001	5.99383E-003	0.00000E+000	4.01222E-003	3.59960E-001	-1.17656E+000	3.57710E+000	10	...........
	3	0.053333	6.77469E-001	5.99129E-003	0.00000E+000	4.05891E-003	3.59960E-001	-1.16610E+000	3.57710E+000	10	...........
	4	0.066667	6.85268E-001	5.99116E-003	0.00000E+000	4.10555E-003	3.59960E-001	-1.16651E+000	3.57710E+000	10	...........
	5	0.08	6.92870E-001	5.99326E-003	0.00000E+000	4.15255E-003	3.59960E-001	-1.17666E+000	3.57710E+000	10	...........
	6	0.093333	7.00301E-001	5.99437E-003	0.00000E+000	4.19786E-003	3.59960E-001	-1.16624E+000	3.57710E+000	10	...........
	7	0.106667	7.07592E-001	5.99441E-003	0.00000E+000	4.24160E-003	3.59960E-001	-1.16660E+000	3.57710E+000	10	...........
	8	0.12	7.14829E-001	5.98812E-003	0.00000E+000	4.28048E-003	3.59960E-001	-1.17657E+000	3.57710E+000	10	...........
	9	0.133333	7.21985E-001	5.99116E-003	0.00000E+000	4.32553E-003	3.59960E-001	-1.16610E+000	3.57710E+000	10	...........
	10	0.146667	7.29066E-001	5.99647E-003	0.00000E+000	4.37183E-003	3.59960E-001	-1.16656E+000	3.57710E+000	10	...........
	11	0.16	7.36056E-001	5.99168E-003	0.00000E+000	4.41022E-003	3.59960E-001	-1.17610E+000	3.57710E+000	10	...........
	12	0.173333	7.43075E-001	5.99157E-003	0.00000E+000	4.45219E-003	3.59960E-001	-1.16577E+000	3.57710E+000	10	...........
	13	0.186667	7.50017E-001	5.99010E-003	0.00000E+000	4.49267E-003	3.59960E-001	-1.16594E+000	3.57710E+000	10	...........
	14	0.2	7.56928E-001	5.99314E-003	0.00000E+000	4.53638E-003	3.59960E-001	-1.17616E+000	3.57710E+000	10	...........
	15	0.213333	7.63779E-001	5.99083E-003	0.00000E+000	4.57567E-003	3.59960E-001	-1.16582E+000	3.57710E+000	10	...........
	16	0.226667	7.70637E-001	5.99002E-003	0.00000E+000	4.61613E-003	3.59960E-001	-1.16614E+000	3.57710E+000	10	...........
	17	0.24	7.77475E-001	5.99400E-003	0.00000E+000	4.66019E-003	3.59960E-001	-1.17613E+000	3.57710E+000	10	...........
	18	0.253333	7.84229E-001	5.99337E-003	0.00000E+000	4.70018E-003	3.59960E-001	-1.16559E+000	3.57710E+000	10	...........
	19	0.266667	7.90978E-001	5.99233E-003	0.00000E+000	4.73980E-003	3.59960E-001	-1.16606E+000	3.57710E+000	10	...........
	20	0.28	7.97715E-001	5.99831E-003	0.00000E+000	4.78494E-003	3.59960E-001	-1.17636E+000	3.57710E+000	10	...........
	21	0.293333	8.04423E-001	5.99434E-003	0.00000E+000	4.82199E-003	3.59960E-001	-1.16578E+000	3.57710E+000	10	...........
	22	0.306667	8.11114E-001	5.98739E-003	0.00000E+000	4.85645E-003	3.59960E-001	-1.16600E+000	3.57710E+000	10	...........
	23	0.32	8.17793E-001	5.99044E-003	0.00000E+000	4.89894E-003	3.59960E-001	-1.17603E+000	3.57710E+000	10	...........
	24	0.333333	8.24462E-001	5.99401E-003	0.00000E+000	4.94183E-003	3.59960E-001	-1.16566E+000	3.57710E+000	10	...........
	25	0.346667	8.31090E-001	5.99302E-003	0.00000E+000	4.98074E-003	3.59960E-001	-1.16607E+000	3.57710E+000	10	...........
	26	0.36	8.37648E-001	5.99346E-003	0.00000E+000	5.02041E-003	3.59960E-001	-1.17631E+000	3.57710E+000	10	...........
	27	0.373333	8.44241E-001	5.99730E-003	0.00000E+000	5.06317E-003	3.59960E-001	-1.16599E+000	3.57710E+000	10	...........
	28	0.386667	8.50780E-001	5.99162E-003	0.00000E+000	5.09755E-003	3.59960E-001	-1.16632E+000	3.57710E+000	10	...........
	29	0.4	8.57277E-001	5.99666E-003	0.00000E+000	5.14080E-003	3.59960E-001	-1.17645E+000	3.57710E+000	10	...........
	30	0.413333	8.63755E-001	5.99401E-003	0.00000E+000	5.17736E-003	3.59960E-001	-1.16604E+000	3.57710E+000	10	...........
	31	0.426667	8.70248E-001	5.99249E-003	0.00000E+000	5.21495E-003	3.59960E-001	-1.16625E+000	3.57710E+000	10	...........
	32	0.44	8.76686E-001	5.99649E-003	0.00000E+000	5.25704E-003	3.59960E-001	-1.17650E+000	3.57710E+000	10	...........
	33	0.453333	8.83083E-001	5.99786E-003	0.00000E+000	5.29661E-003	3.59960E-001	-1.16578E+000	3.57710E+000	10	...........
	34	0.466667	8.89451E-001	5.99553E-003	0.00000E+000	5.33273E-003	3.59960E-001	-1.16606E+000	3.57710E+000	10	...........
	35	0.48	8.95765E-001	5.99454E-003	0.00000E+000	5.36970E-003	3.59960E-001	-1.17606E+000	3.57710E+000	10	...........
	36	0.493333	9.02078E-001	5.99490E-003	0.00000E+000	5.40786E-003	3.59960E-001	-1.16569E+000	3.57710E+000	10	...........
	37	0.506667	9.08324E-001	5.99617E-003	0.00000E+000	5.44646E-003	3.59960E-001	-1.16566E+000	3.57710E+000	10	...........
	38	0.52	9.14544E-001	5.99408E-003	0.00000E+000	5.48185E-003	3.59960E-001	-1.17597E+000	3.57710E+000	10	...........
	39	0.533333	9.20735E-001	5.99130E-003	0.00000E+000	5.51640E-003	3.59960E-001	-1.16590E+000	3.57710E+000	10	...........
	40	0.546667	9.26901E-001	5.99553E-003	0.00000E+000	5.55726E-003	3.59960E-001	-1.16575E+000	3.57710E+000	10	...........
	41	0.56	9.32994E-001	5.99431E-003	0.00000E+000	5.59266E-003	3.59960E-001	-1.17617E+000	3.57710E+000	10	...........
	42	0.573333	9.39026E-001	5.99389E-003	0.00000E+000	5.62842E-003	3.59960E-001	-1.16565E+000	3.57710E+000	10	...........
	43	0.586667	9.45034E-001	5.99633E-003	0.00000E+000	5.66673E-003	3.59960E-001	-1.16570E+000	3.57710E+000	10	...........
	44	0.6	9.51031E-001	5.99089E-003	0.00000E+000	5.69752E-003	3.59960E-001	-1.17608E+000	3.57710E+000	10	...........
	45	0.613333	9.56948E-001	5.99239E-003	0.00000E+000	5.73441E-003	3.59960E-001	-1.16575E+000	3.57710E+000	10	...........
	46	0.626667	9.62789E-001	5.99749E-003	0.00000E+000	5.77432E-003	3.59960E-001	-1.16574E+000	3.57710E+000	10	...........
	47	0.64	9.68576E-001	5.99422E-003	0.00000E+000	5.80586E-003	3.59960E-001	-1.17626E+000	3.57710E+000	10	...........
	48	0.653333	9.74396E-001	5.99104E-003	0.00000E+000	5.83764E-003	3.59960E-001	-1.16570E+000	3.57710E+000	10	...........
	49	0.666667	9.80090E-001	5.99137E-003	0.00000E+000	5.87209E-003	3.59960E-001	-1.16551E+000	3.57710E+000	10	...........
	50	0.68	9.85772E-001	5.99701E-003	0.00000E+000	5.91169E-003	3.59960E-001	-1.17630E+000	3.57710E+000	10	...........
	51	0.693333	9.91383E-001	5.99332E-003	0.00000E+000	5.94168E-003	3.59960E-001	-1.16595E+000	3.57710E+000	10	...........
	52	0.706667	9.96900E-001	5.98915E-003	0.00000E+000	5.97059E-003	3.59960E-001	-1.16584E+000	3.57710E+000	10	...........
	53	0.708333	1.00002E+000	6.00639E-003	0.00000E+000	6.00654E-003	3.59960E-001	-1.16944E+000	3.57710E+000	10	...........
STARTTIMEOFFSET	QUANT	1415.081	Start Time Offset (s)