File: Data/CV_CRGO300517_1/PWRCCD_CRGO300517_1/CHARGE_DISCHARGE/CHARGE_#448.DTA
EXPLAIN
TAG	PWR800_CHARGE
TITLE	LABEL	PWR Cyclic Charge Discharge (Cell) - Charge Step	Test &Identifier
DATE	LABEL	22-6-2017	Date
TIME	LABEL	15:53:52	Time
NOTES	NOTES	3	&Notes...
	supercap test cell
	0.6mg
	6M KOH
PSTAT	PSTAT	IFC5000-01520	Potentiostat
CAPACITY	QUANT	1.00000E-003	Capacity (A-hr)
CELLTYPE	SELECTOR	1	&Cell Type
WORKINGCONNECTION	SELECTOR	0	&Working Lead
MAXCHARGETIME	VARIABLEANDUNITS	1.00000E+002	s	1.00000E+002	second(s)	Max &Charge Time
CHARGECURRENT	QUANT	6.00000E-003	&Charge Current (A)
VOLTAGEFINISH	TWOPARAM	F	1.00000E-003	3.60000E+003	&Voltage Finish	 I (A) < 	Max Time(s)
SAMPLETIME	QUANT	1.00000E-002	Sa&mple Period (s)
CHARGESTOPAT1	MULTIPARAM	4	1.00000E+000	Charge Stop At &1	Voltage > Limit	V
CHARGESTOPAT2	MULTIPARAM	0	0.00000E+000	Charge Stop At &2	None	N/A
AESBHCSELECTOR	TOGGLE	F	Save Both Half Cells
IRCOMP	TOGGLE	F	IR &Measure
EOC	QUANT	0	Open Circuit (V)
SEQUENCER	TOGGLE	TRUE	Run as Sequence
PSTATMODEL	IQUANT	53	Pstat Model
PSTATSECTION	LABEL	IFC5000-01520	Pstat Section
PSTATSERIALNO	LABEL	01520	Pstat Serial Number
CTRLMODE	IQUANT	0	Control Mode
ELECTROMETER	IQUANT	1	RE=0 or CS=1
IESTAB	IQUANT	0	I/E Stability
CASPEED	IQUANT	4	Control Amp Speed
CONVENTION	IQUANT	1	Current Convention
ICHRANGE	IQUANT	2	Ich Range
ICHRANGEMODE	TOGGLE	T	Ich Auto Range
ICHOFFSETENABLE	TOGGLE	F	Ich Offset Enable
ICHOFFSET	QUANT	0	Ich Offset (V)
ICHFILTER	IQUANT	1	Ich Filter
VCHRANGE	IQUANT	2	Vch Range
VCHRANGEMODE	TOGGLE	T	Vch Auto Range
VCHOFFSETENABLE	TOGGLE	F	Vch Offset Enable
VCHOFFSET	QUANT	0	Vch Offset (V)
VCHFILTER	IQUANT	1	Vch Filter
IERANGELOWERLIMIT	IQUANT	9	I/E Range Lower Limit
IERANGEMODE	TOGGLE	F	I/E AutoRange
IERANGE	IQUANT	10	I/E Range
ACHSELECT	IQUANT	1	Ach Select
ACHRANGE	IQUANT	2	Ach Range
ACHOFFSETENABLE	TOGGLE	F	Ach Offset Enable
ACHOFFSET	QUANT	0	Ach Offset (V)
ACHFILTER	IQUANT	1	Ach Filter
CABLEID	IQUANT	14	Cable ID
DCCALDATE	LABEL	20-10-2016	DC Calibration Date
ACCALDATE	LABEL	12/3/2015	AC Calibration Date
FRAMEWORKVERSION	QUANT	7.01	Framework Version
INSTRUMENTVERSION	LABEL	4.00	Instrument Version
CURVE	TABLE	59
	Pt	T	Vf	Im	Vu	Pwr	Sig	Ach	Temp	IERange	Over
	#	s	V	A	V	W	V	V	deg C	#	bits
	0	0.013333	6.27928E-001	5.99189E-003	0.00000E+000	3.76248E-003	3.59960E-001	-1.13284E+000	3.57680E+000	10	...........
	1	0.026667	6.36776E-001	5.99635E-003	0.00000E+000	3.81833E-003	3.59960E-001	-1.14411E+000	3.57680E+000	10	...........
	2	0.04	6.44859E-001	5.99273E-003	0.00000E+000	3.86446E-003	3.59960E-001	-1.13505E+000	3.57680E+000	10	...........
	3	0.053333	6.52532E-001	5.99020E-003	0.00000E+000	3.90880E-003	3.59960E-001	-1.13315E+000	3.57680E+000	10	...........
	4	0.066667	6.59920E-001	5.99738E-003	0.00000E+000	3.95779E-003	3.59960E-001	-1.14412E+000	3.57680E+000	10	...........
	5	0.08	6.67213E-001	5.99403E-003	0.00000E+000	3.99930E-003	3.59960E-001	-1.13470E+000	3.57680E+000	10	...........
	6	0.093333	6.74291E-001	5.99278E-003	0.00000E+000	4.04088E-003	3.59960E-001	-1.13308E+000	3.57680E+000	10	...........
	7	0.106667	6.81252E-001	5.99001E-003	0.00000E+000	4.08070E-003	3.59960E-001	-1.14424E+000	3.57680E+000	10	...........
	8	0.12	6.88151E-001	5.99734E-003	0.00000E+000	4.12707E-003	3.59960E-001	-1.13475E+000	3.57680E+000	10	...........
	9	0.133333	6.94919E-001	5.99617E-003	0.00000E+000	4.16685E-003	3.59960E-001	-1.13284E+000	3.57680E+000	10	...........
	10	0.146667	7.01695E-001	6.00015E-003	0.00000E+000	4.21028E-003	3.59960E-001	-1.14379E+000	3.57680E+000	10	...........
	11	0.16	7.08350E-001	5.99599E-003	0.00000E+000	4.24726E-003	3.59960E-001	-1.13449E+000	3.57680E+000	10	...........
	12	0.173333	7.15010E-001	5.99563E-003	0.00000E+000	4.28693E-003	3.59960E-001	-1.13292E+000	3.57680E+000	10	...........
	13	0.186667	7.21676E-001	5.99235E-003	0.00000E+000	4.32454E-003	3.59960E-001	-1.14397E+000	3.57680E+000	10	...........
	14	0.2	7.28231E-001	5.99621E-003	0.00000E+000	4.36663E-003	3.59960E-001	-1.13409E+000	3.57680E+000	10	...........
	15	0.213333	7.34747E-001	5.99479E-003	0.00000E+000	4.40466E-003	3.59960E-001	-1.13224E+000	3.57680E+000	10	...........
	16	0.226667	7.41315E-001	5.99759E-003	0.00000E+000	4.44610E-003	3.59960E-001	-1.14328E+000	3.57680E+000	10	...........
	17	0.24	7.47805E-001	5.99733E-003	0.00000E+000	4.48483E-003	3.59960E-001	-1.13384E+000	3.57680E+000	10	...........
	18	0.253333	7.54301E-001	5.99512E-003	0.00000E+000	4.52212E-003	3.59960E-001	-1.13216E+000	3.57680E+000	10	...........
	19	0.266667	7.60767E-001	5.99813E-003	0.00000E+000	4.56318E-003	3.59960E-001	-1.14321E+000	3.57680E+000	10	...........
	20	0.28	7.67247E-001	5.99627E-003	0.00000E+000	4.60062E-003	3.59960E-001	-1.13330E+000	3.57680E+000	10	...........
	21	0.293333	7.73703E-001	5.99651E-003	0.00000E+000	4.63952E-003	3.59960E-001	-1.13219E+000	3.57680E+000	10	...........
	22	0.306667	7.80104E-001	5.99508E-003	0.00000E+000	4.67679E-003	3.59960E-001	-1.14342E+000	3.57680E+000	10	...........
	23	0.32	7.86511E-001	5.99419E-003	0.00000E+000	4.71450E-003	3.59960E-001	-1.13344E+000	3.57680E+000	10	...........
	24	0.333333	7.92916E-001	5.99282E-003	0.00000E+000	4.75181E-003	3.59960E-001	-1.13201E+000	3.57680E+000	10	...........
	25	0.346667	7.99371E-001	5.99416E-003	0.00000E+000	4.79156E-003	3.59960E-001	-1.14288E+000	3.57680E+000	10	...........
	26	0.36	8.05715E-001	5.99519E-003	0.00000E+000	4.83041E-003	3.59960E-001	-1.13317E+000	3.57680E+000	10	...........
	27	0.373333	8.12084E-001	5.99121E-003	0.00000E+000	4.86537E-003	3.59960E-001	-1.13211E+000	3.57680E+000	10	...........
	28	0.386667	8.18446E-001	5.99248E-003	0.00000E+000	4.90452E-003	3.59960E-001	-1.14296E+000	3.57680E+000	10	...........
	29	0.4	8.24789E-001	5.99325E-003	0.00000E+000	4.94317E-003	3.59960E-001	-1.13300E+000	3.57680E+000	10	...........
	30	0.413333	8.31112E-001	5.99278E-003	0.00000E+000	4.98067E-003	3.59960E-001	-1.13199E+000	3.57680E+000	10	...........
	31	0.426667	8.37425E-001	5.99571E-003	0.00000E+000	5.02096E-003	3.59960E-001	-1.14295E+000	3.57680E+000	10	...........
	32	0.44	8.43734E-001	5.99613E-003	0.00000E+000	5.05913E-003	3.59960E-001	-1.13335E+000	3.57680E+000	10	...........
	33	0.453333	8.49994E-001	5.99241E-003	0.00000E+000	5.09351E-003	3.59960E-001	-1.13226E+000	3.57680E+000	10	...........
	34	0.466667	8.56242E-001	5.99682E-003	0.00000E+000	5.13473E-003	3.59960E-001	-1.14309E+000	3.57680E+000	10	...........
	35	0.48	8.62448E-001	5.99313E-003	0.00000E+000	5.16877E-003	3.59960E-001	-1.13294E+000	3.57680E+000	10	...........
	36	0.493333	8.68653E-001	5.99270E-003	0.00000E+000	5.20557E-003	3.59960E-001	-1.13205E+000	3.57680E+000	10	...........
	37	0.506667	8.74882E-001	5.99531E-003	0.00000E+000	5.24519E-003	3.59960E-001	-1.14329E+000	3.57680E+000	10	...........
	38	0.52	8.81094E-001	5.99499E-003	0.00000E+000	5.28215E-003	3.59960E-001	-1.13261E+000	3.57680E+000	10	...........
	39	0.533333	8.87223E-001	5.99773E-003	0.00000E+000	5.32133E-003	3.59960E-001	-1.13152E+000	3.57680E+000	10	...........
	40	0.546667	8.93333E-001	5.99559E-003	0.00000E+000	5.35606E-003	3.59960E-001	-1.14262E+000	3.57680E+000	10	...........
	41	0.56	8.99408E-001	5.99358E-003	0.00000E+000	5.39068E-003	3.59960E-001	-1.13238E+000	3.57680E+000	10	...........
	42	0.573333	9.05506E-001	5.99452E-003	0.00000E+000	5.42808E-003	3.59960E-001	-1.13176E+000	3.57680E+000	10	...........
	43	0.586667	9.11574E-001	5.99163E-003	0.00000E+000	5.46182E-003	3.59960E-001	-1.14257E+000	3.57680E+000	10	...........
	44	0.6	9.17610E-001	5.99505E-003	0.00000E+000	5.50112E-003	3.59960E-001	-1.13230E+000	3.57680E+000	10	...........
	45	0.613333	9.23649E-001	5.99266E-003	0.00000E+000	5.53512E-003	3.59960E-001	-1.13187E+000	3.57680E+000	10	...........
	46	0.626667	9.29564E-001	5.99804E-003	0.00000E+000	5.57556E-003	3.59960E-001	-1.14273E+000	3.57680E+000	10	...........
	47	0.64	9.35470E-001	5.99510E-003	0.00000E+000	5.60823E-003	3.59960E-001	-1.13244E+000	3.57680E+000	10	...........
	48	0.653333	9.41374E-001	5.98773E-003	0.00000E+000	5.63669E-003	3.59960E-001	-1.13202E+000	3.57680E+000	10	...........
	49	0.666667	9.47214E-001	5.99627E-003	0.00000E+000	5.67976E-003	3.59960E-001	-1.14255E+000	3.57680E+000	10	...........
	50	0.68	9.53083E-001	5.99231E-003	0.00000E+000	5.71117E-003	3.59960E-001	-1.13216E+000	3.57680E+000	10	...........
	51	0.693333	9.58859E-001	5.99525E-003	0.00000E+000	5.74860E-003	3.59960E-001	-1.13203E+000	3.57680E+000	10	...........
	52	0.706667	9.64586E-001	5.99507E-003	0.00000E+000	5.78276E-003	3.59960E-001	-1.14259E+000	3.57680E+000	10	...........
	53	0.72	9.70269E-001	5.99823E-003	0.00000E+000	5.81990E-003	3.59960E-001	-1.13217E+000	3.57680E+000	10	...........
	54	0.733333	9.75923E-001	5.99243E-003	0.00000E+000	5.84814E-003	3.59960E-001	-1.13213E+000	3.57680E+000	10	...........
	55	0.746667	9.81545E-001	6.00298E-003	0.00000E+000	5.89219E-003	3.59960E-001	-1.14271E+000	3.57680E+000	10	...........
	56	0.76	9.87122E-001	5.99542E-003	0.00000E+000	5.91821E-003	3.59960E-001	-1.13234E+000	3.57680E+000	10	...........
	57	0.773333	9.92555E-001	5.98992E-003	0.00000E+000	5.94533E-003	3.59960E-001	-1.13210E+000	3.57680E+000	10	...........
	58	0.786667	9.98086E-001	5.99251E-003	0.00000E+000	5.98104E-003	3.59960E-001	-1.14257E+000	3.57680E+000	10	...........
STARTTIMEOFFSET	QUANT	778.3203	Start Time Offset (s)