File: Data/CV_CRGO300517_1/PWRCCD_CRGO300517_1/CHARGE_DISCHARGE/CHARGE_#999.DTA
EXPLAIN
TAG	PWR800_CHARGE
TITLE	LABEL	PWR Cyclic Charge Discharge (Cell) - Charge Step	Test &Identifier
DATE	LABEL	22-6-2017	Date
TIME	LABEL	16:14:36	Time
NOTES	NOTES	3	&Notes...
	supercap test cell
	0.6mg
	6M KOH
PSTAT	PSTAT	IFC5000-01520	Potentiostat
CAPACITY	QUANT	1.00000E-003	Capacity (A-hr)
CELLTYPE	SELECTOR	1	&Cell Type
WORKINGCONNECTION	SELECTOR	0	&Working Lead
MAXCHARGETIME	VARIABLEANDUNITS	1.00000E+002	s	1.00000E+002	second(s)	Max &Charge Time
CHARGECURRENT	QUANT	6.00000E-003	&Charge Current (A)
VOLTAGEFINISH	TWOPARAM	F	1.00000E-003	3.60000E+003	&Voltage Finish	 I (A) < 	Max Time(s)
SAMPLETIME	QUANT	1.00000E-002	Sa&mple Period (s)
CHARGESTOPAT1	MULTIPARAM	4	1.00000E+000	Charge Stop At &1	Voltage > Limit	V
CHARGESTOPAT2	MULTIPARAM	0	0.00000E+000	Charge Stop At &2	None	N/A
AESBHCSELECTOR	TOGGLE	F	Save Both Half Cells
IRCOMP	TOGGLE	F	IR &Measure
EOC	QUANT	0	Open Circuit (V)
SEQUENCER	TOGGLE	TRUE	Run as Sequence
PSTATMODEL	IQUANT	53	Pstat Model
PSTATSECTION	LABEL	IFC5000-01520	Pstat Section
PSTATSERIALNO	LABEL	01520	Pstat Serial Number
CTRLMODE	IQUANT	0	Control Mode
ELECTROMETER	IQUANT	1	RE=0 or CS=1
IESTAB	IQUANT	0	I/E Stability
CASPEED	IQUANT	4	Control Amp Speed
CONVENTION	IQUANT	1	Current Convention
ICHRANGE	IQUANT	2	Ich Range
ICHRANGEMODE	TOGGLE	T	Ich Auto Range
ICHOFFSETENABLE	TOGGLE	F	Ich Offset Enable
ICHOFFSET	QUANT	0	Ich Offset (V)
ICHFILTER	IQUANT	1	Ich Filter
VCHRANGE	IQUANT	2	Vch Range
VCHRANGEMODE	TOGGLE	T	Vch Auto Range
VCHOFFSETENABLE	TOGGLE	F	Vch Offset Enable
VCHOFFSET	QUANT	0	Vch Offset (V)
VCHFILTER	IQUANT	1	Vch Filter
IERANGELOWERLIMIT	IQUANT	9	I/E Range Lower Limit
IERANGEMODE	TOGGLE	F	I/E AutoRange
IERANGE	IQUANT	10	I/E Range
ACHSELECT	IQUANT	1	Ach Select
ACHRANGE	IQUANT	2	Ach Range
ACHOFFSETENABLE	TOGGLE	F	Ach Offset Enable
ACHOFFSET	QUANT	0	Ach Offset (V)
ACHFILTER	IQUANT	1	Ach Filter
CABLEID	IQUANT	14	Cable ID
DCCALDATE	LABEL	20-10-2016	DC Calibration Date
ACCALDATE	LABEL	12/3/2015	AC Calibration Date
FRAMEWORKVERSION	QUANT	7.01	Framework Version
INSTRUMENTVERSION	LABEL	4.00	Instrument Version
CURVE	TABLE	52
	Pt	T	Vf	Im	Vu	Pwr	Sig	Ach	Temp	IERange	Over
	#	s	V	A	V	W	V	V	deg C	#	bits
	0	0.013333	6.57349E-001	5.98934E-003	0.00000E+000	3.93708E-003	3.59960E-001	-1.17536E+000	3.57660E+000	10	...........
	1	0.026667	6.66716E-001	5.99863E-003	0.00000E+000	3.99938E-003	3.59960E-001	-1.18585E+000	3.57660E+000	10	...........
	2	0.04	6.75291E-001	5.99307E-003	0.00000E+000	4.04707E-003	3.59960E-001	-1.17934E+000	3.57660E+000	10	...........
	3	0.053333	6.83457E-001	5.99050E-003	0.00000E+000	4.09425E-003	3.59960E-001	-1.17478E+000	3.57660E+000	10	...........
	4	0.066667	6.91350E-001	5.99373E-003	0.00000E+000	4.14376E-003	3.59960E-001	-1.18523E+000	3.57660E+000	10	...........
	5	0.08	6.99048E-001	5.99144E-003	0.00000E+000	4.18831E-003	3.59960E-001	-1.17918E+000	3.57660E+000	10	...........
	6	0.093333	7.06544E-001	5.99263E-003	0.00000E+000	4.23406E-003	3.59960E-001	-1.17504E+000	3.57660E+000	10	...........
	7	0.106667	7.13897E-001	5.99295E-003	0.00000E+000	4.27835E-003	3.59960E-001	-1.18520E+000	3.57660E+000	10	...........
	8	0.12	7.21227E-001	5.99426E-003	0.00000E+000	4.32322E-003	3.59960E-001	-1.17884E+000	3.57660E+000	10	...........
	9	0.133333	7.28436E-001	5.99626E-003	0.00000E+000	4.36789E-003	3.59960E-001	-1.17478E+000	3.57660E+000	10	...........
	10	0.146667	7.35567E-001	5.99011E-003	0.00000E+000	4.40613E-003	3.59960E-001	-1.18523E+000	3.57660E+000	10	...........
	11	0.16	7.42675E-001	5.99123E-003	0.00000E+000	4.44953E-003	3.59960E-001	-1.17910E+000	3.57660E+000	10	...........
	12	0.173333	7.49748E-001	5.99365E-003	0.00000E+000	4.49372E-003	3.59960E-001	-1.17492E+000	3.57660E+000	10	...........
	13	0.186667	7.56769E-001	5.98922E-003	0.00000E+000	4.53246E-003	3.59960E-001	-1.18502E+000	3.57660E+000	10	...........
	14	0.2	7.63754E-001	5.99176E-003	0.00000E+000	4.57623E-003	3.59960E-001	-1.17864E+000	3.57660E+000	10	...........
	15	0.213333	7.70688E-001	5.99696E-003	0.00000E+000	4.62179E-003	3.59960E-001	-1.17457E+000	3.57660E+000	10	...........
	16	0.226667	7.77584E-001	5.99326E-003	0.00000E+000	4.66026E-003	3.59960E-001	-1.18521E+000	3.57660E+000	10	...........
	17	0.24	7.84469E-001	5.99447E-003	0.00000E+000	4.70248E-003	3.59960E-001	-1.17854E+000	3.57660E+000	10	...........
	18	0.253333	7.91273E-001	5.98979E-003	0.00000E+000	4.73956E-003	3.59960E-001	-1.17452E+000	3.57660E+000	10	...........
	19	0.266667	7.98088E-001	5.99926E-003	0.00000E+000	4.78794E-003	3.59960E-001	-1.18496E+000	3.57660E+000	10	...........
	20	0.28	8.04867E-001	5.99400E-003	0.00000E+000	4.82437E-003	3.59960E-001	-1.17861E+000	3.57660E+000	10	...........
	21	0.293333	8.11586E-001	5.99255E-003	0.00000E+000	4.86347E-003	3.59960E-001	-1.17469E+000	3.57660E+000	10	...........
	22	0.306667	8.18273E-001	5.99555E-003	0.00000E+000	4.90600E-003	3.59960E-001	-1.18496E+000	3.57660E+000	10	...........
	23	0.32	8.24993E-001	5.99633E-003	0.00000E+000	4.94693E-003	3.59960E-001	-1.17839E+000	3.57660E+000	10	...........
	24	0.333333	8.31638E-001	5.99648E-003	0.00000E+000	4.98690E-003	3.59960E-001	-1.17455E+000	3.57660E+000	10	...........
	25	0.346667	8.38288E-001	5.99360E-003	0.00000E+000	5.02437E-003	3.59960E-001	-1.18506E+000	3.57660E+000	10	...........
	26	0.36	8.44893E-001	5.99528E-003	0.00000E+000	5.06537E-003	3.59960E-001	-1.17842E+000	3.57660E+000	10	...........
	27	0.373333	8.51475E-001	5.99537E-003	0.00000E+000	5.10491E-003	3.59960E-001	-1.17412E+000	3.57660E+000	10	...........
	28	0.386667	8.58063E-001	5.98961E-003	0.00000E+000	5.13946E-003	3.59960E-001	-1.18464E+000	3.57660E+000	10	...........
	29	0.4	8.64591E-001	5.99262E-003	0.00000E+000	5.18117E-003	3.59960E-001	-1.17797E+000	3.57660E+000	10	...........
	30	0.413333	8.71145E-001	5.99483E-003	0.00000E+000	5.22237E-003	3.59960E-001	-1.17432E+000	3.57660E+000	10	...........
	31	0.426667	8.77601E-001	5.99430E-003	0.00000E+000	5.26061E-003	3.59960E-001	-1.18486E+000	3.57660E+000	10	...........
	32	0.44	8.84044E-001	5.99489E-003	0.00000E+000	5.29974E-003	3.59960E-001	-1.17810E+000	3.57660E+000	10	...........
	33	0.453333	8.90425E-001	5.99237E-003	0.00000E+000	5.33576E-003	3.59960E-001	-1.17408E+000	3.57660E+000	10	...........
	34	0.466667	8.96778E-001	5.99802E-003	0.00000E+000	5.37889E-003	3.59960E-001	-1.18472E+000	3.57660E+000	10	...........
	35	0.48	9.03088E-001	5.99278E-003	0.00000E+000	5.41201E-003	3.59960E-001	-1.17782E+000	3.57660E+000	10	...........
	36	0.493333	9.09362E-001	5.99506E-003	0.00000E+000	5.45168E-003	3.59960E-001	-1.17427E+000	3.57660E+000	10	...........
	37	0.506667	9.15594E-001	5.99280E-003	0.00000E+000	5.48697E-003	3.59960E-001	-1.18499E+000	3.57660E+000	10	...........
	38	0.52	9.21845E-001	5.99689E-003	0.00000E+000	5.52820E-003	3.59960E-001	-1.17765E+000	3.57660E+000	10	...........
	39	0.533333	9.28041E-001	5.99022E-003	0.00000E+000	5.55917E-003	3.59960E-001	-1.17409E+000	3.57660E+000	10	...........
	40	0.546667	9.34111E-001	6.00264E-003	0.00000E+000	5.60713E-003	3.59960E-001	-1.18496E+000	3.57660E+000	10	...........
	41	0.56	9.40149E-001	5.99031E-003	0.00000E+000	5.63178E-003	3.59960E-001	-1.17792E+000	3.57660E+000	10	...........
	42	0.573333	9.46207E-001	5.99603E-003	0.00000E+000	5.67349E-003	3.59960E-001	-1.17430E+000	3.57660E+000	10	...........
	43	0.586667	9.52199E-001	5.99537E-003	0.00000E+000	5.70878E-003	3.59960E-001	-1.18476E+000	3.57660E+000	10	...........
	44	0.6	9.58095E-001	5.98766E-003	0.00000E+000	5.73674E-003	3.59960E-001	-1.17778E+000	3.57660E+000	10	...........
	45	0.613333	9.63931E-001	5.99201E-003	0.00000E+000	5.77588E-003	3.59960E-001	-1.17423E+000	3.57660E+000	10	...........
	46	0.626667	9.69807E-001	5.99576E-003	0.00000E+000	5.81473E-003	3.59960E-001	-1.18505E+000	3.57660E+000	10	...........
	47	0.64	9.75611E-001	5.99384E-003	0.00000E+000	5.84766E-003	3.59960E-001	-1.17796E+000	3.57660E+000	10	...........
	48	0.653333	9.81332E-001	5.99520E-003	0.00000E+000	5.88328E-003	3.59960E-001	-1.17407E+000	3.57660E+000	10	...........
	49	0.666667	9.87005E-001	5.99514E-003	0.00000E+000	5.91723E-003	3.59960E-001	-1.18492E+000	3.57660E+000	10	...........
	50	0.68	9.92565E-001	5.99443E-003	0.00000E+000	5.94986E-003	3.59960E-001	-1.17772E+000	3.57660E+000	10	...........
	51	0.693333	9.98166E-001	5.99729E-003	0.00000E+000	5.98629E-003	3.59960E-001	-1.17396E+000	3.57660E+000	10	...........
STARTTIMEOFFSET	QUANT	1583.879	Start Time Offset (s)