File: Data/CV_CRGO300517_1/PWRCCD_CRGO300517_1/CHARGE_DISCHARGE/CHARGE_#915.DTA
EXPLAIN
TAG	PWR800_CHARGE
TITLE	LABEL	PWR Cyclic Charge Discharge (Cell) - Charge Step	Test &Identifier
DATE	LABEL	22-6-2017	Date
TIME	LABEL	16:11:32	Time
NOTES	NOTES	3	&Notes...
	supercap test cell
	0.6mg
	6M KOH
PSTAT	PSTAT	IFC5000-01520	Potentiostat
CAPACITY	QUANT	1.00000E-003	Capacity (A-hr)
CELLTYPE	SELECTOR	1	&Cell Type
WORKINGCONNECTION	SELECTOR	0	&Working Lead
MAXCHARGETIME	VARIABLEANDUNITS	1.00000E+002	s	1.00000E+002	second(s)	Max &Charge Time
CHARGECURRENT	QUANT	6.00000E-003	&Charge Current (A)
VOLTAGEFINISH	TWOPARAM	F	1.00000E-003	3.60000E+003	&Voltage Finish	 I (A) < 	Max Time(s)
SAMPLETIME	QUANT	1.00000E-002	Sa&mple Period (s)
CHARGESTOPAT1	MULTIPARAM	4	1.00000E+000	Charge Stop At &1	Voltage > Limit	V
CHARGESTOPAT2	MULTIPARAM	0	0.00000E+000	Charge Stop At &2	None	N/A
AESBHCSELECTOR	TOGGLE	F	Save Both Half Cells
IRCOMP	TOGGLE	F	IR &Measure
EOC	QUANT	0	Open Circuit (V)
SEQUENCER	TOGGLE	TRUE	Run as Sequence
PSTATMODEL	IQUANT	53	Pstat Model
PSTATSECTION	LABEL	IFC5000-01520	Pstat Section
PSTATSERIALNO	LABEL	01520	Pstat Serial Number
CTRLMODE	IQUANT	0	Control Mode
ELECTROMETER	IQUANT	1	RE=0 or CS=1
IESTAB	IQUANT	0	I/E Stability
CASPEED	IQUANT	4	Control Amp Speed
CONVENTION	IQUANT	1	Current Convention
ICHRANGE	IQUANT	2	Ich Range
ICHRANGEMODE	TOGGLE	T	Ich Auto Range
ICHOFFSETENABLE	TOGGLE	F	Ich Offset Enable
ICHOFFSET	QUANT	0	Ich Offset (V)
ICHFILTER	IQUANT	1	Ich Filter
VCHRANGE	IQUANT	2	Vch Range
VCHRANGEMODE	TOGGLE	T	Vch Auto Range
VCHOFFSETENABLE	TOGGLE	F	Vch Offset Enable
VCHOFFSET	QUANT	0	Vch Offset (V)
VCHFILTER	IQUANT	1	Vch Filter
IERANGELOWERLIMIT	IQUANT	9	I/E Range Lower Limit
IERANGEMODE	TOGGLE	F	I/E AutoRange
IERANGE	IQUANT	10	I/E Range
ACHSELECT	IQUANT	1	Ach Select
ACHRANGE	IQUANT	2	Ach Range
ACHOFFSETENABLE	TOGGLE	F	Ach Offset Enable
ACHOFFSET	QUANT	0	Ach Offset (V)
ACHFILTER	IQUANT	1	Ach Filter
CABLEID	IQUANT	14	Cable ID
DCCALDATE	LABEL	20-10-2016	DC Calibration Date
ACCALDATE	LABEL	12/3/2015	AC Calibration Date
FRAMEWORKVERSION	QUANT	7.01	Framework Version
INSTRUMENTVERSION	LABEL	4.00	Instrument Version
CURVE	TABLE	53
	Pt	T	Vf	Im	Vu	Pwr	Sig	Ach	Temp	IERange	Over
	#	s	V	A	V	W	V	V	deg C	#	bits
	0	0.013333	6.53755E-001	5.99722E-003	0.00000E+000	3.92071E-003	3.59960E-001	-1.18109E+000	3.57780E+000	10	...........
	1	0.026667	6.63072E-001	5.99676E-003	0.00000E+000	3.97629E-003	3.59960E-001	-1.17384E+000	3.57780E+000	10	...........
	2	0.04	6.71658E-001	5.99504E-003	0.00000E+000	4.02662E-003	3.59960E-001	-1.16975E+000	3.57780E+000	10	...........
	3	0.053333	6.79739E-001	5.99018E-003	0.00000E+000	4.07176E-003	3.59960E-001	-1.18073E+000	3.57780E+000	10	...........
	4	0.066667	6.87561E-001	5.99541E-003	0.00000E+000	4.12221E-003	3.59960E-001	-1.17365E+000	3.57780E+000	10	...........
	5	0.08	6.95181E-001	5.99572E-003	0.00000E+000	4.16811E-003	3.59960E-001	-1.16994E+000	3.57780E+000	10	...........
	6	0.093333	7.02618E-001	5.99424E-003	0.00000E+000	4.21166E-003	3.59960E-001	-1.18099E+000	3.57780E+000	10	...........
	7	0.106667	7.09959E-001	5.99838E-003	0.00000E+000	4.25861E-003	3.59960E-001	-1.17393E+000	3.57780E+000	10	...........
	8	0.12	7.17236E-001	5.99140E-003	0.00000E+000	4.29725E-003	3.59960E-001	-1.16994E+000	3.57780E+000	10	...........
	9	0.133333	7.24398E-001	5.99309E-003	0.00000E+000	4.34139E-003	3.59960E-001	-1.18050E+000	3.57780E+000	10	...........
	10	0.146667	7.31508E-001	5.98818E-003	0.00000E+000	4.38040E-003	3.59960E-001	-1.17390E+000	3.57780E+000	10	...........
	11	0.16	7.38584E-001	5.98960E-003	0.00000E+000	4.42382E-003	3.59960E-001	-1.16980E+000	3.57780E+000	10	...........
	12	0.173333	7.45611E-001	5.98983E-003	0.00000E+000	4.46608E-003	3.59960E-001	-1.18042E+000	3.57780E+000	10	...........
	13	0.186667	7.52590E-001	5.99358E-003	0.00000E+000	4.51071E-003	3.59960E-001	-1.17369E+000	3.57780E+000	10	...........
	14	0.2	7.59523E-001	5.99353E-003	0.00000E+000	4.55222E-003	3.59960E-001	-1.16937E+000	3.57780E+000	10	...........
	15	0.213333	7.66391E-001	5.99289E-003	0.00000E+000	4.59290E-003	3.59960E-001	-1.17988E+000	3.57780E+000	10	...........
	16	0.226667	7.73271E-001	5.99501E-003	0.00000E+000	4.63577E-003	3.59960E-001	-1.17352E+000	3.57780E+000	10	...........
	17	0.24	7.80028E-001	5.99262E-003	0.00000E+000	4.67441E-003	3.59960E-001	-1.16914E+000	3.57780E+000	10	...........
	18	0.253333	7.86869E-001	5.99466E-003	0.00000E+000	4.71701E-003	3.59960E-001	-1.17971E+000	3.57780E+000	10	...........
	19	0.266667	7.93630E-001	5.99309E-003	0.00000E+000	4.75630E-003	3.59960E-001	-1.17351E+000	3.57780E+000	10	...........
	20	0.28	8.00369E-001	5.99129E-003	0.00000E+000	4.79524E-003	3.59960E-001	-1.16932E+000	3.57780E+000	10	...........
	21	0.293333	8.07100E-001	5.99463E-003	0.00000E+000	4.83826E-003	3.59960E-001	-1.17978E+000	3.57780E+000	10	...........
	22	0.306667	8.13744E-001	5.99609E-003	0.00000E+000	4.87928E-003	3.59960E-001	-1.17354E+000	3.57780E+000	10	...........
	23	0.32	8.20448E-001	5.99507E-003	0.00000E+000	4.91864E-003	3.59960E-001	-1.16927E+000	3.57780E+000	10	...........
	24	0.333333	8.27065E-001	5.99732E-003	0.00000E+000	4.96017E-003	3.59960E-001	-1.17936E+000	3.57780E+000	10	...........
	25	0.346667	8.33720E-001	5.99289E-003	0.00000E+000	4.99640E-003	3.59960E-001	-1.17363E+000	3.57780E+000	10	...........
	26	0.36	8.40331E-001	5.99419E-003	0.00000E+000	5.03710E-003	3.59960E-001	-1.16921E+000	3.57780E+000	10	...........
	27	0.373333	8.46951E-001	5.99617E-003	0.00000E+000	5.07846E-003	3.59960E-001	-1.17932E+000	3.57780E+000	10	...........
	28	0.386667	8.53487E-001	5.99317E-003	0.00000E+000	5.11509E-003	3.59960E-001	-1.17331E+000	3.57780E+000	10	...........
	29	0.4	8.60005E-001	5.99783E-003	0.00000E+000	5.15816E-003	3.59960E-001	-1.16894E+000	3.57780E+000	10	...........
	30	0.413333	8.66436E-001	5.99404E-003	0.00000E+000	5.19345E-003	3.59960E-001	-1.17917E+000	3.57780E+000	10	...........
	31	0.426667	8.72889E-001	5.99203E-003	0.00000E+000	5.23038E-003	3.59960E-001	-1.17385E+000	3.57780E+000	10	...........
	32	0.44	8.79267E-001	5.99502E-003	0.00000E+000	5.27122E-003	3.59960E-001	-1.16914E+000	3.57780E+000	10	...........
	33	0.453333	8.85694E-001	5.98908E-003	0.00000E+000	5.30449E-003	3.59960E-001	-1.17895E+000	3.57780E+000	10	...........
	34	0.466667	8.92023E-001	5.99694E-003	0.00000E+000	5.34941E-003	3.59960E-001	-1.17387E+000	3.57780E+000	10	...........
	35	0.48	8.98365E-001	5.99843E-003	0.00000E+000	5.38878E-003	3.59960E-001	-1.16917E+000	3.57780E+000	10	...........
	36	0.493333	9.04647E-001	5.99045E-003	0.00000E+000	5.41925E-003	3.59960E-001	-1.17906E+000	3.57780E+000	10	...........
	37	0.506667	9.10937E-001	5.98973E-003	0.00000E+000	5.45627E-003	3.59960E-001	-1.17379E+000	3.57780E+000	10	...........
	38	0.52	9.17132E-001	5.99617E-003	0.00000E+000	5.49928E-003	3.59960E-001	-1.16880E+000	3.57780E+000	10	...........
	39	0.533333	9.23371E-001	5.99389E-003	0.00000E+000	5.53458E-003	3.59960E-001	-1.17838E+000	3.57780E+000	10	...........
	40	0.546667	9.29464E-001	5.99740E-003	0.00000E+000	5.57437E-003	3.59960E-001	-1.17357E+000	3.57780E+000	10	...........
	41	0.56	9.35554E-001	5.99452E-003	0.00000E+000	5.60820E-003	3.59960E-001	-1.16883E+000	3.57780E+000	10	...........
	42	0.573333	9.41624E-001	5.99975E-003	0.00000E+000	5.64950E-003	3.59960E-001	-1.17848E+000	3.57780E+000	10	...........
	43	0.586667	9.47647E-001	5.99418E-003	0.00000E+000	5.68037E-003	3.59960E-001	-1.17348E+000	3.57780E+000	10	...........
	44	0.6	9.53578E-001	5.99304E-003	0.00000E+000	5.71483E-003	3.59960E-001	-1.16858E+000	3.57780E+000	10	...........
	45	0.613333	9.59445E-001	5.99173E-003	0.00000E+000	5.74873E-003	3.59960E-001	-1.17832E+000	3.57780E+000	10	...........
	46	0.626667	9.65239E-001	5.99665E-003	0.00000E+000	5.78820E-003	3.59960E-001	-1.17392E+000	3.57780E+000	10	...........
	47	0.64	9.71051E-001	5.99452E-003	0.00000E+000	5.82098E-003	3.59960E-001	-1.16853E+000	3.57780E+000	10	...........
	48	0.653333	9.76819E-001	5.99344E-003	0.00000E+000	5.85450E-003	3.59960E-001	-1.17781E+000	3.57780E+000	10	...........
	49	0.666667	9.82524E-001	5.99337E-003	0.00000E+000	5.88863E-003	3.59960E-001	-1.17366E+000	3.57780E+000	10	...........
	50	0.68	9.88157E-001	5.99468E-003	0.00000E+000	5.92368E-003	3.59960E-001	-1.16871E+000	3.57780E+000	10	...........
	51	0.693333	9.93712E-001	5.99654E-003	0.00000E+000	5.95884E-003	3.59960E-001	-1.17800E+000	3.57780E+000	10	...........
	52	0.703333	9.98597E-001	5.98916E-003	0.00000E+000	5.98076E-003	3.59960E-001	-1.17070E+000	3.57780E+000	10	...........
STARTTIMEOFFSET	QUANT	1467.101	Start Time Offset (s)