File: Data/CV_CRGO300517_1/PWRCCD_CRGO300517_1/CHARGE_DISCHARGE/CHARGE_#913.DTA
EXPLAIN
TAG	PWR800_CHARGE
TITLE	LABEL	PWR Cyclic Charge Discharge (Cell) - Charge Step	Test &Identifier
DATE	LABEL	22-6-2017	Date
TIME	LABEL	16:11:28	Time
NOTES	NOTES	3	&Notes...
	supercap test cell
	0.6mg
	6M KOH
PSTAT	PSTAT	IFC5000-01520	Potentiostat
CAPACITY	QUANT	1.00000E-003	Capacity (A-hr)
CELLTYPE	SELECTOR	1	&Cell Type
WORKINGCONNECTION	SELECTOR	0	&Working Lead
MAXCHARGETIME	VARIABLEANDUNITS	1.00000E+002	s	1.00000E+002	second(s)	Max &Charge Time
CHARGECURRENT	QUANT	6.00000E-003	&Charge Current (A)
VOLTAGEFINISH	TWOPARAM	F	1.00000E-003	3.60000E+003	&Voltage Finish	 I (A) < 	Max Time(s)
SAMPLETIME	QUANT	1.00000E-002	Sa&mple Period (s)
CHARGESTOPAT1	MULTIPARAM	4	1.00000E+000	Charge Stop At &1	Voltage > Limit	V
CHARGESTOPAT2	MULTIPARAM	0	0.00000E+000	Charge Stop At &2	None	N/A
AESBHCSELECTOR	TOGGLE	F	Save Both Half Cells
IRCOMP	TOGGLE	F	IR &Measure
EOC	QUANT	0	Open Circuit (V)
SEQUENCER	TOGGLE	TRUE	Run as Sequence
PSTATMODEL	IQUANT	53	Pstat Model
PSTATSECTION	LABEL	IFC5000-01520	Pstat Section
PSTATSERIALNO	LABEL	01520	Pstat Serial Number
CTRLMODE	IQUANT	0	Control Mode
ELECTROMETER	IQUANT	1	RE=0 or CS=1
IESTAB	IQUANT	0	I/E Stability
CASPEED	IQUANT	4	Control Amp Speed
CONVENTION	IQUANT	1	Current Convention
ICHRANGE	IQUANT	2	Ich Range
ICHRANGEMODE	TOGGLE	T	Ich Auto Range
ICHOFFSETENABLE	TOGGLE	F	Ich Offset Enable
ICHOFFSET	QUANT	0	Ich Offset (V)
ICHFILTER	IQUANT	1	Ich Filter
VCHRANGE	IQUANT	2	Vch Range
VCHRANGEMODE	TOGGLE	T	Vch Auto Range
VCHOFFSETENABLE	TOGGLE	F	Vch Offset Enable
VCHOFFSET	QUANT	0	Vch Offset (V)
VCHFILTER	IQUANT	1	Vch Filter
IERANGELOWERLIMIT	IQUANT	9	I/E Range Lower Limit
IERANGEMODE	TOGGLE	F	I/E AutoRange
IERANGE	IQUANT	10	I/E Range
ACHSELECT	IQUANT	1	Ach Select
ACHRANGE	IQUANT	2	Ach Range
ACHOFFSETENABLE	TOGGLE	F	Ach Offset Enable
ACHOFFSET	QUANT	0	Ach Offset (V)
ACHFILTER	IQUANT	1	Ach Filter
CABLEID	IQUANT	14	Cable ID
DCCALDATE	LABEL	20-10-2016	DC Calibration Date
ACCALDATE	LABEL	12/3/2015	AC Calibration Date
FRAMEWORKVERSION	QUANT	7.01	Framework Version
INSTRUMENTVERSION	LABEL	4.00	Instrument Version
CURVE	TABLE	53
	Pt	T	Vf	Im	Vu	Pwr	Sig	Ach	Temp	IERange	Over
	#	s	V	A	V	W	V	V	deg C	#	bits
	0	0.013333	6.53415E-001	5.99295E-003	0.00000E+000	3.91588E-003	3.59960E-001	-1.17104E+000	3.57640E+000	10	...........
	1	0.026667	6.62678E-001	5.99474E-003	0.00000E+000	3.97258E-003	3.59960E-001	-1.18169E+000	3.57640E+000	10	...........
	2	0.04	6.71230E-001	5.99698E-003	0.00000E+000	4.02535E-003	3.59960E-001	-1.17123E+000	3.57640E+000	10	...........
	3	0.053333	6.79309E-001	5.99403E-003	0.00000E+000	4.07180E-003	3.59960E-001	-1.17068E+000	3.57640E+000	10	...........
	4	0.066667	6.87146E-001	5.98962E-003	0.00000E+000	4.11574E-003	3.59960E-001	-1.18156E+000	3.57640E+000	10	...........
	5	0.08	6.94795E-001	5.99344E-003	0.00000E+000	4.16421E-003	3.59960E-001	-1.17138E+000	3.57640E+000	10	...........
	6	0.093333	7.02240E-001	5.99698E-003	0.00000E+000	4.21132E-003	3.59960E-001	-1.17046E+000	3.57640E+000	10	...........
	7	0.106667	7.09592E-001	5.99433E-003	0.00000E+000	4.25353E-003	3.59960E-001	-1.18113E+000	3.57640E+000	10	...........
	8	0.12	7.16846E-001	5.99486E-003	0.00000E+000	4.29738E-003	3.59960E-001	-1.17075E+000	3.57640E+000	10	...........
	9	0.133333	7.24014E-001	5.99579E-003	0.00000E+000	4.34104E-003	3.59960E-001	-1.17017E+000	3.57640E+000	10	...........
	10	0.146667	7.31120E-001	5.99479E-003	0.00000E+000	4.38291E-003	3.59960E-001	-1.18121E+000	3.57640E+000	10	...........
	11	0.16	7.38146E-001	5.99219E-003	0.00000E+000	4.42311E-003	3.59960E-001	-1.17079E+000	3.57640E+000	10	...........
	12	0.173333	7.45199E-001	5.99144E-003	0.00000E+000	4.46482E-003	3.59960E-001	-1.16986E+000	3.57640E+000	10	...........
	13	0.186667	7.52082E-001	5.99245E-003	0.00000E+000	4.50681E-003	3.59960E-001	-1.18087E+000	3.57640E+000	10	...........
	14	0.2	7.59032E-001	5.99413E-003	0.00000E+000	4.54974E-003	3.59960E-001	-1.17082E+000	3.57640E+000	10	...........
	15	0.213333	7.65939E-001	5.98989E-003	0.00000E+000	4.58789E-003	3.59960E-001	-1.16982E+000	3.57640E+000	10	...........
	16	0.226667	7.72835E-001	5.99225E-003	0.00000E+000	4.63102E-003	3.59960E-001	-1.18093E+000	3.57693E+000	10	...........
	17	0.24	7.79626E-001	5.99165E-003	0.00000E+000	4.67125E-003	3.59960E-001	-1.17050E+000	3.57710E+000	10	...........
	18	0.253333	7.86418E-001	5.99427E-003	0.00000E+000	4.71400E-003	3.59960E-001	-1.16979E+000	3.57710E+000	10	...........
	19	0.266667	7.93245E-001	5.99551E-003	0.00000E+000	4.75591E-003	3.59960E-001	-1.18094E+000	3.57710E+000	10	...........
	20	0.28	7.99976E-001	5.99071E-003	0.00000E+000	4.79243E-003	3.59960E-001	-1.17076E+000	3.57710E+000	10	...........
	21	0.293333	8.06652E-001	5.99137E-003	0.00000E+000	4.83296E-003	3.59960E-001	-1.16955E+000	3.57710E+000	10	...........
	22	0.306667	8.13342E-001	5.98872E-003	0.00000E+000	4.87088E-003	3.59960E-001	-1.18072E+000	3.57710E+000	10	...........
	23	0.32	8.20010E-001	5.99566E-003	0.00000E+000	4.91650E-003	3.59960E-001	-1.17071E+000	3.57710E+000	10	...........
	24	0.333333	8.26675E-001	5.99415E-003	0.00000E+000	4.95521E-003	3.59960E-001	-1.16995E+000	3.57710E+000	10	...........
	25	0.346667	8.33257E-001	5.99127E-003	0.00000E+000	4.99227E-003	3.59960E-001	-1.18112E+000	3.57710E+000	10	...........
	26	0.36	8.39817E-001	5.99762E-003	0.00000E+000	5.03690E-003	3.59960E-001	-1.17101E+000	3.57710E+000	10	...........
	27	0.373333	8.46430E-001	5.98844E-003	0.00000E+000	5.06879E-003	3.59960E-001	-1.16943E+000	3.57710E+000	10	...........
	28	0.386667	8.52971E-001	5.99437E-003	0.00000E+000	5.11302E-003	3.59960E-001	-1.18084E+000	3.57710E+000	10	...........
	29	0.4	8.59527E-001	5.99027E-003	0.00000E+000	5.14880E-003	3.59960E-001	-1.17092E+000	3.57710E+000	10	...........
	30	0.413333	8.66002E-001	5.99644E-003	0.00000E+000	5.19293E-003	3.59960E-001	-1.16958E+000	3.57710E+000	10	...........
	31	0.426667	8.72521E-001	5.99404E-003	0.00000E+000	5.22992E-003	3.59960E-001	-1.18058E+000	3.57710E+000	10	...........
	32	0.44	8.78944E-001	5.99237E-003	0.00000E+000	5.26696E-003	3.59960E-001	-1.17057E+000	3.57710E+000	10	...........
	33	0.453333	8.85350E-001	5.99045E-003	0.00000E+000	5.30365E-003	3.59960E-001	-1.16910E+000	3.57710E+000	10	...........
	34	0.466667	8.91686E-001	5.99454E-003	0.00000E+000	5.34525E-003	3.59960E-001	-1.18050E+000	3.57710E+000	10	...........
	35	0.48	8.98070E-001	5.99083E-003	0.00000E+000	5.38018E-003	3.59960E-001	-1.17068E+000	3.57710E+000	10	...........
	36	0.493333	9.04371E-001	5.99373E-003	0.00000E+000	5.42056E-003	3.59960E-001	-1.16907E+000	3.57710E+000	10	...........
	37	0.506667	9.10667E-001	5.99615E-003	0.00000E+000	5.46050E-003	3.59960E-001	-1.18023E+000	3.57710E+000	10	...........
	38	0.52	9.16834E-001	5.99613E-003	0.00000E+000	5.49746E-003	3.59960E-001	-1.17069E+000	3.57710E+000	10	...........
	39	0.533333	9.23020E-001	5.99467E-003	0.00000E+000	5.53320E-003	3.59960E-001	-1.16921E+000	3.57710E+000	10	...........
	40	0.546667	9.29159E-001	5.99092E-003	0.00000E+000	5.56652E-003	3.59960E-001	-1.18046E+000	3.57710E+000	10	...........
	41	0.56	9.35202E-001	5.99014E-003	0.00000E+000	5.60199E-003	3.59960E-001	-1.17079E+000	3.57710E+000	10	...........
	42	0.573333	9.41216E-001	5.99670E-003	0.00000E+000	5.64419E-003	3.59960E-001	-1.16880E+000	3.57710E+000	10	...........
	43	0.586667	9.47191E-001	5.99686E-003	0.00000E+000	5.68017E-003	3.59960E-001	-1.17997E+000	3.57710E+000	10	...........
	44	0.6	9.53130E-001	5.99301E-003	0.00000E+000	5.71212E-003	3.59960E-001	-1.17080E+000	3.57710E+000	10	...........
	45	0.613333	9.59039E-001	5.99369E-003	0.00000E+000	5.74818E-003	3.59960E-001	-1.16899E+000	3.57710E+000	10	...........
	46	0.626667	9.64839E-001	5.99340E-003	0.00000E+000	5.78266E-003	3.59960E-001	-1.18038E+000	3.57710E+000	10	...........
	47	0.64	9.70618E-001	5.99407E-003	0.00000E+000	5.81796E-003	3.59960E-001	-1.17103E+000	3.57710E+000	10	...........
	48	0.653333	9.76414E-001	5.99187E-003	0.00000E+000	5.85055E-003	3.59960E-001	-1.16874E+000	3.57710E+000	10	...........
	49	0.666667	9.82131E-001	5.99289E-003	0.00000E+000	5.88581E-003	3.59960E-001	-1.18038E+000	3.57710E+000	10	...........
	50	0.68	9.87784E-001	5.99030E-003	0.00000E+000	5.91712E-003	3.59960E-001	-1.17130E+000	3.57710E+000	10	...........
	51	0.693333	9.93357E-001	5.99499E-003	0.00000E+000	5.95516E-003	3.59960E-001	-1.16917E+000	3.57710E+000	10	...........
	52	0.705	9.98546E-001	5.99042E-003	0.00000E+000	5.98171E-003	3.59960E-001	-1.18182E+000	3.57710E+000	10	...........
STARTTIMEOFFSET	QUANT	1464.297	Start Time Offset (s)