File: Data/CV_CRGO300517_1/PWRCCD_CRGO300517_1/CHARGE_DISCHARGE/CHARGE_#608.DTA
EXPLAIN
TAG	PWR800_CHARGE
TITLE	LABEL	PWR Cyclic Charge Discharge (Cell) - Charge Step	Test &Identifier
DATE	LABEL	22-6-2017	Date
TIME	LABEL	16:00:04	Time
NOTES	NOTES	3	&Notes...
	supercap test cell
	0.6mg
	6M KOH
PSTAT	PSTAT	IFC5000-01520	Potentiostat
CAPACITY	QUANT	1.00000E-003	Capacity (A-hr)
CELLTYPE	SELECTOR	1	&Cell Type
WORKINGCONNECTION	SELECTOR	0	&Working Lead
MAXCHARGETIME	VARIABLEANDUNITS	1.00000E+002	s	1.00000E+002	second(s)	Max &Charge Time
CHARGECURRENT	QUANT	6.00000E-003	&Charge Current (A)
VOLTAGEFINISH	TWOPARAM	F	1.00000E-003	3.60000E+003	&Voltage Finish	 I (A) < 	Max Time(s)
SAMPLETIME	QUANT	1.00000E-002	Sa&mple Period (s)
CHARGESTOPAT1	MULTIPARAM	4	1.00000E+000	Charge Stop At &1	Voltage > Limit	V
CHARGESTOPAT2	MULTIPARAM	0	0.00000E+000	Charge Stop At &2	None	N/A
AESBHCSELECTOR	TOGGLE	F	Save Both Half Cells
IRCOMP	TOGGLE	F	IR &Measure
EOC	QUANT	0	Open Circuit (V)
SEQUENCER	TOGGLE	TRUE	Run as Sequence
PSTATMODEL	IQUANT	53	Pstat Model
PSTATSECTION	LABEL	IFC5000-01520	Pstat Section
PSTATSERIALNO	LABEL	01520	Pstat Serial Number
CTRLMODE	IQUANT	0	Control Mode
ELECTROMETER	IQUANT	1	RE=0 or CS=1
IESTAB	IQUANT	0	I/E Stability
CASPEED	IQUANT	4	Control Amp Speed
CONVENTION	IQUANT	1	Current Convention
ICHRANGE	IQUANT	2	Ich Range
ICHRANGEMODE	TOGGLE	T	Ich Auto Range
ICHOFFSETENABLE	TOGGLE	F	Ich Offset Enable
ICHOFFSET	QUANT	0	Ich Offset (V)
ICHFILTER	IQUANT	1	Ich Filter
VCHRANGE	IQUANT	2	Vch Range
VCHRANGEMODE	TOGGLE	T	Vch Auto Range
VCHOFFSETENABLE	TOGGLE	F	Vch Offset Enable
VCHOFFSET	QUANT	0	Vch Offset (V)
VCHFILTER	IQUANT	1	Vch Filter
IERANGELOWERLIMIT	IQUANT	9	I/E Range Lower Limit
IERANGEMODE	TOGGLE	F	I/E AutoRange
IERANGE	IQUANT	10	I/E Range
ACHSELECT	IQUANT	1	Ach Select
ACHRANGE	IQUANT	2	Ach Range
ACHOFFSETENABLE	TOGGLE	F	Ach Offset Enable
ACHOFFSET	QUANT	0	Ach Offset (V)
ACHFILTER	IQUANT	1	Ach Filter
CABLEID	IQUANT	14	Cable ID
DCCALDATE	LABEL	20-10-2016	DC Calibration Date
ACCALDATE	LABEL	12/3/2015	AC Calibration Date
FRAMEWORKVERSION	QUANT	7.01	Framework Version
INSTRUMENTVERSION	LABEL	4.00	Instrument Version
CURVE	TABLE	57
	Pt	T	Vf	Im	Vu	Pwr	Sig	Ach	Temp	IERange	Over
	#	s	V	A	V	W	V	V	deg C	#	bits
	0	0.013333	6.38515E-001	5.99005E-003	0.00000E+000	3.82474E-003	3.59960E-001	-1.15177E+000	3.57790E+000	10	...........
	1	0.026667	6.47502E-001	5.99244E-003	0.00000E+000	3.88012E-003	3.59960E-001	-1.14634E+000	3.57790E+000	10	...........
	2	0.04	6.55763E-001	5.99252E-003	0.00000E+000	3.92967E-003	3.59960E-001	-1.15548E+000	3.57790E+000	10	...........
	3	0.053333	6.63628E-001	5.99586E-003	0.00000E+000	3.97902E-003	3.59960E-001	-1.15203E+000	3.57790E+000	10	...........
	4	0.066667	6.71226E-001	5.99045E-003	0.00000E+000	4.02095E-003	3.59960E-001	-1.14634E+000	3.57790E+000	10	...........
	5	0.08	6.78609E-001	5.99251E-003	0.00000E+000	4.06657E-003	3.59960E-001	-1.15530E+000	3.57790E+000	10	...........
	6	0.093333	6.85857E-001	5.99211E-003	0.00000E+000	4.10973E-003	3.59960E-001	-1.15205E+000	3.57790E+000	10	...........
	7	0.106667	6.92930E-001	5.99407E-003	0.00000E+000	4.15348E-003	3.59960E-001	-1.14652E+000	3.57790E+000	10	...........
	8	0.12	6.99982E-001	5.99376E-003	0.00000E+000	4.19552E-003	3.59960E-001	-1.15536E+000	3.57790E+000	10	...........
	9	0.133333	7.06904E-001	5.99259E-003	0.00000E+000	4.23619E-003	3.59960E-001	-1.15192E+000	3.57790E+000	10	...........
	10	0.146667	7.13808E-001	5.98930E-003	0.00000E+000	4.27521E-003	3.59960E-001	-1.14651E+000	3.57790E+000	10	...........
	11	0.16	7.20702E-001	5.99826E-003	0.00000E+000	4.32295E-003	3.59960E-001	-1.15504E+000	3.57790E+000	10	...........
	12	0.173333	7.27454E-001	5.99491E-003	0.00000E+000	4.36102E-003	3.59960E-001	-1.15211E+000	3.57790E+000	10	...........
	13	0.186667	7.34183E-001	5.99660E-003	0.00000E+000	4.40260E-003	3.59960E-001	-1.14590E+000	3.57790E+000	10	...........
	14	0.2	7.40918E-001	5.99592E-003	0.00000E+000	4.44249E-003	3.59960E-001	-1.15448E+000	3.57790E+000	10	...........
	15	0.213333	7.47632E-001	5.99562E-003	0.00000E+000	4.48251E-003	3.59960E-001	-1.15177E+000	3.57790E+000	10	...........
	16	0.226667	7.54287E-001	5.99471E-003	0.00000E+000	4.52173E-003	3.59960E-001	-1.14600E+000	3.57790E+000	10	...........
	17	0.24	7.60936E-001	5.98932E-003	0.00000E+000	4.55748E-003	3.59960E-001	-1.15425E+000	3.57790E+000	10	...........
	18	0.253333	7.67579E-001	5.99336E-003	0.00000E+000	4.60038E-003	3.59960E-001	-1.15182E+000	3.57790E+000	10	...........
	19	0.266667	7.74150E-001	5.99371E-003	0.00000E+000	4.64003E-003	3.59960E-001	-1.14559E+000	3.57790E+000	10	...........
	20	0.28	7.80739E-001	5.99413E-003	0.00000E+000	4.67985E-003	3.59960E-001	-1.15394E+000	3.57790E+000	10	...........
	21	0.293333	7.87269E-001	5.99617E-003	0.00000E+000	4.72060E-003	3.59960E-001	-1.15153E+000	3.57790E+000	10	...........
	22	0.306667	7.93839E-001	5.99280E-003	0.00000E+000	4.75732E-003	3.59960E-001	-1.14581E+000	3.57790E+000	10	...........
	23	0.32	8.00389E-001	5.99189E-003	0.00000E+000	4.79584E-003	3.59960E-001	-1.15386E+000	3.57790E+000	10	...........
	24	0.333333	8.06866E-001	5.99331E-003	0.00000E+000	4.83580E-003	3.59960E-001	-1.15180E+000	3.57790E+000	10	...........
	25	0.346667	8.13337E-001	5.99080E-003	0.00000E+000	4.87254E-003	3.59960E-001	-1.14536E+000	3.57790E+000	10	...........
	26	0.36	8.19857E-001	5.99457E-003	0.00000E+000	4.91470E-003	3.59960E-001	-1.15349E+000	3.57790E+000	10	...........
	27	0.373333	8.26324E-001	5.99464E-003	0.00000E+000	4.95351E-003	3.59960E-001	-1.15188E+000	3.57790E+000	10	...........
	28	0.386667	8.32712E-001	5.99577E-003	0.00000E+000	4.99275E-003	3.59960E-001	-1.14574E+000	3.57790E+000	10	...........
	29	0.4	8.39099E-001	5.99312E-003	0.00000E+000	5.02883E-003	3.59960E-001	-1.15352E+000	3.57790E+000	10	...........
	30	0.413333	8.45504E-001	5.99040E-003	0.00000E+000	5.06491E-003	3.59960E-001	-1.15190E+000	3.57790E+000	10	...........
	31	0.426667	8.51890E-001	5.98970E-003	0.00000E+000	5.10257E-003	3.59960E-001	-1.14553E+000	3.57790E+000	10	...........
	32	0.44	8.58212E-001	5.99276E-003	0.00000E+000	5.14305E-003	3.59960E-001	-1.15345E+000	3.57790E+000	10	...........
	33	0.453333	8.64566E-001	5.99832E-003	0.00000E+000	5.18594E-003	3.59960E-001	-1.15215E+000	3.57790E+000	10	...........
	34	0.466667	8.70880E-001	5.99675E-003	0.00000E+000	5.22245E-003	3.59960E-001	-1.14536E+000	3.57790E+000	10	...........
	35	0.48	8.77159E-001	5.99519E-003	0.00000E+000	5.25873E-003	3.59960E-001	-1.15289E+000	3.57790E+000	10	...........
	36	0.493333	8.83416E-001	5.99131E-003	0.00000E+000	5.29282E-003	3.59960E-001	-1.15214E+000	3.57790E+000	10	...........
	37	0.506667	8.89699E-001	5.99610E-003	0.00000E+000	5.33472E-003	3.59960E-001	-1.14503E+000	3.57790E+000	10	...........
	38	0.52	8.95913E-001	5.99715E-003	0.00000E+000	5.37292E-003	3.59960E-001	-1.15263E+000	3.57790E+000	10	...........
	39	0.533333	9.02092E-001	5.99341E-003	0.00000E+000	5.40660E-003	3.59960E-001	-1.15171E+000	3.57790E+000	10	...........
	40	0.546667	9.08214E-001	5.99440E-003	0.00000E+000	5.44419E-003	3.59960E-001	-1.14481E+000	3.57790E+000	10	...........
	41	0.56	9.14329E-001	5.99670E-003	0.00000E+000	5.48296E-003	3.59960E-001	-1.15238E+000	3.57790E+000	10	...........
	42	0.573333	9.20433E-001	5.99248E-003	0.00000E+000	5.51568E-003	3.59960E-001	-1.15178E+000	3.57790E+000	10	...........
	43	0.586667	9.26527E-001	6.00077E-003	0.00000E+000	5.55987E-003	3.59960E-001	-1.14517E+000	3.57790E+000	10	...........
	44	0.6	9.32520E-001	5.99568E-003	0.00000E+000	5.59109E-003	3.59960E-001	-1.15210E+000	3.57785E+000	10	...........
	45	0.613333	9.38501E-001	5.99705E-003	0.00000E+000	5.62824E-003	3.59960E-001	-1.15184E+000	3.57780E+000	10	...........
	46	0.626667	9.44410E-001	5.99529E-003	0.00000E+000	5.66201E-003	3.59960E-001	-1.14491E+000	3.57780E+000	10	...........
	47	0.64	9.50332E-001	5.99284E-003	0.00000E+000	5.69519E-003	3.59960E-001	-1.15216E+000	3.57780E+000	10	...........
	48	0.653333	9.56183E-001	5.99038E-003	0.00000E+000	5.72790E-003	3.59960E-001	-1.15218E+000	3.57780E+000	10	...........
	49	0.666667	9.61975E-001	5.99495E-003	0.00000E+000	5.76699E-003	3.59960E-001	-1.14478E+000	3.57780E+000	10	...........
	50	0.68	9.67703E-001	5.99431E-003	0.00000E+000	5.80072E-003	3.59960E-001	-1.15191E+000	3.57780E+000	10	...........
	51	0.693333	9.73423E-001	5.99338E-003	0.00000E+000	5.83410E-003	3.59960E-001	-1.15200E+000	3.57780E+000	10	...........
	52	0.706667	9.79082E-001	5.99113E-003	0.00000E+000	5.86581E-003	3.59960E-001	-1.14490E+000	3.57780E+000	10	...........
	53	0.72	9.84695E-001	5.99861E-003	0.00000E+000	5.90680E-003	3.59960E-001	-1.15194E+000	3.57780E+000	10	...........
	54	0.733333	9.90257E-001	5.99088E-003	0.00000E+000	5.93251E-003	3.59960E-001	-1.15233E+000	3.57780E+000	10	...........
	55	0.746667	9.95785E-001	5.99685E-003	0.00000E+000	5.97157E-003	3.59960E-001	-1.14483E+000	3.57780E+000	10	...........
	56	0.751667	9.99544E-001	5.99493E-003	0.00000E+000	5.99220E-003	3.59960E-001	-1.16018E+000	3.57780E+000	10	...........
STARTTIMEOFFSET	QUANT	1022.922	Start Time Offset (s)