File: Data/CV_CRGO300517_1/PWRCCD_CRGO300517_1/CHARGE_DISCHARGE/CHARGE_#875.DTA
EXPLAIN
TAG	PWR800_CHARGE
TITLE	LABEL	PWR Cyclic Charge Discharge (Cell) - Charge Step	Test &Identifier
DATE	LABEL	22-6-2017	Date
TIME	LABEL	16:10:03	Time
NOTES	NOTES	3	&Notes...
	supercap test cell
	0.6mg
	6M KOH
PSTAT	PSTAT	IFC5000-01520	Potentiostat
CAPACITY	QUANT	1.00000E-003	Capacity (A-hr)
CELLTYPE	SELECTOR	1	&Cell Type
WORKINGCONNECTION	SELECTOR	0	&Working Lead
MAXCHARGETIME	VARIABLEANDUNITS	1.00000E+002	s	1.00000E+002	second(s)	Max &Charge Time
CHARGECURRENT	QUANT	6.00000E-003	&Charge Current (A)
VOLTAGEFINISH	TWOPARAM	F	1.00000E-003	3.60000E+003	&Voltage Finish	 I (A) < 	Max Time(s)
SAMPLETIME	QUANT	1.00000E-002	Sa&mple Period (s)
CHARGESTOPAT1	MULTIPARAM	4	1.00000E+000	Charge Stop At &1	Voltage > Limit	V
CHARGESTOPAT2	MULTIPARAM	0	0.00000E+000	Charge Stop At &2	None	N/A
AESBHCSELECTOR	TOGGLE	F	Save Both Half Cells
IRCOMP	TOGGLE	F	IR &Measure
EOC	QUANT	0	Open Circuit (V)
SEQUENCER	TOGGLE	TRUE	Run as Sequence
PSTATMODEL	IQUANT	53	Pstat Model
PSTATSECTION	LABEL	IFC5000-01520	Pstat Section
PSTATSERIALNO	LABEL	01520	Pstat Serial Number
CTRLMODE	IQUANT	0	Control Mode
ELECTROMETER	IQUANT	1	RE=0 or CS=1
IESTAB	IQUANT	0	I/E Stability
CASPEED	IQUANT	4	Control Amp Speed
CONVENTION	IQUANT	1	Current Convention
ICHRANGE	IQUANT	2	Ich Range
ICHRANGEMODE	TOGGLE	T	Ich Auto Range
ICHOFFSETENABLE	TOGGLE	F	Ich Offset Enable
ICHOFFSET	QUANT	0	Ich Offset (V)
ICHFILTER	IQUANT	1	Ich Filter
VCHRANGE	IQUANT	2	Vch Range
VCHRANGEMODE	TOGGLE	T	Vch Auto Range
VCHOFFSETENABLE	TOGGLE	F	Vch Offset Enable
VCHOFFSET	QUANT	0	Vch Offset (V)
VCHFILTER	IQUANT	1	Vch Filter
IERANGELOWERLIMIT	IQUANT	9	I/E Range Lower Limit
IERANGEMODE	TOGGLE	F	I/E AutoRange
IERANGE	IQUANT	10	I/E Range
ACHSELECT	IQUANT	1	Ach Select
ACHRANGE	IQUANT	2	Ach Range
ACHOFFSETENABLE	TOGGLE	F	Ach Offset Enable
ACHOFFSET	QUANT	0	Ach Offset (V)
ACHFILTER	IQUANT	1	Ach Filter
CABLEID	IQUANT	14	Cable ID
DCCALDATE	LABEL	20-10-2016	DC Calibration Date
ACCALDATE	LABEL	12/3/2015	AC Calibration Date
FRAMEWORKVERSION	QUANT	7.01	Framework Version
INSTRUMENTVERSION	LABEL	4.00	Instrument Version
CURVE	TABLE	54
	Pt	T	Vf	Im	Vu	Pwr	Sig	Ach	Temp	IERange	Over
	#	s	V	A	V	W	V	V	deg C	#	bits
	0	0.013333	6.53331E-001	5.99490E-003	0.00000E+000	3.91665E-003	3.59960E-001	-1.15135E+000	3.57880E+000	10	...........
	1	0.026667	6.62533E-001	5.99417E-003	0.00000E+000	3.97133E-003	3.59960E-001	-1.14144E+000	3.57880E+000	10	...........
	2	0.04	6.71006E-001	5.99477E-003	0.00000E+000	4.02253E-003	3.59960E-001	-1.14464E+000	3.57880E+000	10	...........
	3	0.053333	6.79029E-001	5.99311E-003	0.00000E+000	4.06950E-003	3.59960E-001	-1.15157E+000	3.57880E+000	10	...........
	4	0.066667	6.86743E-001	5.99453E-003	0.00000E+000	4.11670E-003	3.59960E-001	-1.14190E+000	3.57880E+000	10	...........
	5	0.08	6.94285E-001	5.99676E-003	0.00000E+000	4.16346E-003	3.59960E-001	-1.14551E+000	3.57880E+000	10	...........
	6	0.093333	7.01712E-001	5.99408E-003	0.00000E+000	4.20612E-003	3.59960E-001	-1.15217E+000	3.57880E+000	10	...........
	7	0.106667	7.09030E-001	5.99158E-003	0.00000E+000	4.24821E-003	3.59960E-001	-1.14246E+000	3.57880E+000	10	...........
	8	0.12	7.16193E-001	5.99554E-003	0.00000E+000	4.29397E-003	3.59960E-001	-1.14601E+000	3.57880E+000	10	...........
	9	0.133333	7.23322E-001	5.99108E-003	0.00000E+000	4.33348E-003	3.59960E-001	-1.15252E+000	3.57880E+000	10	...........
	10	0.146667	7.30322E-001	5.99211E-003	0.00000E+000	4.37617E-003	3.59960E-001	-1.14303E+000	3.57880E+000	10	...........
	11	0.16	7.37368E-001	5.98559E-003	0.00000E+000	4.41359E-003	3.59960E-001	-1.14691E+000	3.57880E+000	10	...........
	12	0.173333	7.44337E-001	5.99158E-003	0.00000E+000	4.45975E-003	3.59960E-001	-1.15321E+000	3.57880E+000	10	...........
	13	0.186667	7.51270E-001	5.98779E-003	0.00000E+000	4.49845E-003	3.59960E-001	-1.14348E+000	3.57880E+000	10	...........
	14	0.2	7.58171E-001	5.99391E-003	0.00000E+000	4.54441E-003	3.59960E-001	-1.14742E+000	3.57880E+000	10	...........
	15	0.213333	7.64982E-001	5.99430E-003	0.00000E+000	4.58553E-003	3.59960E-001	-1.15351E+000	3.57880E+000	10	...........
	16	0.226667	7.71830E-001	5.99334E-003	0.00000E+000	4.62584E-003	3.59960E-001	-1.14459E+000	3.57880E+000	10	...........
	17	0.24	7.78603E-001	5.99576E-003	0.00000E+000	4.66832E-003	3.59960E-001	-1.14828E+000	3.57880E+000	10	...........
	18	0.253333	7.85358E-001	5.99565E-003	0.00000E+000	4.70873E-003	3.59960E-001	-1.15419E+000	3.57880E+000	10	...........
	19	0.266667	7.92063E-001	5.99344E-003	0.00000E+000	4.74718E-003	3.59960E-001	-1.14497E+000	3.57880E+000	10	...........
	20	0.28	7.98816E-001	5.99491E-003	0.00000E+000	4.78883E-003	3.59960E-001	-1.14899E+000	3.57880E+000	10	...........
	21	0.293333	8.05523E-001	5.99183E-003	0.00000E+000	4.82656E-003	3.59960E-001	-1.15479E+000	3.57880E+000	10	...........
	22	0.306667	8.12148E-001	5.99348E-003	0.00000E+000	4.86759E-003	3.59960E-001	-1.14537E+000	3.57880E+000	10	...........
	23	0.32	8.18749E-001	5.99830E-003	0.00000E+000	4.91110E-003	3.59960E-001	-1.14963E+000	3.57880E+000	10	...........
	24	0.333333	8.25364E-001	5.99274E-003	0.00000E+000	4.94619E-003	3.59960E-001	-1.15522E+000	3.57880E+000	10	...........
	25	0.346667	8.31984E-001	5.99450E-003	0.00000E+000	4.98733E-003	3.59960E-001	-1.14571E+000	3.57880E+000	10	...........
	26	0.36	8.38519E-001	5.99707E-003	0.00000E+000	5.02866E-003	3.59960E-001	-1.15005E+000	3.57880E+000	10	...........
	27	0.373333	8.45127E-001	5.99415E-003	0.00000E+000	5.06581E-003	3.59960E-001	-1.15524E+000	3.57880E+000	10	...........
	28	0.386667	8.51643E-001	5.99450E-003	0.00000E+000	5.10517E-003	3.59960E-001	-1.14609E+000	3.57880E+000	10	...........
	29	0.4	8.58093E-001	5.99488E-003	0.00000E+000	5.14416E-003	3.59960E-001	-1.15060E+000	3.57880E+000	10	...........
	30	0.413333	8.64614E-001	5.99342E-003	0.00000E+000	5.18199E-003	3.59960E-001	-1.15609E+000	3.57880E+000	10	...........
	31	0.426667	8.71066E-001	5.99261E-003	0.00000E+000	5.21996E-003	3.59960E-001	-1.14696E+000	3.57880E+000	10	...........
	32	0.44	8.77480E-001	5.99409E-003	0.00000E+000	5.25970E-003	3.59960E-001	-1.15125E+000	3.57880E+000	10	...........
	33	0.453333	8.83847E-001	5.99404E-003	0.00000E+000	5.29782E-003	3.59960E-001	-1.15625E+000	3.57880E+000	10	...........
	34	0.466667	8.90180E-001	5.99363E-003	0.00000E+000	5.33541E-003	3.59960E-001	-1.14736E+000	3.57880E+000	10	...........
	35	0.48	8.96488E-001	5.99067E-003	0.00000E+000	5.37057E-003	3.59960E-001	-1.15203E+000	3.57740E+000	10	...........
	36	0.493333	9.02767E-001	5.99123E-003	0.00000E+000	5.40868E-003	3.59960E-001	-1.15702E+000	3.57740E+000	10	...........
	37	0.506667	9.09042E-001	5.99735E-003	0.00000E+000	5.45184E-003	3.59960E-001	-1.14784E+000	3.57740E+000	10	...........
	38	0.52	9.15250E-001	5.99288E-003	0.00000E+000	5.48499E-003	3.59960E-001	-1.15232E+000	3.57740E+000	10	...........
	39	0.533333	9.21430E-001	6.00070E-003	0.00000E+000	5.52922E-003	3.59960E-001	-1.15716E+000	3.57740E+000	10	...........
	40	0.546667	9.27535E-001	5.99355E-003	0.00000E+000	5.55923E-003	3.59960E-001	-1.14853E+000	3.57740E+000	10	...........
	41	0.56	9.33589E-001	5.99686E-003	0.00000E+000	5.59860E-003	3.59960E-001	-1.15338E+000	3.57740E+000	10	...........
	42	0.573333	9.39633E-001	5.99477E-003	0.00000E+000	5.63288E-003	3.59960E-001	-1.15802E+000	3.57740E+000	10	...........
	43	0.586667	9.45639E-001	5.99114E-003	0.00000E+000	5.66546E-003	3.59960E-001	-1.14895E+000	3.57740E+000	10	...........
	44	0.6	9.51642E-001	5.99474E-003	0.00000E+000	5.70485E-003	3.59960E-001	-1.15364E+000	3.57740E+000	10	...........
	45	0.613333	9.57518E-001	5.99683E-003	0.00000E+000	5.74207E-003	3.59960E-001	-1.15827E+000	3.57740E+000	10	...........
	46	0.626667	9.63343E-001	5.99102E-003	0.00000E+000	5.77140E-003	3.59960E-001	-1.14946E+000	3.57740E+000	10	...........
	47	0.64	9.69144E-001	5.99301E-003	0.00000E+000	5.80809E-003	3.59960E-001	-1.15415E+000	3.57740E+000	10	...........
	48	0.653333	9.74940E-001	5.99188E-003	0.00000E+000	5.84172E-003	3.59960E-001	-1.15820E+000	3.57740E+000	10	...........
	49	0.666667	9.80619E-001	5.99275E-003	0.00000E+000	5.87660E-003	3.59960E-001	-1.14931E+000	3.57740E+000	10	...........
	50	0.68	9.86280E-001	5.99544E-003	0.00000E+000	5.91318E-003	3.59960E-001	-1.15449E+000	3.57740E+000	10	...........
	51	0.693333	9.91855E-001	5.99444E-003	0.00000E+000	5.94561E-003	3.59960E-001	-1.15846E+000	3.57740E+000	10	...........
	52	0.706667	9.97414E-001	5.99441E-003	0.00000E+000	5.97891E-003	3.59960E-001	-1.14992E+000	3.57740E+000	10	...........
	53	0.708333	1.00048E+000	5.99997E-003	0.00000E+000	6.00287E-003	3.59960E-001	-1.16464E+000	3.57740E+000	10	...........
STARTTIMEOFFSET	QUANT	1410.842	Start Time Offset (s)