File: Data/CV_CRGO300517_1/PWRCCD_CRGO300517_1/CHARGE_DISCHARGE/CHARGE_#879.DTA
EXPLAIN
TAG	PWR800_CHARGE
TITLE	LABEL	PWR Cyclic Charge Discharge (Cell) - Charge Step	Test &Identifier
DATE	LABEL	22-6-2017	Date
TIME	LABEL	16:10:12	Time
NOTES	NOTES	3	&Notes...
	supercap test cell
	0.6mg
	6M KOH
PSTAT	PSTAT	IFC5000-01520	Potentiostat
CAPACITY	QUANT	1.00000E-003	Capacity (A-hr)
CELLTYPE	SELECTOR	1	&Cell Type
WORKINGCONNECTION	SELECTOR	0	&Working Lead
MAXCHARGETIME	VARIABLEANDUNITS	1.00000E+002	s	1.00000E+002	second(s)	Max &Charge Time
CHARGECURRENT	QUANT	6.00000E-003	&Charge Current (A)
VOLTAGEFINISH	TWOPARAM	F	1.00000E-003	3.60000E+003	&Voltage Finish	 I (A) < 	Max Time(s)
SAMPLETIME	QUANT	1.00000E-002	Sa&mple Period (s)
CHARGESTOPAT1	MULTIPARAM	4	1.00000E+000	Charge Stop At &1	Voltage > Limit	V
CHARGESTOPAT2	MULTIPARAM	0	0.00000E+000	Charge Stop At &2	None	N/A
AESBHCSELECTOR	TOGGLE	F	Save Both Half Cells
IRCOMP	TOGGLE	F	IR &Measure
EOC	QUANT	0	Open Circuit (V)
SEQUENCER	TOGGLE	TRUE	Run as Sequence
PSTATMODEL	IQUANT	53	Pstat Model
PSTATSECTION	LABEL	IFC5000-01520	Pstat Section
PSTATSERIALNO	LABEL	01520	Pstat Serial Number
CTRLMODE	IQUANT	0	Control Mode
ELECTROMETER	IQUANT	1	RE=0 or CS=1
IESTAB	IQUANT	0	I/E Stability
CASPEED	IQUANT	4	Control Amp Speed
CONVENTION	IQUANT	1	Current Convention
ICHRANGE	IQUANT	2	Ich Range
ICHRANGEMODE	TOGGLE	T	Ich Auto Range
ICHOFFSETENABLE	TOGGLE	F	Ich Offset Enable
ICHOFFSET	QUANT	0	Ich Offset (V)
ICHFILTER	IQUANT	1	Ich Filter
VCHRANGE	IQUANT	2	Vch Range
VCHRANGEMODE	TOGGLE	T	Vch Auto Range
VCHOFFSETENABLE	TOGGLE	F	Vch Offset Enable
VCHOFFSET	QUANT	0	Vch Offset (V)
VCHFILTER	IQUANT	1	Vch Filter
IERANGELOWERLIMIT	IQUANT	9	I/E Range Lower Limit
IERANGEMODE	TOGGLE	F	I/E AutoRange
IERANGE	IQUANT	10	I/E Range
ACHSELECT	IQUANT	1	Ach Select
ACHRANGE	IQUANT	2	Ach Range
ACHOFFSETENABLE	TOGGLE	F	Ach Offset Enable
ACHOFFSET	QUANT	0	Ach Offset (V)
ACHFILTER	IQUANT	1	Ach Filter
CABLEID	IQUANT	14	Cable ID
DCCALDATE	LABEL	20-10-2016	DC Calibration Date
ACCALDATE	LABEL	12/3/2015	AC Calibration Date
FRAMEWORKVERSION	QUANT	7.01	Framework Version
INSTRUMENTVERSION	LABEL	4.00	Instrument Version
CURVE	TABLE	54
	Pt	T	Vf	Im	Vu	Pwr	Sig	Ach	Temp	IERange	Over
	#	s	V	A	V	W	V	V	deg C	#	bits
	0	0.013333	6.52314E-001	5.99821E-003	0.00000E+000	3.91272E-003	3.59960E-001	-1.16622E+000	3.57780E+000	10	...........
	1	0.026667	6.61539E-001	5.98961E-003	0.00000E+000	3.96236E-003	3.59960E-001	-1.17057E+000	3.57780E+000	10	...........
	2	0.04	6.70017E-001	5.99037E-003	0.00000E+000	4.01365E-003	3.59960E-001	-1.17518E+000	3.57780E+000	10	...........
	3	0.053333	6.78130E-001	5.99180E-003	0.00000E+000	4.06322E-003	3.59960E-001	-1.16578E+000	3.57780E+000	10	...........
	4	0.066667	6.85928E-001	5.99742E-003	0.00000E+000	4.11380E-003	3.59960E-001	-1.17014E+000	3.57780E+000	10	...........
	5	0.08	6.93507E-001	5.99374E-003	0.00000E+000	4.15670E-003	3.59960E-001	-1.17494E+000	3.57780E+000	10	...........
	6	0.093333	7.00972E-001	5.99626E-003	0.00000E+000	4.20321E-003	3.59960E-001	-1.16600E+000	3.57780E+000	10	...........
	7	0.106667	7.08286E-001	5.99237E-003	0.00000E+000	4.24431E-003	3.59960E-001	-1.17023E+000	3.57780E+000	10	...........
	8	0.12	7.15500E-001	5.99833E-003	0.00000E+000	4.29180E-003	3.59960E-001	-1.17522E+000	3.57780E+000	10	...........
	9	0.133333	7.22669E-001	5.99687E-003	0.00000E+000	4.33375E-003	3.59960E-001	-1.16587E+000	3.57780E+000	10	...........
	10	0.146667	7.29760E-001	5.99457E-003	0.00000E+000	4.37460E-003	3.59960E-001	-1.17018E+000	3.57780E+000	10	...........
	11	0.16	7.36755E-001	5.99213E-003	0.00000E+000	4.41474E-003	3.59960E-001	-1.17532E+000	3.57780E+000	10	...........
	12	0.173333	7.43784E-001	5.99567E-003	0.00000E+000	4.45948E-003	3.59960E-001	-1.16586E+000	3.57780E+000	10	...........
	13	0.186667	7.50699E-001	5.99213E-003	0.00000E+000	4.49829E-003	3.59960E-001	-1.16981E+000	3.57780E+000	10	...........
	14	0.2	7.57608E-001	5.98997E-003	0.00000E+000	4.53805E-003	3.59960E-001	-1.17473E+000	3.57780E+000	10	...........
	15	0.213333	7.64472E-001	5.99627E-003	0.00000E+000	4.58398E-003	3.59960E-001	-1.16543E+000	3.57780E+000	10	...........
	16	0.226667	7.71312E-001	5.99355E-003	0.00000E+000	4.62290E-003	3.59960E-001	-1.16932E+000	3.57780E+000	10	...........
	17	0.24	7.78099E-001	5.99419E-003	0.00000E+000	4.66407E-003	3.59960E-001	-1.17473E+000	3.57780E+000	10	...........
	18	0.253333	7.84871E-001	5.99567E-003	0.00000E+000	4.70582E-003	3.59960E-001	-1.16519E+000	3.57780E+000	10	...........
	19	0.266667	7.91624E-001	5.99096E-003	0.00000E+000	4.74259E-003	3.59960E-001	-1.16885E+000	3.57780E+000	10	...........
	20	0.28	7.98361E-001	5.99275E-003	0.00000E+000	4.78437E-003	3.59960E-001	-1.17471E+000	3.57780E+000	10	...........
	21	0.293333	8.05027E-001	5.99615E-003	0.00000E+000	4.82706E-003	3.59960E-001	-1.16518E+000	3.57780E+000	10	...........
	22	0.306667	8.11673E-001	5.99287E-003	0.00000E+000	4.86425E-003	3.59960E-001	-1.16887E+000	3.57780E+000	10	...........
	23	0.32	8.18368E-001	5.99728E-003	0.00000E+000	4.90798E-003	3.59960E-001	-1.17464E+000	3.57780E+000	10	...........
	24	0.333333	8.25001E-001	5.99243E-003	0.00000E+000	4.94375E-003	3.59960E-001	-1.16494E+000	3.57780E+000	10	...........
	25	0.346667	8.31595E-001	5.99380E-003	0.00000E+000	4.98442E-003	3.59960E-001	-1.16880E+000	3.57780E+000	10	...........
	26	0.36	8.38197E-001	5.99435E-003	0.00000E+000	5.02445E-003	3.59960E-001	-1.17463E+000	3.57780E+000	10	...........
	27	0.373333	8.44749E-001	5.99638E-003	0.00000E+000	5.06544E-003	3.59960E-001	-1.16511E+000	3.57780E+000	10	...........
	28	0.386667	8.51260E-001	5.99149E-003	0.00000E+000	5.10031E-003	3.59960E-001	-1.16856E+000	3.57780E+000	10	...........
	29	0.4	8.57789E-001	5.99557E-003	0.00000E+000	5.14294E-003	3.59960E-001	-1.17460E+000	3.57780E+000	10	...........
	30	0.413333	8.64273E-001	5.99534E-003	0.00000E+000	5.18160E-003	3.59960E-001	-1.16496E+000	3.57780E+000	10	...........
	31	0.426667	8.70769E-001	5.99664E-003	0.00000E+000	5.22169E-003	3.59960E-001	-1.16868E+000	3.57780E+000	10	...........
	32	0.44	8.77164E-001	5.99512E-003	0.00000E+000	5.25870E-003	3.59960E-001	-1.17478E+000	3.57780E+000	10	...........
	33	0.453333	8.83571E-001	5.99256E-003	0.00000E+000	5.29485E-003	3.59960E-001	-1.16505E+000	3.57780E+000	10	...........
	34	0.466667	8.89910E-001	5.98927E-003	0.00000E+000	5.32991E-003	3.59960E-001	-1.16848E+000	3.57780E+000	10	...........
	35	0.48	8.96208E-001	5.99579E-003	0.00000E+000	5.37348E-003	3.59960E-001	-1.17470E+000	3.57780E+000	10	...........
	36	0.493333	9.02487E-001	5.99274E-003	0.00000E+000	5.40837E-003	3.59960E-001	-1.16508E+000	3.57780E+000	10	...........
	37	0.506667	9.08779E-001	5.99390E-003	0.00000E+000	5.44713E-003	3.59960E-001	-1.16827E+000	3.57780E+000	10	...........
	38	0.52	9.14989E-001	5.99192E-003	0.00000E+000	5.48254E-003	3.59960E-001	-1.17443E+000	3.57780E+000	10	...........
	39	0.533333	9.21197E-001	5.99179E-003	0.00000E+000	5.51962E-003	3.59960E-001	-1.16440E+000	3.57780E+000	10	...........
	40	0.546667	9.27303E-001	5.99125E-003	0.00000E+000	5.55570E-003	3.59960E-001	-1.16780E+000	3.57780E+000	10	...........
	41	0.56	9.33403E-001	5.99471E-003	0.00000E+000	5.59548E-003	3.59960E-001	-1.17449E+000	3.57780E+000	10	...........
	42	0.573333	9.39427E-001	5.99552E-003	0.00000E+000	5.63235E-003	3.59960E-001	-1.16435E+000	3.57780E+000	10	...........
	43	0.586667	9.45455E-001	5.99586E-003	0.00000E+000	5.66881E-003	3.59960E-001	-1.16760E+000	3.57780E+000	10	...........
	44	0.6	9.51410E-001	5.99573E-003	0.00000E+000	5.70440E-003	3.59960E-001	-1.17437E+000	3.57780E+000	10	...........
	45	0.613333	9.57268E-001	5.99356E-003	0.00000E+000	5.73745E-003	3.59960E-001	-1.16452E+000	3.57780E+000	10	...........
	46	0.626667	9.63122E-001	5.99589E-003	0.00000E+000	5.77477E-003	3.59960E-001	-1.16774E+000	3.57780E+000	10	...........
	47	0.64	9.68921E-001	5.99213E-003	0.00000E+000	5.80590E-003	3.59960E-001	-1.17450E+000	3.57780E+000	10	...........
	48	0.653333	9.74693E-001	5.99342E-003	0.00000E+000	5.84174E-003	3.59960E-001	-1.16451E+000	3.57780E+000	10	...........
	49	0.666667	9.80388E-001	5.99219E-003	0.00000E+000	5.87467E-003	3.59960E-001	-1.16762E+000	3.57780E+000	10	...........
	50	0.68	9.86031E-001	5.99665E-003	0.00000E+000	5.91288E-003	3.59960E-001	-1.17454E+000	3.57780E+000	10	...........
	51	0.693333	9.91633E-001	5.99573E-003	0.00000E+000	5.94557E-003	3.59960E-001	-1.16447E+000	3.57780E+000	10	...........
	52	0.706667	9.97232E-001	5.99395E-003	0.00000E+000	5.97735E-003	3.59960E-001	-1.16760E+000	3.57780E+000	10	...........
	53	0.708333	1.00029E+000	5.99321E-003	0.00000E+000	5.99497E-003	3.59960E-001	-1.15859E+000	3.57780E+000	10	...........
STARTTIMEOFFSET	QUANT	1416.491	Start Time Offset (s)