File: Data/CV_CRGO300517_1/PWRCCD_CRGO300517_1/CHARGE_DISCHARGE/CHARGE_#846.DTA
EXPLAIN
TAG	PWR800_CHARGE
TITLE	LABEL	PWR Cyclic Charge Discharge (Cell) - Charge Step	Test &Identifier
DATE	LABEL	22-6-2017	Date
TIME	LABEL	16:08:59	Time
NOTES	NOTES	3	&Notes...
	supercap test cell
	0.6mg
	6M KOH
PSTAT	PSTAT	IFC5000-01520	Potentiostat
CAPACITY	QUANT	1.00000E-003	Capacity (A-hr)
CELLTYPE	SELECTOR	1	&Cell Type
WORKINGCONNECTION	SELECTOR	0	&Working Lead
MAXCHARGETIME	VARIABLEANDUNITS	1.00000E+002	s	1.00000E+002	second(s)	Max &Charge Time
CHARGECURRENT	QUANT	6.00000E-003	&Charge Current (A)
VOLTAGEFINISH	TWOPARAM	F	1.00000E-003	3.60000E+003	&Voltage Finish	 I (A) < 	Max Time(s)
SAMPLETIME	QUANT	1.00000E-002	Sa&mple Period (s)
CHARGESTOPAT1	MULTIPARAM	4	1.00000E+000	Charge Stop At &1	Voltage > Limit	V
CHARGESTOPAT2	MULTIPARAM	0	0.00000E+000	Charge Stop At &2	None	N/A
AESBHCSELECTOR	TOGGLE	F	Save Both Half Cells
IRCOMP	TOGGLE	F	IR &Measure
EOC	QUANT	0	Open Circuit (V)
SEQUENCER	TOGGLE	TRUE	Run as Sequence
PSTATMODEL	IQUANT	53	Pstat Model
PSTATSECTION	LABEL	IFC5000-01520	Pstat Section
PSTATSERIALNO	LABEL	01520	Pstat Serial Number
CTRLMODE	IQUANT	0	Control Mode
ELECTROMETER	IQUANT	1	RE=0 or CS=1
IESTAB	IQUANT	0	I/E Stability
CASPEED	IQUANT	4	Control Amp Speed
CONVENTION	IQUANT	1	Current Convention
ICHRANGE	IQUANT	2	Ich Range
ICHRANGEMODE	TOGGLE	T	Ich Auto Range
ICHOFFSETENABLE	TOGGLE	F	Ich Offset Enable
ICHOFFSET	QUANT	0	Ich Offset (V)
ICHFILTER	IQUANT	1	Ich Filter
VCHRANGE	IQUANT	2	Vch Range
VCHRANGEMODE	TOGGLE	T	Vch Auto Range
VCHOFFSETENABLE	TOGGLE	F	Vch Offset Enable
VCHOFFSET	QUANT	0	Vch Offset (V)
VCHFILTER	IQUANT	1	Vch Filter
IERANGELOWERLIMIT	IQUANT	9	I/E Range Lower Limit
IERANGEMODE	TOGGLE	F	I/E AutoRange
IERANGE	IQUANT	10	I/E Range
ACHSELECT	IQUANT	1	Ach Select
ACHRANGE	IQUANT	2	Ach Range
ACHOFFSETENABLE	TOGGLE	F	Ach Offset Enable
ACHOFFSET	QUANT	0	Ach Offset (V)
ACHFILTER	IQUANT	1	Ach Filter
CABLEID	IQUANT	14	Cable ID
DCCALDATE	LABEL	20-10-2016	DC Calibration Date
ACCALDATE	LABEL	12/3/2015	AC Calibration Date
FRAMEWORKVERSION	QUANT	7.01	Framework Version
INSTRUMENTVERSION	LABEL	4.00	Instrument Version
CURVE	TABLE	54
	Pt	T	Vf	Im	Vu	Pwr	Sig	Ach	Temp	IERange	Over
	#	s	V	A	V	W	V	V	deg C	#	bits
	0	0.013333	6.50652E-001	5.99780E-003	0.00000E+000	3.90248E-003	3.59960E-001	-1.16841E+000	3.57780E+000	10	...........
	1	0.026667	6.59868E-001	5.99171E-003	0.00000E+000	3.95374E-003	3.59960E-001	-1.17495E+000	3.57780E+000	10	...........
	2	0.04	6.68386E-001	5.99442E-003	0.00000E+000	4.00659E-003	3.59960E-001	-1.16512E+000	3.57780E+000	10	...........
	3	0.053333	6.76433E-001	5.99414E-003	0.00000E+000	4.05463E-003	3.59960E-001	-1.16817E+000	3.57780E+000	10	...........
	4	0.066667	6.84166E-001	5.99309E-003	0.00000E+000	4.10027E-003	3.59960E-001	-1.17466E+000	3.57780E+000	10	...........
	5	0.08	6.91733E-001	5.99482E-003	0.00000E+000	4.14681E-003	3.59960E-001	-1.16461E+000	3.57780E+000	10	...........
	6	0.093333	6.99098E-001	5.99264E-003	0.00000E+000	4.18944E-003	3.59960E-001	-1.16798E+000	3.57780E+000	10	...........
	7	0.106667	7.06413E-001	5.99313E-003	0.00000E+000	4.23363E-003	3.59960E-001	-1.17469E+000	3.57780E+000	10	...........
	8	0.12	7.13604E-001	5.99521E-003	0.00000E+000	4.27821E-003	3.59960E-001	-1.16438E+000	3.57780E+000	10	...........
	9	0.133333	7.20770E-001	5.99732E-003	0.00000E+000	4.32268E-003	3.59960E-001	-1.16749E+000	3.57780E+000	10	...........
	10	0.146667	7.27805E-001	5.99283E-003	0.00000E+000	4.36161E-003	3.59960E-001	-1.17431E+000	3.57780E+000	10	...........
	11	0.16	7.34807E-001	5.99024E-003	0.00000E+000	4.40167E-003	3.59960E-001	-1.16443E+000	3.57780E+000	10	...........
	12	0.173333	7.41815E-001	5.99464E-003	0.00000E+000	4.44691E-003	3.59960E-001	-1.16751E+000	3.57780E+000	10	...........
	13	0.186667	7.48747E-001	5.99627E-003	0.00000E+000	4.48969E-003	3.59960E-001	-1.17433E+000	3.57780E+000	10	...........
	14	0.2	7.55641E-001	5.99308E-003	0.00000E+000	4.52862E-003	3.59960E-001	-1.16439E+000	3.57780E+000	10	...........
	15	0.213333	7.62460E-001	5.99281E-003	0.00000E+000	4.56928E-003	3.59960E-001	-1.16751E+000	3.57780E+000	10	...........
	16	0.226667	7.69285E-001	5.99532E-003	0.00000E+000	4.61211E-003	3.59960E-001	-1.17468E+000	3.57780E+000	10	...........
	17	0.24	7.76045E-001	5.99440E-003	0.00000E+000	4.65192E-003	3.59960E-001	-1.16462E+000	3.57780E+000	10	...........
	18	0.253333	7.82810E-001	5.99220E-003	0.00000E+000	4.69075E-003	3.59960E-001	-1.16738E+000	3.57780E+000	10	...........
	19	0.266667	7.89549E-001	5.99329E-003	0.00000E+000	4.73200E-003	3.59960E-001	-1.17442E+000	3.57780E+000	10	...........
	20	0.28	7.96306E-001	5.99530E-003	0.00000E+000	4.77410E-003	3.59960E-001	-1.16460E+000	3.57780E+000	10	...........
	21	0.293333	8.03030E-001	5.99664E-003	0.00000E+000	4.81548E-003	3.59960E-001	-1.16741E+000	3.57780E+000	10	...........
	22	0.306667	8.09636E-001	5.98955E-003	0.00000E+000	4.84935E-003	3.59960E-001	-1.17459E+000	3.57780E+000	10	...........
	23	0.32	8.16254E-001	5.99404E-003	0.00000E+000	4.89266E-003	3.59960E-001	-1.16439E+000	3.57780E+000	10	...........
	24	0.333333	8.22897E-001	5.98884E-003	0.00000E+000	4.92820E-003	3.59960E-001	-1.16725E+000	3.57780E+000	10	...........
	25	0.346667	8.29485E-001	5.99224E-003	0.00000E+000	4.97047E-003	3.59960E-001	-1.17472E+000	3.57780E+000	10	...........
	26	0.36	8.36066E-001	5.99278E-003	0.00000E+000	5.01036E-003	3.59960E-001	-1.16452E+000	3.57780E+000	10	...........
	27	0.373333	8.42603E-001	5.99439E-003	0.00000E+000	5.05089E-003	3.59960E-001	-1.16741E+000	3.57780E+000	10	...........
	28	0.386667	8.49136E-001	5.99560E-003	0.00000E+000	5.09107E-003	3.59960E-001	-1.17437E+000	3.57780E+000	10	...........
	29	0.4	8.55616E-001	5.99548E-003	0.00000E+000	5.12983E-003	3.59960E-001	-1.16405E+000	3.57780E+000	10	...........
	30	0.413333	8.62088E-001	5.99354E-003	0.00000E+000	5.16696E-003	3.59960E-001	-1.16679E+000	3.57780E+000	10	...........
	31	0.426667	8.68534E-001	5.99341E-003	0.00000E+000	5.20548E-003	3.59960E-001	-1.17438E+000	3.57780E+000	10	...........
	32	0.44	8.74953E-001	5.99399E-003	0.00000E+000	5.24446E-003	3.59960E-001	-1.16410E+000	3.57780E+000	10	...........
	33	0.453333	8.81353E-001	5.99422E-003	0.00000E+000	5.28302E-003	3.59960E-001	-1.16658E+000	3.57780E+000	10	...........
	34	0.466667	8.87712E-001	5.99197E-003	0.00000E+000	5.31914E-003	3.59960E-001	-1.17419E+000	3.57780E+000	10	...........
	35	0.48	8.94001E-001	5.99352E-003	0.00000E+000	5.35821E-003	3.59960E-001	-1.16400E+000	3.57780E+000	10	...........
	36	0.493333	9.00287E-001	5.99315E-003	0.00000E+000	5.39556E-003	3.59960E-001	-1.16671E+000	3.57780E+000	10	...........
	37	0.506667	9.06543E-001	5.99610E-003	0.00000E+000	5.43572E-003	3.59960E-001	-1.17438E+000	3.57780E+000	10	...........
	38	0.52	9.12760E-001	5.99784E-003	0.00000E+000	5.47459E-003	3.59960E-001	-1.16387E+000	3.57780E+000	10	...........
	39	0.533333	9.18960E-001	5.99634E-003	0.00000E+000	5.51040E-003	3.59960E-001	-1.16610E+000	3.57780E+000	10	...........
	40	0.546667	9.25101E-001	5.99303E-003	0.00000E+000	5.54416E-003	3.59960E-001	-1.17424E+000	3.57780E+000	10	...........
	41	0.56	9.31219E-001	5.99555E-003	0.00000E+000	5.58317E-003	3.59960E-001	-1.16383E+000	3.57780E+000	10	...........
	42	0.573333	9.37272E-001	5.99577E-003	0.00000E+000	5.61967E-003	3.59960E-001	-1.16620E+000	3.57780E+000	10	...........
	43	0.586667	9.43277E-001	5.99478E-003	0.00000E+000	5.65474E-003	3.59960E-001	-1.17409E+000	3.57780E+000	10	...........
	44	0.6	9.49265E-001	5.99323E-003	0.00000E+000	5.68916E-003	3.59960E-001	-1.16391E+000	3.57780E+000	10	...........
	45	0.613333	9.55165E-001	5.98989E-003	0.00000E+000	5.72133E-003	3.59960E-001	-1.16612E+000	3.57780E+000	10	...........
	46	0.626667	9.61036E-001	5.99891E-003	0.00000E+000	5.76517E-003	3.59960E-001	-1.17448E+000	3.57780E+000	10	...........
	47	0.64	9.66840E-001	5.99375E-003	0.00000E+000	5.79500E-003	3.59960E-001	-1.16431E+000	3.57780E+000	10	...........
	48	0.653333	9.72633E-001	5.99223E-003	0.00000E+000	5.82823E-003	3.59960E-001	-1.16616E+000	3.57780E+000	10	...........
	49	0.666667	9.78333E-001	5.99188E-003	0.00000E+000	5.86206E-003	3.59960E-001	-1.17418E+000	3.57780E+000	10	...........
	50	0.68	9.84002E-001	5.99371E-003	0.00000E+000	5.89782E-003	3.59960E-001	-1.16397E+000	3.57780E+000	10	...........
	51	0.693333	9.89615E-001	5.99303E-003	0.00000E+000	5.93079E-003	3.59960E-001	-1.16620E+000	3.57780E+000	10	...........
	52	0.706667	9.95206E-001	5.99593E-003	0.00000E+000	5.96718E-003	3.59960E-001	-1.17429E+000	3.57780E+000	10	...........
	53	0.713333	9.99361E-001	5.99561E-003	0.00000E+000	5.99178E-003	3.59960E-001	-1.15524E+000	3.57780E+000	10	...........
STARTTIMEOFFSET	QUANT	1369.761	Start Time Offset (s)