File: Data/CV_CRGO300517_1/PWRCCD_CRGO300517_1/CHARGE_DISCHARGE/CHARGE_#580.DTA
EXPLAIN
TAG	PWR800_CHARGE
TITLE	LABEL	PWR Cyclic Charge Discharge (Cell) - Charge Step	Test &Identifier
DATE	LABEL	22-6-2017	Date
TIME	LABEL	15:59:00	Time
NOTES	NOTES	3	&Notes...
	supercap test cell
	0.6mg
	6M KOH
PSTAT	PSTAT	IFC5000-01520	Potentiostat
CAPACITY	QUANT	1.00000E-003	Capacity (A-hr)
CELLTYPE	SELECTOR	1	&Cell Type
WORKINGCONNECTION	SELECTOR	0	&Working Lead
MAXCHARGETIME	VARIABLEANDUNITS	1.00000E+002	s	1.00000E+002	second(s)	Max &Charge Time
CHARGECURRENT	QUANT	6.00000E-003	&Charge Current (A)
VOLTAGEFINISH	TWOPARAM	F	1.00000E-003	3.60000E+003	&Voltage Finish	 I (A) < 	Max Time(s)
SAMPLETIME	QUANT	1.00000E-002	Sa&mple Period (s)
CHARGESTOPAT1	MULTIPARAM	4	1.00000E+000	Charge Stop At &1	Voltage > Limit	V
CHARGESTOPAT2	MULTIPARAM	0	0.00000E+000	Charge Stop At &2	None	N/A
AESBHCSELECTOR	TOGGLE	F	Save Both Half Cells
IRCOMP	TOGGLE	F	IR &Measure
EOC	QUANT	0	Open Circuit (V)
SEQUENCER	TOGGLE	TRUE	Run as Sequence
PSTATMODEL	IQUANT	53	Pstat Model
PSTATSECTION	LABEL	IFC5000-01520	Pstat Section
PSTATSERIALNO	LABEL	01520	Pstat Serial Number
CTRLMODE	IQUANT	0	Control Mode
ELECTROMETER	IQUANT	1	RE=0 or CS=1
IESTAB	IQUANT	0	I/E Stability
CASPEED	IQUANT	4	Control Amp Speed
CONVENTION	IQUANT	1	Current Convention
ICHRANGE	IQUANT	2	Ich Range
ICHRANGEMODE	TOGGLE	T	Ich Auto Range
ICHOFFSETENABLE	TOGGLE	F	Ich Offset Enable
ICHOFFSET	QUANT	0	Ich Offset (V)
ICHFILTER	IQUANT	1	Ich Filter
VCHRANGE	IQUANT	2	Vch Range
VCHRANGEMODE	TOGGLE	T	Vch Auto Range
VCHOFFSETENABLE	TOGGLE	F	Vch Offset Enable
VCHOFFSET	QUANT	0	Vch Offset (V)
VCHFILTER	IQUANT	1	Vch Filter
IERANGELOWERLIMIT	IQUANT	9	I/E Range Lower Limit
IERANGEMODE	TOGGLE	F	I/E AutoRange
IERANGE	IQUANT	10	I/E Range
ACHSELECT	IQUANT	1	Ach Select
ACHRANGE	IQUANT	2	Ach Range
ACHOFFSETENABLE	TOGGLE	F	Ach Offset Enable
ACHOFFSET	QUANT	0	Ach Offset (V)
ACHFILTER	IQUANT	1	Ach Filter
CABLEID	IQUANT	14	Cable ID
DCCALDATE	LABEL	20-10-2016	DC Calibration Date
ACCALDATE	LABEL	12/3/2015	AC Calibration Date
FRAMEWORKVERSION	QUANT	7.01	Framework Version
INSTRUMENTVERSION	LABEL	4.00	Instrument Version
CURVE	TABLE	57
	Pt	T	Vf	Im	Vu	Pwr	Sig	Ach	Temp	IERange	Over
	#	s	V	A	V	W	V	V	deg C	#	bits
	0	0.013333	6.37057E-001	5.99577E-003	0.00000E+000	3.81965E-003	3.59960E-001	-1.14893E+000	3.57790E+000	10	...........
	1	0.026667	6.46039E-001	5.99405E-003	0.00000E+000	3.87239E-003	3.59960E-001	-1.14142E+000	3.57790E+000	10	...........
	2	0.04	6.54230E-001	5.99536E-003	0.00000E+000	3.92234E-003	3.59960E-001	-1.14834E+000	3.57790E+000	10	...........
	3	0.053333	6.62032E-001	5.99845E-003	0.00000E+000	3.97117E-003	3.59960E-001	-1.14885E+000	3.57790E+000	10	...........
	4	0.066667	6.69621E-001	5.99279E-003	0.00000E+000	4.01290E-003	3.59960E-001	-1.14122E+000	3.57790E+000	10	...........
	5	0.08	6.76945E-001	5.99455E-003	0.00000E+000	4.05798E-003	3.59960E-001	-1.14843E+000	3.57790E+000	10	...........
	6	0.093333	6.84120E-001	5.99321E-003	0.00000E+000	4.10007E-003	3.59960E-001	-1.14878E+000	3.57790E+000	10	...........
	7	0.106667	6.91194E-001	5.99600E-003	0.00000E+000	4.14440E-003	3.59960E-001	-1.14106E+000	3.57790E+000	10	...........
	8	0.12	6.98171E-001	5.99367E-003	0.00000E+000	4.18460E-003	3.59960E-001	-1.14821E+000	3.57790E+000	10	...........
	9	0.133333	7.05089E-001	5.99260E-003	0.00000E+000	4.22532E-003	3.59960E-001	-1.14898E+000	3.57790E+000	10	...........
	10	0.146667	7.11939E-001	5.99534E-003	0.00000E+000	4.26831E-003	3.59960E-001	-1.14159E+000	3.57790E+000	10	...........
	11	0.16	7.18796E-001	5.99115E-003	0.00000E+000	4.30642E-003	3.59960E-001	-1.14810E+000	3.57790E+000	10	...........
	12	0.173333	7.25529E-001	5.99536E-003	0.00000E+000	4.34980E-003	3.59960E-001	-1.14873E+000	3.57790E+000	10	...........
	13	0.186667	7.32254E-001	5.99276E-003	0.00000E+000	4.38822E-003	3.59960E-001	-1.14121E+000	3.57790E+000	10	...........
	14	0.2	7.38950E-001	5.99579E-003	0.00000E+000	4.43059E-003	3.59960E-001	-1.14819E+000	3.57790E+000	10	...........
	15	0.213333	7.45604E-001	5.99575E-003	0.00000E+000	4.47046E-003	3.59960E-001	-1.14901E+000	3.57790E+000	10	...........
	16	0.226667	7.52242E-001	5.99894E-003	0.00000E+000	4.51266E-003	3.59960E-001	-1.14112E+000	3.57790E+000	10	...........
	17	0.24	7.58875E-001	5.99275E-003	0.00000E+000	4.54775E-003	3.59960E-001	-1.14764E+000	3.57790E+000	10	...........
	18	0.253333	7.65421E-001	5.99398E-003	0.00000E+000	4.58792E-003	3.59960E-001	-1.14832E+000	3.57790E+000	10	...........
	19	0.266667	7.72003E-001	5.98918E-003	0.00000E+000	4.62367E-003	3.59960E-001	-1.14065E+000	3.57790E+000	10	...........
	20	0.28	7.78575E-001	5.99444E-003	0.00000E+000	4.66712E-003	3.59960E-001	-1.14753E+000	3.57790E+000	10	...........
	21	0.293333	7.85092E-001	5.99323E-003	0.00000E+000	4.70524E-003	3.59960E-001	-1.14835E+000	3.57790E+000	10	...........
	22	0.306667	7.91606E-001	5.99146E-003	0.00000E+000	4.74287E-003	3.59960E-001	-1.14056E+000	3.57790E+000	10	...........
	23	0.32	7.98166E-001	5.99496E-003	0.00000E+000	4.78497E-003	3.59960E-001	-1.14747E+000	3.57790E+000	10	...........
	24	0.333333	8.04662E-001	5.99087E-003	0.00000E+000	4.82062E-003	3.59960E-001	-1.14843E+000	3.57790E+000	10	...........
	25	0.346667	8.11092E-001	5.99335E-003	0.00000E+000	4.86116E-003	3.59960E-001	-1.14080E+000	3.57790E+000	10	...........
	26	0.36	8.17559E-001	5.99224E-003	0.00000E+000	4.89901E-003	3.59960E-001	-1.14743E+000	3.57790E+000	10	...........
	27	0.373333	8.24036E-001	5.99209E-003	0.00000E+000	4.93770E-003	3.59960E-001	-1.14823E+000	3.57790E+000	10	...........
	28	0.386667	8.30434E-001	5.99609E-003	0.00000E+000	4.97935E-003	3.59960E-001	-1.14062E+000	3.57790E+000	10	...........
	29	0.4	8.36812E-001	5.99397E-003	0.00000E+000	5.01583E-003	3.59960E-001	-1.14737E+000	3.57790E+000	10	...........
	30	0.413333	8.43204E-001	5.99930E-003	0.00000E+000	5.05863E-003	3.59960E-001	-1.14829E+000	3.57790E+000	10	...........
	31	0.426667	8.49566E-001	5.99362E-003	0.00000E+000	5.09198E-003	3.59960E-001	-1.14048E+000	3.57790E+000	10	...........
	32	0.44	8.55894E-001	5.99618E-003	0.00000E+000	5.13210E-003	3.59960E-001	-1.14741E+000	3.57790E+000	10	...........
	33	0.453333	8.62234E-001	5.99658E-003	0.00000E+000	5.17045E-003	3.59960E-001	-1.14826E+000	3.57790E+000	10	...........
	34	0.466667	8.68559E-001	5.99851E-003	0.00000E+000	5.21006E-003	3.59960E-001	-1.14089E+000	3.57790E+000	10	...........
	35	0.48	8.74835E-001	5.99626E-003	0.00000E+000	5.24574E-003	3.59960E-001	-1.14735E+000	3.57790E+000	10	...........
	36	0.493333	8.81089E-001	5.99127E-003	0.00000E+000	5.27884E-003	3.59960E-001	-1.14845E+000	3.57790E+000	10	...........
	37	0.506667	8.87311E-001	5.99215E-003	0.00000E+000	5.31690E-003	3.59960E-001	-1.14062E+000	3.57790E+000	10	...........
	38	0.52	8.93530E-001	5.99482E-003	0.00000E+000	5.35655E-003	3.59960E-001	-1.14700E+000	3.57790E+000	10	...........
	39	0.533333	8.99712E-001	5.99322E-003	0.00000E+000	5.39217E-003	3.59960E-001	-1.14840E+000	3.57790E+000	10	...........
	40	0.546667	9.05844E-001	5.99213E-003	0.00000E+000	5.42794E-003	3.59960E-001	-1.14043E+000	3.57790E+000	10	...........
	41	0.56	9.11988E-001	5.98989E-003	0.00000E+000	5.46271E-003	3.59960E-001	-1.14692E+000	3.57790E+000	10	...........
	42	0.573333	9.18060E-001	5.99840E-003	0.00000E+000	5.50689E-003	3.59960E-001	-1.14791E+000	3.57790E+000	10	...........
	43	0.586667	9.24111E-001	5.99405E-003	0.00000E+000	5.53917E-003	3.59960E-001	-1.13996E+000	3.57790E+000	10	...........
	44	0.6	9.30123E-001	5.99514E-003	0.00000E+000	5.57622E-003	3.59960E-001	-1.14693E+000	3.57790E+000	10	...........
	45	0.613333	9.36097E-001	5.99631E-003	0.00000E+000	5.61312E-003	3.59960E-001	-1.14792E+000	3.57790E+000	10	...........
	46	0.626667	9.41994E-001	5.99128E-003	0.00000E+000	5.64375E-003	3.59960E-001	-1.13991E+000	3.57790E+000	10	...........
	47	0.64	9.47896E-001	5.99507E-003	0.00000E+000	5.68271E-003	3.59960E-001	-1.14655E+000	3.57790E+000	10	...........
	48	0.653333	9.53741E-001	5.99431E-003	0.00000E+000	5.71702E-003	3.59960E-001	-1.14786E+000	3.57790E+000	10	...........
	49	0.666667	9.59548E-001	5.99133E-003	0.00000E+000	5.74897E-003	3.59960E-001	-1.13999E+000	3.57790E+000	10	...........
	50	0.68	9.65282E-001	5.99548E-003	0.00000E+000	5.78733E-003	3.59960E-001	-1.14689E+000	3.57790E+000	10	...........
	51	0.693333	9.71009E-001	5.99626E-003	0.00000E+000	5.82243E-003	3.59960E-001	-1.14785E+000	3.57790E+000	10	...........
	52	0.706667	9.76697E-001	5.99123E-003	0.00000E+000	5.85161E-003	3.59960E-001	-1.13990E+000	3.57790E+000	10	...........
	53	0.72	9.82346E-001	5.99246E-003	0.00000E+000	5.88667E-003	3.59960E-001	-1.14666E+000	3.57790E+000	10	...........
	54	0.733333	9.87933E-001	5.99696E-003	0.00000E+000	5.92460E-003	3.59960E-001	-1.14769E+000	3.57790E+000	10	...........
	55	0.746667	9.93419E-001	5.99148E-003	0.00000E+000	5.95205E-003	3.59960E-001	-1.13996E+000	3.57790E+000	10	...........
	56	0.758333	9.98566E-001	5.99579E-003	0.00000E+000	5.98720E-003	3.59960E-001	-1.14937E+000	3.57790E+000	10	...........
STARTTIMEOFFSET	QUANT	980.88	Start Time Offset (s)