File: Data/CV_CRGO300517_1/PWRCCD_CRGO300517_1/CHARGE_DISCHARGE/CHARGE_#533.DTA
EXPLAIN
TAG	PWR800_CHARGE
TITLE	LABEL	PWR Cyclic Charge Discharge (Cell) - Charge Step	Test &Identifier
DATE	LABEL	22-6-2017	Date
TIME	LABEL	15:57:12	Time
NOTES	NOTES	3	&Notes...
	supercap test cell
	0.6mg
	6M KOH
PSTAT	PSTAT	IFC5000-01520	Potentiostat
CAPACITY	QUANT	1.00000E-003	Capacity (A-hr)
CELLTYPE	SELECTOR	1	&Cell Type
WORKINGCONNECTION	SELECTOR	0	&Working Lead
MAXCHARGETIME	VARIABLEANDUNITS	1.00000E+002	s	1.00000E+002	second(s)	Max &Charge Time
CHARGECURRENT	QUANT	6.00000E-003	&Charge Current (A)
VOLTAGEFINISH	TWOPARAM	F	1.00000E-003	3.60000E+003	&Voltage Finish	 I (A) < 	Max Time(s)
SAMPLETIME	QUANT	1.00000E-002	Sa&mple Period (s)
CHARGESTOPAT1	MULTIPARAM	4	1.00000E+000	Charge Stop At &1	Voltage > Limit	V
CHARGESTOPAT2	MULTIPARAM	0	0.00000E+000	Charge Stop At &2	None	N/A
AESBHCSELECTOR	TOGGLE	F	Save Both Half Cells
IRCOMP	TOGGLE	F	IR &Measure
EOC	QUANT	0	Open Circuit (V)
SEQUENCER	TOGGLE	TRUE	Run as Sequence
PSTATMODEL	IQUANT	53	Pstat Model
PSTATSECTION	LABEL	IFC5000-01520	Pstat Section
PSTATSERIALNO	LABEL	01520	Pstat Serial Number
CTRLMODE	IQUANT	0	Control Mode
ELECTROMETER	IQUANT	1	RE=0 or CS=1
IESTAB	IQUANT	0	I/E Stability
CASPEED	IQUANT	4	Control Amp Speed
CONVENTION	IQUANT	1	Current Convention
ICHRANGE	IQUANT	2	Ich Range
ICHRANGEMODE	TOGGLE	T	Ich Auto Range
ICHOFFSETENABLE	TOGGLE	F	Ich Offset Enable
ICHOFFSET	QUANT	0	Ich Offset (V)
ICHFILTER	IQUANT	1	Ich Filter
VCHRANGE	IQUANT	2	Vch Range
VCHRANGEMODE	TOGGLE	T	Vch Auto Range
VCHOFFSETENABLE	TOGGLE	F	Vch Offset Enable
VCHOFFSET	QUANT	0	Vch Offset (V)
VCHFILTER	IQUANT	1	Vch Filter
IERANGELOWERLIMIT	IQUANT	9	I/E Range Lower Limit
IERANGEMODE	TOGGLE	F	I/E AutoRange
IERANGE	IQUANT	10	I/E Range
ACHSELECT	IQUANT	1	Ach Select
ACHRANGE	IQUANT	2	Ach Range
ACHOFFSETENABLE	TOGGLE	F	Ach Offset Enable
ACHOFFSET	QUANT	0	Ach Offset (V)
ACHFILTER	IQUANT	1	Ach Filter
CABLEID	IQUANT	14	Cable ID
DCCALDATE	LABEL	20-10-2016	DC Calibration Date
ACCALDATE	LABEL	12/3/2015	AC Calibration Date
FRAMEWORKVERSION	QUANT	7.01	Framework Version
INSTRUMENTVERSION	LABEL	4.00	Instrument Version
CURVE	TABLE	58
	Pt	T	Vf	Im	Vu	Pwr	Sig	Ach	Temp	IERange	Over
	#	s	V	A	V	W	V	V	deg C	#	bits
	0	0.013333	6.34180E-001	5.99273E-003	0.00000E+000	3.80047E-003	3.59960E-001	-1.13850E+000	3.57640E+000	10	...........
	1	0.026667	6.43126E-001	5.99238E-003	0.00000E+000	3.85386E-003	3.59960E-001	-1.14525E+000	3.57640E+000	10	...........
	2	0.04	6.51299E-001	5.99463E-003	0.00000E+000	3.90429E-003	3.59960E-001	-1.14598E+000	3.57640E+000	10	...........
	3	0.053333	6.59062E-001	5.99239E-003	0.00000E+000	3.94936E-003	3.59960E-001	-1.13843E+000	3.57640E+000	10	...........
	4	0.066667	6.66586E-001	5.98819E-003	0.00000E+000	3.99164E-003	3.59960E-001	-1.14526E+000	3.57640E+000	10	...........
	5	0.08	6.73906E-001	5.99457E-003	0.00000E+000	4.03978E-003	3.59960E-001	-1.14603E+000	3.57640E+000	10	...........
	6	0.093333	6.81049E-001	5.99639E-003	0.00000E+000	4.08383E-003	3.59960E-001	-1.13851E+000	3.57640E+000	10	...........
	7	0.106667	6.88107E-001	5.99327E-003	0.00000E+000	4.12401E-003	3.59960E-001	-1.14530E+000	3.57652E+000	10	...........
	8	0.12	6.95115E-001	5.99652E-003	0.00000E+000	4.16827E-003	3.59960E-001	-1.14600E+000	3.57660E+000	10	...........
	9	0.133333	7.01959E-001	5.99695E-003	0.00000E+000	4.20961E-003	3.59960E-001	-1.13847E+000	3.57660E+000	10	...........
	10	0.146667	7.08741E-001	5.98935E-003	0.00000E+000	4.24490E-003	3.59960E-001	-1.14555E+000	3.57660E+000	10	...........
	11	0.16	7.15485E-001	5.99395E-003	0.00000E+000	4.28858E-003	3.59960E-001	-1.14585E+000	3.57660E+000	10	...........
	12	0.173333	7.22263E-001	5.99289E-003	0.00000E+000	4.32844E-003	3.59960E-001	-1.13828E+000	3.57660E+000	10	...........
	13	0.186667	7.28944E-001	5.99196E-003	0.00000E+000	4.36780E-003	3.59960E-001	-1.14527E+000	3.57660E+000	10	...........
	14	0.2	7.35576E-001	5.99544E-003	0.00000E+000	4.41010E-003	3.59960E-001	-1.14536E+000	3.57660E+000	10	...........
	15	0.213333	7.42250E-001	5.99181E-003	0.00000E+000	4.44742E-003	3.59960E-001	-1.13806E+000	3.57660E+000	10	...........
	16	0.226667	7.48866E-001	5.99235E-003	0.00000E+000	4.48747E-003	3.59960E-001	-1.14500E+000	3.57660E+000	10	...........
	17	0.24	7.55467E-001	5.99676E-003	0.00000E+000	4.53036E-003	3.59960E-001	-1.14533E+000	3.57660E+000	10	...........
	18	0.253333	7.62032E-001	5.99330E-003	0.00000E+000	4.56709E-003	3.59960E-001	-1.13802E+000	3.57660E+000	10	...........
	19	0.266667	7.68587E-001	5.99658E-003	0.00000E+000	4.60889E-003	3.59960E-001	-1.14510E+000	3.57660E+000	10	...........
	20	0.28	7.75085E-001	5.99428E-003	0.00000E+000	4.64608E-003	3.59960E-001	-1.14535E+000	3.57660E+000	10	...........
	21	0.293333	7.81603E-001	5.98878E-003	0.00000E+000	4.68085E-003	3.59960E-001	-1.13775E+000	3.57660E+000	10	...........
	22	0.306667	7.88131E-001	5.99229E-003	0.00000E+000	4.72271E-003	3.59960E-001	-1.14489E+000	3.57660E+000	10	...........
	23	0.32	7.94629E-001	5.99525E-003	0.00000E+000	4.76400E-003	3.59960E-001	-1.14512E+000	3.57660E+000	10	...........
	24	0.333333	8.01052E-001	5.99709E-003	0.00000E+000	4.80398E-003	3.59960E-001	-1.13781E+000	3.57660E+000	10	...........
	25	0.346667	8.07479E-001	5.99459E-003	0.00000E+000	4.84051E-003	3.59960E-001	-1.14499E+000	3.57660E+000	10	...........
	26	0.36	8.13926E-001	5.99801E-003	0.00000E+000	4.88194E-003	3.59960E-001	-1.14507E+000	3.57660E+000	10	...........
	27	0.373333	8.20363E-001	5.99026E-003	0.00000E+000	4.91418E-003	3.59960E-001	-1.13752E+000	3.57660E+000	10	...........
	28	0.386667	8.26729E-001	5.98787E-003	0.00000E+000	4.95034E-003	3.59960E-001	-1.14502E+000	3.57660E+000	10	...........
	29	0.4	8.33094E-001	5.99222E-003	0.00000E+000	4.99208E-003	3.59960E-001	-1.14521E+000	3.57660E+000	10	...........
	30	0.413333	8.39445E-001	5.99664E-003	0.00000E+000	5.03385E-003	3.59960E-001	-1.13776E+000	3.57660E+000	10	...........
	31	0.426667	8.45803E-001	5.99169E-003	0.00000E+000	5.06779E-003	3.59960E-001	-1.14525E+000	3.57660E+000	10	...........
	32	0.44	8.52121E-001	5.99773E-003	0.00000E+000	5.11079E-003	3.59960E-001	-1.14502E+000	3.57660E+000	10	...........
	33	0.453333	8.58427E-001	5.99664E-003	0.00000E+000	5.14767E-003	3.59960E-001	-1.13771E+000	3.57660E+000	10	...........
	34	0.466667	8.64696E-001	5.99379E-003	0.00000E+000	5.18281E-003	3.59960E-001	-1.14513E+000	3.57660E+000	10	...........
	35	0.48	8.71004E-001	5.99492E-003	0.00000E+000	5.22160E-003	3.59960E-001	-1.14484E+000	3.57660E+000	10	...........
	36	0.493333	8.77254E-001	5.99328E-003	0.00000E+000	5.25763E-003	3.59960E-001	-1.13745E+000	3.57660E+000	10	...........
	37	0.506667	8.83462E-001	5.99080E-003	0.00000E+000	5.29264E-003	3.59960E-001	-1.14483E+000	3.57660E+000	10	...........
	38	0.52	8.89639E-001	5.99393E-003	0.00000E+000	5.33243E-003	3.59960E-001	-1.14443E+000	3.57660E+000	10	...........
	39	0.533333	8.95822E-001	5.99460E-003	0.00000E+000	5.37010E-003	3.59960E-001	-1.13734E+000	3.57660E+000	10	...........
	40	0.546667	9.01958E-001	5.99603E-003	0.00000E+000	5.40817E-003	3.59960E-001	-1.14468E+000	3.57660E+000	10	...........
	41	0.56	9.08039E-001	5.99111E-003	0.00000E+000	5.44016E-003	3.59960E-001	-1.14429E+000	3.57660E+000	10	...........
	42	0.573333	9.14105E-001	5.99038E-003	0.00000E+000	5.47584E-003	3.59960E-001	-1.13713E+000	3.57660E+000	10	...........
	43	0.586667	9.20207E-001	5.99012E-003	0.00000E+000	5.51215E-003	3.59960E-001	-1.14480E+000	3.57660E+000	10	...........
	44	0.6	9.26225E-001	5.99362E-003	0.00000E+000	5.55145E-003	3.59960E-001	-1.14436E+000	3.57660E+000	10	...........
	45	0.613333	9.32193E-001	5.99433E-003	0.00000E+000	5.58787E-003	3.59960E-001	-1.13721E+000	3.57660E+000	10	...........
	46	0.626667	9.38110E-001	5.99076E-003	0.00000E+000	5.61999E-003	3.59960E-001	-1.14463E+000	3.57660E+000	10	...........
	47	0.64	9.44031E-001	5.99031E-003	0.00000E+000	5.65503E-003	3.59960E-001	-1.14422E+000	3.57660E+000	10	...........
	48	0.653333	9.49909E-001	5.99259E-003	0.00000E+000	5.69242E-003	3.59960E-001	-1.13715E+000	3.57660E+000	10	...........
	49	0.666667	9.55723E-001	5.99347E-003	0.00000E+000	5.72809E-003	3.59960E-001	-1.14477E+000	3.57660E+000	10	...........
	50	0.68	9.61478E-001	5.99385E-003	0.00000E+000	5.76296E-003	3.59960E-001	-1.14389E+000	3.57660E+000	10	...........
	51	0.693333	9.67214E-001	5.99515E-003	0.00000E+000	5.79859E-003	3.59960E-001	-1.13686E+000	3.57660E+000	10	...........
	52	0.706667	9.72933E-001	5.98844E-003	0.00000E+000	5.82635E-003	3.59960E-001	-1.14452E+000	3.57660E+000	10	...........
	53	0.72	9.78622E-001	5.98789E-003	0.00000E+000	5.85988E-003	3.59960E-001	-1.14412E+000	3.57660E+000	10	...........
	54	0.733333	9.84214E-001	5.99038E-003	0.00000E+000	5.89582E-003	3.59960E-001	-1.13728E+000	3.57660E+000	10	...........
	55	0.746667	9.89735E-001	5.99418E-003	0.00000E+000	5.93265E-003	3.59960E-001	-1.14467E+000	3.57660E+000	10	...........
	56	0.76	9.95228E-001	5.99662E-003	0.00000E+000	5.96801E-003	3.59960E-001	-1.14397E+000	3.57660E+000	10	...........
	57	0.766667	9.99351E-001	5.99112E-003	0.00000E+000	5.98723E-003	3.59960E-001	-1.13764E+000	3.57660E+000	10	...........
STARTTIMEOFFSET	QUANT	909.6266	Start Time Offset (s)