File: Data/CV_CRGO300517_1/PWRCCD_CRGO300517_1/CHARGE_DISCHARGE/CHARGE_#805.DTA
EXPLAIN
TAG	PWR800_CHARGE
TITLE	LABEL	PWR Cyclic Charge Discharge (Cell) - Charge Step	Test &Identifier
DATE	LABEL	22-6-2017	Date
TIME	LABEL	16:07:28	Time
NOTES	NOTES	3	&Notes...
	supercap test cell
	0.6mg
	6M KOH
PSTAT	PSTAT	IFC5000-01520	Potentiostat
CAPACITY	QUANT	1.00000E-003	Capacity (A-hr)
CELLTYPE	SELECTOR	1	&Cell Type
WORKINGCONNECTION	SELECTOR	0	&Working Lead
MAXCHARGETIME	VARIABLEANDUNITS	1.00000E+002	s	1.00000E+002	second(s)	Max &Charge Time
CHARGECURRENT	QUANT	6.00000E-003	&Charge Current (A)
VOLTAGEFINISH	TWOPARAM	F	1.00000E-003	3.60000E+003	&Voltage Finish	 I (A) < 	Max Time(s)
SAMPLETIME	QUANT	1.00000E-002	Sa&mple Period (s)
CHARGESTOPAT1	MULTIPARAM	4	1.00000E+000	Charge Stop At &1	Voltage > Limit	V
CHARGESTOPAT2	MULTIPARAM	0	0.00000E+000	Charge Stop At &2	None	N/A
AESBHCSELECTOR	TOGGLE	F	Save Both Half Cells
IRCOMP	TOGGLE	F	IR &Measure
EOC	QUANT	0	Open Circuit (V)
SEQUENCER	TOGGLE	TRUE	Run as Sequence
PSTATMODEL	IQUANT	53	Pstat Model
PSTATSECTION	LABEL	IFC5000-01520	Pstat Section
PSTATSERIALNO	LABEL	01520	Pstat Serial Number
CTRLMODE	IQUANT	0	Control Mode
ELECTROMETER	IQUANT	1	RE=0 or CS=1
IESTAB	IQUANT	0	I/E Stability
CASPEED	IQUANT	4	Control Amp Speed
CONVENTION	IQUANT	1	Current Convention
ICHRANGE	IQUANT	2	Ich Range
ICHRANGEMODE	TOGGLE	T	Ich Auto Range
ICHOFFSETENABLE	TOGGLE	F	Ich Offset Enable
ICHOFFSET	QUANT	0	Ich Offset (V)
ICHFILTER	IQUANT	1	Ich Filter
VCHRANGE	IQUANT	2	Vch Range
VCHRANGEMODE	TOGGLE	T	Vch Auto Range
VCHOFFSETENABLE	TOGGLE	F	Vch Offset Enable
VCHOFFSET	QUANT	0	Vch Offset (V)
VCHFILTER	IQUANT	1	Vch Filter
IERANGELOWERLIMIT	IQUANT	9	I/E Range Lower Limit
IERANGEMODE	TOGGLE	F	I/E AutoRange
IERANGE	IQUANT	10	I/E Range
ACHSELECT	IQUANT	1	Ach Select
ACHRANGE	IQUANT	2	Ach Range
ACHOFFSETENABLE	TOGGLE	F	Ach Offset Enable
ACHOFFSET	QUANT	0	Ach Offset (V)
ACHFILTER	IQUANT	1	Ach Filter
CABLEID	IQUANT	14	Cable ID
DCCALDATE	LABEL	20-10-2016	DC Calibration Date
ACCALDATE	LABEL	12/3/2015	AC Calibration Date
FRAMEWORKVERSION	QUANT	7.01	Framework Version
INSTRUMENTVERSION	LABEL	4.00	Instrument Version
CURVE	TABLE	54
	Pt	T	Vf	Im	Vu	Pwr	Sig	Ach	Temp	IERange	Over
	#	s	V	A	V	W	V	V	deg C	#	bits
	0	0.013333	6.48323E-001	5.99898E-003	0.00000E+000	3.88927E-003	3.59960E-001	-1.17256E+000	3.57780E+000	10	...........
	1	0.026667	6.57521E-001	5.99131E-003	0.00000E+000	3.93941E-003	3.59960E-001	-1.16222E+000	3.57780E+000	10	...........
	2	0.04	6.66007E-001	5.99356E-003	0.00000E+000	3.99175E-003	3.59960E-001	-1.16147E+000	3.57780E+000	10	...........
	3	0.053333	6.74026E-001	5.99134E-003	0.00000E+000	4.03832E-003	3.59960E-001	-1.17246E+000	3.57780E+000	10	...........
	4	0.066667	6.81751E-001	5.99736E-003	0.00000E+000	4.08871E-003	3.59960E-001	-1.16204E+000	3.57780E+000	10	...........
	5	0.08	6.89268E-001	5.99437E-003	0.00000E+000	4.13172E-003	3.59960E-001	-1.16145E+000	3.57780E+000	10	...........
	6	0.093333	6.96613E-001	5.99087E-003	0.00000E+000	4.17332E-003	3.59960E-001	-1.17253E+000	3.57780E+000	10	...........
	7	0.106667	7.03873E-001	5.99416E-003	0.00000E+000	4.21913E-003	3.59960E-001	-1.16195E+000	3.57780E+000	10	...........
	8	0.12	7.11061E-001	5.99437E-003	0.00000E+000	4.26236E-003	3.59960E-001	-1.16147E+000	3.57780E+000	10	...........
	9	0.133333	7.18227E-001	5.99521E-003	0.00000E+000	4.30592E-003	3.59960E-001	-1.17267E+000	3.57780E+000	10	...........
	10	0.146667	7.25247E-001	5.99913E-003	0.00000E+000	4.35086E-003	3.59960E-001	-1.16233E+000	3.57780E+000	10	...........
	11	0.16	7.32224E-001	5.99497E-003	0.00000E+000	4.38966E-003	3.59960E-001	-1.16174E+000	3.57780E+000	10	...........
	12	0.173333	7.39109E-001	5.99396E-003	0.00000E+000	4.43019E-003	3.59960E-001	-1.17267E+000	3.57780E+000	10	...........
	13	0.186667	7.46009E-001	5.99760E-003	0.00000E+000	4.47426E-003	3.59960E-001	-1.16231E+000	3.57780E+000	10	...........
	14	0.2	7.52859E-001	5.99336E-003	0.00000E+000	4.51216E-003	3.59960E-001	-1.16165E+000	3.57780E+000	10	...........
	15	0.213333	7.59674E-001	5.99363E-003	0.00000E+000	4.55321E-003	3.59960E-001	-1.17270E+000	3.57780E+000	10	...........
	16	0.226667	7.66458E-001	5.99602E-003	0.00000E+000	4.59570E-003	3.59960E-001	-1.16240E+000	3.57780E+000	10	...........
	17	0.24	7.73266E-001	5.99611E-003	0.00000E+000	4.63659E-003	3.59960E-001	-1.16146E+000	3.57780E+000	10	...........
	18	0.253333	7.79995E-001	5.99156E-003	0.00000E+000	4.67339E-003	3.59960E-001	-1.17229E+000	3.57780E+000	10	...........
	19	0.266667	7.86724E-001	5.99413E-003	0.00000E+000	4.71572E-003	3.59960E-001	-1.16201E+000	3.57780E+000	10	...........
	20	0.28	7.93464E-001	5.99261E-003	0.00000E+000	4.75492E-003	3.59960E-001	-1.16133E+000	3.57780E+000	10	...........
	21	0.293333	8.00131E-001	5.99353E-003	0.00000E+000	4.79561E-003	3.59960E-001	-1.17249E+000	3.57780E+000	10	...........
	22	0.306667	8.06791E-001	5.99460E-003	0.00000E+000	4.83639E-003	3.59960E-001	-1.16214E+000	3.57780E+000	10	...........
	23	0.32	8.13390E-001	5.99252E-003	0.00000E+000	4.87425E-003	3.59960E-001	-1.16104E+000	3.57780E+000	10	...........
	24	0.333333	8.20050E-001	5.99294E-003	0.00000E+000	4.91451E-003	3.59960E-001	-1.17236E+000	3.57780E+000	10	...........
	25	0.346667	8.26575E-001	5.99140E-003	0.00000E+000	4.95234E-003	3.59960E-001	-1.16226E+000	3.57780E+000	10	...........
	26	0.36	8.33125E-001	5.99512E-003	0.00000E+000	4.99468E-003	3.59960E-001	-1.16129E+000	3.57780E+000	10	...........
	27	0.373333	8.39662E-001	5.99518E-003	0.00000E+000	5.03392E-003	3.59960E-001	-1.17211E+000	3.57780E+000	10	...........
	28	0.386667	8.46185E-001	5.98714E-003	0.00000E+000	5.06622E-003	3.59960E-001	-1.16200E+000	3.57780E+000	10	...........
	29	0.4	8.52658E-001	5.99333E-003	0.00000E+000	5.11026E-003	3.59960E-001	-1.16100E+000	3.57780E+000	10	...........
	30	0.413333	8.59104E-001	5.99074E-003	0.00000E+000	5.14667E-003	3.59960E-001	-1.17241E+000	3.57780E+000	10	...........
	31	0.426667	8.65556E-001	5.99438E-003	0.00000E+000	5.18847E-003	3.59960E-001	-1.16202E+000	3.57780E+000	10	...........
	32	0.44	8.72037E-001	5.99160E-003	0.00000E+000	5.22490E-003	3.59960E-001	-1.16070E+000	3.57780E+000	10	...........
	33	0.453333	8.78374E-001	5.99296E-003	0.00000E+000	5.26406E-003	3.59960E-001	-1.17226E+000	3.57780E+000	10	...........
	34	0.466667	8.84719E-001	5.99631E-003	0.00000E+000	5.30504E-003	3.59960E-001	-1.16214E+000	3.57780E+000	10	...........
	35	0.48	8.90984E-001	5.99358E-003	0.00000E+000	5.34018E-003	3.59960E-001	-1.16116E+000	3.57780E+000	10	...........
	36	0.493333	8.97272E-001	5.99120E-003	0.00000E+000	5.37574E-003	3.59960E-001	-1.17246E+000	3.57780E+000	10	...........
	37	0.506667	9.03508E-001	5.99125E-003	0.00000E+000	5.41314E-003	3.59960E-001	-1.16225E+000	3.57780E+000	10	...........
	38	0.52	9.09751E-001	5.99115E-003	0.00000E+000	5.45045E-003	3.59960E-001	-1.16111E+000	3.57780E+000	10	...........
	39	0.533333	9.15968E-001	5.99370E-003	0.00000E+000	5.49003E-003	3.59960E-001	-1.17241E+000	3.57780E+000	10	...........
	40	0.546667	9.22183E-001	5.99259E-003	0.00000E+000	5.52626E-003	3.59960E-001	-1.16240E+000	3.57780E+000	10	...........
	41	0.56	9.28264E-001	5.99296E-003	0.00000E+000	5.56304E-003	3.59960E-001	-1.16093E+000	3.57780E+000	10	...........
	42	0.573333	9.34265E-001	5.99253E-003	0.00000E+000	5.59861E-003	3.59960E-001	-1.17170E+000	3.57711E+000	10	...........
	43	0.586667	9.40278E-001	5.99323E-003	0.00000E+000	5.63530E-003	3.59960E-001	-1.16164E+000	3.57670E+000	10	...........
	44	0.6	9.46264E-001	5.99272E-003	0.00000E+000	5.67069E-003	3.59960E-001	-1.16080E+000	3.57670E+000	10	...........
	45	0.613333	9.52234E-001	5.99365E-003	0.00000E+000	5.70735E-003	3.59960E-001	-1.17209E+000	3.57670E+000	10	...........
	46	0.626667	9.58102E-001	5.98863E-003	0.00000E+000	5.73772E-003	3.59960E-001	-1.16180E+000	3.57670E+000	10	...........
	47	0.64	9.63914E-001	5.99442E-003	0.00000E+000	5.77810E-003	3.59960E-001	-1.16052E+000	3.57670E+000	10	...........
	48	0.653333	9.69694E-001	5.99223E-003	0.00000E+000	5.81063E-003	3.59960E-001	-1.17199E+000	3.57670E+000	10	...........
	49	0.666667	9.75471E-001	5.99007E-003	0.00000E+000	5.84314E-003	3.59960E-001	-1.16198E+000	3.57670E+000	10	...........
	50	0.68	9.81104E-001	5.99269E-003	0.00000E+000	5.87945E-003	3.59960E-001	-1.16076E+000	3.57670E+000	10	...........
	51	0.693333	9.86710E-001	5.99244E-003	0.00000E+000	5.91280E-003	3.59960E-001	-1.17215E+000	3.57670E+000	10	...........
	52	0.706667	9.92285E-001	5.99333E-003	0.00000E+000	5.94709E-003	3.59960E-001	-1.16170E+000	3.57670E+000	10	...........
	53	0.72	9.97866E-001	5.99825E-003	0.00000E+000	5.98544E-003	3.59960E-001	-1.16061E+000	3.57670E+000	10	...........
STARTTIMEOFFSET	QUANT	1311.282	Start Time Offset (s)