File: Data/CV_CRGO300517_1/PWRCCD_CRGO300517_1/CHARGE_DISCHARGE/CHARGE_#978.DTA
EXPLAIN
TAG	PWR800_CHARGE
TITLE	LABEL	PWR Cyclic Charge Discharge (Cell) - Charge Step	Test &Identifier
DATE	LABEL	22-6-2017	Date
TIME	LABEL	16:13:50	Time
NOTES	NOTES	3	&Notes...
	supercap test cell
	0.6mg
	6M KOH
PSTAT	PSTAT	IFC5000-01520	Potentiostat
CAPACITY	QUANT	1.00000E-003	Capacity (A-hr)
CELLTYPE	SELECTOR	1	&Cell Type
WORKINGCONNECTION	SELECTOR	0	&Working Lead
MAXCHARGETIME	VARIABLEANDUNITS	1.00000E+002	s	1.00000E+002	second(s)	Max &Charge Time
CHARGECURRENT	QUANT	6.00000E-003	&Charge Current (A)
VOLTAGEFINISH	TWOPARAM	F	1.00000E-003	3.60000E+003	&Voltage Finish	 I (A) < 	Max Time(s)
SAMPLETIME	QUANT	1.00000E-002	Sa&mple Period (s)
CHARGESTOPAT1	MULTIPARAM	4	1.00000E+000	Charge Stop At &1	Voltage > Limit	V
CHARGESTOPAT2	MULTIPARAM	0	0.00000E+000	Charge Stop At &2	None	N/A
AESBHCSELECTOR	TOGGLE	F	Save Both Half Cells
IRCOMP	TOGGLE	F	IR &Measure
EOC	QUANT	0	Open Circuit (V)
SEQUENCER	TOGGLE	TRUE	Run as Sequence
PSTATMODEL	IQUANT	53	Pstat Model
PSTATSECTION	LABEL	IFC5000-01520	Pstat Section
PSTATSERIALNO	LABEL	01520	Pstat Serial Number
CTRLMODE	IQUANT	0	Control Mode
ELECTROMETER	IQUANT	1	RE=0 or CS=1
IESTAB	IQUANT	0	I/E Stability
CASPEED	IQUANT	4	Control Amp Speed
CONVENTION	IQUANT	1	Current Convention
ICHRANGE	IQUANT	2	Ich Range
ICHRANGEMODE	TOGGLE	T	Ich Auto Range
ICHOFFSETENABLE	TOGGLE	F	Ich Offset Enable
ICHOFFSET	QUANT	0	Ich Offset (V)
ICHFILTER	IQUANT	1	Ich Filter
VCHRANGE	IQUANT	2	Vch Range
VCHRANGEMODE	TOGGLE	T	Vch Auto Range
VCHOFFSETENABLE	TOGGLE	F	Vch Offset Enable
VCHOFFSET	QUANT	0	Vch Offset (V)
VCHFILTER	IQUANT	1	Vch Filter
IERANGELOWERLIMIT	IQUANT	9	I/E Range Lower Limit
IERANGEMODE	TOGGLE	F	I/E AutoRange
IERANGE	IQUANT	10	I/E Range
ACHSELECT	IQUANT	1	Ach Select
ACHRANGE	IQUANT	2	Ach Range
ACHOFFSETENABLE	TOGGLE	F	Ach Offset Enable
ACHOFFSET	QUANT	0	Ach Offset (V)
ACHFILTER	IQUANT	1	Ach Filter
CABLEID	IQUANT	14	Cable ID
DCCALDATE	LABEL	20-10-2016	DC Calibration Date
ACCALDATE	LABEL	12/3/2015	AC Calibration Date
FRAMEWORKVERSION	QUANT	7.01	Framework Version
INSTRUMENTVERSION	LABEL	4.00	Instrument Version
CURVE	TABLE	53
	Pt	T	Vf	Im	Vu	Pwr	Sig	Ach	Temp	IERange	Over
	#	s	V	A	V	W	V	V	deg C	#	bits
	0	0.013333	6.56182E-001	5.99526E-003	0.00000E+000	3.93398E-003	3.59960E-001	-1.17799E+000	3.57780E+000	10	...........
	1	0.026667	6.65538E-001	5.98845E-003	0.00000E+000	3.98554E-003	3.59960E-001	-1.17799E+000	3.57780E+000	10	...........
	2	0.04	6.74144E-001	5.99537E-003	0.00000E+000	4.04174E-003	3.59960E-001	-1.17074E+000	3.57780E+000	10	...........
	3	0.053333	6.82285E-001	5.99193E-003	0.00000E+000	4.08821E-003	3.59960E-001	-1.17786E+000	3.57780E+000	10	...........
	4	0.066667	6.90141E-001	5.99186E-003	0.00000E+000	4.13523E-003	3.59960E-001	-1.17799E+000	3.57780E+000	10	...........
	5	0.08	6.97832E-001	5.99395E-003	0.00000E+000	4.18277E-003	3.59960E-001	-1.17069E+000	3.57780E+000	10	...........
	6	0.093333	7.05285E-001	5.99677E-003	0.00000E+000	4.22944E-003	3.59960E-001	-1.17786E+000	3.57780E+000	10	...........
	7	0.106667	7.12634E-001	5.99605E-003	0.00000E+000	4.27299E-003	3.59960E-001	-1.17790E+000	3.57780E+000	10	...........
	8	0.12	7.19969E-001	5.99539E-003	0.00000E+000	4.31649E-003	3.59960E-001	-1.17075E+000	3.57780E+000	10	...........
	9	0.133333	7.27168E-001	5.99400E-003	0.00000E+000	4.35865E-003	3.59960E-001	-1.17814E+000	3.57780E+000	10	...........
	10	0.146667	7.34276E-001	5.99490E-003	0.00000E+000	4.40191E-003	3.59960E-001	-1.17797E+000	3.57780E+000	10	...........
	11	0.16	7.41338E-001	5.99573E-003	0.00000E+000	4.44487E-003	3.59960E-001	-1.17077E+000	3.57780E+000	10	...........
	12	0.173333	7.48392E-001	5.99941E-003	0.00000E+000	4.48991E-003	3.59960E-001	-1.17804E+000	3.57780E+000	10	...........
	13	0.186667	7.55442E-001	5.99392E-003	0.00000E+000	4.52806E-003	3.59960E-001	-1.17782E+000	3.57780E+000	10	...........
	14	0.2	7.62394E-001	5.99286E-003	0.00000E+000	4.56892E-003	3.59960E-001	-1.17066E+000	3.57780E+000	10	...........
	15	0.213333	7.69267E-001	5.99189E-003	0.00000E+000	4.60937E-003	3.59960E-001	-1.17783E+000	3.57780E+000	10	...........
	16	0.226667	7.76155E-001	5.99481E-003	0.00000E+000	4.65290E-003	3.59960E-001	-1.17740E+000	3.57780E+000	10	...........
	17	0.24	7.83014E-001	5.99089E-003	0.00000E+000	4.69095E-003	3.59960E-001	-1.16997E+000	3.57780E+000	10	...........
	18	0.253333	7.89876E-001	5.99746E-003	0.00000E+000	4.73725E-003	3.59960E-001	-1.17762E+000	3.57780E+000	10	...........
	19	0.266667	7.96706E-001	5.99199E-003	0.00000E+000	4.77385E-003	3.59960E-001	-1.17741E+000	3.57780E+000	10	...........
	20	0.28	8.03488E-001	5.99877E-003	0.00000E+000	4.81993E-003	3.59960E-001	-1.17007E+000	3.57780E+000	10	...........
	21	0.293333	8.10234E-001	5.99532E-003	0.00000E+000	4.85762E-003	3.59960E-001	-1.17745E+000	3.57780E+000	10	...........
	22	0.306667	8.16951E-001	5.99353E-003	0.00000E+000	4.89642E-003	3.59960E-001	-1.17728E+000	3.57780E+000	10	...........
	23	0.32	8.23650E-001	5.99169E-003	0.00000E+000	4.93506E-003	3.59960E-001	-1.17026E+000	3.57780E+000	10	...........
	24	0.333333	8.30300E-001	5.99053E-003	0.00000E+000	4.97393E-003	3.59960E-001	-1.17771E+000	3.57780E+000	10	...........
	25	0.346667	8.36920E-001	5.98942E-003	0.00000E+000	5.01267E-003	3.59960E-001	-1.17718E+000	3.57780E+000	10	...........
	26	0.36	8.43550E-001	5.99036E-003	0.00000E+000	5.05317E-003	3.59960E-001	-1.17003E+000	3.57780E+000	10	...........
	27	0.373333	8.50135E-001	5.99644E-003	0.00000E+000	5.09778E-003	3.59960E-001	-1.17758E+000	3.57780E+000	10	...........
	28	0.386667	8.56706E-001	5.99477E-003	0.00000E+000	5.13576E-003	3.59960E-001	-1.17735E+000	3.57780E+000	10	...........
	29	0.4	8.63238E-001	5.99567E-003	0.00000E+000	5.17569E-003	3.59960E-001	-1.17020E+000	3.57780E+000	10	...........
	30	0.413333	8.69793E-001	5.99272E-003	0.00000E+000	5.21243E-003	3.59960E-001	-1.17771E+000	3.57780E+000	10	...........
	31	0.426667	8.76202E-001	5.99036E-003	0.00000E+000	5.24877E-003	3.59960E-001	-1.17698E+000	3.57780E+000	10	...........
	32	0.44	8.82658E-001	5.99243E-003	0.00000E+000	5.28926E-003	3.59960E-001	-1.17016E+000	3.57780E+000	10	...........
	33	0.453333	8.89082E-001	5.99447E-003	0.00000E+000	5.32957E-003	3.59960E-001	-1.17785E+000	3.57780E+000	10	...........
	34	0.466667	8.95413E-001	5.99573E-003	0.00000E+000	5.36865E-003	3.59960E-001	-1.17739E+000	3.57780E+000	10	...........
	35	0.48	9.01721E-001	5.99243E-003	0.00000E+000	5.40350E-003	3.59960E-001	-1.17029E+000	3.57780E+000	10	...........
	36	0.493333	9.08021E-001	5.99518E-003	0.00000E+000	5.44375E-003	3.59960E-001	-1.17761E+000	3.57780E+000	10	...........
	37	0.506667	9.14276E-001	5.99344E-003	0.00000E+000	5.47966E-003	3.59960E-001	-1.17684E+000	3.57780E+000	10	...........
	38	0.52	9.20496E-001	5.99397E-003	0.00000E+000	5.51742E-003	3.59960E-001	-1.17022E+000	3.57780E+000	10	...........
	39	0.533333	9.26702E-001	5.99191E-003	0.00000E+000	5.55272E-003	3.59960E-001	-1.17782E+000	3.57780E+000	10	...........
	40	0.546667	9.32787E-001	5.99402E-003	0.00000E+000	5.59114E-003	3.59960E-001	-1.17687E+000	3.57780E+000	10	...........
	41	0.56	9.38851E-001	5.99415E-003	0.00000E+000	5.62761E-003	3.59960E-001	-1.16968E+000	3.57780E+000	10	...........
	42	0.573333	9.44917E-001	5.99157E-003	0.00000E+000	5.66154E-003	3.59960E-001	-1.17738E+000	3.57780E+000	10	...........
	43	0.586667	9.50917E-001	5.99407E-003	0.00000E+000	5.69987E-003	3.59960E-001	-1.17672E+000	3.57780E+000	10	...........
	44	0.6	9.56817E-001	5.99705E-003	0.00000E+000	5.73807E-003	3.59960E-001	-1.16990E+000	3.57780E+000	10	...........
	45	0.613333	9.62651E-001	5.99641E-003	0.00000E+000	5.77245E-003	3.59960E-001	-1.17741E+000	3.57780E+000	10	...........
	46	0.626667	9.68529E-001	5.99757E-003	0.00000E+000	5.80882E-003	3.59960E-001	-1.17655E+000	3.57780E+000	10	...........
	47	0.64	9.74353E-001	5.99511E-003	0.00000E+000	5.84135E-003	3.59960E-001	-1.16970E+000	3.57780E+000	10	...........
	48	0.653333	9.80077E-001	5.99493E-003	0.00000E+000	5.87549E-003	3.59960E-001	-1.17760E+000	3.57780E+000	10	...........
	49	0.666667	9.85740E-001	5.99086E-003	0.00000E+000	5.90543E-003	3.59960E-001	-1.17683E+000	3.57780E+000	10	...........
	50	0.68	9.91372E-001	5.99298E-003	0.00000E+000	5.94127E-003	3.59960E-001	-1.16990E+000	3.57780E+000	10	...........
	51	0.693333	9.96912E-001	5.98790E-003	0.00000E+000	5.96941E-003	3.59960E-001	-1.17740E+000	3.57780E+000	10	...........
	52	0.695	1.00001E+000	5.98628E-003	0.00000E+000	5.98637E-003	3.59960E-001	-1.15687E+000	3.57780E+000	10	...........
STARTTIMEOFFSET	QUANT	1554.861	Start Time Offset (s)