File: Data/CV_CRGO300517_1/PWRCCD_CRGO300517_1/CHARGE_DISCHARGE/CHARGE_#426.DTA
EXPLAIN
TAG	PWR800_CHARGE
TITLE	LABEL	PWR Cyclic Charge Discharge (Cell) - Charge Step	Test &Identifier
DATE	LABEL	22-6-2017	Date
TIME	LABEL	15:53:00	Time
NOTES	NOTES	3	&Notes...
	supercap test cell
	0.6mg
	6M KOH
PSTAT	PSTAT	IFC5000-01520	Potentiostat
CAPACITY	QUANT	1.00000E-003	Capacity (A-hr)
CELLTYPE	SELECTOR	1	&Cell Type
WORKINGCONNECTION	SELECTOR	0	&Working Lead
MAXCHARGETIME	VARIABLEANDUNITS	1.00000E+002	s	1.00000E+002	second(s)	Max &Charge Time
CHARGECURRENT	QUANT	6.00000E-003	&Charge Current (A)
VOLTAGEFINISH	TWOPARAM	F	1.00000E-003	3.60000E+003	&Voltage Finish	 I (A) < 	Max Time(s)
SAMPLETIME	QUANT	1.00000E-002	Sa&mple Period (s)
CHARGESTOPAT1	MULTIPARAM	4	1.00000E+000	Charge Stop At &1	Voltage > Limit	V
CHARGESTOPAT2	MULTIPARAM	0	0.00000E+000	Charge Stop At &2	None	N/A
AESBHCSELECTOR	TOGGLE	F	Save Both Half Cells
IRCOMP	TOGGLE	F	IR &Measure
EOC	QUANT	0	Open Circuit (V)
SEQUENCER	TOGGLE	TRUE	Run as Sequence
PSTATMODEL	IQUANT	53	Pstat Model
PSTATSECTION	LABEL	IFC5000-01520	Pstat Section
PSTATSERIALNO	LABEL	01520	Pstat Serial Number
CTRLMODE	IQUANT	0	Control Mode
ELECTROMETER	IQUANT	1	RE=0 or CS=1
IESTAB	IQUANT	0	I/E Stability
CASPEED	IQUANT	4	Control Amp Speed
CONVENTION	IQUANT	1	Current Convention
ICHRANGE	IQUANT	2	Ich Range
ICHRANGEMODE	TOGGLE	T	Ich Auto Range
ICHOFFSETENABLE	TOGGLE	F	Ich Offset Enable
ICHOFFSET	QUANT	0	Ich Offset (V)
ICHFILTER	IQUANT	1	Ich Filter
VCHRANGE	IQUANT	2	Vch Range
VCHRANGEMODE	TOGGLE	T	Vch Auto Range
VCHOFFSETENABLE	TOGGLE	F	Vch Offset Enable
VCHOFFSET	QUANT	0	Vch Offset (V)
VCHFILTER	IQUANT	1	Vch Filter
IERANGELOWERLIMIT	IQUANT	9	I/E Range Lower Limit
IERANGEMODE	TOGGLE	F	I/E AutoRange
IERANGE	IQUANT	10	I/E Range
ACHSELECT	IQUANT	1	Ach Select
ACHRANGE	IQUANT	2	Ach Range
ACHOFFSETENABLE	TOGGLE	F	Ach Offset Enable
ACHOFFSET	QUANT	0	Ach Offset (V)
ACHFILTER	IQUANT	1	Ach Filter
CABLEID	IQUANT	14	Cable ID
DCCALDATE	LABEL	20-10-2016	DC Calibration Date
ACCALDATE	LABEL	12/3/2015	AC Calibration Date
FRAMEWORKVERSION	QUANT	7.01	Framework Version
INSTRUMENTVERSION	LABEL	4.00	Instrument Version
CURVE	TABLE	60
	Pt	T	Vf	Im	Vu	Pwr	Sig	Ach	Temp	IERange	Over
	#	s	V	A	V	W	V	V	deg C	#	bits
	0	0.013333	6.26697E-001	5.99287E-003	0.00000E+000	3.75572E-003	3.59960E-001	-1.14146E+000	3.57670E+000	10	...........
	1	0.026667	6.35468E-001	5.99390E-003	0.00000E+000	3.80893E-003	3.59960E-001	-1.13662E+000	3.57670E+000	10	...........
	2	0.04	6.43557E-001	5.99527E-003	0.00000E+000	3.85830E-003	3.59960E-001	-1.13203E+000	3.57670E+000	10	...........
	3	0.053333	6.51198E-001	5.99127E-003	0.00000E+000	3.90150E-003	3.59960E-001	-1.14164E+000	3.57670E+000	10	...........
	4	0.066667	6.58597E-001	5.99401E-003	0.00000E+000	3.94763E-003	3.59960E-001	-1.13625E+000	3.57670E+000	10	...........
	5	0.08	6.65799E-001	5.99458E-003	0.00000E+000	3.99119E-003	3.59960E-001	-1.13171E+000	3.57670E+000	10	...........
	6	0.093333	6.72837E-001	5.99906E-003	0.00000E+000	4.03639E-003	3.59960E-001	-1.14160E+000	3.57670E+000	10	...........
	7	0.106667	6.79739E-001	5.99193E-003	0.00000E+000	4.07295E-003	3.59960E-001	-1.13619E+000	3.57670E+000	10	...........
	8	0.12	6.86608E-001	5.99507E-003	0.00000E+000	4.11627E-003	3.59960E-001	-1.13167E+000	3.57670E+000	10	...........
	9	0.133333	6.93423E-001	5.99294E-003	0.00000E+000	4.15564E-003	3.59960E-001	-1.14143E+000	3.57670E+000	10	...........
	10	0.146667	7.00113E-001	5.99541E-003	0.00000E+000	4.19746E-003	3.59960E-001	-1.13594E+000	3.57670E+000	10	...........
	11	0.16	7.06803E-001	5.99478E-003	0.00000E+000	4.23713E-003	3.59960E-001	-1.13147E+000	3.57670E+000	10	...........
	12	0.173333	7.13417E-001	5.99017E-003	0.00000E+000	4.27349E-003	3.59960E-001	-1.14165E+000	3.57670E+000	10	...........
	13	0.186667	7.20080E-001	5.99367E-003	0.00000E+000	4.31592E-003	3.59960E-001	-1.13586E+000	3.57670E+000	10	...........
	14	0.2	7.26595E-001	5.99604E-003	0.00000E+000	4.35670E-003	3.59960E-001	-1.13157E+000	3.57670E+000	10	...........
	15	0.213333	7.33122E-001	5.99417E-003	0.00000E+000	4.39445E-003	3.59960E-001	-1.14167E+000	3.57670E+000	10	...........
	16	0.226667	7.39638E-001	5.99414E-003	0.00000E+000	4.43349E-003	3.59960E-001	-1.13580E+000	3.57670E+000	10	...........
	17	0.24	7.46159E-001	5.99137E-003	0.00000E+000	4.47052E-003	3.59960E-001	-1.13178E+000	3.57670E+000	10	...........
	18	0.253333	7.52643E-001	5.99501E-003	0.00000E+000	4.51210E-003	3.59960E-001	-1.14171E+000	3.57670E+000	10	...........
	19	0.266667	7.59142E-001	5.99403E-003	0.00000E+000	4.55032E-003	3.59960E-001	-1.13546E+000	3.57670E+000	10	...........
	20	0.28	7.65571E-001	5.99168E-003	0.00000E+000	4.58706E-003	3.59960E-001	-1.13148E+000	3.57670E+000	10	...........
	21	0.293333	7.72020E-001	5.99616E-003	0.00000E+000	4.62915E-003	3.59960E-001	-1.14134E+000	3.57670E+000	10	...........
	22	0.306667	7.78413E-001	5.99140E-003	0.00000E+000	4.66379E-003	3.59960E-001	-1.13497E+000	3.57670E+000	10	...........
	23	0.32	7.84817E-001	5.99519E-003	0.00000E+000	4.70513E-003	3.59960E-001	-1.13095E+000	3.57670E+000	10	...........
	24	0.333333	7.91197E-001	5.99400E-003	0.00000E+000	4.74243E-003	3.59960E-001	-1.14109E+000	3.57670E+000	10	...........
	25	0.346667	7.97599E-001	5.99752E-003	0.00000E+000	4.78361E-003	3.59960E-001	-1.13484E+000	3.57670E+000	10	...........
	26	0.36	8.03991E-001	6.00044E-003	0.00000E+000	4.82430E-003	3.59960E-001	-1.13101E+000	3.57670E+000	10	...........
	27	0.373333	8.10319E-001	5.99051E-003	0.00000E+000	4.85422E-003	3.59960E-001	-1.14141E+000	3.57670E+000	10	...........
	28	0.386667	8.16639E-001	5.99755E-003	0.00000E+000	4.89783E-003	3.59960E-001	-1.13469E+000	3.57670E+000	10	...........
	29	0.4	8.22985E-001	5.99786E-003	0.00000E+000	4.93615E-003	3.59960E-001	-1.13077E+000	3.57670E+000	10	...........
	30	0.413333	8.29293E-001	5.99295E-003	0.00000E+000	4.96991E-003	3.59960E-001	-1.14119E+000	3.57670E+000	10	...........
	31	0.426667	8.35561E-001	5.99514E-003	0.00000E+000	5.00930E-003	3.59960E-001	-1.13450E+000	3.57670E+000	10	...........
	32	0.44	8.41830E-001	5.99497E-003	0.00000E+000	5.04675E-003	3.59960E-001	-1.13091E+000	3.57670E+000	10	...........
	33	0.453333	8.48159E-001	5.99200E-003	0.00000E+000	5.08217E-003	3.59960E-001	-1.14116E+000	3.57670E+000	10	...........
	34	0.466667	8.54360E-001	5.99217E-003	0.00000E+000	5.11948E-003	3.59960E-001	-1.13411E+000	3.57670E+000	10	...........
	35	0.48	8.60599E-001	5.99836E-003	0.00000E+000	5.16218E-003	3.59960E-001	-1.13040E+000	3.57670E+000	10	...........
	36	0.493333	8.66777E-001	5.99278E-003	0.00000E+000	5.19441E-003	3.59960E-001	-1.14110E+000	3.57670E+000	10	...........
	37	0.506667	8.72970E-001	5.99785E-003	0.00000E+000	5.23594E-003	3.59960E-001	-1.13436E+000	3.57670E+000	10	...........
	38	0.52	8.79129E-001	5.99886E-003	0.00000E+000	5.27377E-003	3.59960E-001	-1.13081E+000	3.57670E+000	10	...........
	39	0.533333	8.85315E-001	5.99664E-003	0.00000E+000	5.30892E-003	3.59960E-001	-1.14106E+000	3.57670E+000	10	...........
	40	0.546667	8.91409E-001	5.99457E-003	0.00000E+000	5.34362E-003	3.59960E-001	-1.13392E+000	3.57670E+000	10	...........
	41	0.56	8.97531E-001	5.99669E-003	0.00000E+000	5.38222E-003	3.59960E-001	-1.13076E+000	3.57670E+000	10	...........
	42	0.573333	9.03592E-001	5.99091E-003	0.00000E+000	5.41334E-003	3.59960E-001	-1.14130E+000	3.57670E+000	10	...........
	43	0.586667	9.09669E-001	5.99085E-003	0.00000E+000	5.44969E-003	3.59960E-001	-1.13400E+000	3.57670E+000	10	...........
	44	0.6	9.15664E-001	5.99148E-003	0.00000E+000	5.48618E-003	3.59960E-001	-1.13058E+000	3.57670E+000	10	...........
	45	0.613333	9.21688E-001	5.99512E-003	0.00000E+000	5.52562E-003	3.59960E-001	-1.14072E+000	3.57670E+000	10	...........
	46	0.626667	9.27670E-001	5.99017E-003	0.00000E+000	5.55690E-003	3.59960E-001	-1.13330E+000	3.57670E+000	10	...........
	47	0.64	9.33607E-001	5.99388E-003	0.00000E+000	5.59593E-003	3.59960E-001	-1.13011E+000	3.57670E+000	10	...........
	48	0.653333	9.39463E-001	5.99494E-003	0.00000E+000	5.63202E-003	3.59960E-001	-1.14070E+000	3.57670E+000	10	...........
	49	0.666667	9.45323E-001	5.99035E-003	0.00000E+000	5.66281E-003	3.59960E-001	-1.13303E+000	3.57670E+000	10	...........
	50	0.68	9.51132E-001	5.99186E-003	0.00000E+000	5.69905E-003	3.59960E-001	-1.12974E+000	3.57670E+000	10	...........
	51	0.693333	9.56909E-001	5.99834E-003	0.00000E+000	5.73987E-003	3.59960E-001	-1.14077E+000	3.57670E+000	10	...........
	52	0.706667	9.62610E-001	5.99106E-003	0.00000E+000	5.76705E-003	3.59960E-001	-1.13291E+000	3.57670E+000	10	...........
	53	0.72	9.68345E-001	5.99601E-003	0.00000E+000	5.80621E-003	3.59960E-001	-1.12996E+000	3.57670E+000	10	...........
	54	0.733333	9.74018E-001	5.99713E-003	0.00000E+000	5.84131E-003	3.59960E-001	-1.14048E+000	3.57670E+000	10	...........
	55	0.746667	9.79634E-001	5.99702E-003	0.00000E+000	5.87489E-003	3.59960E-001	-1.13250E+000	3.57670E+000	10	...........
	56	0.76	9.85198E-001	5.99673E-003	0.00000E+000	5.90797E-003	3.59960E-001	-1.12969E+000	3.57670E+000	10	...........
	57	0.773333	9.90728E-001	5.99187E-003	0.00000E+000	5.93632E-003	3.59960E-001	-1.14033E+000	3.57670E+000	10	...........
	58	0.786667	9.96174E-001	5.99578E-003	0.00000E+000	5.97284E-003	3.59960E-001	-1.13214E+000	3.57670E+000	10	...........
	59	0.791667	9.99924E-001	5.98411E-003	0.00000E+000	5.98366E-003	3.59960E-001	-1.14071E+000	3.57670E+000	10	...........
STARTTIMEOFFSET	QUANT	743.7867	Start Time Offset (s)