File: Data/CV_CRGO300517_1/PWRCCD_CRGO300517_1/CHARGE_DISCHARGE/CHARGE_#659.DTA
EXPLAIN
TAG	PWR800_CHARGE
TITLE	LABEL	PWR Cyclic Charge Discharge (Cell) - Charge Step	Test &Identifier
DATE	LABEL	22-6-2017	Date
TIME	LABEL	16:02:01	Time
NOTES	NOTES	3	&Notes...
	supercap test cell
	0.6mg
	6M KOH
PSTAT	PSTAT	IFC5000-01520	Potentiostat
CAPACITY	QUANT	1.00000E-003	Capacity (A-hr)
CELLTYPE	SELECTOR	1	&Cell Type
WORKINGCONNECTION	SELECTOR	0	&Working Lead
MAXCHARGETIME	VARIABLEANDUNITS	1.00000E+002	s	1.00000E+002	second(s)	Max &Charge Time
CHARGECURRENT	QUANT	6.00000E-003	&Charge Current (A)
VOLTAGEFINISH	TWOPARAM	F	1.00000E-003	3.60000E+003	&Voltage Finish	 I (A) < 	Max Time(s)
SAMPLETIME	QUANT	1.00000E-002	Sa&mple Period (s)
CHARGESTOPAT1	MULTIPARAM	4	1.00000E+000	Charge Stop At &1	Voltage > Limit	V
CHARGESTOPAT2	MULTIPARAM	0	0.00000E+000	Charge Stop At &2	None	N/A
AESBHCSELECTOR	TOGGLE	F	Save Both Half Cells
IRCOMP	TOGGLE	F	IR &Measure
EOC	QUANT	0	Open Circuit (V)
SEQUENCER	TOGGLE	TRUE	Run as Sequence
PSTATMODEL	IQUANT	53	Pstat Model
PSTATSECTION	LABEL	IFC5000-01520	Pstat Section
PSTATSERIALNO	LABEL	01520	Pstat Serial Number
CTRLMODE	IQUANT	0	Control Mode
ELECTROMETER	IQUANT	1	RE=0 or CS=1
IESTAB	IQUANT	0	I/E Stability
CASPEED	IQUANT	4	Control Amp Speed
CONVENTION	IQUANT	1	Current Convention
ICHRANGE	IQUANT	2	Ich Range
ICHRANGEMODE	TOGGLE	T	Ich Auto Range
ICHOFFSETENABLE	TOGGLE	F	Ich Offset Enable
ICHOFFSET	QUANT	0	Ich Offset (V)
ICHFILTER	IQUANT	1	Ich Filter
VCHRANGE	IQUANT	2	Vch Range
VCHRANGEMODE	TOGGLE	T	Vch Auto Range
VCHOFFSETENABLE	TOGGLE	F	Vch Offset Enable
VCHOFFSET	QUANT	0	Vch Offset (V)
VCHFILTER	IQUANT	1	Vch Filter
IERANGELOWERLIMIT	IQUANT	9	I/E Range Lower Limit
IERANGEMODE	TOGGLE	F	I/E AutoRange
IERANGE	IQUANT	10	I/E Range
ACHSELECT	IQUANT	1	Ach Select
ACHRANGE	IQUANT	2	Ach Range
ACHOFFSETENABLE	TOGGLE	F	Ach Offset Enable
ACHOFFSET	QUANT	0	Ach Offset (V)
ACHFILTER	IQUANT	1	Ach Filter
CABLEID	IQUANT	14	Cable ID
DCCALDATE	LABEL	20-10-2016	DC Calibration Date
ACCALDATE	LABEL	12/3/2015	AC Calibration Date
FRAMEWORKVERSION	QUANT	7.01	Framework Version
INSTRUMENTVERSION	LABEL	4.00	Instrument Version
CURVE	TABLE	56
	Pt	T	Vf	Im	Vu	Pwr	Sig	Ach	Temp	IERange	Over
	#	s	V	A	V	W	V	V	deg C	#	bits
	0	0.013333	6.41409E-001	5.99143E-003	0.00000E+000	3.84296E-003	3.59960E-001	-1.15270E+000	3.57660E+000	10	...........
	1	0.026667	6.50457E-001	5.99564E-003	0.00000E+000	3.89991E-003	3.59960E-001	-1.16263E+000	3.57660E+000	10	...........
	2	0.04	6.58772E-001	5.99374E-003	0.00000E+000	3.94851E-003	3.59960E-001	-1.15193E+000	3.57660E+000	10	...........
	3	0.053333	6.66668E-001	5.99500E-003	0.00000E+000	3.99668E-003	3.59960E-001	-1.15270E+000	3.57660E+000	10	...........
	4	0.066667	6.74291E-001	5.99381E-003	0.00000E+000	4.04157E-003	3.59960E-001	-1.16257E+000	3.57660E+000	10	...........
	5	0.08	6.81704E-001	5.99526E-003	0.00000E+000	4.08699E-003	3.59960E-001	-1.15173E+000	3.57660E+000	10	...........
	6	0.093333	6.88963E-001	6.00156E-003	0.00000E+000	4.13485E-003	3.59960E-001	-1.15303E+000	3.57660E+000	10	...........
	7	0.106667	6.96133E-001	5.99189E-003	0.00000E+000	4.17115E-003	3.59960E-001	-1.16250E+000	3.57660E+000	10	...........
	8	0.12	7.03154E-001	5.99030E-003	0.00000E+000	4.21210E-003	3.59960E-001	-1.15170E+000	3.57660E+000	10	...........
	9	0.133333	7.10111E-001	5.99518E-003	0.00000E+000	4.25724E-003	3.59960E-001	-1.15288E+000	3.57660E+000	10	...........
	10	0.146667	7.16982E-001	5.99716E-003	0.00000E+000	4.29985E-003	3.59960E-001	-1.16221E+000	3.57660E+000	10	...........
	11	0.16	7.23886E-001	5.99627E-003	0.00000E+000	4.34062E-003	3.59960E-001	-1.15146E+000	3.57660E+000	10	...........
	12	0.173333	7.30661E-001	5.99471E-003	0.00000E+000	4.38010E-003	3.59960E-001	-1.15271E+000	3.57660E+000	10	...........
	13	0.186667	7.37427E-001	5.99581E-003	0.00000E+000	4.42147E-003	3.59960E-001	-1.16182E+000	3.57662E+000	10	...........
	14	0.2	7.44202E-001	5.99522E-003	0.00000E+000	4.46165E-003	3.59960E-001	-1.15110E+000	3.57680E+000	10	...........
	15	0.213333	7.50937E-001	5.99581E-003	0.00000E+000	4.50248E-003	3.59960E-001	-1.15259E+000	3.57680E+000	10	...........
	16	0.226667	7.57668E-001	5.99398E-003	0.00000E+000	4.54145E-003	3.59960E-001	-1.16179E+000	3.57680E+000	10	...........
	17	0.24	7.64321E-001	5.99399E-003	0.00000E+000	4.58133E-003	3.59960E-001	-1.15116E+000	3.57680E+000	10	...........
	18	0.253333	7.70972E-001	5.99535E-003	0.00000E+000	4.62224E-003	3.59960E-001	-1.15282E+000	3.57680E+000	10	...........
	19	0.266667	7.77624E-001	5.99469E-003	0.00000E+000	4.66162E-003	3.59960E-001	-1.16157E+000	3.57680E+000	10	...........
	20	0.28	7.84250E-001	5.99476E-003	0.00000E+000	4.70139E-003	3.59960E-001	-1.15085E+000	3.57680E+000	10	...........
	21	0.293333	7.90835E-001	5.99677E-003	0.00000E+000	4.74246E-003	3.59960E-001	-1.15278E+000	3.57680E+000	10	...........
	22	0.306667	7.97429E-001	5.99171E-003	0.00000E+000	4.77796E-003	3.59960E-001	-1.16155E+000	3.57680E+000	10	...........
	23	0.32	8.03899E-001	5.99079E-003	0.00000E+000	4.81599E-003	3.59960E-001	-1.15081E+000	3.57680E+000	10	...........
	24	0.333333	8.10454E-001	5.99758E-003	0.00000E+000	4.86076E-003	3.59960E-001	-1.15269E+000	3.57680E+000	10	...........
	25	0.346667	8.16988E-001	5.99323E-003	0.00000E+000	4.89639E-003	3.59960E-001	-1.16100E+000	3.57680E+000	10	...........
	26	0.36	8.23528E-001	5.99913E-003	0.00000E+000	4.94045E-003	3.59960E-001	-1.15043E+000	3.57680E+000	10	...........
	27	0.373333	8.29976E-001	5.99773E-003	0.00000E+000	4.97798E-003	3.59960E-001	-1.15287E+000	3.57680E+000	10	...........
	28	0.386667	8.36426E-001	5.99856E-003	0.00000E+000	5.01735E-003	3.59960E-001	-1.16115E+000	3.57680E+000	10	...........
	29	0.4	8.42896E-001	6.00141E-003	0.00000E+000	5.05856E-003	3.59960E-001	-1.15070E+000	3.57680E+000	10	...........
	30	0.413333	8.49286E-001	5.99174E-003	0.00000E+000	5.08870E-003	3.59960E-001	-1.15270E+000	3.57680E+000	10	...........
	31	0.426667	8.55659E-001	5.99561E-003	0.00000E+000	5.13020E-003	3.59960E-001	-1.16078E+000	3.57680E+000	10	...........
	32	0.44	8.62059E-001	5.99344E-003	0.00000E+000	5.16670E-003	3.59960E-001	-1.15052E+000	3.57680E+000	10	...........
	33	0.453333	8.68398E-001	5.98887E-003	0.00000E+000	5.20072E-003	3.59960E-001	-1.15329E+000	3.57680E+000	10	...........
	34	0.466667	8.74723E-001	5.99109E-003	0.00000E+000	5.24054E-003	3.59960E-001	-1.16083E+000	3.57680E+000	10	...........
	35	0.48	8.80990E-001	5.99078E-003	0.00000E+000	5.27781E-003	3.59960E-001	-1.15028E+000	3.57680E+000	10	...........
	36	0.493333	8.87245E-001	5.99047E-003	0.00000E+000	5.31502E-003	3.59960E-001	-1.15258E+000	3.57680E+000	10	...........
	37	0.506667	8.93505E-001	5.99857E-003	0.00000E+000	5.35975E-003	3.59960E-001	-1.16035E+000	3.57680E+000	10	...........
	38	0.52	8.99724E-001	5.98886E-003	0.00000E+000	5.38832E-003	3.59960E-001	-1.15006E+000	3.57680E+000	10	...........
	39	0.533333	9.05930E-001	5.99241E-003	0.00000E+000	5.42871E-003	3.59960E-001	-1.15289E+000	3.57680E+000	10	...........
	40	0.546667	9.12065E-001	5.99447E-003	0.00000E+000	5.46735E-003	3.59960E-001	-1.16000E+000	3.57680E+000	10	...........
	41	0.56	9.18179E-001	5.99424E-003	0.00000E+000	5.50378E-003	3.59960E-001	-1.14971E+000	3.57680E+000	10	...........
	42	0.573333	9.24317E-001	5.99406E-003	0.00000E+000	5.54042E-003	3.59960E-001	-1.15292E+000	3.57680E+000	10	...........
	43	0.586667	9.30322E-001	5.99865E-003	0.00000E+000	5.58068E-003	3.59960E-001	-1.16001E+000	3.57680E+000	10	...........
	44	0.6	9.36307E-001	5.99712E-003	0.00000E+000	5.61514E-003	3.59960E-001	-1.14996E+000	3.57680E+000	10	...........
	45	0.613333	9.42221E-001	5.99387E-003	0.00000E+000	5.64756E-003	3.59960E-001	-1.15306E+000	3.57680E+000	10	...........
	46	0.626667	9.48175E-001	5.99739E-003	0.00000E+000	5.68657E-003	3.59960E-001	-1.15984E+000	3.57680E+000	10	...........
	47	0.64	9.54042E-001	5.99294E-003	0.00000E+000	5.71751E-003	3.59960E-001	-1.14999E+000	3.57680E+000	10	...........
	48	0.653333	9.59874E-001	5.99720E-003	0.00000E+000	5.75656E-003	3.59960E-001	-1.15321E+000	3.57680E+000	10	...........
	49	0.666667	9.65643E-001	5.99487E-003	0.00000E+000	5.78890E-003	3.59960E-001	-1.15951E+000	3.57680E+000	10	...........
	50	0.68	9.71396E-001	5.99376E-003	0.00000E+000	5.82231E-003	3.59960E-001	-1.14953E+000	3.57680E+000	10	...........
	51	0.693333	9.77098E-001	5.99301E-003	0.00000E+000	5.85576E-003	3.59960E-001	-1.15310E+000	3.57680E+000	10	...........
	52	0.706667	9.82776E-001	5.99644E-003	0.00000E+000	5.89316E-003	3.59960E-001	-1.15960E+000	3.57680E+000	10	...........
	53	0.72	9.88376E-001	5.99768E-003	0.00000E+000	5.92796E-003	3.59960E-001	-1.14968E+000	3.57680E+000	10	...........
	54	0.733333	9.93890E-001	5.99379E-003	0.00000E+000	5.95717E-003	3.59960E-001	-1.15337E+000	3.57680E+000	10	...........
	55	0.743333	9.98720E-001	5.99545E-003	0.00000E+000	5.98777E-003	3.59960E-001	-1.15827E+000	3.57680E+000	10	...........
STARTTIMEOFFSET	QUANT	1098.813	Start Time Offset (s)