File: Data/CV_CRGO300517_1/PWRCCD_CRGO300517_1/CHARGE_DISCHARGE/CHARGE_#155.DTA
EXPLAIN
TAG	PWR800_CHARGE
TITLE	LABEL	PWR Cyclic Charge Discharge (Cell) - Charge Step	Test &Identifier
DATE	LABEL	22-6-2017	Date
TIME	LABEL	15:41:54	Time
NOTES	NOTES	3	&Notes...
	supercap test cell
	0.6mg
	6M KOH
PSTAT	PSTAT	IFC5000-01520	Potentiostat
CAPACITY	QUANT	1.00000E-003	Capacity (A-hr)
CELLTYPE	SELECTOR	1	&Cell Type
WORKINGCONNECTION	SELECTOR	0	&Working Lead
MAXCHARGETIME	VARIABLEANDUNITS	1.00000E+002	s	1.00000E+002	second(s)	Max &Charge Time
CHARGECURRENT	QUANT	6.00000E-003	&Charge Current (A)
VOLTAGEFINISH	TWOPARAM	F	1.00000E-003	3.60000E+003	&Voltage Finish	 I (A) < 	Max Time(s)
SAMPLETIME	QUANT	1.00000E-002	Sa&mple Period (s)
CHARGESTOPAT1	MULTIPARAM	4	1.00000E+000	Charge Stop At &1	Voltage > Limit	V
CHARGESTOPAT2	MULTIPARAM	0	0.00000E+000	Charge Stop At &2	None	N/A
AESBHCSELECTOR	TOGGLE	F	Save Both Half Cells
IRCOMP	TOGGLE	F	IR &Measure
EOC	QUANT	0	Open Circuit (V)
SEQUENCER	TOGGLE	TRUE	Run as Sequence
PSTATMODEL	IQUANT	53	Pstat Model
PSTATSECTION	LABEL	IFC5000-01520	Pstat Section
PSTATSERIALNO	LABEL	01520	Pstat Serial Number
CTRLMODE	IQUANT	0	Control Mode
ELECTROMETER	IQUANT	1	RE=0 or CS=1
IESTAB	IQUANT	0	I/E Stability
CASPEED	IQUANT	4	Control Amp Speed
CONVENTION	IQUANT	1	Current Convention
ICHRANGE	IQUANT	2	Ich Range
ICHRANGEMODE	TOGGLE	T	Ich Auto Range
ICHOFFSETENABLE	TOGGLE	F	Ich Offset Enable
ICHOFFSET	QUANT	0	Ich Offset (V)
ICHFILTER	IQUANT	1	Ich Filter
VCHRANGE	IQUANT	2	Vch Range
VCHRANGEMODE	TOGGLE	T	Vch Auto Range
VCHOFFSETENABLE	TOGGLE	F	Vch Offset Enable
VCHOFFSET	QUANT	0	Vch Offset (V)
VCHFILTER	IQUANT	1	Vch Filter
IERANGELOWERLIMIT	IQUANT	9	I/E Range Lower Limit
IERANGEMODE	TOGGLE	F	I/E AutoRange
IERANGE	IQUANT	10	I/E Range
ACHSELECT	IQUANT	1	Ach Select
ACHRANGE	IQUANT	2	Ach Range
ACHOFFSETENABLE	TOGGLE	F	Ach Offset Enable
ACHOFFSET	QUANT	0	Ach Offset (V)
ACHFILTER	IQUANT	1	Ach Filter
CABLEID	IQUANT	14	Cable ID
DCCALDATE	LABEL	20-10-2016	DC Calibration Date
ACCALDATE	LABEL	12/3/2015	AC Calibration Date
FRAMEWORKVERSION	QUANT	7.01	Framework Version
INSTRUMENTVERSION	LABEL	4.00	Instrument Version
CURVE	TABLE	67
	Pt	T	Vf	Im	Vu	Pwr	Sig	Ach	Temp	IERange	Over
	#	s	V	A	V	W	V	V	deg C	#	bits
	0	0.013333	5.99450E-001	5.99106E-003	0.00000E+000	3.59134E-003	3.59960E-001	-1.08251E+000	3.57710E+000	10	...........
	1	0.026667	6.07773E-001	5.99806E-003	0.00000E+000	3.64546E-003	3.59960E-001	-1.07429E+000	3.57710E+000	10	...........
	2	0.04	6.15533E-001	5.99474E-003	0.00000E+000	3.68996E-003	3.59960E-001	-1.07126E+000	3.57710E+000	10	...........
	3	0.053333	6.22803E-001	5.99526E-003	0.00000E+000	3.73387E-003	3.59960E-001	-1.08254E+000	3.57710E+000	10	...........
	4	0.066667	6.29780E-001	5.99668E-003	0.00000E+000	3.77659E-003	3.59960E-001	-1.07439E+000	3.57710E+000	10	...........
	5	0.08	6.36591E-001	5.99412E-003	0.00000E+000	3.81580E-003	3.59960E-001	-1.07121E+000	3.57710E+000	10	...........
	6	0.093333	6.43285E-001	5.99561E-003	0.00000E+000	3.85688E-003	3.59960E-001	-1.08202E+000	3.57710E+000	10	...........
	7	0.106667	6.49826E-001	5.99381E-003	0.00000E+000	3.89493E-003	3.59960E-001	-1.07386E+000	3.57710E+000	10	...........
	8	0.12	6.56331E-001	5.99480E-003	0.00000E+000	3.93457E-003	3.59960E-001	-1.07047E+000	3.57710E+000	10	...........
	9	0.133333	6.62708E-001	5.99514E-003	0.00000E+000	3.97303E-003	3.59960E-001	-1.08172E+000	3.57710E+000	10	...........
	10	0.146667	6.69094E-001	5.99619E-003	0.00000E+000	4.01202E-003	3.59960E-001	-1.07387E+000	3.57710E+000	10	...........
	11	0.16	6.75379E-001	5.99211E-003	0.00000E+000	4.04695E-003	3.59960E-001	-1.07032E+000	3.57710E+000	10	...........
	12	0.173333	6.81638E-001	5.99362E-003	0.00000E+000	4.08548E-003	3.59960E-001	-1.08136E+000	3.57710E+000	10	...........
	13	0.186667	6.87882E-001	5.99488E-003	0.00000E+000	4.12377E-003	3.59960E-001	-1.07381E+000	3.57710E+000	10	...........
	14	0.2	6.94101E-001	6.00237E-003	0.00000E+000	4.16625E-003	3.59960E-001	-1.07021E+000	3.57710E+000	10	...........
	15	0.213333	7.00261E-001	5.99201E-003	0.00000E+000	4.19597E-003	3.59960E-001	-1.08167E+000	3.57710E+000	10	...........
	16	0.226667	7.06413E-001	5.99308E-003	0.00000E+000	4.23359E-003	3.59960E-001	-1.07373E+000	3.57710E+000	10	...........
	17	0.24	7.12480E-001	5.99340E-003	0.00000E+000	4.27018E-003	3.59960E-001	-1.07019E+000	3.57710E+000	10	...........
	18	0.253333	7.18596E-001	5.99015E-003	0.00000E+000	4.30450E-003	3.59960E-001	-1.08147E+000	3.57710E+000	10	...........
	19	0.266667	7.24692E-001	5.99580E-003	0.00000E+000	4.34511E-003	3.59960E-001	-1.07385E+000	3.57710E+000	10	...........
	20	0.28	7.30796E-001	5.99691E-003	0.00000E+000	4.38252E-003	3.59960E-001	-1.07013E+000	3.57710E+000	10	...........
	21	0.293333	7.36837E-001	5.99511E-003	0.00000E+000	4.41741E-003	3.59960E-001	-1.08106E+000	3.57710E+000	10	...........
	22	0.306667	7.42919E-001	5.99142E-003	0.00000E+000	4.45114E-003	3.59960E-001	-1.07403E+000	3.57710E+000	10	...........
	23	0.32	7.48971E-001	5.99371E-003	0.00000E+000	4.48911E-003	3.59960E-001	-1.07023E+000	3.57710E+000	10	...........
	24	0.333333	7.55018E-001	5.99082E-003	0.00000E+000	4.52318E-003	3.59960E-001	-1.08131E+000	3.57710E+000	10	...........
	25	0.346667	7.61078E-001	5.99611E-003	0.00000E+000	4.56351E-003	3.59960E-001	-1.07434E+000	3.57710E+000	10	...........
	26	0.36	7.67102E-001	5.99605E-003	0.00000E+000	4.59958E-003	3.59960E-001	-1.07010E+000	3.57710E+000	10	...........
	27	0.373333	7.73160E-001	5.99078E-003	0.00000E+000	4.63183E-003	3.59960E-001	-1.08086E+000	3.57710E+000	10	...........
	28	0.386667	7.79190E-001	5.99175E-003	0.00000E+000	4.66871E-003	3.59960E-001	-1.07411E+000	3.57710E+000	10	...........
	29	0.4	7.85212E-001	5.99796E-003	0.00000E+000	4.70967E-003	3.59960E-001	-1.06991E+000	3.57710E+000	10	...........
	30	0.413333	7.91168E-001	5.99332E-003	0.00000E+000	4.74173E-003	3.59960E-001	-1.08036E+000	3.57710E+000	10	...........
	31	0.426667	7.97218E-001	5.98977E-003	0.00000E+000	4.77515E-003	3.59960E-001	-1.07358E+000	3.57710E+000	10	...........
	32	0.44	8.03229E-001	5.99377E-003	0.00000E+000	4.81437E-003	3.59960E-001	-1.06957E+000	3.57710E+000	10	...........
	33	0.453333	8.09228E-001	5.99640E-003	0.00000E+000	4.85246E-003	3.59960E-001	-1.08035E+000	3.57710E+000	10	...........
	34	0.466667	8.15179E-001	5.99268E-003	0.00000E+000	4.88511E-003	3.59960E-001	-1.07402E+000	3.57710E+000	10	...........
	35	0.48	8.21189E-001	5.98943E-003	0.00000E+000	4.91846E-003	3.59960E-001	-1.06964E+000	3.57710E+000	10	...........
	36	0.493333	8.27206E-001	5.99183E-003	0.00000E+000	4.95648E-003	3.59960E-001	-1.08036E+000	3.57710E+000	10	...........
	37	0.506667	8.33135E-001	5.99699E-003	0.00000E+000	4.99630E-003	3.59960E-001	-1.07401E+000	3.57710E+000	10	...........
	38	0.52	8.39087E-001	5.99717E-003	0.00000E+000	5.03215E-003	3.59960E-001	-1.06955E+000	3.57710E+000	10	...........
	39	0.533333	8.45065E-001	5.99318E-003	0.00000E+000	5.06463E-003	3.59960E-001	-1.08010E+000	3.57710E+000	10	...........
	40	0.546667	8.51006E-001	6.00151E-003	0.00000E+000	5.10732E-003	3.59960E-001	-1.07410E+000	3.57710E+000	10	...........
	41	0.56	8.56916E-001	5.99254E-003	0.00000E+000	5.13510E-003	3.59960E-001	-1.06924E+000	3.57710E+000	10	...........
	42	0.573333	8.62826E-001	5.99541E-003	0.00000E+000	5.17299E-003	3.59960E-001	-1.07988E+000	3.57710E+000	10	...........
	43	0.586667	8.68739E-001	5.99165E-003	0.00000E+000	5.20518E-003	3.59960E-001	-1.07404E+000	3.57710E+000	10	...........
	44	0.6	8.74706E-001	5.99772E-003	0.00000E+000	5.24625E-003	3.59960E-001	-1.06954E+000	3.57710E+000	10	...........
	45	0.613333	8.80604E-001	5.99263E-003	0.00000E+000	5.27713E-003	3.59960E-001	-1.07979E+000	3.57710E+000	10	...........
	46	0.626667	8.86533E-001	5.99081E-003	0.00000E+000	5.31105E-003	3.59960E-001	-1.07423E+000	3.57710E+000	10	...........
	47	0.64	8.92364E-001	5.99688E-003	0.00000E+000	5.35140E-003	3.59960E-001	-1.06940E+000	3.57710E+000	10	...........
	48	0.653333	8.98256E-001	5.99971E-003	0.00000E+000	5.38927E-003	3.59960E-001	-1.07998E+000	3.57710E+000	10	...........
	49	0.666667	9.04083E-001	5.99611E-003	0.00000E+000	5.42098E-003	3.59960E-001	-1.07447E+000	3.57710E+000	10	...........
	50	0.68	9.09914E-001	5.99515E-003	0.00000E+000	5.45507E-003	3.59960E-001	-1.06956E+000	3.57710E+000	10	...........
	51	0.693333	9.15649E-001	5.98744E-003	0.00000E+000	5.48239E-003	3.59960E-001	-1.07971E+000	3.57710E+000	10	...........
	52	0.706667	9.21455E-001	5.99071E-003	0.00000E+000	5.52017E-003	3.59960E-001	-1.07460E+000	3.57710E+000	10	...........
	53	0.72	9.27246E-001	5.99576E-003	0.00000E+000	5.55955E-003	3.59960E-001	-1.06960E+000	3.57710E+000	10	...........
	54	0.733333	9.32985E-001	5.99676E-003	0.00000E+000	5.59489E-003	3.59960E-001	-1.07926E+000	3.57710E+000	10	...........
	55	0.746667	9.38691E-001	5.99360E-003	0.00000E+000	5.62614E-003	3.59960E-001	-1.07455E+000	3.57710E+000	10	...........
	56	0.76	9.44373E-001	5.99648E-003	0.00000E+000	5.66292E-003	3.59960E-001	-1.06917E+000	3.57710E+000	10	...........
	57	0.773333	9.50073E-001	5.99898E-003	0.00000E+000	5.69946E-003	3.59960E-001	-1.07914E+000	3.57710E+000	10	...........
	58	0.786667	9.55665E-001	5.99165E-003	0.00000E+000	5.72601E-003	3.59960E-001	-1.07429E+000	3.57710E+000	10	...........
	59	0.8	9.61226E-001	5.99562E-003	0.00000E+000	5.76314E-003	3.59960E-001	-1.06946E+000	3.57710E+000	10	...........
	60	0.813333	9.66728E-001	5.99117E-003	0.00000E+000	5.79183E-003	3.59960E-001	-1.07905E+000	3.57710E+000	10	...........
	61	0.826667	9.72256E-001	5.99189E-003	0.00000E+000	5.82566E-003	3.59960E-001	-1.07434E+000	3.57710E+000	10	...........
	62	0.84	9.77741E-001	5.99013E-003	0.00000E+000	5.85679E-003	3.59960E-001	-1.06902E+000	3.57710E+000	10	...........
	63	0.853333	9.83209E-001	5.99301E-003	0.00000E+000	5.89238E-003	3.59960E-001	-1.07909E+000	3.57710E+000	10	...........
	64	0.866667	9.88622E-001	5.99441E-003	0.00000E+000	5.92620E-003	3.59960E-001	-1.07477E+000	3.57710E+000	10	...........
	65	0.88	9.93959E-001	5.99368E-003	0.00000E+000	5.95747E-003	3.59960E-001	-1.06937E+000	3.57710E+000	10	...........
	66	0.89	9.98683E-001	5.99229E-003	0.00000E+000	5.98440E-003	3.59960E-001	-1.08347E+000	3.57710E+000	10	...........
STARTTIMEOFFSET	QUANT	294.4717	Start Time Offset (s)