File: Data/CV_CRGO300517_1/PWRCCD_CRGO300517_1/CHARGE_DISCHARGE/CHARGE_#662.DTA
EXPLAIN
TAG	PWR800_CHARGE
TITLE	LABEL	PWR Cyclic Charge Discharge (Cell) - Charge Step	Test &Identifier
DATE	LABEL	22-6-2017	Date
TIME	LABEL	16:02:07	Time
NOTES	NOTES	3	&Notes...
	supercap test cell
	0.6mg
	6M KOH
PSTAT	PSTAT	IFC5000-01520	Potentiostat
CAPACITY	QUANT	1.00000E-003	Capacity (A-hr)
CELLTYPE	SELECTOR	1	&Cell Type
WORKINGCONNECTION	SELECTOR	0	&Working Lead
MAXCHARGETIME	VARIABLEANDUNITS	1.00000E+002	s	1.00000E+002	second(s)	Max &Charge Time
CHARGECURRENT	QUANT	6.00000E-003	&Charge Current (A)
VOLTAGEFINISH	TWOPARAM	F	1.00000E-003	3.60000E+003	&Voltage Finish	 I (A) < 	Max Time(s)
SAMPLETIME	QUANT	1.00000E-002	Sa&mple Period (s)
CHARGESTOPAT1	MULTIPARAM	4	1.00000E+000	Charge Stop At &1	Voltage > Limit	V
CHARGESTOPAT2	MULTIPARAM	0	0.00000E+000	Charge Stop At &2	None	N/A
AESBHCSELECTOR	TOGGLE	F	Save Both Half Cells
IRCOMP	TOGGLE	F	IR &Measure
EOC	QUANT	0	Open Circuit (V)
SEQUENCER	TOGGLE	TRUE	Run as Sequence
PSTATMODEL	IQUANT	53	Pstat Model
PSTATSECTION	LABEL	IFC5000-01520	Pstat Section
PSTATSERIALNO	LABEL	01520	Pstat Serial Number
CTRLMODE	IQUANT	0	Control Mode
ELECTROMETER	IQUANT	1	RE=0 or CS=1
IESTAB	IQUANT	0	I/E Stability
CASPEED	IQUANT	4	Control Amp Speed
CONVENTION	IQUANT	1	Current Convention
ICHRANGE	IQUANT	2	Ich Range
ICHRANGEMODE	TOGGLE	T	Ich Auto Range
ICHOFFSETENABLE	TOGGLE	F	Ich Offset Enable
ICHOFFSET	QUANT	0	Ich Offset (V)
ICHFILTER	IQUANT	1	Ich Filter
VCHRANGE	IQUANT	2	Vch Range
VCHRANGEMODE	TOGGLE	T	Vch Auto Range
VCHOFFSETENABLE	TOGGLE	F	Vch Offset Enable
VCHOFFSET	QUANT	0	Vch Offset (V)
VCHFILTER	IQUANT	1	Vch Filter
IERANGELOWERLIMIT	IQUANT	9	I/E Range Lower Limit
IERANGEMODE	TOGGLE	F	I/E AutoRange
IERANGE	IQUANT	10	I/E Range
ACHSELECT	IQUANT	1	Ach Select
ACHRANGE	IQUANT	2	Ach Range
ACHOFFSETENABLE	TOGGLE	F	Ach Offset Enable
ACHOFFSET	QUANT	0	Ach Offset (V)
ACHFILTER	IQUANT	1	Ach Filter
CABLEID	IQUANT	14	Cable ID
DCCALDATE	LABEL	20-10-2016	DC Calibration Date
ACCALDATE	LABEL	12/3/2015	AC Calibration Date
FRAMEWORKVERSION	QUANT	7.01	Framework Version
INSTRUMENTVERSION	LABEL	4.00	Instrument Version
CURVE	TABLE	56
	Pt	T	Vf	Im	Vu	Pwr	Sig	Ach	Temp	IERange	Over
	#	s	V	A	V	W	V	V	deg C	#	bits
	0	0.013333	6.41755E-001	5.99989E-003	0.00000E+000	3.85046E-003	3.59960E-001	-1.15666E+000	3.57640E+000	10	...........
	1	0.026667	6.50784E-001	5.99521E-003	0.00000E+000	3.90158E-003	3.59960E-001	-1.14583E+000	3.57640E+000	10	...........
	2	0.04	6.59104E-001	5.99350E-003	0.00000E+000	3.95034E-003	3.59960E-001	-1.14682E+000	3.57640E+000	10	...........
	3	0.053333	6.67013E-001	5.99163E-003	0.00000E+000	3.99650E-003	3.59960E-001	-1.15639E+000	3.57640E+000	10	...........
	4	0.066667	6.74639E-001	5.99591E-003	0.00000E+000	4.04507E-003	3.59960E-001	-1.14561E+000	3.57640E+000	10	...........
	5	0.08	6.82031E-001	5.99310E-003	0.00000E+000	4.08748E-003	3.59960E-001	-1.14692E+000	3.57640E+000	10	...........
	6	0.093333	6.89313E-001	5.99279E-003	0.00000E+000	4.13091E-003	3.59960E-001	-1.15636E+000	3.57640E+000	10	...........
	7	0.106667	6.96509E-001	5.99472E-003	0.00000E+000	4.17538E-003	3.59960E-001	-1.14536E+000	3.57640E+000	10	...........
	8	0.12	7.03537E-001	5.98844E-003	0.00000E+000	4.21309E-003	3.59960E-001	-1.14636E+000	3.57640E+000	10	...........
	9	0.133333	7.10499E-001	5.99494E-003	0.00000E+000	4.25940E-003	3.59960E-001	-1.15578E+000	3.57640E+000	10	...........
	10	0.146667	7.17456E-001	5.99154E-003	0.00000E+000	4.29866E-003	3.59960E-001	-1.14534E+000	3.57640E+000	10	...........
	11	0.16	7.24313E-001	5.98944E-003	0.00000E+000	4.33823E-003	3.59960E-001	-1.14662E+000	3.57640E+000	10	...........
	12	0.173333	7.31121E-001	5.99275E-003	0.00000E+000	4.38142E-003	3.59960E-001	-1.15575E+000	3.57640E+000	10	...........
	13	0.186667	7.37911E-001	5.99255E-003	0.00000E+000	4.42197E-003	3.59960E-001	-1.14493E+000	3.57640E+000	10	...........
	14	0.2	7.44710E-001	5.99610E-003	0.00000E+000	4.46535E-003	3.59960E-001	-1.14670E+000	3.57640E+000	10	...........
	15	0.213333	7.51403E-001	5.99393E-003	0.00000E+000	4.50386E-003	3.59960E-001	-1.15576E+000	3.57640E+000	10	...........
	16	0.226667	7.58111E-001	5.99039E-003	0.00000E+000	4.54138E-003	3.59960E-001	-1.14491E+000	3.57640E+000	10	...........
	17	0.24	7.64806E-001	5.99372E-003	0.00000E+000	4.58403E-003	3.59960E-001	-1.14664E+000	3.57640E+000	10	...........
	18	0.253333	7.71469E-001	5.99290E-003	0.00000E+000	4.62334E-003	3.59960E-001	-1.15543E+000	3.57640E+000	10	...........
	19	0.266667	7.78121E-001	5.99396E-003	0.00000E+000	4.66402E-003	3.59960E-001	-1.14483E+000	3.57640E+000	10	...........
	20	0.28	7.84767E-001	5.99223E-003	0.00000E+000	4.70250E-003	3.59960E-001	-1.14665E+000	3.57640E+000	10	...........
	21	0.293333	7.91342E-001	5.99266E-003	0.00000E+000	4.74225E-003	3.59960E-001	-1.15539E+000	3.57640E+000	10	...........
	22	0.306667	7.97963E-001	5.99351E-003	0.00000E+000	4.78260E-003	3.59960E-001	-1.14452E+000	3.57640E+000	10	...........
	23	0.32	8.04514E-001	5.99513E-003	0.00000E+000	4.82316E-003	3.59960E-001	-1.14663E+000	3.57640E+000	10	...........
	24	0.333333	8.11048E-001	5.99478E-003	0.00000E+000	4.86206E-003	3.59960E-001	-1.15535E+000	3.57640E+000	10	...........
	25	0.346667	8.17588E-001	5.99810E-003	0.00000E+000	4.90397E-003	3.59960E-001	-1.14481E+000	3.57640E+000	10	...........
	26	0.36	8.24063E-001	5.99788E-003	0.00000E+000	4.94263E-003	3.59960E-001	-1.14718E+000	3.57640E+000	10	...........
	27	0.373333	8.30508E-001	5.99304E-003	0.00000E+000	4.97726E-003	3.59960E-001	-1.15511E+000	3.57640E+000	10	...........
	28	0.386667	8.36986E-001	5.99091E-003	0.00000E+000	5.01431E-003	3.59960E-001	-1.14462E+000	3.57640E+000	10	...........
	29	0.4	8.43440E-001	5.99279E-003	0.00000E+000	5.05456E-003	3.59960E-001	-1.14714E+000	3.57640E+000	10	...........
	30	0.413333	8.49903E-001	5.99236E-003	0.00000E+000	5.09293E-003	3.59960E-001	-1.15504E+000	3.57670E+000	10	...........
	31	0.426667	8.56291E-001	5.99223E-003	0.00000E+000	5.13109E-003	3.59960E-001	-1.14454E+000	3.57670E+000	10	...........
	32	0.44	8.62639E-001	5.99228E-003	0.00000E+000	5.16918E-003	3.59960E-001	-1.14672E+000	3.57670E+000	10	...........
	33	0.453333	8.69007E-001	5.99278E-003	0.00000E+000	5.20777E-003	3.59960E-001	-1.15438E+000	3.57670E+000	10	...........
	34	0.466667	8.75315E-001	5.99130E-003	0.00000E+000	5.24428E-003	3.59960E-001	-1.14408E+000	3.57670E+000	10	...........
	35	0.48	8.81620E-001	5.99782E-003	0.00000E+000	5.28780E-003	3.59960E-001	-1.14700E+000	3.57670E+000	10	...........
	36	0.493333	8.87894E-001	5.99396E-003	0.00000E+000	5.32200E-003	3.59960E-001	-1.15445E+000	3.57670E+000	10	...........
	37	0.506667	8.94107E-001	5.98933E-003	0.00000E+000	5.35510E-003	3.59960E-001	-1.14412E+000	3.57670E+000	10	...........
	38	0.52	9.00322E-001	5.99559E-003	0.00000E+000	5.39796E-003	3.59960E-001	-1.14696E+000	3.57670E+000	10	...........
	39	0.533333	9.06503E-001	5.99467E-003	0.00000E+000	5.43419E-003	3.59960E-001	-1.15417E+000	3.57670E+000	10	...........
	40	0.546667	9.12678E-001	5.99597E-003	0.00000E+000	5.47239E-003	3.59960E-001	-1.14408E+000	3.57670E+000	10	...........
	41	0.56	9.18803E-001	5.99756E-003	0.00000E+000	5.51057E-003	3.59960E-001	-1.14738E+000	3.57670E+000	10	...........
	42	0.573333	9.24919E-001	5.99258E-003	0.00000E+000	5.54265E-003	3.59960E-001	-1.15420E+000	3.57670E+000	10	...........
	43	0.586667	9.30941E-001	5.99572E-003	0.00000E+000	5.58166E-003	3.59960E-001	-1.14390E+000	3.57670E+000	10	...........
	44	0.6	9.36931E-001	5.99511E-003	0.00000E+000	5.61700E-003	3.59960E-001	-1.14724E+000	3.57670E+000	10	...........
	45	0.613333	9.42853E-001	5.99157E-003	0.00000E+000	5.64917E-003	3.59960E-001	-1.15412E+000	3.57670E+000	10	...........
	46	0.626667	9.48799E-001	5.99642E-003	0.00000E+000	5.68940E-003	3.59960E-001	-1.14419E+000	3.57670E+000	10	...........
	47	0.64	9.54673E-001	5.99010E-003	0.00000E+000	5.71859E-003	3.59960E-001	-1.14729E+000	3.57670E+000	10	...........
	48	0.653333	9.60493E-001	5.98964E-003	0.00000E+000	5.75301E-003	3.59960E-001	-1.15393E+000	3.57670E+000	10	...........
	49	0.666667	9.66273E-001	5.99741E-003	0.00000E+000	5.79513E-003	3.59960E-001	-1.14414E+000	3.57670E+000	10	...........
	50	0.68	9.72001E-001	5.99168E-003	0.00000E+000	5.82392E-003	3.59960E-001	-1.14788E+000	3.57670E+000	10	...........
	51	0.693333	9.77743E-001	5.99881E-003	0.00000E+000	5.86529E-003	3.59960E-001	-1.15415E+000	3.57670E+000	10	...........
	52	0.706667	9.83340E-001	5.99427E-003	0.00000E+000	5.89441E-003	3.59960E-001	-1.14407E+000	3.57670E+000	10	...........
	53	0.72	9.88916E-001	5.99246E-003	0.00000E+000	5.92604E-003	3.59960E-001	-1.14770E+000	3.57670E+000	10	...........
	54	0.733333	9.94459E-001	5.99465E-003	0.00000E+000	5.96143E-003	3.59960E-001	-1.15387E+000	3.57670E+000	10	...........
	55	0.741667	9.98940E-001	5.98892E-003	0.00000E+000	5.98257E-003	3.59960E-001	-1.13793E+000	3.57670E+000	10	...........
STARTTIMEOFFSET	QUANT	1103.248	Start Time Offset (s)