File: Data/CV_CRGO300517_1/PWRCCD_CRGO300517_1/CHARGE_DISCHARGE/CHARGE_#347.DTA
EXPLAIN
TAG	PWR800_CHARGE
TITLE	LABEL	PWR Cyclic Charge Discharge (Cell) - Charge Step	Test &Identifier
DATE	LABEL	22-6-2017	Date
TIME	LABEL	15:49:51	Time
NOTES	NOTES	3	&Notes...
	supercap test cell
	0.6mg
	6M KOH
PSTAT	PSTAT	IFC5000-01520	Potentiostat
CAPACITY	QUANT	1.00000E-003	Capacity (A-hr)
CELLTYPE	SELECTOR	1	&Cell Type
WORKINGCONNECTION	SELECTOR	0	&Working Lead
MAXCHARGETIME	VARIABLEANDUNITS	1.00000E+002	s	1.00000E+002	second(s)	Max &Charge Time
CHARGECURRENT	QUANT	6.00000E-003	&Charge Current (A)
VOLTAGEFINISH	TWOPARAM	F	1.00000E-003	3.60000E+003	&Voltage Finish	 I (A) < 	Max Time(s)
SAMPLETIME	QUANT	1.00000E-002	Sa&mple Period (s)
CHARGESTOPAT1	MULTIPARAM	4	1.00000E+000	Charge Stop At &1	Voltage > Limit	V
CHARGESTOPAT2	MULTIPARAM	0	0.00000E+000	Charge Stop At &2	None	N/A
AESBHCSELECTOR	TOGGLE	F	Save Both Half Cells
IRCOMP	TOGGLE	F	IR &Measure
EOC	QUANT	0	Open Circuit (V)
SEQUENCER	TOGGLE	TRUE	Run as Sequence
PSTATMODEL	IQUANT	53	Pstat Model
PSTATSECTION	LABEL	IFC5000-01520	Pstat Section
PSTATSERIALNO	LABEL	01520	Pstat Serial Number
CTRLMODE	IQUANT	0	Control Mode
ELECTROMETER	IQUANT	1	RE=0 or CS=1
IESTAB	IQUANT	0	I/E Stability
CASPEED	IQUANT	4	Control Amp Speed
CONVENTION	IQUANT	1	Current Convention
ICHRANGE	IQUANT	2	Ich Range
ICHRANGEMODE	TOGGLE	T	Ich Auto Range
ICHOFFSETENABLE	TOGGLE	F	Ich Offset Enable
ICHOFFSET	QUANT	0	Ich Offset (V)
ICHFILTER	IQUANT	1	Ich Filter
VCHRANGE	IQUANT	2	Vch Range
VCHRANGEMODE	TOGGLE	T	Vch Auto Range
VCHOFFSETENABLE	TOGGLE	F	Vch Offset Enable
VCHOFFSET	QUANT	0	Vch Offset (V)
VCHFILTER	IQUANT	1	Vch Filter
IERANGELOWERLIMIT	IQUANT	9	I/E Range Lower Limit
IERANGEMODE	TOGGLE	F	I/E AutoRange
IERANGE	IQUANT	10	I/E Range
ACHSELECT	IQUANT	1	Ach Select
ACHRANGE	IQUANT	2	Ach Range
ACHOFFSETENABLE	TOGGLE	F	Ach Offset Enable
ACHOFFSET	QUANT	0	Ach Offset (V)
ACHFILTER	IQUANT	1	Ach Filter
CABLEID	IQUANT	14	Cable ID
DCCALDATE	LABEL	20-10-2016	DC Calibration Date
ACCALDATE	LABEL	12/3/2015	AC Calibration Date
FRAMEWORKVERSION	QUANT	7.01	Framework Version
INSTRUMENTVERSION	LABEL	4.00	Instrument Version
CURVE	TABLE	61
	Pt	T	Vf	Im	Vu	Pwr	Sig	Ach	Temp	IERange	Over
	#	s	V	A	V	W	V	V	deg C	#	bits
	0	0.013333	6.20623E-001	5.99717E-003	0.00000E+000	3.72198E-003	3.59960E-001	-1.12472E+000	3.57800E+000	10	...........
	1	0.026667	6.29299E-001	5.99353E-003	0.00000E+000	3.77173E-003	3.59960E-001	-1.12300E+000	3.57800E+000	10	...........
	2	0.04	6.37241E-001	5.99368E-003	0.00000E+000	3.81942E-003	3.59960E-001	-1.11646E+000	3.57800E+000	10	...........
	3	0.053333	6.44816E-001	5.98627E-003	0.00000E+000	3.86005E-003	3.59960E-001	-1.12476E+000	3.57800E+000	10	...........
	4	0.066667	6.52130E-001	5.98988E-003	0.00000E+000	3.90618E-003	3.59960E-001	-1.12300E+000	3.57800E+000	10	...........
	5	0.08	6.59195E-001	5.99373E-003	0.00000E+000	3.95104E-003	3.59960E-001	-1.11638E+000	3.57800E+000	10	...........
	6	0.093333	6.66207E-001	5.99484E-003	0.00000E+000	3.99381E-003	3.59960E-001	-1.12445E+000	3.57800E+000	10	...........
	7	0.106667	6.73049E-001	5.99527E-003	0.00000E+000	4.03511E-003	3.59960E-001	-1.12298E+000	3.57800E+000	10	...........
	8	0.12	6.79791E-001	5.99498E-003	0.00000E+000	4.07533E-003	3.59960E-001	-1.11648E+000	3.57800E+000	10	...........
	9	0.133333	6.86446E-001	5.99283E-003	0.00000E+000	4.11375E-003	3.59960E-001	-1.12434E+000	3.57800E+000	10	...........
	10	0.146667	6.93087E-001	5.99093E-003	0.00000E+000	4.15224E-003	3.59960E-001	-1.12253E+000	3.57800E+000	10	...........
	11	0.16	6.99674E-001	5.99216E-003	0.00000E+000	4.19256E-003	3.59960E-001	-1.11591E+000	3.57800E+000	10	...........
	12	0.173333	7.06250E-001	5.99386E-003	0.00000E+000	4.23317E-003	3.59960E-001	-1.12413E+000	3.57800E+000	10	...........
	13	0.186667	7.12713E-001	5.99427E-003	0.00000E+000	4.27219E-003	3.59960E-001	-1.12263E+000	3.57800E+000	10	...........
	14	0.2	7.19225E-001	5.99574E-003	0.00000E+000	4.31229E-003	3.59960E-001	-1.11595E+000	3.57800E+000	10	...........
	15	0.213333	7.25675E-001	5.99292E-003	0.00000E+000	4.34891E-003	3.59960E-001	-1.12374E+000	3.57800E+000	10	...........
	16	0.226667	7.32059E-001	5.99479E-003	0.00000E+000	4.38854E-003	3.59960E-001	-1.12240E+000	3.57800E+000	10	...........
	17	0.24	7.38461E-001	5.99184E-003	0.00000E+000	4.42474E-003	3.59960E-001	-1.11572E+000	3.57800E+000	10	...........
	18	0.253333	7.44886E-001	5.99534E-003	0.00000E+000	4.46584E-003	3.59960E-001	-1.12367E+000	3.57800E+000	10	...........
	19	0.266667	7.51255E-001	5.99377E-003	0.00000E+000	4.50285E-003	3.59960E-001	-1.12247E+000	3.57800E+000	10	...........
	20	0.28	7.57639E-001	5.99234E-003	0.00000E+000	4.54003E-003	3.59960E-001	-1.11560E+000	3.57800E+000	10	...........
	21	0.293333	7.64015E-001	5.99258E-003	0.00000E+000	4.57843E-003	3.59960E-001	-1.12350E+000	3.57800E+000	10	...........
	22	0.306667	7.70359E-001	5.98891E-003	0.00000E+000	4.61361E-003	3.59960E-001	-1.12244E+000	3.57800E+000	10	...........
	23	0.32	7.76658E-001	5.99402E-003	0.00000E+000	4.65530E-003	3.59960E-001	-1.11569E+000	3.57800E+000	10	...........
	24	0.333333	7.82955E-001	5.99493E-003	0.00000E+000	4.69376E-003	3.59960E-001	-1.12336E+000	3.57800E+000	10	...........
	25	0.346667	7.89252E-001	5.99496E-003	0.00000E+000	4.73154E-003	3.59960E-001	-1.12250E+000	3.57800E+000	10	...........
	26	0.36	7.95541E-001	5.99081E-003	0.00000E+000	4.76593E-003	3.59960E-001	-1.11558E+000	3.57800E+000	10	...........
	27	0.373333	8.01817E-001	5.99566E-003	0.00000E+000	4.80742E-003	3.59960E-001	-1.12359E+000	3.57800E+000	10	...........
	28	0.386667	8.08064E-001	5.99043E-003	0.00000E+000	4.84065E-003	3.59960E-001	-1.12278E+000	3.57800E+000	10	...........
	29	0.4	8.14328E-001	5.99354E-003	0.00000E+000	4.88071E-003	3.59960E-001	-1.11567E+000	3.57800E+000	10	...........
	30	0.413333	8.20558E-001	5.99283E-003	0.00000E+000	4.91746E-003	3.59960E-001	-1.12317E+000	3.57800E+000	10	...........
	31	0.426667	8.26825E-001	5.99555E-003	0.00000E+000	4.95727E-003	3.59960E-001	-1.12253E+000	3.57800E+000	10	...........
	32	0.44	8.33027E-001	5.99482E-003	0.00000E+000	4.99385E-003	3.59960E-001	-1.11564E+000	3.57800E+000	10	...........
	33	0.453333	8.39217E-001	5.99692E-003	0.00000E+000	5.03272E-003	3.59960E-001	-1.12319E+000	3.57800E+000	10	...........
	34	0.466667	8.45446E-001	5.99307E-003	0.00000E+000	5.06682E-003	3.59960E-001	-1.12221E+000	3.57800E+000	10	...........
	35	0.48	8.51632E-001	5.99619E-003	0.00000E+000	5.10655E-003	3.59960E-001	-1.11499E+000	3.57800E+000	10	...........
	36	0.493333	8.57766E-001	5.99440E-003	0.00000E+000	5.14179E-003	3.59960E-001	-1.12257E+000	3.57800E+000	10	...........
	37	0.506667	8.63911E-001	5.99795E-003	0.00000E+000	5.18170E-003	3.59960E-001	-1.12232E+000	3.57800E+000	10	...........
	38	0.52	8.70107E-001	5.99453E-003	0.00000E+000	5.21589E-003	3.59960E-001	-1.11513E+000	3.57800E+000	10	...........
	39	0.533333	8.76192E-001	5.99638E-003	0.00000E+000	5.25398E-003	3.59960E-001	-1.12257E+000	3.57800E+000	10	...........
	40	0.546667	8.82302E-001	5.99617E-003	0.00000E+000	5.29043E-003	3.59960E-001	-1.12224E+000	3.57800E+000	10	...........
	41	0.56	8.88346E-001	5.99482E-003	0.00000E+000	5.32548E-003	3.59960E-001	-1.11505E+000	3.57800E+000	10	...........
	42	0.573333	8.94402E-001	5.99473E-003	0.00000E+000	5.36170E-003	3.59960E-001	-1.12256E+000	3.57800E+000	10	...........
	43	0.586667	9.00442E-001	5.99793E-003	0.00000E+000	5.40079E-003	3.59960E-001	-1.12246E+000	3.57800E+000	10	...........
	44	0.6	9.06409E-001	5.99117E-003	0.00000E+000	5.43046E-003	3.59960E-001	-1.11493E+000	3.57800E+000	10	...........
	45	0.613333	9.12405E-001	5.99090E-003	0.00000E+000	5.46613E-003	3.59960E-001	-1.12229E+000	3.57800E+000	10	...........
	46	0.626667	9.18360E-001	5.99051E-003	0.00000E+000	5.50144E-003	3.59960E-001	-1.12241E+000	3.57800E+000	10	...........
	47	0.64	9.24355E-001	5.99100E-003	0.00000E+000	5.53781E-003	3.59960E-001	-1.11505E+000	3.57800E+000	10	...........
	48	0.653333	9.30246E-001	5.99326E-003	0.00000E+000	5.57520E-003	3.59960E-001	-1.12231E+000	3.57800E+000	10	...........
	49	0.666667	9.36123E-001	5.99687E-003	0.00000E+000	5.61381E-003	3.59960E-001	-1.12253E+000	3.57800E+000	10	...........
	50	0.68	9.41943E-001	5.99402E-003	0.00000E+000	5.64602E-003	3.59960E-001	-1.11532E+000	3.57800E+000	10	...........
	51	0.693333	9.47737E-001	5.99171E-003	0.00000E+000	5.67856E-003	3.59960E-001	-1.12262E+000	3.57800E+000	10	...........
	52	0.706667	9.53526E-001	5.99444E-003	0.00000E+000	5.71585E-003	3.59960E-001	-1.12312E+000	3.57800E+000	10	...........
	53	0.72	9.59239E-001	5.99861E-003	0.00000E+000	5.75410E-003	3.59960E-001	-1.11538E+000	3.57800E+000	10	...........
	54	0.733333	9.64901E-001	5.99480E-003	0.00000E+000	5.78439E-003	3.59960E-001	-1.12242E+000	3.57800E+000	10	...........
	55	0.746667	9.70543E-001	5.99394E-003	0.00000E+000	5.81737E-003	3.59960E-001	-1.12313E+000	3.57800E+000	10	...........
	56	0.76	9.76178E-001	5.99287E-003	0.00000E+000	5.85011E-003	3.59960E-001	-1.11534E+000	3.57800E+000	10	...........
	57	0.773333	9.81750E-001	5.99308E-003	0.00000E+000	5.88371E-003	3.59960E-001	-1.12256E+000	3.57800E+000	10	...........
	58	0.786667	9.87303E-001	5.99116E-003	0.00000E+000	5.91509E-003	3.59960E-001	-1.12272E+000	3.57800E+000	10	...........
	59	0.8	9.92728E-001	5.99284E-003	0.00000E+000	5.94926E-003	3.59960E-001	-1.11495E+000	3.57800E+000	10	...........
	60	0.813333	9.98137E-001	5.99429E-003	0.00000E+000	5.98312E-003	3.59960E-001	-1.12203E+000	3.57800E+000	10	...........
STARTTIMEOFFSET	QUANT	617.8014	Start Time Offset (s)