File: Data/CV_CRGO300517_1/PWRCCD_CRGO300517_1/CHARGE_DISCHARGE/CHARGE_#111.DTA
EXPLAIN
TAG	PWR800_CHARGE
TITLE	LABEL	PWR Cyclic Charge Discharge (Cell) - Charge Step	Test &Identifier
DATE	LABEL	22-6-2017	Date
TIME	LABEL	15:39:59	Time
NOTES	NOTES	3	&Notes...
	supercap test cell
	0.6mg
	6M KOH
PSTAT	PSTAT	IFC5000-01520	Potentiostat
CAPACITY	QUANT	1.00000E-003	Capacity (A-hr)
CELLTYPE	SELECTOR	1	&Cell Type
WORKINGCONNECTION	SELECTOR	0	&Working Lead
MAXCHARGETIME	VARIABLEANDUNITS	1.00000E+002	s	1.00000E+002	second(s)	Max &Charge Time
CHARGECURRENT	QUANT	6.00000E-003	&Charge Current (A)
VOLTAGEFINISH	TWOPARAM	F	1.00000E-003	3.60000E+003	&Voltage Finish	 I (A) < 	Max Time(s)
SAMPLETIME	QUANT	1.00000E-002	Sa&mple Period (s)
CHARGESTOPAT1	MULTIPARAM	4	1.00000E+000	Charge Stop At &1	Voltage > Limit	V
CHARGESTOPAT2	MULTIPARAM	0	0.00000E+000	Charge Stop At &2	None	N/A
AESBHCSELECTOR	TOGGLE	F	Save Both Half Cells
IRCOMP	TOGGLE	F	IR &Measure
EOC	QUANT	0	Open Circuit (V)
SEQUENCER	TOGGLE	TRUE	Run as Sequence
PSTATMODEL	IQUANT	53	Pstat Model
PSTATSECTION	LABEL	IFC5000-01520	Pstat Section
PSTATSERIALNO	LABEL	01520	Pstat Serial Number
CTRLMODE	IQUANT	0	Control Mode
ELECTROMETER	IQUANT	1	RE=0 or CS=1
IESTAB	IQUANT	0	I/E Stability
CASPEED	IQUANT	4	Control Amp Speed
CONVENTION	IQUANT	1	Current Convention
ICHRANGE	IQUANT	2	Ich Range
ICHRANGEMODE	TOGGLE	T	Ich Auto Range
ICHOFFSETENABLE	TOGGLE	F	Ich Offset Enable
ICHOFFSET	QUANT	0	Ich Offset (V)
ICHFILTER	IQUANT	1	Ich Filter
VCHRANGE	IQUANT	2	Vch Range
VCHRANGEMODE	TOGGLE	T	Vch Auto Range
VCHOFFSETENABLE	TOGGLE	F	Vch Offset Enable
VCHOFFSET	QUANT	0	Vch Offset (V)
VCHFILTER	IQUANT	1	Vch Filter
IERANGELOWERLIMIT	IQUANT	9	I/E Range Lower Limit
IERANGEMODE	TOGGLE	F	I/E AutoRange
IERANGE	IQUANT	10	I/E Range
ACHSELECT	IQUANT	1	Ach Select
ACHRANGE	IQUANT	2	Ach Range
ACHOFFSETENABLE	TOGGLE	F	Ach Offset Enable
ACHOFFSET	QUANT	0	Ach Offset (V)
ACHFILTER	IQUANT	1	Ach Filter
CABLEID	IQUANT	14	Cable ID
DCCALDATE	LABEL	20-10-2016	DC Calibration Date
ACCALDATE	LABEL	12/3/2015	AC Calibration Date
FRAMEWORKVERSION	QUANT	7.01	Framework Version
INSTRUMENTVERSION	LABEL	4.00	Instrument Version
CURVE	TABLE	69
	Pt	T	Vf	Im	Vu	Pwr	Sig	Ach	Temp	IERange	Over
	#	s	V	A	V	W	V	V	deg C	#	bits
	0	0.013333	5.91009E-001	5.99370E-003	0.00000E+000	3.54233E-003	3.59960E-001	-1.06686E+000	3.57730E+000	10	...........
	1	0.026667	5.99270E-001	5.99503E-003	0.00000E+000	3.59264E-003	3.59960E-001	-1.07582E+000	3.57730E+000	10	...........
	2	0.04	6.06865E-001	5.98925E-003	0.00000E+000	3.63467E-003	3.59960E-001	-1.06457E+000	3.57730E+000	10	...........
	3	0.053333	6.14126E-001	5.99618E-003	0.00000E+000	3.68241E-003	3.59960E-001	-1.06702E+000	3.57730E+000	10	...........
	4	0.066667	6.21063E-001	5.99519E-003	0.00000E+000	3.72339E-003	3.59960E-001	-1.07604E+000	3.57730E+000	10	...........
	5	0.08	6.27801E-001	5.98869E-003	0.00000E+000	3.75971E-003	3.59960E-001	-1.06478E+000	3.57730E+000	10	...........
	6	0.093333	6.34400E-001	5.99723E-003	0.00000E+000	3.80465E-003	3.59960E-001	-1.06712E+000	3.57730E+000	10	...........
	7	0.106667	6.40900E-001	5.99889E-003	0.00000E+000	3.84469E-003	3.59960E-001	-1.07632E+000	3.57730E+000	10	...........
	8	0.12	6.47269E-001	5.99389E-003	0.00000E+000	3.87965E-003	3.59960E-001	-1.06468E+000	3.57730E+000	10	...........
	9	0.133333	6.53602E-001	5.99459E-003	0.00000E+000	3.91808E-003	3.59960E-001	-1.06677E+000	3.57730E+000	10	...........
	10	0.146667	6.59838E-001	5.99255E-003	0.00000E+000	3.95411E-003	3.59960E-001	-1.07604E+000	3.57730E+000	10	...........
	11	0.16	6.66093E-001	5.99683E-003	0.00000E+000	3.99444E-003	3.59960E-001	-1.06465E+000	3.57730E+000	10	...........
	12	0.173333	6.72289E-001	5.99456E-003	0.00000E+000	4.03008E-003	3.59960E-001	-1.06660E+000	3.57730E+000	10	...........
	13	0.186667	6.78403E-001	5.99322E-003	0.00000E+000	4.06581E-003	3.59960E-001	-1.07600E+000	3.57730E+000	10	...........
	14	0.2	6.84500E-001	5.99746E-003	0.00000E+000	4.10526E-003	3.59960E-001	-1.06426E+000	3.57730E+000	10	...........
	15	0.213333	6.90597E-001	5.99480E-003	0.00000E+000	4.13999E-003	3.59960E-001	-1.06615E+000	3.57730E+000	10	...........
	16	0.226667	6.96664E-001	5.99265E-003	0.00000E+000	4.17487E-003	3.59960E-001	-1.07585E+000	3.57730E+000	10	...........
	17	0.24	7.02685E-001	5.99200E-003	0.00000E+000	4.21049E-003	3.59960E-001	-1.06426E+000	3.57730E+000	10	...........
	18	0.253333	7.08703E-001	5.99836E-003	0.00000E+000	4.25105E-003	3.59960E-001	-1.06623E+000	3.57730E+000	10	...........
	19	0.266667	7.14724E-001	5.99631E-003	0.00000E+000	4.28570E-003	3.59960E-001	-1.07576E+000	3.57730E+000	10	...........
	20	0.28	7.20729E-001	5.99343E-003	0.00000E+000	4.31964E-003	3.59960E-001	-1.06419E+000	3.57730E+000	10	...........
	21	0.293333	7.26703E-001	5.99642E-003	0.00000E+000	4.35762E-003	3.59960E-001	-1.06601E+000	3.57730E+000	10	...........
	22	0.306667	7.32686E-001	5.99239E-003	0.00000E+000	4.39055E-003	3.59960E-001	-1.07578E+000	3.57730E+000	10	...........
	23	0.32	7.38617E-001	5.99294E-003	0.00000E+000	4.42649E-003	3.59960E-001	-1.06423E+000	3.57730E+000	10	...........
	24	0.333333	7.44641E-001	5.99732E-003	0.00000E+000	4.46585E-003	3.59960E-001	-1.06601E+000	3.57730E+000	10	...........
	25	0.346667	7.50608E-001	5.99866E-003	0.00000E+000	4.50264E-003	3.59960E-001	-1.07564E+000	3.57730E+000	10	...........
	26	0.36	7.56566E-001	5.99694E-003	0.00000E+000	4.53709E-003	3.59960E-001	-1.06415E+000	3.57730E+000	10	...........
	27	0.373333	7.62482E-001	5.99421E-003	0.00000E+000	4.57048E-003	3.59960E-001	-1.06590E+000	3.57730E+000	10	...........
	28	0.386667	7.68460E-001	5.99459E-003	0.00000E+000	4.60660E-003	3.59960E-001	-1.07589E+000	3.57730E+000	10	...........
	29	0.4	7.74363E-001	5.99254E-003	0.00000E+000	4.64040E-003	3.59960E-001	-1.06403E+000	3.57730E+000	10	...........
	30	0.413333	7.80281E-001	5.99383E-003	0.00000E+000	4.67688E-003	3.59960E-001	-1.06594E+000	3.57730E+000	10	...........
	31	0.426667	7.86230E-001	5.99110E-003	0.00000E+000	4.71038E-003	3.59960E-001	-1.07576E+000	3.57730E+000	10	...........
	32	0.44	7.92148E-001	5.99259E-003	0.00000E+000	4.74702E-003	3.59960E-001	-1.06411E+000	3.57730E+000	10	...........
	33	0.453333	7.98082E-001	5.99953E-003	0.00000E+000	4.78811E-003	3.59960E-001	-1.06593E+000	3.57730E+000	10	...........
	34	0.466667	8.03965E-001	5.99501E-003	0.00000E+000	4.81978E-003	3.59960E-001	-1.07576E+000	3.57730E+000	10	...........
	35	0.48	8.09864E-001	5.99195E-003	0.00000E+000	4.85266E-003	3.59960E-001	-1.06400E+000	3.57730E+000	10	...........
	36	0.493333	8.15768E-001	5.99797E-003	0.00000E+000	4.89296E-003	3.59960E-001	-1.06531E+000	3.57730E+000	10	...........
	37	0.506667	8.21657E-001	5.99788E-003	0.00000E+000	4.92820E-003	3.59960E-001	-1.07550E+000	3.57730E+000	10	...........
	38	0.52	8.27574E-001	5.99462E-003	0.00000E+000	4.96099E-003	3.59960E-001	-1.06369E+000	3.57730E+000	10	...........
	39	0.533333	8.33469E-001	5.99766E-003	0.00000E+000	4.99886E-003	3.59960E-001	-1.06526E+000	3.57730E+000	10	...........
	40	0.546667	8.39326E-001	5.99493E-003	0.00000E+000	5.03170E-003	3.59960E-001	-1.07522E+000	3.57730E+000	10	...........
	41	0.56	8.45218E-001	5.99420E-003	0.00000E+000	5.06640E-003	3.59960E-001	-1.06355E+000	3.57730E+000	10	...........
	42	0.573333	8.51106E-001	5.99289E-003	0.00000E+000	5.10059E-003	3.59960E-001	-1.06499E+000	3.57730E+000	10	...........
	43	0.586667	8.56977E-001	5.99654E-003	0.00000E+000	5.13890E-003	3.59960E-001	-1.07521E+000	3.57730E+000	10	...........
	44	0.6	8.62830E-001	5.99370E-003	0.00000E+000	5.17154E-003	3.59960E-001	-1.06365E+000	3.57730E+000	10	...........
	45	0.613333	8.68674E-001	5.99698E-003	0.00000E+000	5.20942E-003	3.59960E-001	-1.06499E+000	3.57730E+000	10	...........
	46	0.626667	8.74500E-001	5.99771E-003	0.00000E+000	5.24500E-003	3.59960E-001	-1.07524E+000	3.57730E+000	10	...........
	47	0.64	8.80338E-001	5.99479E-003	0.00000E+000	5.27745E-003	3.59960E-001	-1.06374E+000	3.57730E+000	10	...........
	48	0.653333	8.86168E-001	5.99547E-003	0.00000E+000	5.31300E-003	3.59960E-001	-1.06509E+000	3.57730E+000	10	...........
	49	0.666667	8.91969E-001	5.99243E-003	0.00000E+000	5.34506E-003	3.59960E-001	-1.07528E+000	3.57730E+000	10	...........
	50	0.68	8.97754E-001	5.99846E-003	0.00000E+000	5.38514E-003	3.59960E-001	-1.06341E+000	3.57730E+000	10	...........
	51	0.693333	9.03490E-001	5.99853E-003	0.00000E+000	5.41961E-003	3.59960E-001	-1.06482E+000	3.57730E+000	10	...........
	52	0.706667	9.09262E-001	5.99518E-003	0.00000E+000	5.45119E-003	3.59960E-001	-1.07543E+000	3.57730E+000	10	...........
	53	0.72	9.15045E-001	5.99502E-003	0.00000E+000	5.48572E-003	3.59960E-001	-1.06371E+000	3.57730E+000	10	...........
	54	0.733333	9.20800E-001	5.99018E-003	0.00000E+000	5.51576E-003	3.59960E-001	-1.06469E+000	3.57730E+000	10	...........
	55	0.746667	9.26544E-001	5.99818E-003	0.00000E+000	5.55758E-003	3.59960E-001	-1.07540E+000	3.57730E+000	10	...........
	56	0.76	9.32268E-001	5.99515E-003	0.00000E+000	5.58908E-003	3.59960E-001	-1.06360E+000	3.57730E+000	10	...........
	57	0.773333	9.37916E-001	5.99809E-003	0.00000E+000	5.62570E-003	3.59960E-001	-1.06493E+000	3.57730E+000	10	...........
	58	0.786667	9.43561E-001	5.99655E-003	0.00000E+000	5.65810E-003	3.59960E-001	-1.07545E+000	3.57730E+000	10	...........
	59	0.8	9.49168E-001	5.99604E-003	0.00000E+000	5.69125E-003	3.59960E-001	-1.06350E+000	3.57730E+000	10	...........
	60	0.813333	9.54728E-001	5.99393E-003	0.00000E+000	5.72257E-003	3.59960E-001	-1.06401E+000	3.57730E+000	10	...........
	61	0.826667	9.60243E-001	5.99507E-003	0.00000E+000	5.75673E-003	3.59960E-001	-1.07479E+000	3.57730E+000	10	...........
	62	0.84	9.65745E-001	5.98941E-003	0.00000E+000	5.78424E-003	3.59960E-001	-1.06333E+000	3.57812E+000	10	...........
	63	0.853333	9.71228E-001	5.99320E-003	0.00000E+000	5.82076E-003	3.59960E-001	-1.06431E+000	3.57840E+000	10	...........
	64	0.866667	9.76765E-001	5.99392E-003	0.00000E+000	5.85465E-003	3.59960E-001	-1.07487E+000	3.57840E+000	10	...........
	65	0.88	9.82169E-001	5.99653E-003	0.00000E+000	5.88961E-003	3.59960E-001	-1.06331E+000	3.57840E+000	10	...........
	66	0.893333	9.87564E-001	5.99143E-003	0.00000E+000	5.91693E-003	3.59960E-001	-1.06408E+000	3.57840E+000	10	...........
	67	0.906667	9.92894E-001	5.99412E-003	0.00000E+000	5.95152E-003	3.59960E-001	-1.07504E+000	3.57840E+000	10	...........
	68	0.92	9.98253E-001	5.99216E-003	0.00000E+000	5.98170E-003	3.59960E-001	-1.06340E+000	3.57840E+000	10	...........
STARTTIMEOFFSET	QUANT	215.4216	Start Time Offset (s)