File: Data/CV_CRGO300517_1/PWRCCD_CRGO300517_1/CHARGE_DISCHARGE/CHARGE_#623.DTA
EXPLAIN
TAG	PWR800_CHARGE
TITLE	LABEL	PWR Cyclic Charge Discharge (Cell) - Charge Step	Test &Identifier
DATE	LABEL	22-6-2017	Date
TIME	LABEL	16:00:38	Time
NOTES	NOTES	3	&Notes...
	supercap test cell
	0.6mg
	6M KOH
PSTAT	PSTAT	IFC5000-01520	Potentiostat
CAPACITY	QUANT	1.00000E-003	Capacity (A-hr)
CELLTYPE	SELECTOR	1	&Cell Type
WORKINGCONNECTION	SELECTOR	0	&Working Lead
MAXCHARGETIME	VARIABLEANDUNITS	1.00000E+002	s	1.00000E+002	second(s)	Max &Charge Time
CHARGECURRENT	QUANT	6.00000E-003	&Charge Current (A)
VOLTAGEFINISH	TWOPARAM	F	1.00000E-003	3.60000E+003	&Voltage Finish	 I (A) < 	Max Time(s)
SAMPLETIME	QUANT	1.00000E-002	Sa&mple Period (s)
CHARGESTOPAT1	MULTIPARAM	4	1.00000E+000	Charge Stop At &1	Voltage > Limit	V
CHARGESTOPAT2	MULTIPARAM	0	0.00000E+000	Charge Stop At &2	None	N/A
AESBHCSELECTOR	TOGGLE	F	Save Both Half Cells
IRCOMP	TOGGLE	F	IR &Measure
EOC	QUANT	0	Open Circuit (V)
SEQUENCER	TOGGLE	TRUE	Run as Sequence
PSTATMODEL	IQUANT	53	Pstat Model
PSTATSECTION	LABEL	IFC5000-01520	Pstat Section
PSTATSERIALNO	LABEL	01520	Pstat Serial Number
CTRLMODE	IQUANT	0	Control Mode
ELECTROMETER	IQUANT	1	RE=0 or CS=1
IESTAB	IQUANT	0	I/E Stability
CASPEED	IQUANT	4	Control Amp Speed
CONVENTION	IQUANT	1	Current Convention
ICHRANGE	IQUANT	2	Ich Range
ICHRANGEMODE	TOGGLE	T	Ich Auto Range
ICHOFFSETENABLE	TOGGLE	F	Ich Offset Enable
ICHOFFSET	QUANT	0	Ich Offset (V)
ICHFILTER	IQUANT	1	Ich Filter
VCHRANGE	IQUANT	2	Vch Range
VCHRANGEMODE	TOGGLE	T	Vch Auto Range
VCHOFFSETENABLE	TOGGLE	F	Vch Offset Enable
VCHOFFSET	QUANT	0	Vch Offset (V)
VCHFILTER	IQUANT	1	Vch Filter
IERANGELOWERLIMIT	IQUANT	9	I/E Range Lower Limit
IERANGEMODE	TOGGLE	F	I/E AutoRange
IERANGE	IQUANT	10	I/E Range
ACHSELECT	IQUANT	1	Ach Select
ACHRANGE	IQUANT	2	Ach Range
ACHOFFSETENABLE	TOGGLE	F	Ach Offset Enable
ACHOFFSET	QUANT	0	Ach Offset (V)
ACHFILTER	IQUANT	1	Ach Filter
CABLEID	IQUANT	14	Cable ID
DCCALDATE	LABEL	20-10-2016	DC Calibration Date
ACCALDATE	LABEL	12/3/2015	AC Calibration Date
FRAMEWORKVERSION	QUANT	7.01	Framework Version
INSTRUMENTVERSION	LABEL	4.00	Instrument Version
CURVE	TABLE	57
	Pt	T	Vf	Im	Vu	Pwr	Sig	Ach	Temp	IERange	Over
	#	s	V	A	V	W	V	V	deg C	#	bits
	0	0.013333	6.39126E-001	5.99437E-003	0.00000E+000	3.83115E-003	3.59960E-001	-1.14863E+000	3.57640E+000	10	...........
	1	0.026667	6.48161E-001	5.99712E-003	0.00000E+000	3.88710E-003	3.59960E-001	-1.15754E+000	3.57640E+000	10	...........
	2	0.04	6.56427E-001	5.99329E-003	0.00000E+000	3.93416E-003	3.59960E-001	-1.14706E+000	3.57640E+000	10	...........
	3	0.053333	6.64305E-001	5.99228E-003	0.00000E+000	3.98070E-003	3.59960E-001	-1.14862E+000	3.57640E+000	10	...........
	4	0.066667	6.71869E-001	5.99583E-003	0.00000E+000	4.02841E-003	3.59960E-001	-1.15766E+000	3.57640E+000	10	...........
	5	0.08	6.79215E-001	5.98580E-003	0.00000E+000	4.06565E-003	3.59960E-001	-1.14749E+000	3.57640E+000	10	...........
	6	0.093333	6.86441E-001	5.99132E-003	0.00000E+000	4.11269E-003	3.59960E-001	-1.14928E+000	3.57640E+000	10	...........
	7	0.106667	6.93571E-001	5.99378E-003	0.00000E+000	4.15711E-003	3.59960E-001	-1.15817E+000	3.57640E+000	10	...........
	8	0.12	7.00552E-001	5.98775E-003	0.00000E+000	4.19473E-003	3.59960E-001	-1.14794E+000	3.57640E+000	10	...........
	9	0.133333	7.07488E-001	5.99318E-003	0.00000E+000	4.24010E-003	3.59960E-001	-1.14956E+000	3.57640E+000	10	...........
	10	0.146667	7.14380E-001	5.99128E-003	0.00000E+000	4.28005E-003	3.59960E-001	-1.15829E+000	3.57640E+000	10	...........
	11	0.16	7.21277E-001	5.99250E-003	0.00000E+000	4.32225E-003	3.59960E-001	-1.14786E+000	3.57640E+000	10	...........
	12	0.173333	7.28075E-001	5.99742E-003	0.00000E+000	4.36657E-003	3.59960E-001	-1.14918E+000	3.57640E+000	10	...........
	13	0.186667	7.34838E-001	5.99440E-003	0.00000E+000	4.40491E-003	3.59960E-001	-1.15764E+000	3.57640E+000	10	...........
	14	0.2	7.41552E-001	5.98747E-003	0.00000E+000	4.44002E-003	3.59960E-001	-1.14662E+000	3.57640E+000	10	...........
	15	0.213333	7.48253E-001	5.98904E-003	0.00000E+000	4.48132E-003	3.59960E-001	-1.14856E+000	3.57640E+000	10	...........
	16	0.226667	7.54922E-001	5.99525E-003	0.00000E+000	4.52595E-003	3.59960E-001	-1.15742E+000	3.57640E+000	10	...........
	17	0.24	7.61583E-001	5.99052E-003	0.00000E+000	4.56228E-003	3.59960E-001	-1.14667E+000	3.57640E+000	10	...........
	18	0.253333	7.68197E-001	5.99304E-003	0.00000E+000	4.60384E-003	3.59960E-001	-1.14852E+000	3.57640E+000	10	...........
	19	0.266667	7.74826E-001	5.99112E-003	0.00000E+000	4.64207E-003	3.59960E-001	-1.15700E+000	3.57640E+000	10	...........
	20	0.28	7.81387E-001	5.99410E-003	0.00000E+000	4.68371E-003	3.59960E-001	-1.14656E+000	3.57640E+000	10	...........
	21	0.293333	7.87959E-001	5.98990E-003	0.00000E+000	4.71980E-003	3.59960E-001	-1.14841E+000	3.57640E+000	10	...........
	22	0.306667	7.94548E-001	5.99203E-003	0.00000E+000	4.76095E-003	3.59960E-001	-1.15701E+000	3.57650E+000	10	...........
	23	0.32	8.01098E-001	5.99634E-003	0.00000E+000	4.80365E-003	3.59960E-001	-1.14638E+000	3.57660E+000	10	...........
	24	0.333333	8.07579E-001	5.99185E-003	0.00000E+000	4.83889E-003	3.59960E-001	-1.14849E+000	3.57660E+000	10	...........
	25	0.346667	8.14085E-001	5.99165E-003	0.00000E+000	4.87772E-003	3.59960E-001	-1.15698E+000	3.57660E+000	10	...........
	26	0.36	8.20578E-001	5.99556E-003	0.00000E+000	4.91983E-003	3.59960E-001	-1.14675E+000	3.57660E+000	10	...........
	27	0.373333	8.27055E-001	5.99184E-003	0.00000E+000	4.95558E-003	3.59960E-001	-1.14875E+000	3.57660E+000	10	...........
	28	0.386667	8.33507E-001	5.99374E-003	0.00000E+000	4.99583E-003	3.59960E-001	-1.15713E+000	3.57660E+000	10	...........
	29	0.4	8.39919E-001	5.99234E-003	0.00000E+000	5.03308E-003	3.59960E-001	-1.14683E+000	3.57660E+000	10	...........
	30	0.413333	8.46366E-001	5.99018E-003	0.00000E+000	5.06989E-003	3.59960E-001	-1.14917E+000	3.57660E+000	10	...........
	31	0.426667	8.52791E-001	5.99204E-003	0.00000E+000	5.10996E-003	3.59960E-001	-1.15751E+000	3.57660E+000	10	...........
	32	0.44	8.59129E-001	5.98791E-003	0.00000E+000	5.14439E-003	3.59960E-001	-1.14719E+000	3.57660E+000	10	...........
	33	0.453333	8.65459E-001	5.99634E-003	0.00000E+000	5.18958E-003	3.59960E-001	-1.14908E+000	3.57660E+000	10	...........
	34	0.466667	8.71823E-001	5.99752E-003	0.00000E+000	5.22877E-003	3.59960E-001	-1.15743E+000	3.57660E+000	10	...........
	35	0.48	8.78070E-001	5.99399E-003	0.00000E+000	5.26314E-003	3.59960E-001	-1.14725E+000	3.57660E+000	10	...........
	36	0.493333	8.84347E-001	5.99407E-003	0.00000E+000	5.30084E-003	3.59960E-001	-1.14957E+000	3.57660E+000	10	...........
	37	0.506667	8.90566E-001	5.99486E-003	0.00000E+000	5.33881E-003	3.59960E-001	-1.15763E+000	3.57660E+000	10	...........
	38	0.52	8.96753E-001	5.99027E-003	0.00000E+000	5.37179E-003	3.59960E-001	-1.14687E+000	3.57660E+000	10	...........
	39	0.533333	9.02942E-001	5.99087E-003	0.00000E+000	5.40941E-003	3.59960E-001	-1.14906E+000	3.57660E+000	10	...........
	40	0.546667	9.09075E-001	5.99402E-003	0.00000E+000	5.44902E-003	3.59960E-001	-1.15709E+000	3.57660E+000	10	...........
	41	0.56	9.15174E-001	5.99551E-003	0.00000E+000	5.48694E-003	3.59960E-001	-1.14696E+000	3.57660E+000	10	...........
	42	0.573333	9.21316E-001	5.99410E-003	0.00000E+000	5.52246E-003	3.59960E-001	-1.14922E+000	3.57660E+000	10	...........
	43	0.586667	9.27361E-001	5.99517E-003	0.00000E+000	5.55968E-003	3.59960E-001	-1.15715E+000	3.57660E+000	10	...........
	44	0.6	9.33341E-001	5.99442E-003	0.00000E+000	5.59483E-003	3.59960E-001	-1.14691E+000	3.57660E+000	10	...........
	45	0.613333	9.39314E-001	5.99527E-003	0.00000E+000	5.63144E-003	3.59960E-001	-1.14933E+000	3.57660E+000	10	...........
	46	0.626667	9.45224E-001	5.99636E-003	0.00000E+000	5.66790E-003	3.59960E-001	-1.15721E+000	3.57660E+000	10	...........
	47	0.64	9.51137E-001	5.99312E-003	0.00000E+000	5.70028E-003	3.59960E-001	-1.14674E+000	3.57660E+000	10	...........
	48	0.653333	9.56956E-001	5.99371E-003	0.00000E+000	5.73571E-003	3.59960E-001	-1.14892E+000	3.57660E+000	10	...........
	49	0.666667	9.62706E-001	5.99299E-003	0.00000E+000	5.76949E-003	3.59960E-001	-1.15701E+000	3.57660E+000	10	...........
	50	0.68	9.68471E-001	5.99450E-003	0.00000E+000	5.80550E-003	3.59960E-001	-1.14690E+000	3.57660E+000	10	...........
	51	0.693333	9.74243E-001	5.99272E-003	0.00000E+000	5.83836E-003	3.59960E-001	-1.14936E+000	3.57660E+000	10	...........
	52	0.706667	9.79890E-001	5.99612E-003	0.00000E+000	5.87554E-003	3.59960E-001	-1.15697E+000	3.57660E+000	10	...........
	53	0.72	9.85495E-001	5.99337E-003	0.00000E+000	5.90644E-003	3.59960E-001	-1.14667E+000	3.57660E+000	10	...........
	54	0.733333	9.91083E-001	5.99489E-003	0.00000E+000	5.94143E-003	3.59960E-001	-1.14918E+000	3.57660E+000	10	...........
	55	0.746667	9.96583E-001	5.99655E-003	0.00000E+000	5.97605E-003	3.59960E-001	-1.15706E+000	3.57660E+000	10	...........
	56	0.75	1.00004E+000	5.99750E-003	0.00000E+000	5.99774E-003	3.59960E-001	-1.14379E+000	3.57660E+000	10	...........
STARTTIMEOFFSET	QUANT	1045.333	Start Time Offset (s)