File: Data/CV_CRGO300517_1/PWRCCD_CRGO300517_1/CHARGE_DISCHARGE/CHARGE_#705.DTA
EXPLAIN
TAG	PWR800_CHARGE
TITLE	LABEL	PWR Cyclic Charge Discharge (Cell) - Charge Step	Test &Identifier
DATE	LABEL	22-6-2017	Date
TIME	LABEL	16:03:44	Time
NOTES	NOTES	3	&Notes...
	supercap test cell
	0.6mg
	6M KOH
PSTAT	PSTAT	IFC5000-01520	Potentiostat
CAPACITY	QUANT	1.00000E-003	Capacity (A-hr)
CELLTYPE	SELECTOR	1	&Cell Type
WORKINGCONNECTION	SELECTOR	0	&Working Lead
MAXCHARGETIME	VARIABLEANDUNITS	1.00000E+002	s	1.00000E+002	second(s)	Max &Charge Time
CHARGECURRENT	QUANT	6.00000E-003	&Charge Current (A)
VOLTAGEFINISH	TWOPARAM	F	1.00000E-003	3.60000E+003	&Voltage Finish	 I (A) < 	Max Time(s)
SAMPLETIME	QUANT	1.00000E-002	Sa&mple Period (s)
CHARGESTOPAT1	MULTIPARAM	4	1.00000E+000	Charge Stop At &1	Voltage > Limit	V
CHARGESTOPAT2	MULTIPARAM	0	0.00000E+000	Charge Stop At &2	None	N/A
AESBHCSELECTOR	TOGGLE	F	Save Both Half Cells
IRCOMP	TOGGLE	F	IR &Measure
EOC	QUANT	0	Open Circuit (V)
SEQUENCER	TOGGLE	TRUE	Run as Sequence
PSTATMODEL	IQUANT	53	Pstat Model
PSTATSECTION	LABEL	IFC5000-01520	Pstat Section
PSTATSERIALNO	LABEL	01520	Pstat Serial Number
CTRLMODE	IQUANT	0	Control Mode
ELECTROMETER	IQUANT	1	RE=0 or CS=1
IESTAB	IQUANT	0	I/E Stability
CASPEED	IQUANT	4	Control Amp Speed
CONVENTION	IQUANT	1	Current Convention
ICHRANGE	IQUANT	2	Ich Range
ICHRANGEMODE	TOGGLE	T	Ich Auto Range
ICHOFFSETENABLE	TOGGLE	F	Ich Offset Enable
ICHOFFSET	QUANT	0	Ich Offset (V)
ICHFILTER	IQUANT	1	Ich Filter
VCHRANGE	IQUANT	2	Vch Range
VCHRANGEMODE	TOGGLE	T	Vch Auto Range
VCHOFFSETENABLE	TOGGLE	F	Vch Offset Enable
VCHOFFSET	QUANT	0	Vch Offset (V)
VCHFILTER	IQUANT	1	Vch Filter
IERANGELOWERLIMIT	IQUANT	9	I/E Range Lower Limit
IERANGEMODE	TOGGLE	F	I/E AutoRange
IERANGE	IQUANT	10	I/E Range
ACHSELECT	IQUANT	1	Ach Select
ACHRANGE	IQUANT	2	Ach Range
ACHOFFSETENABLE	TOGGLE	F	Ach Offset Enable
ACHOFFSET	QUANT	0	Ach Offset (V)
ACHFILTER	IQUANT	1	Ach Filter
CABLEID	IQUANT	14	Cable ID
DCCALDATE	LABEL	20-10-2016	DC Calibration Date
ACCALDATE	LABEL	12/3/2015	AC Calibration Date
FRAMEWORKVERSION	QUANT	7.01	Framework Version
INSTRUMENTVERSION	LABEL	4.00	Instrument Version
CURVE	TABLE	56
	Pt	T	Vf	Im	Vu	Pwr	Sig	Ach	Temp	IERange	Over
	#	s	V	A	V	W	V	V	deg C	#	bits
	0	0.013333	6.43400E-001	5.99215E-003	0.00000E+000	3.85535E-003	3.59960E-001	-1.15432E+000	3.57730E+000	10	...........
	1	0.026667	6.52487E-001	5.99317E-003	0.00000E+000	3.91046E-003	3.59960E-001	-1.15576E+000	3.57730E+000	10	...........
	2	0.04	6.60856E-001	5.99777E-003	0.00000E+000	3.96366E-003	3.59960E-001	-1.16476E+000	3.57730E+000	10	...........
	3	0.053333	6.68825E-001	5.99034E-003	0.00000E+000	4.00649E-003	3.59960E-001	-1.15365E+000	3.57730E+000	10	...........
	4	0.066667	6.76424E-001	5.99381E-003	0.00000E+000	4.05436E-003	3.59960E-001	-1.15489E+000	3.57730E+000	10	...........
	5	0.08	6.83883E-001	5.99324E-003	0.00000E+000	4.09868E-003	3.59960E-001	-1.16326E+000	3.57730E+000	10	...........
	6	0.093333	6.91177E-001	5.99549E-003	0.00000E+000	4.14395E-003	3.59960E-001	-1.15242E+000	3.57730E+000	10	...........
	7	0.106667	6.98376E-001	5.99644E-003	0.00000E+000	4.18777E-003	3.59960E-001	-1.15440E+000	3.57730E+000	10	...........
	8	0.12	7.05444E-001	5.99317E-003	0.00000E+000	4.22784E-003	3.59960E-001	-1.16293E+000	3.57730E+000	10	...........
	9	0.133333	7.12431E-001	5.99566E-003	0.00000E+000	4.27150E-003	3.59960E-001	-1.15244E+000	3.57730E+000	10	...........
	10	0.146667	7.19459E-001	5.99811E-003	0.00000E+000	4.31539E-003	3.59960E-001	-1.15461E+000	3.57730E+000	10	...........
	11	0.16	7.26355E-001	5.99245E-003	0.00000E+000	4.35265E-003	3.59960E-001	-1.16275E+000	3.57730E+000	10	...........
	12	0.173333	7.33224E-001	5.99837E-003	0.00000E+000	4.39815E-003	3.59960E-001	-1.15204E+000	3.57730E+000	10	...........
	13	0.186667	7.40037E-001	5.99417E-003	0.00000E+000	4.43590E-003	3.59960E-001	-1.15404E+000	3.57730E+000	10	...........
	14	0.2	7.46842E-001	5.99210E-003	0.00000E+000	4.47515E-003	3.59960E-001	-1.16262E+000	3.57730E+000	10	...........
	15	0.213333	7.53597E-001	5.99610E-003	0.00000E+000	4.51864E-003	3.59960E-001	-1.15213E+000	3.57730E+000	10	...........
	16	0.226667	7.60333E-001	5.99397E-003	0.00000E+000	4.55741E-003	3.59960E-001	-1.15458E+000	3.57730E+000	10	...........
	17	0.24	7.67023E-001	5.99781E-003	0.00000E+000	4.60046E-003	3.59960E-001	-1.16281E+000	3.57730E+000	10	...........
	18	0.253333	7.73699E-001	5.99047E-003	0.00000E+000	4.63482E-003	3.59960E-001	-1.15256E+000	3.57730E+000	10	...........
	19	0.266667	7.80364E-001	5.99466E-003	0.00000E+000	4.67801E-003	3.59960E-001	-1.15534E+000	3.57730E+000	10	...........
	20	0.28	7.87020E-001	5.99077E-003	0.00000E+000	4.71485E-003	3.59960E-001	-1.16345E+000	3.57730E+000	10	...........
	21	0.293333	7.93705E-001	5.99409E-003	0.00000E+000	4.75754E-003	3.59960E-001	-1.15262E+000	3.57730E+000	10	...........
	22	0.306667	8.00251E-001	5.99590E-003	0.00000E+000	4.79823E-003	3.59960E-001	-1.15492E+000	3.57680E+000	10	...........
	23	0.32	8.06836E-001	5.99550E-003	0.00000E+000	4.83739E-003	3.59960E-001	-1.16285E+000	3.57680E+000	10	...........
	24	0.333333	8.13362E-001	5.99762E-003	0.00000E+000	4.87824E-003	3.59960E-001	-1.15239E+000	3.57680E+000	10	...........
	25	0.346667	8.19917E-001	5.99308E-003	0.00000E+000	4.91383E-003	3.59960E-001	-1.15510E+000	3.57680E+000	10	...........
	26	0.36	8.26454E-001	5.99130E-003	0.00000E+000	4.95153E-003	3.59960E-001	-1.16269E+000	3.57680E+000	10	...........
	27	0.373333	8.32898E-001	5.99309E-003	0.00000E+000	4.99164E-003	3.59960E-001	-1.15161E+000	3.57680E+000	10	...........
	28	0.386667	8.39360E-001	5.99260E-003	0.00000E+000	5.02995E-003	3.59960E-001	-1.15393E+000	3.57680E+000	10	...........
	29	0.4	8.45874E-001	5.99391E-003	0.00000E+000	5.07009E-003	3.59960E-001	-1.16150E+000	3.57680E+000	10	...........
	30	0.413333	8.52292E-001	5.99400E-003	0.00000E+000	5.10864E-003	3.59960E-001	-1.15108E+000	3.57680E+000	10	...........
	31	0.426667	8.58743E-001	5.99227E-003	0.00000E+000	5.14582E-003	3.59960E-001	-1.15392E+000	3.57680E+000	10	...........
	32	0.44	8.65088E-001	5.99086E-003	0.00000E+000	5.18262E-003	3.59960E-001	-1.16128E+000	3.57680E+000	10	...........
	33	0.453333	8.71505E-001	5.99022E-003	0.00000E+000	5.22051E-003	3.59960E-001	-1.15077E+000	3.57680E+000	10	...........
	34	0.466667	8.77811E-001	5.99660E-003	0.00000E+000	5.26388E-003	3.59960E-001	-1.15421E+000	3.57680E+000	10	...........
	35	0.48	8.84120E-001	5.99586E-003	0.00000E+000	5.30106E-003	3.59960E-001	-1.16154E+000	3.57680E+000	10	...........
	36	0.493333	8.90390E-001	5.99609E-003	0.00000E+000	5.33885E-003	3.59960E-001	-1.15109E+000	3.57680E+000	10	...........
	37	0.506667	8.96596E-001	5.99526E-003	0.00000E+000	5.37533E-003	3.59960E-001	-1.15446E+000	3.57680E+000	10	...........
	38	0.52	9.02814E-001	5.99527E-003	0.00000E+000	5.41262E-003	3.59960E-001	-1.16155E+000	3.57680E+000	10	...........
	39	0.533333	9.08994E-001	5.99320E-003	0.00000E+000	5.44778E-003	3.59960E-001	-1.15120E+000	3.57680E+000	10	...........
	40	0.546667	9.15174E-001	5.99856E-003	0.00000E+000	5.48972E-003	3.59960E-001	-1.15497E+000	3.57680E+000	10	...........
	41	0.56	9.21306E-001	5.99762E-003	0.00000E+000	5.52564E-003	3.59960E-001	-1.16147E+000	3.57680E+000	10	...........
	42	0.573333	9.27388E-001	5.99165E-003	0.00000E+000	5.55659E-003	3.59960E-001	-1.15119E+000	3.57680E+000	10	...........
	43	0.586667	9.33403E-001	5.99224E-003	0.00000E+000	5.59317E-003	3.59960E-001	-1.15461E+000	3.57680E+000	10	...........
	44	0.6	9.39347E-001	5.99208E-003	0.00000E+000	5.62864E-003	3.59960E-001	-1.16131E+000	3.57680E+000	10	...........
	45	0.613333	9.45316E-001	5.99350E-003	0.00000E+000	5.66575E-003	3.59960E-001	-1.15098E+000	3.57680E+000	10	...........
	46	0.626667	9.51245E-001	5.99614E-003	0.00000E+000	5.70379E-003	3.59960E-001	-1.15443E+000	3.57680E+000	10	...........
	47	0.64	9.57109E-001	5.99185E-003	0.00000E+000	5.73486E-003	3.59960E-001	-1.16088E+000	3.57680E+000	10	...........
	48	0.653333	9.62890E-001	5.99603E-003	0.00000E+000	5.77352E-003	3.59960E-001	-1.15053E+000	3.57680E+000	10	...........
	49	0.666667	9.68665E-001	5.99220E-003	0.00000E+000	5.80443E-003	3.59960E-001	-1.15430E+000	3.57680E+000	10	...........
	50	0.68	9.74434E-001	5.99221E-003	0.00000E+000	5.83901E-003	3.59960E-001	-1.16007E+000	3.57680E+000	10	...........
	51	0.693333	9.80080E-001	5.99464E-003	0.00000E+000	5.87523E-003	3.59960E-001	-1.14957E+000	3.57680E+000	10	...........
	52	0.706667	9.85694E-001	5.99482E-003	0.00000E+000	5.90906E-003	3.59960E-001	-1.15327E+000	3.57680E+000	10	...........
	53	0.72	9.91271E-001	5.99781E-003	0.00000E+000	5.94545E-003	3.59960E-001	-1.15932E+000	3.57680E+000	10	...........
	54	0.733333	9.96794E-001	5.99710E-003	0.00000E+000	5.97787E-003	3.59960E-001	-1.14968E+000	3.57680E+000	10	...........
	55	0.736667	1.00027E+000	6.00259E-003	0.00000E+000	6.00424E-003	3.59960E-001	-1.16502E+000	3.57680E+000	10	...........
STARTTIMEOFFSET	QUANT	1166.556	Start Time Offset (s)