File: Data/CV_CRGO300517_1/PWRCCD_CRGO300517_1/CHARGE_DISCHARGE/CHARGE_#460.DTA
EXPLAIN
TAG	PWR800_CHARGE
TITLE	LABEL	PWR Cyclic Charge Discharge (Cell) - Charge Step	Test &Identifier
DATE	LABEL	22-6-2017	Date
TIME	LABEL	15:54:21	Time
NOTES	NOTES	3	&Notes...
	supercap test cell
	0.6mg
	6M KOH
PSTAT	PSTAT	IFC5000-01520	Potentiostat
CAPACITY	QUANT	1.00000E-003	Capacity (A-hr)
CELLTYPE	SELECTOR	1	&Cell Type
WORKINGCONNECTION	SELECTOR	0	&Working Lead
MAXCHARGETIME	VARIABLEANDUNITS	1.00000E+002	s	1.00000E+002	second(s)	Max &Charge Time
CHARGECURRENT	QUANT	6.00000E-003	&Charge Current (A)
VOLTAGEFINISH	TWOPARAM	F	1.00000E-003	3.60000E+003	&Voltage Finish	 I (A) < 	Max Time(s)
SAMPLETIME	QUANT	1.00000E-002	Sa&mple Period (s)
CHARGESTOPAT1	MULTIPARAM	4	1.00000E+000	Charge Stop At &1	Voltage > Limit	V
CHARGESTOPAT2	MULTIPARAM	0	0.00000E+000	Charge Stop At &2	None	N/A
AESBHCSELECTOR	TOGGLE	F	Save Both Half Cells
IRCOMP	TOGGLE	F	IR &Measure
EOC	QUANT	0	Open Circuit (V)
SEQUENCER	TOGGLE	TRUE	Run as Sequence
PSTATMODEL	IQUANT	53	Pstat Model
PSTATSECTION	LABEL	IFC5000-01520	Pstat Section
PSTATSERIALNO	LABEL	01520	Pstat Serial Number
CTRLMODE	IQUANT	0	Control Mode
ELECTROMETER	IQUANT	1	RE=0 or CS=1
IESTAB	IQUANT	0	I/E Stability
CASPEED	IQUANT	4	Control Amp Speed
CONVENTION	IQUANT	1	Current Convention
ICHRANGE	IQUANT	2	Ich Range
ICHRANGEMODE	TOGGLE	T	Ich Auto Range
ICHOFFSETENABLE	TOGGLE	F	Ich Offset Enable
ICHOFFSET	QUANT	0	Ich Offset (V)
ICHFILTER	IQUANT	1	Ich Filter
VCHRANGE	IQUANT	2	Vch Range
VCHRANGEMODE	TOGGLE	T	Vch Auto Range
VCHOFFSETENABLE	TOGGLE	F	Vch Offset Enable
VCHOFFSET	QUANT	0	Vch Offset (V)
VCHFILTER	IQUANT	1	Vch Filter
IERANGELOWERLIMIT	IQUANT	9	I/E Range Lower Limit
IERANGEMODE	TOGGLE	F	I/E AutoRange
IERANGE	IQUANT	10	I/E Range
ACHSELECT	IQUANT	1	Ach Select
ACHRANGE	IQUANT	2	Ach Range
ACHOFFSETENABLE	TOGGLE	F	Ach Offset Enable
ACHOFFSET	QUANT	0	Ach Offset (V)
ACHFILTER	IQUANT	1	Ach Filter
CABLEID	IQUANT	14	Cable ID
DCCALDATE	LABEL	20-10-2016	DC Calibration Date
ACCALDATE	LABEL	12/3/2015	AC Calibration Date
FRAMEWORKVERSION	QUANT	7.01	Framework Version
INSTRUMENTVERSION	LABEL	4.00	Instrument Version
CURVE	TABLE	59
	Pt	T	Vf	Im	Vu	Pwr	Sig	Ach	Temp	IERange	Over
	#	s	V	A	V	W	V	V	deg C	#	bits
	0	0.013333	6.29458E-001	5.99441E-003	0.00000E+000	3.77323E-003	3.59960E-001	-1.10154E+000	3.57670E+000	10	...........
	1	0.026667	6.38273E-001	5.99590E-003	0.00000E+000	3.82702E-003	3.59960E-001	-1.11035E+000	3.57670E+000	10	...........
	2	0.04	6.46383E-001	5.99516E-003	0.00000E+000	3.87517E-003	3.59960E-001	-1.10792E+000	3.57670E+000	10	...........
	3	0.053333	6.54045E-001	5.99250E-003	0.00000E+000	3.91936E-003	3.59960E-001	-1.10231E+000	3.57670E+000	10	...........
	4	0.066667	6.61469E-001	5.99772E-003	0.00000E+000	3.96731E-003	3.59960E-001	-1.11102E+000	3.57670E+000	10	...........
	5	0.08	6.68706E-001	5.99610E-003	0.00000E+000	4.00963E-003	3.59960E-001	-1.10808E+000	3.57670E+000	10	...........
	6	0.093333	6.75763E-001	5.99075E-003	0.00000E+000	4.04832E-003	3.59960E-001	-1.10265E+000	3.57670E+000	10	...........
	7	0.106667	6.82729E-001	5.99007E-003	0.00000E+000	4.08959E-003	3.59960E-001	-1.11138E+000	3.57670E+000	10	...........
	8	0.12	6.89628E-001	5.99111E-003	0.00000E+000	4.13164E-003	3.59960E-001	-1.10874E+000	3.57670E+000	10	...........
	9	0.133333	6.96443E-001	5.99632E-003	0.00000E+000	4.17609E-003	3.59960E-001	-1.10311E+000	3.57670E+000	10	...........
	10	0.146667	7.03247E-001	5.99807E-003	0.00000E+000	4.21812E-003	3.59960E-001	-1.11200E+000	3.57670E+000	10	...........
	11	0.16	7.09917E-001	5.99576E-003	0.00000E+000	4.25649E-003	3.59960E-001	-1.10952E+000	3.57670E+000	10	...........
	12	0.173333	7.16595E-001	5.99563E-003	0.00000E+000	4.29644E-003	3.59960E-001	-1.10415E+000	3.57670E+000	10	...........
	13	0.186667	7.23258E-001	5.99506E-003	0.00000E+000	4.33598E-003	3.59960E-001	-1.11270E+000	3.57670E+000	10	...........
	14	0.2	7.29817E-001	5.99418E-003	0.00000E+000	4.37465E-003	3.59960E-001	-1.11019E+000	3.57670E+000	10	...........
	15	0.213333	7.36364E-001	5.99381E-003	0.00000E+000	4.41363E-003	3.59960E-001	-1.10480E+000	3.57670E+000	10	...........
	16	0.226667	7.42920E-001	5.99367E-003	0.00000E+000	4.45282E-003	3.59960E-001	-1.11350E+000	3.57670E+000	10	...........
	17	0.24	7.49441E-001	5.99683E-003	0.00000E+000	4.49427E-003	3.59960E-001	-1.11087E+000	3.57670E+000	10	...........
	18	0.253333	7.55959E-001	5.99175E-003	0.00000E+000	4.52951E-003	3.59960E-001	-1.10523E+000	3.57670E+000	10	...........
	19	0.266667	7.62421E-001	5.99353E-003	0.00000E+000	4.56959E-003	3.59960E-001	-1.11375E+000	3.57670E+000	10	...........
	20	0.28	7.68884E-001	5.99232E-003	0.00000E+000	4.60740E-003	3.59960E-001	-1.11146E+000	3.57670E+000	10	...........
	21	0.293333	7.75287E-001	5.99353E-003	0.00000E+000	4.64671E-003	3.59960E-001	-1.10602E+000	3.57670E+000	10	...........
	22	0.306667	7.81758E-001	5.99442E-003	0.00000E+000	4.68619E-003	3.59960E-001	-1.11485E+000	3.57670E+000	10	...........
	23	0.32	7.88169E-001	5.99549E-003	0.00000E+000	4.72546E-003	3.59960E-001	-1.11224E+000	3.57670E+000	10	...........
	24	0.333333	7.94629E-001	5.99364E-003	0.00000E+000	4.76272E-003	3.59960E-001	-1.10643E+000	3.57670E+000	10	...........
	25	0.346667	8.01017E-001	5.99208E-003	0.00000E+000	4.79976E-003	3.59960E-001	-1.11513E+000	3.57670E+000	10	...........
	26	0.36	8.07335E-001	5.98957E-003	0.00000E+000	4.83559E-003	3.59960E-001	-1.11298E+000	3.57670E+000	10	...........
	27	0.373333	8.13680E-001	5.99340E-003	0.00000E+000	4.87671E-003	3.59960E-001	-1.10733E+000	3.57670E+000	10	...........
	28	0.386667	8.20090E-001	5.99400E-003	0.00000E+000	4.91562E-003	3.59960E-001	-1.11553E+000	3.57670E+000	10	...........
	29	0.4	8.26442E-001	5.99338E-003	0.00000E+000	4.95319E-003	3.59960E-001	-1.11309E+000	3.57670E+000	10	...........
	30	0.413333	8.32726E-001	5.98935E-003	0.00000E+000	4.98749E-003	3.59960E-001	-1.10718E+000	3.57670E+000	10	...........
	31	0.426667	8.39011E-001	5.99062E-003	0.00000E+000	5.02619E-003	3.59960E-001	-1.11611E+000	3.57670E+000	10	...........
	32	0.44	8.45309E-001	5.99493E-003	0.00000E+000	5.06757E-003	3.59960E-001	-1.11358E+000	3.57670E+000	10	...........
	33	0.453333	8.51598E-001	5.99390E-003	0.00000E+000	5.10439E-003	3.59960E-001	-1.10746E+000	3.57670E+000	10	...........
	34	0.466667	8.57853E-001	5.99749E-003	0.00000E+000	5.14497E-003	3.59960E-001	-1.11610E+000	3.57670E+000	10	...........
	35	0.48	8.64085E-001	5.99274E-003	0.00000E+000	5.17824E-003	3.59960E-001	-1.11406E+000	3.57670E+000	10	...........
	36	0.493333	8.70326E-001	5.99407E-003	0.00000E+000	5.21680E-003	3.59960E-001	-1.10856E+000	3.57670E+000	10	...........
	37	0.506667	8.76501E-001	5.99503E-003	0.00000E+000	5.25465E-003	3.59960E-001	-1.11697E+000	3.57670E+000	10	...........
	38	0.52	8.82693E-001	5.99361E-003	0.00000E+000	5.29052E-003	3.59960E-001	-1.11436E+000	3.57670E+000	10	...........
	39	0.533333	8.88853E-001	5.99109E-003	0.00000E+000	5.32520E-003	3.59960E-001	-1.10881E+000	3.57670E+000	10	...........
	40	0.546667	8.94985E-001	5.99332E-003	0.00000E+000	5.36393E-003	3.59960E-001	-1.11720E+000	3.57670E+000	10	...........
	41	0.56	9.01080E-001	5.99252E-003	0.00000E+000	5.39974E-003	3.59960E-001	-1.11522E+000	3.57670E+000	10	...........
	42	0.573333	9.07136E-001	5.99231E-003	0.00000E+000	5.43584E-003	3.59960E-001	-1.10942E+000	3.57670E+000	10	...........
	43	0.586667	9.13176E-001	5.99583E-003	0.00000E+000	5.47524E-003	3.59960E-001	-1.11748E+000	3.57670E+000	10	...........
	44	0.6	9.19170E-001	5.99004E-003	0.00000E+000	5.50586E-003	3.59960E-001	-1.11550E+000	3.57670E+000	10	...........
	45	0.613333	9.25221E-001	5.99707E-003	0.00000E+000	5.54861E-003	3.59960E-001	-1.10973E+000	3.57670E+000	10	...........
	46	0.626667	9.31160E-001	5.99401E-003	0.00000E+000	5.58138E-003	3.59960E-001	-1.11830E+000	3.57670E+000	10	...........
	47	0.64	9.37061E-001	5.99430E-003	0.00000E+000	5.61703E-003	3.59960E-001	-1.11620E+000	3.57670E+000	10	...........
	48	0.653333	9.42912E-001	5.99602E-003	0.00000E+000	5.65372E-003	3.59960E-001	-1.11015E+000	3.57670E+000	10	...........
	49	0.666667	9.48759E-001	5.99290E-003	0.00000E+000	5.68582E-003	3.59960E-001	-1.11863E+000	3.57670E+000	10	...........
	50	0.68	9.54557E-001	5.99568E-003	0.00000E+000	5.72322E-003	3.59960E-001	-1.11674E+000	3.57670E+000	10	...........
	51	0.693333	9.60323E-001	6.00022E-003	0.00000E+000	5.76215E-003	3.59960E-001	-1.11091E+000	3.57670E+000	10	...........
	52	0.706667	9.65998E-001	5.99453E-003	0.00000E+000	5.79070E-003	3.59960E-001	-1.11932E+000	3.57670E+000	10	...........
	53	0.72	9.71666E-001	5.99504E-003	0.00000E+000	5.82518E-003	3.59960E-001	-1.11689E+000	3.57670E+000	10	...........
	54	0.733333	9.77344E-001	5.99571E-003	0.00000E+000	5.85987E-003	3.59960E-001	-1.11053E+000	3.57670E+000	10	...........
	55	0.746667	9.82923E-001	5.99636E-003	0.00000E+000	5.89396E-003	3.59960E-001	-1.11925E+000	3.57670E+000	10	...........
	56	0.76	9.88482E-001	5.99480E-003	0.00000E+000	5.92576E-003	3.59960E-001	-1.11746E+000	3.57670E+000	10	...........
	57	0.773333	9.93984E-001	5.99247E-003	0.00000E+000	5.95642E-003	3.59960E-001	-1.11139E+000	3.57670E+000	10	...........
	58	0.783333	9.98749E-001	5.98703E-003	0.00000E+000	5.97954E-003	3.59960E-001	-1.12431E+000	3.57670E+000	10	...........
STARTTIMEOFFSET	QUANT	797.0601	Start Time Offset (s)