File: Data/CV_CRGO300517_1/PWRCCD_CRGO300517_1/CHARGE_DISCHARGE/CHARGE_#954.DTA
EXPLAIN
TAG	PWR800_CHARGE
TITLE	LABEL	PWR Cyclic Charge Discharge (Cell) - Charge Step	Test &Identifier
DATE	LABEL	22-6-2017	Date
TIME	LABEL	16:12:58	Time
NOTES	NOTES	3	&Notes...
	supercap test cell
	0.6mg
	6M KOH
PSTAT	PSTAT	IFC5000-01520	Potentiostat
CAPACITY	QUANT	1.00000E-003	Capacity (A-hr)
CELLTYPE	SELECTOR	1	&Cell Type
WORKINGCONNECTION	SELECTOR	0	&Working Lead
MAXCHARGETIME	VARIABLEANDUNITS	1.00000E+002	s	1.00000E+002	second(s)	Max &Charge Time
CHARGECURRENT	QUANT	6.00000E-003	&Charge Current (A)
VOLTAGEFINISH	TWOPARAM	F	1.00000E-003	3.60000E+003	&Voltage Finish	 I (A) < 	Max Time(s)
SAMPLETIME	QUANT	1.00000E-002	Sa&mple Period (s)
CHARGESTOPAT1	MULTIPARAM	4	1.00000E+000	Charge Stop At &1	Voltage > Limit	V
CHARGESTOPAT2	MULTIPARAM	0	0.00000E+000	Charge Stop At &2	None	N/A
AESBHCSELECTOR	TOGGLE	F	Save Both Half Cells
IRCOMP	TOGGLE	F	IR &Measure
EOC	QUANT	0	Open Circuit (V)
SEQUENCER	TOGGLE	TRUE	Run as Sequence
PSTATMODEL	IQUANT	53	Pstat Model
PSTATSECTION	LABEL	IFC5000-01520	Pstat Section
PSTATSERIALNO	LABEL	01520	Pstat Serial Number
CTRLMODE	IQUANT	0	Control Mode
ELECTROMETER	IQUANT	1	RE=0 or CS=1
IESTAB	IQUANT	0	I/E Stability
CASPEED	IQUANT	4	Control Amp Speed
CONVENTION	IQUANT	1	Current Convention
ICHRANGE	IQUANT	2	Ich Range
ICHRANGEMODE	TOGGLE	T	Ich Auto Range
ICHOFFSETENABLE	TOGGLE	F	Ich Offset Enable
ICHOFFSET	QUANT	0	Ich Offset (V)
ICHFILTER	IQUANT	1	Ich Filter
VCHRANGE	IQUANT	2	Vch Range
VCHRANGEMODE	TOGGLE	T	Vch Auto Range
VCHOFFSETENABLE	TOGGLE	F	Vch Offset Enable
VCHOFFSET	QUANT	0	Vch Offset (V)
VCHFILTER	IQUANT	1	Vch Filter
IERANGELOWERLIMIT	IQUANT	9	I/E Range Lower Limit
IERANGEMODE	TOGGLE	F	I/E AutoRange
IERANGE	IQUANT	10	I/E Range
ACHSELECT	IQUANT	1	Ach Select
ACHRANGE	IQUANT	2	Ach Range
ACHOFFSETENABLE	TOGGLE	F	Ach Offset Enable
ACHOFFSET	QUANT	0	Ach Offset (V)
ACHFILTER	IQUANT	1	Ach Filter
CABLEID	IQUANT	14	Cable ID
DCCALDATE	LABEL	20-10-2016	DC Calibration Date
ACCALDATE	LABEL	12/3/2015	AC Calibration Date
FRAMEWORKVERSION	QUANT	7.01	Framework Version
INSTRUMENTVERSION	LABEL	4.00	Instrument Version
CURVE	TABLE	53
	Pt	T	Vf	Im	Vu	Pwr	Sig	Ach	Temp	IERange	Over
	#	s	V	A	V	W	V	V	deg C	#	bits
	0	0.013333	6.55538E-001	5.98840E-003	0.00000E+000	3.92562E-003	3.59960E-001	-1.17316E+000	3.57660E+000	10	...........
	1	0.026667	6.64830E-001	5.99428E-003	0.00000E+000	3.98518E-003	3.59960E-001	-1.18034E+000	3.57660E+000	10	...........
	2	0.04	6.73401E-001	5.99207E-003	0.00000E+000	4.03506E-003	3.59960E-001	-1.17031E+000	3.57660E+000	10	...........
	3	0.053333	6.81509E-001	5.98904E-003	0.00000E+000	4.08158E-003	3.59960E-001	-1.17322E+000	3.57660E+000	10	...........
	4	0.066667	6.89322E-001	5.99104E-003	0.00000E+000	4.12975E-003	3.59960E-001	-1.18025E+000	3.57660E+000	10	...........
	5	0.08	6.96983E-001	5.99386E-003	0.00000E+000	4.17762E-003	3.59960E-001	-1.16997E+000	3.57660E+000	10	...........
	6	0.093333	7.04433E-001	5.99705E-003	0.00000E+000	4.22452E-003	3.59960E-001	-1.17298E+000	3.57660E+000	10	...........
	7	0.106667	7.11749E-001	5.99224E-003	0.00000E+000	4.26497E-003	3.59960E-001	-1.18025E+000	3.57660E+000	10	...........
	8	0.12	7.19061E-001	5.99450E-003	0.00000E+000	4.31041E-003	3.59960E-001	-1.16990E+000	3.57660E+000	10	...........
	9	0.133333	7.26258E-001	5.99297E-003	0.00000E+000	4.35244E-003	3.59960E-001	-1.17260E+000	3.57660E+000	10	...........
	10	0.146667	7.33303E-001	5.99201E-003	0.00000E+000	4.39396E-003	3.59960E-001	-1.17977E+000	3.57660E+000	10	...........
	11	0.16	7.40389E-001	5.99665E-003	0.00000E+000	4.43985E-003	3.59960E-001	-1.16940E+000	3.57660E+000	10	...........
	12	0.173333	7.47418E-001	5.99251E-003	0.00000E+000	4.47891E-003	3.59960E-001	-1.17261E+000	3.57660E+000	10	...........
	13	0.186667	7.54402E-001	5.99562E-003	0.00000E+000	4.52310E-003	3.59960E-001	-1.18005E+000	3.57660E+000	10	...........
	14	0.2	7.61324E-001	5.99542E-003	0.00000E+000	4.56446E-003	3.59960E-001	-1.16969E+000	3.57660E+000	10	...........
	15	0.213333	7.68237E-001	5.99720E-003	0.00000E+000	4.60727E-003	3.59960E-001	-1.17231E+000	3.57660E+000	10	...........
	16	0.226667	7.75102E-001	5.99269E-003	0.00000E+000	4.64494E-003	3.59960E-001	-1.17947E+000	3.57660E+000	10	...........
	17	0.24	7.81941E-001	5.99356E-003	0.00000E+000	4.68661E-003	3.59960E-001	-1.16947E+000	3.57660E+000	10	...........
	18	0.253333	7.88783E-001	5.99067E-003	0.00000E+000	4.72534E-003	3.59960E-001	-1.17245E+000	3.57660E+000	10	...........
	19	0.266667	7.95595E-001	5.99357E-003	0.00000E+000	4.76845E-003	3.59960E-001	-1.17944E+000	3.57660E+000	10	...........
	20	0.28	8.02312E-001	5.98771E-003	0.00000E+000	4.80401E-003	3.59960E-001	-1.16868E+000	3.57660E+000	10	...........
	21	0.293333	8.09037E-001	5.99773E-003	0.00000E+000	4.85239E-003	3.59960E-001	-1.17159E+000	3.57660E+000	10	...........
	22	0.306667	8.15748E-001	5.99639E-003	0.00000E+000	4.89154E-003	3.59960E-001	-1.17893E+000	3.57660E+000	10	...........
	23	0.32	8.22451E-001	5.99382E-003	0.00000E+000	4.92962E-003	3.59960E-001	-1.16878E+000	3.57660E+000	10	...........
	24	0.333333	8.29088E-001	5.99157E-003	0.00000E+000	4.96754E-003	3.59960E-001	-1.17149E+000	3.57660E+000	10	...........
	25	0.346667	8.35692E-001	5.99716E-003	0.00000E+000	5.01178E-003	3.59960E-001	-1.17835E+000	3.57660E+000	10	...........
	26	0.36	8.42301E-001	5.99161E-003	0.00000E+000	5.04674E-003	3.59960E-001	-1.16826E+000	3.57660E+000	10	...........
	27	0.373333	8.48929E-001	5.99375E-003	0.00000E+000	5.08827E-003	3.59960E-001	-1.17149E+000	3.57660E+000	10	...........
	28	0.386667	8.55451E-001	5.99209E-003	0.00000E+000	5.12594E-003	3.59960E-001	-1.17866E+000	3.57660E+000	10	...........
	29	0.4	8.61987E-001	5.99253E-003	0.00000E+000	5.16548E-003	3.59960E-001	-1.16824E+000	3.57660E+000	10	...........
	30	0.413333	8.68495E-001	5.99563E-003	0.00000E+000	5.20717E-003	3.59960E-001	-1.17097E+000	3.57660E+000	10	...........
	31	0.426667	8.74924E-001	5.99601E-003	0.00000E+000	5.24606E-003	3.59960E-001	-1.17823E+000	3.57660E+000	10	...........
	32	0.44	8.81366E-001	5.99586E-003	0.00000E+000	5.28455E-003	3.59960E-001	-1.16812E+000	3.57660E+000	10	...........
	33	0.453333	8.87794E-001	5.99270E-003	0.00000E+000	5.32028E-003	3.59960E-001	-1.17104E+000	3.57660E+000	10	...........
	34	0.466667	8.94120E-001	5.99032E-003	0.00000E+000	5.35606E-003	3.59960E-001	-1.17819E+000	3.57660E+000	10	...........
	35	0.48	9.00462E-001	5.99322E-003	0.00000E+000	5.39667E-003	3.59960E-001	-1.16768E+000	3.57660E+000	10	...........
	36	0.493333	9.06733E-001	5.99518E-003	0.00000E+000	5.43603E-003	3.59960E-001	-1.17076E+000	3.57660E+000	10	...........
	37	0.506667	9.12988E-001	5.99361E-003	0.00000E+000	5.47210E-003	3.59960E-001	-1.17825E+000	3.57660E+000	10	...........
	38	0.52	9.19198E-001	5.99799E-003	0.00000E+000	5.51334E-003	3.59960E-001	-1.16809E+000	3.57660E+000	10	...........
	39	0.533333	9.25431E-001	5.99184E-003	0.00000E+000	5.54504E-003	3.59960E-001	-1.17075E+000	3.57660E+000	10	...........
	40	0.546667	9.31546E-001	5.99190E-003	0.00000E+000	5.58173E-003	3.59960E-001	-1.17777E+000	3.57660E+000	10	...........
	41	0.56	9.37611E-001	5.99656E-003	0.00000E+000	5.62244E-003	3.59960E-001	-1.16787E+000	3.57660E+000	10	...........
	42	0.573333	9.43613E-001	5.99317E-003	0.00000E+000	5.65523E-003	3.59960E-001	-1.17091E+000	3.57660E+000	10	...........
	43	0.586667	9.49595E-001	5.99512E-003	0.00000E+000	5.69293E-003	3.59960E-001	-1.17806E+000	3.57660E+000	10	...........
	44	0.6	9.55545E-001	5.99437E-003	0.00000E+000	5.72789E-003	3.59960E-001	-1.16774E+000	3.57660E+000	10	...........
	45	0.613333	9.61456E-001	5.99907E-003	0.00000E+000	5.76784E-003	3.59960E-001	-1.17006E+000	3.57660E+000	10	...........
	46	0.626667	9.67277E-001	5.99598E-003	0.00000E+000	5.79977E-003	3.59960E-001	-1.17750E+000	3.57660E+000	10	...........
	47	0.64	9.73066E-001	5.99547E-003	0.00000E+000	5.83399E-003	3.59960E-001	-1.16747E+000	3.57660E+000	10	...........
	48	0.653333	9.78826E-001	5.99711E-003	0.00000E+000	5.87013E-003	3.59960E-001	-1.17040E+000	3.57660E+000	10	...........
	49	0.666667	9.84488E-001	5.99594E-003	0.00000E+000	5.90293E-003	3.59960E-001	-1.17751E+000	3.57660E+000	10	...........
	50	0.68	9.90115E-001	5.99199E-003	0.00000E+000	5.93276E-003	3.59960E-001	-1.16696E+000	3.57660E+000	10	...........
	51	0.693333	9.95655E-001	5.99204E-003	0.00000E+000	5.96600E-003	3.59960E-001	-1.16998E+000	3.57660E+000	10	...........
	52	0.698333	9.99454E-001	5.99248E-003	0.00000E+000	5.98921E-003	3.59960E-001	-1.17229E+000	3.57660E+000	10	...........
STARTTIMEOFFSET	QUANT	1521.538	Start Time Offset (s)