File: Data/CV_CRGO300517_1/PWRCCD_CRGO300517_1/CHARGE_DISCHARGE/CHARGE_#343.DTA
EXPLAIN
TAG	PWR800_CHARGE
TITLE	LABEL	PWR Cyclic Charge Discharge (Cell) - Charge Step	Test &Identifier
DATE	LABEL	22-6-2017	Date
TIME	LABEL	15:49:41	Time
NOTES	NOTES	3	&Notes...
	supercap test cell
	0.6mg
	6M KOH
PSTAT	PSTAT	IFC5000-01520	Potentiostat
CAPACITY	QUANT	1.00000E-003	Capacity (A-hr)
CELLTYPE	SELECTOR	1	&Cell Type
WORKINGCONNECTION	SELECTOR	0	&Working Lead
MAXCHARGETIME	VARIABLEANDUNITS	1.00000E+002	s	1.00000E+002	second(s)	Max &Charge Time
CHARGECURRENT	QUANT	6.00000E-003	&Charge Current (A)
VOLTAGEFINISH	TWOPARAM	F	1.00000E-003	3.60000E+003	&Voltage Finish	 I (A) < 	Max Time(s)
SAMPLETIME	QUANT	1.00000E-002	Sa&mple Period (s)
CHARGESTOPAT1	MULTIPARAM	4	1.00000E+000	Charge Stop At &1	Voltage > Limit	V
CHARGESTOPAT2	MULTIPARAM	0	0.00000E+000	Charge Stop At &2	None	N/A
AESBHCSELECTOR	TOGGLE	F	Save Both Half Cells
IRCOMP	TOGGLE	F	IR &Measure
EOC	QUANT	0	Open Circuit (V)
SEQUENCER	TOGGLE	TRUE	Run as Sequence
PSTATMODEL	IQUANT	53	Pstat Model
PSTATSECTION	LABEL	IFC5000-01520	Pstat Section
PSTATSERIALNO	LABEL	01520	Pstat Serial Number
CTRLMODE	IQUANT	0	Control Mode
ELECTROMETER	IQUANT	1	RE=0 or CS=1
IESTAB	IQUANT	0	I/E Stability
CASPEED	IQUANT	4	Control Amp Speed
CONVENTION	IQUANT	1	Current Convention
ICHRANGE	IQUANT	2	Ich Range
ICHRANGEMODE	TOGGLE	T	Ich Auto Range
ICHOFFSETENABLE	TOGGLE	F	Ich Offset Enable
ICHOFFSET	QUANT	0	Ich Offset (V)
ICHFILTER	IQUANT	1	Ich Filter
VCHRANGE	IQUANT	2	Vch Range
VCHRANGEMODE	TOGGLE	T	Vch Auto Range
VCHOFFSETENABLE	TOGGLE	F	Vch Offset Enable
VCHOFFSET	QUANT	0	Vch Offset (V)
VCHFILTER	IQUANT	1	Vch Filter
IERANGELOWERLIMIT	IQUANT	9	I/E Range Lower Limit
IERANGEMODE	TOGGLE	F	I/E AutoRange
IERANGE	IQUANT	10	I/E Range
ACHSELECT	IQUANT	1	Ach Select
ACHRANGE	IQUANT	2	Ach Range
ACHOFFSETENABLE	TOGGLE	F	Ach Offset Enable
ACHOFFSET	QUANT	0	Ach Offset (V)
ACHFILTER	IQUANT	1	Ach Filter
CABLEID	IQUANT	14	Cable ID
DCCALDATE	LABEL	20-10-2016	DC Calibration Date
ACCALDATE	LABEL	12/3/2015	AC Calibration Date
FRAMEWORKVERSION	QUANT	7.01	Framework Version
INSTRUMENTVERSION	LABEL	4.00	Instrument Version
CURVE	TABLE	61
	Pt	T	Vf	Im	Vu	Pwr	Sig	Ach	Temp	IERange	Over
	#	s	V	A	V	W	V	V	deg C	#	bits
	0	0.013333	6.20309E-001	5.99627E-003	0.00000E+000	3.71954E-003	3.59960E-001	-1.11510E+000	3.57680E+000	10	...........
	1	0.026667	6.28979E-001	5.99962E-003	0.00000E+000	3.77364E-003	3.59960E-001	-1.10818E+000	3.57680E+000	10	...........
	2	0.04	6.36925E-001	5.99714E-003	0.00000E+000	3.81973E-003	3.59960E-001	-1.11529E+000	3.57680E+000	10	...........
	3	0.053333	6.44478E-001	5.99596E-003	0.00000E+000	3.86426E-003	3.59960E-001	-1.11482E+000	3.57680E+000	10	...........
	4	0.066667	6.51784E-001	5.99511E-003	0.00000E+000	3.90751E-003	3.59960E-001	-1.10764E+000	3.57680E+000	10	...........
	5	0.08	6.58860E-001	5.99449E-003	0.00000E+000	3.94953E-003	3.59960E-001	-1.11430E+000	3.57680E+000	10	...........
	6	0.093333	6.65854E-001	5.99193E-003	0.00000E+000	3.98976E-003	3.59960E-001	-1.11391E+000	3.57680E+000	10	...........
	7	0.106667	6.72703E-001	5.99143E-003	0.00000E+000	4.03046E-003	3.59960E-001	-1.10711E+000	3.57680E+000	10	...........
	8	0.12	6.79459E-001	5.99143E-003	0.00000E+000	4.07094E-003	3.59960E-001	-1.11422E+000	3.57680E+000	10	...........
	9	0.133333	6.86134E-001	5.99249E-003	0.00000E+000	4.11165E-003	3.59960E-001	-1.11390E+000	3.57680E+000	10	...........
	10	0.146667	6.92725E-001	5.99166E-003	0.00000E+000	4.15058E-003	3.59960E-001	-1.10707E+000	3.57680E+000	10	...........
	11	0.16	6.99302E-001	6.00019E-003	0.00000E+000	4.19594E-003	3.59960E-001	-1.11391E+000	3.57680E+000	10	...........
	12	0.173333	7.05862E-001	5.99220E-003	0.00000E+000	4.22966E-003	3.59960E-001	-1.11386E+000	3.57680E+000	10	...........
	13	0.186667	7.12326E-001	5.99653E-003	0.00000E+000	4.27149E-003	3.59960E-001	-1.10701E+000	3.57680E+000	10	...........
	14	0.2	7.18904E-001	5.99459E-003	0.00000E+000	4.30954E-003	3.59960E-001	-1.11377E+000	3.57680E+000	10	...........
	15	0.213333	7.25354E-001	5.99185E-003	0.00000E+000	4.34621E-003	3.59960E-001	-1.11385E+000	3.57680E+000	10	...........
	16	0.226667	7.31807E-001	5.99745E-003	0.00000E+000	4.38898E-003	3.59960E-001	-1.10702E+000	3.57680E+000	10	...........
	17	0.24	7.38188E-001	5.99882E-003	0.00000E+000	4.42826E-003	3.59960E-001	-1.11364E+000	3.57680E+000	10	...........
	18	0.253333	7.44607E-001	5.99432E-003	0.00000E+000	4.46342E-003	3.59960E-001	-1.11401E+000	3.57680E+000	10	...........
	19	0.266667	7.50937E-001	5.99206E-003	0.00000E+000	4.49966E-003	3.59960E-001	-1.10737E+000	3.57680E+000	10	...........
	20	0.28	7.57335E-001	5.99882E-003	0.00000E+000	4.54312E-003	3.59960E-001	-1.11421E+000	3.57680E+000	10	...........
	21	0.293333	7.63608E-001	5.99075E-003	0.00000E+000	4.57458E-003	3.59960E-001	-1.11447E+000	3.57680E+000	10	...........
	22	0.306667	7.69978E-001	5.99166E-003	0.00000E+000	4.61345E-003	3.59960E-001	-1.10753E+000	3.57680E+000	10	...........
	23	0.32	7.76299E-001	5.99380E-003	0.00000E+000	4.65298E-003	3.59960E-001	-1.11451E+000	3.57680E+000	10	...........
	24	0.333333	7.82600E-001	5.99003E-003	0.00000E+000	4.68779E-003	3.59960E-001	-1.11478E+000	3.57680E+000	10	...........
	25	0.346667	7.88886E-001	5.99481E-003	0.00000E+000	4.72922E-003	3.59960E-001	-1.10774E+000	3.57680E+000	10	...........
	26	0.36	7.95165E-001	5.99167E-003	0.00000E+000	4.76437E-003	3.59960E-001	-1.11461E+000	3.57680E+000	10	...........
	27	0.373333	8.01446E-001	5.99014E-003	0.00000E+000	4.80077E-003	3.59960E-001	-1.11503E+000	3.57680E+000	10	...........
	28	0.386667	8.07702E-001	5.99476E-003	0.00000E+000	4.84198E-003	3.59960E-001	-1.10805E+000	3.57680E+000	10	...........
	29	0.4	8.13935E-001	5.99313E-003	0.00000E+000	4.87802E-003	3.59960E-001	-1.11457E+000	3.57680E+000	10	...........
	30	0.413333	8.20188E-001	5.99281E-003	0.00000E+000	4.91523E-003	3.59960E-001	-1.11532E+000	3.57680E+000	10	...........
	31	0.426667	8.26424E-001	5.99407E-003	0.00000E+000	4.95364E-003	3.59960E-001	-1.10838E+000	3.57680E+000	10	...........
	32	0.44	8.32651E-001	5.99434E-003	0.00000E+000	4.99120E-003	3.59960E-001	-1.11491E+000	3.57680E+000	10	...........
	33	0.453333	8.38847E-001	5.99314E-003	0.00000E+000	5.02733E-003	3.59960E-001	-1.11570E+000	3.57680E+000	10	...........
	34	0.466667	8.45040E-001	5.99234E-003	0.00000E+000	5.06377E-003	3.59960E-001	-1.10894E+000	3.57680E+000	10	...........
	35	0.48	8.51226E-001	5.99599E-003	0.00000E+000	5.10395E-003	3.59960E-001	-1.11518E+000	3.57680E+000	10	...........
	36	0.493333	8.57386E-001	5.99917E-003	0.00000E+000	5.14361E-003	3.59960E-001	-1.11598E+000	3.57680E+000	10	...........
	37	0.506667	8.63507E-001	5.99041E-003	0.00000E+000	5.17276E-003	3.59960E-001	-1.10898E+000	3.57680E+000	10	...........
	38	0.52	8.69656E-001	5.99732E-003	0.00000E+000	5.21560E-003	3.59960E-001	-1.11578E+000	3.57680E+000	10	...........
	39	0.533333	8.75778E-001	5.99540E-003	0.00000E+000	5.25064E-003	3.59960E-001	-1.11665E+000	3.57680E+000	10	...........
	40	0.546667	8.81854E-001	5.99471E-003	0.00000E+000	5.28646E-003	3.59960E-001	-1.10952E+000	3.57680E+000	10	...........
	41	0.56	8.87898E-001	5.99131E-003	0.00000E+000	5.31967E-003	3.59960E-001	-1.11584E+000	3.57680E+000	10	...........
	42	0.573333	8.93975E-001	5.99624E-003	0.00000E+000	5.36049E-003	3.59960E-001	-1.11706E+000	3.57680E+000	10	...........
	43	0.586667	8.99987E-001	5.99403E-003	0.00000E+000	5.39455E-003	3.59960E-001	-1.10999E+000	3.57680E+000	10	...........
	44	0.6	9.05994E-001	5.99470E-003	0.00000E+000	5.43116E-003	3.59960E-001	-1.11634E+000	3.57680E+000	10	...........
	45	0.613333	9.11991E-001	5.99465E-003	0.00000E+000	5.46707E-003	3.59960E-001	-1.11749E+000	3.57680E+000	10	...........
	46	0.626667	9.17909E-001	5.99136E-003	0.00000E+000	5.49952E-003	3.59960E-001	-1.11012E+000	3.57680E+000	10	...........
	47	0.64	9.23908E-001	5.99432E-003	0.00000E+000	5.53820E-003	3.59960E-001	-1.11654E+000	3.57680E+000	10	...........
	48	0.653333	9.29773E-001	5.99251E-003	0.00000E+000	5.57167E-003	3.59960E-001	-1.11803E+000	3.57680E+000	10	...........
	49	0.666667	9.35611E-001	5.99569E-003	0.00000E+000	5.60964E-003	3.59960E-001	-1.11063E+000	3.57680E+000	10	...........
	50	0.68	9.41404E-001	5.99394E-003	0.00000E+000	5.64271E-003	3.59960E-001	-1.11661E+000	3.57680E+000	10	...........
	51	0.693333	9.47223E-001	5.98851E-003	0.00000E+000	5.67246E-003	3.59960E-001	-1.11789E+000	3.57680E+000	10	...........
	52	0.706667	9.53027E-001	5.99128E-003	0.00000E+000	5.70985E-003	3.59960E-001	-1.11039E+000	3.57680E+000	10	...........
	53	0.72	9.58746E-001	5.99265E-003	0.00000E+000	5.74544E-003	3.59960E-001	-1.11653E+000	3.57680E+000	10	...........
	54	0.733333	9.64447E-001	5.99582E-003	0.00000E+000	5.78265E-003	3.59960E-001	-1.11814E+000	3.57680E+000	10	...........
	55	0.746667	9.70110E-001	5.99158E-003	0.00000E+000	5.81249E-003	3.59960E-001	-1.11049E+000	3.57680E+000	10	...........
	56	0.76	9.75756E-001	5.99382E-003	0.00000E+000	5.84851E-003	3.59960E-001	-1.11668E+000	3.57680E+000	10	...........
	57	0.773333	9.81278E-001	5.99414E-003	0.00000E+000	5.88192E-003	3.59960E-001	-1.11800E+000	3.57680E+000	10	...........
	58	0.786667	9.86785E-001	5.99574E-003	0.00000E+000	5.91651E-003	3.59960E-001	-1.11097E+000	3.57717E+000	10	...........
	59	0.8	9.92282E-001	5.98947E-003	0.00000E+000	5.94325E-003	3.59960E-001	-1.11702E+000	3.57810E+000	10	...........
	60	0.813333	9.97706E-001	5.99713E-003	0.00000E+000	5.98337E-003	3.59960E-001	-1.11839E+000	3.57810E+000	10	...........
STARTTIMEOFFSET	QUANT	611.333	Start Time Offset (s)