File: Data/CV_CRGO300517_1/PWRCCD_CRGO300517_1/CHARGE_DISCHARGE/CHARGE_#76.DTA
EXPLAIN
TAG	PWR800_CHARGE
TITLE	LABEL	PWR Cyclic Charge Discharge (Cell) - Charge Step	Test &Identifier
DATE	LABEL	22-6-2017	Date
TIME	LABEL	15:38:26	Time
NOTES	NOTES	3	&Notes...
	supercap test cell
	0.6mg
	6M KOH
PSTAT	PSTAT	IFC5000-01520	Potentiostat
CAPACITY	QUANT	1.00000E-003	Capacity (A-hr)
CELLTYPE	SELECTOR	1	&Cell Type
WORKINGCONNECTION	SELECTOR	0	&Working Lead
MAXCHARGETIME	VARIABLEANDUNITS	1.00000E+002	s	1.00000E+002	second(s)	Max &Charge Time
CHARGECURRENT	QUANT	6.00000E-003	&Charge Current (A)
VOLTAGEFINISH	TWOPARAM	F	1.00000E-003	3.60000E+003	&Voltage Finish	 I (A) < 	Max Time(s)
SAMPLETIME	QUANT	1.00000E-002	Sa&mple Period (s)
CHARGESTOPAT1	MULTIPARAM	4	1.00000E+000	Charge Stop At &1	Voltage > Limit	V
CHARGESTOPAT2	MULTIPARAM	0	0.00000E+000	Charge Stop At &2	None	N/A
AESBHCSELECTOR	TOGGLE	F	Save Both Half Cells
IRCOMP	TOGGLE	F	IR &Measure
EOC	QUANT	0	Open Circuit (V)
SEQUENCER	TOGGLE	TRUE	Run as Sequence
PSTATMODEL	IQUANT	53	Pstat Model
PSTATSECTION	LABEL	IFC5000-01520	Pstat Section
PSTATSERIALNO	LABEL	01520	Pstat Serial Number
CTRLMODE	IQUANT	0	Control Mode
ELECTROMETER	IQUANT	1	RE=0 or CS=1
IESTAB	IQUANT	0	I/E Stability
CASPEED	IQUANT	4	Control Amp Speed
CONVENTION	IQUANT	1	Current Convention
ICHRANGE	IQUANT	2	Ich Range
ICHRANGEMODE	TOGGLE	T	Ich Auto Range
ICHOFFSETENABLE	TOGGLE	F	Ich Offset Enable
ICHOFFSET	QUANT	0	Ich Offset (V)
ICHFILTER	IQUANT	1	Ich Filter
VCHRANGE	IQUANT	2	Vch Range
VCHRANGEMODE	TOGGLE	T	Vch Auto Range
VCHOFFSETENABLE	TOGGLE	F	Vch Offset Enable
VCHOFFSET	QUANT	0	Vch Offset (V)
VCHFILTER	IQUANT	1	Vch Filter
IERANGELOWERLIMIT	IQUANT	9	I/E Range Lower Limit
IERANGEMODE	TOGGLE	F	I/E AutoRange
IERANGE	IQUANT	10	I/E Range
ACHSELECT	IQUANT	1	Ach Select
ACHRANGE	IQUANT	2	Ach Range
ACHOFFSETENABLE	TOGGLE	F	Ach Offset Enable
ACHOFFSET	QUANT	0	Ach Offset (V)
ACHFILTER	IQUANT	1	Ach Filter
CABLEID	IQUANT	14	Cable ID
DCCALDATE	LABEL	20-10-2016	DC Calibration Date
ACCALDATE	LABEL	12/3/2015	AC Calibration Date
FRAMEWORKVERSION	QUANT	7.01	Framework Version
INSTRUMENTVERSION	LABEL	4.00	Instrument Version
CURVE	TABLE	72
	Pt	T	Vf	Im	Vu	Pwr	Sig	Ach	Temp	IERange	Over
	#	s	V	A	V	W	V	V	deg C	#	bits
	0	0.013333	5.82763E-001	5.99396E-003	0.00000E+000	3.49306E-003	3.59960E-001	-1.05497E+000	3.57850E+000	10	...........
	1	0.026667	5.90946E-001	5.99586E-003	0.00000E+000	3.54323E-003	3.59960E-001	-1.06340E+000	3.57850E+000	10	...........
	2	0.04	5.98467E-001	5.99281E-003	0.00000E+000	3.58650E-003	3.59960E-001	-1.05201E+000	3.57850E+000	10	...........
	3	0.053333	6.05507E-001	5.99485E-003	0.00000E+000	3.62992E-003	3.59960E-001	-1.05447E+000	3.57850E+000	10	...........
	4	0.066667	6.12343E-001	5.99641E-003	0.00000E+000	3.67186E-003	3.59960E-001	-1.06299E+000	3.57850E+000	10	...........
	5	0.08	6.19062E-001	5.99491E-003	0.00000E+000	3.71122E-003	3.59960E-001	-1.05125E+000	3.57850E+000	10	...........
	6	0.093333	6.25552E-001	5.99466E-003	0.00000E+000	3.74997E-003	3.59960E-001	-1.05431E+000	3.57850E+000	10	...........
	7	0.106667	6.31894E-001	5.99321E-003	0.00000E+000	3.78707E-003	3.59960E-001	-1.06315E+000	3.57850E+000	10	...........
	8	0.12	6.38238E-001	5.99133E-003	0.00000E+000	3.82389E-003	3.59960E-001	-1.05136E+000	3.57850E+000	10	...........
	9	0.133333	6.44550E-001	5.99188E-003	0.00000E+000	3.86207E-003	3.59960E-001	-1.05411E+000	3.57850E+000	10	...........
	10	0.146667	6.50750E-001	5.99643E-003	0.00000E+000	3.90218E-003	3.59960E-001	-1.06288E+000	3.57850E+000	10	...........
	11	0.16	6.56838E-001	5.99179E-003	0.00000E+000	3.93564E-003	3.59960E-001	-1.05119E+000	3.57850E+000	10	...........
	12	0.173333	6.62956E-001	5.99252E-003	0.00000E+000	3.97277E-003	3.59960E-001	-1.05427E+000	3.57850E+000	10	...........
	13	0.186667	6.69024E-001	5.99233E-003	0.00000E+000	4.00901E-003	3.59960E-001	-1.06295E+000	3.57850E+000	10	...........
	14	0.2	6.75014E-001	5.99494E-003	0.00000E+000	4.04667E-003	3.59960E-001	-1.05132E+000	3.57850E+000	10	...........
	15	0.213333	6.80985E-001	5.99207E-003	0.00000E+000	4.08051E-003	3.59960E-001	-1.05399E+000	3.57850E+000	10	...........
	16	0.226667	6.86966E-001	5.99406E-003	0.00000E+000	4.11772E-003	3.59960E-001	-1.06277E+000	3.57850E+000	10	...........
	17	0.24	6.92973E-001	5.99650E-003	0.00000E+000	4.15542E-003	3.59960E-001	-1.05129E+000	3.57850E+000	10	...........
	18	0.253333	6.98876E-001	5.99642E-003	0.00000E+000	4.19076E-003	3.59960E-001	-1.05411E+000	3.57850E+000	10	...........
	19	0.266667	7.04772E-001	5.99343E-003	0.00000E+000	4.22400E-003	3.59960E-001	-1.06278E+000	3.57850E+000	10	...........
	20	0.28	7.10682E-001	5.99639E-003	0.00000E+000	4.26153E-003	3.59960E-001	-1.05109E+000	3.57850E+000	10	...........
	21	0.293333	7.16593E-001	5.99443E-003	0.00000E+000	4.29556E-003	3.59960E-001	-1.05390E+000	3.57850E+000	10	...........
	22	0.306667	7.22490E-001	5.99181E-003	0.00000E+000	4.32902E-003	3.59960E-001	-1.06310E+000	3.57850E+000	10	...........
	23	0.32	7.28366E-001	5.99549E-003	0.00000E+000	4.36691E-003	3.59960E-001	-1.05128E+000	3.57850E+000	10	...........
	24	0.333333	7.34179E-001	5.99556E-003	0.00000E+000	4.40182E-003	3.59960E-001	-1.05380E+000	3.57850E+000	10	...........
	25	0.346667	7.39998E-001	5.99931E-003	0.00000E+000	4.43948E-003	3.59960E-001	-1.06269E+000	3.57850E+000	10	...........
	26	0.36	7.45878E-001	6.00007E-003	0.00000E+000	4.47532E-003	3.59960E-001	-1.05091E+000	3.57850E+000	10	...........
	27	0.373333	7.51756E-001	5.99225E-003	0.00000E+000	4.50471E-003	3.59960E-001	-1.05337E+000	3.57850E+000	10	...........
	28	0.386667	7.57639E-001	5.99627E-003	0.00000E+000	4.54301E-003	3.59960E-001	-1.06246E+000	3.57746E+000	10	...........
	29	0.4	7.63465E-001	5.99101E-003	0.00000E+000	4.57393E-003	3.59960E-001	-1.05075E+000	3.57720E+000	10	...........
	30	0.413333	7.69327E-001	5.99270E-003	0.00000E+000	4.61035E-003	3.59960E-001	-1.05328E+000	3.57720E+000	10	...........
	31	0.426667	7.75217E-001	5.99555E-003	0.00000E+000	4.64786E-003	3.59960E-001	-1.06227E+000	3.57720E+000	10	...........
	32	0.44	7.81062E-001	5.99375E-003	0.00000E+000	4.68149E-003	3.59960E-001	-1.05096E+000	3.57720E+000	10	...........
	33	0.453333	7.86850E-001	5.99107E-003	0.00000E+000	4.71407E-003	3.59960E-001	-1.05337E+000	3.57720E+000	10	...........
	34	0.466667	7.92672E-001	5.99525E-003	0.00000E+000	4.75227E-003	3.59960E-001	-1.06250E+000	3.57720E+000	10	...........
	35	0.48	7.98507E-001	5.99400E-003	0.00000E+000	4.78625E-003	3.59960E-001	-1.05065E+000	3.57720E+000	10	...........
	36	0.493333	8.04308E-001	5.99422E-003	0.00000E+000	4.82120E-003	3.59960E-001	-1.05328E+000	3.57720E+000	10	...........
	37	0.506667	8.10120E-001	5.99204E-003	0.00000E+000	4.85427E-003	3.59960E-001	-1.06260E+000	3.57720E+000	10	...........
	38	0.52	8.15947E-001	5.99356E-003	0.00000E+000	4.89043E-003	3.59960E-001	-1.05090E+000	3.57720E+000	10	...........
	39	0.533333	8.21787E-001	5.99041E-003	0.00000E+000	4.92284E-003	3.59960E-001	-1.05311E+000	3.57720E+000	10	...........
	40	0.546667	8.27619E-001	5.99743E-003	0.00000E+000	4.96359E-003	3.59960E-001	-1.06245E+000	3.57720E+000	10	...........
	41	0.56	8.33386E-001	5.99325E-003	0.00000E+000	4.99469E-003	3.59960E-001	-1.05091E+000	3.57720E+000	10	...........
	42	0.573333	8.39162E-001	5.98979E-003	0.00000E+000	5.02640E-003	3.59960E-001	-1.05308E+000	3.57720E+000	10	...........
	43	0.586667	8.44958E-001	5.99070E-003	0.00000E+000	5.06189E-003	3.59960E-001	-1.06248E+000	3.57720E+000	10	...........
	44	0.6	8.50725E-001	5.99494E-003	0.00000E+000	5.10004E-003	3.59960E-001	-1.05090E+000	3.57720E+000	10	...........
	45	0.613333	8.56537E-001	5.99649E-003	0.00000E+000	5.13622E-003	3.59960E-001	-1.05306E+000	3.57720E+000	10	...........
	46	0.626667	8.62328E-001	5.99627E-003	0.00000E+000	5.17076E-003	3.59960E-001	-1.06254E+000	3.57720E+000	10	...........
	47	0.64	8.68138E-001	5.99169E-003	0.00000E+000	5.20162E-003	3.59960E-001	-1.05101E+000	3.57720E+000	10	...........
	48	0.653333	8.73956E-001	5.99008E-003	0.00000E+000	5.23506E-003	3.59960E-001	-1.05310E+000	3.57720E+000	10	...........
	49	0.666667	8.79704E-001	5.99506E-003	0.00000E+000	5.27388E-003	3.59960E-001	-1.06256E+000	3.57720E+000	10	...........
	50	0.68	8.85463E-001	5.99523E-003	0.00000E+000	5.30855E-003	3.59960E-001	-1.05066E+000	3.57720E+000	10	...........
	51	0.693333	8.91201E-001	5.99257E-003	0.00000E+000	5.34059E-003	3.59960E-001	-1.05239E+000	3.57720E+000	10	...........
	52	0.706667	8.96942E-001	5.99223E-003	0.00000E+000	5.37468E-003	3.59960E-001	-1.06232E+000	3.57720E+000	10	...........
	53	0.72	9.02667E-001	5.99379E-003	0.00000E+000	5.41040E-003	3.59960E-001	-1.05054E+000	3.57720E+000	10	...........
	54	0.733333	9.08354E-001	5.99336E-003	0.00000E+000	5.44410E-003	3.59960E-001	-1.05250E+000	3.57720E+000	10	...........
	55	0.746667	9.14015E-001	5.99362E-003	0.00000E+000	5.47826E-003	3.59960E-001	-1.06218E+000	3.57720E+000	10	...........
	56	0.76	9.19742E-001	5.99470E-003	0.00000E+000	5.51358E-003	3.59960E-001	-1.05039E+000	3.57720E+000	10	...........
	57	0.773333	9.25403E-001	5.99718E-003	0.00000E+000	5.54981E-003	3.59960E-001	-1.05267E+000	3.57720E+000	10	...........
	58	0.786667	9.31012E-001	5.99466E-003	0.00000E+000	5.58110E-003	3.59960E-001	-1.06224E+000	3.57720E+000	10	...........
	59	0.8	9.36614E-001	5.99212E-003	0.00000E+000	5.61231E-003	3.59960E-001	-1.05041E+000	3.57720E+000	10	...........
	60	0.813333	9.42173E-001	5.99470E-003	0.00000E+000	5.64804E-003	3.59960E-001	-1.05253E+000	3.57720E+000	10	...........
	61	0.826667	9.47757E-001	5.99243E-003	0.00000E+000	5.67936E-003	3.59960E-001	-1.06222E+000	3.57720E+000	10	...........
	62	0.84	9.53285E-001	5.99512E-003	0.00000E+000	5.71506E-003	3.59960E-001	-1.05051E+000	3.57720E+000	10	...........
	63	0.853333	9.58788E-001	5.99236E-003	0.00000E+000	5.74540E-003	3.59960E-001	-1.05250E+000	3.57720E+000	10	...........
	64	0.866667	9.64333E-001	5.99470E-003	0.00000E+000	5.78089E-003	3.59960E-001	-1.06224E+000	3.57720E+000	10	...........
	65	0.88	9.69802E-001	5.99448E-003	0.00000E+000	5.81346E-003	3.59960E-001	-1.05041E+000	3.57720E+000	10	...........
	66	0.893333	9.75256E-001	5.99475E-003	0.00000E+000	5.84642E-003	3.59960E-001	-1.05235E+000	3.57720E+000	10	...........
	67	0.906667	9.80614E-001	5.99553E-003	0.00000E+000	5.87931E-003	3.59960E-001	-1.06230E+000	3.57720E+000	10	...........
	68	0.92	9.85991E-001	5.99329E-003	0.00000E+000	5.90933E-003	3.59960E-001	-1.05076E+000	3.57720E+000	10	...........
	69	0.933333	9.91314E-001	5.99263E-003	0.00000E+000	5.94058E-003	3.59960E-001	-1.05247E+000	3.57720E+000	10	...........
	70	0.946667	9.96604E-001	5.99586E-003	0.00000E+000	5.97549E-003	3.59960E-001	-1.06225E+000	3.57720E+000	10	...........
	71	0.95	9.99879E-001	5.99187E-003	0.00000E+000	5.99115E-003	3.59960E-001	-1.04432E+000	3.57720E+000	10	...........
STARTTIMEOFFSET	QUANT	150.4283	Start Time Offset (s)