File: Data/CV_CRGO300517_1/PWRCCD_CRGO300517_1/CHARGE_DISCHARGE/CHARGE_#916.DTA
EXPLAIN
TAG	PWR800_CHARGE
TITLE	LABEL	PWR Cyclic Charge Discharge (Cell) - Charge Step	Test &Identifier
DATE	LABEL	22-6-2017	Date
TIME	LABEL	16:11:34	Time
NOTES	NOTES	3	&Notes...
	supercap test cell
	0.6mg
	6M KOH
PSTAT	PSTAT	IFC5000-01520	Potentiostat
CAPACITY	QUANT	1.00000E-003	Capacity (A-hr)
CELLTYPE	SELECTOR	1	&Cell Type
WORKINGCONNECTION	SELECTOR	0	&Working Lead
MAXCHARGETIME	VARIABLEANDUNITS	1.00000E+002	s	1.00000E+002	second(s)	Max &Charge Time
CHARGECURRENT	QUANT	6.00000E-003	&Charge Current (A)
VOLTAGEFINISH	TWOPARAM	F	1.00000E-003	3.60000E+003	&Voltage Finish	 I (A) < 	Max Time(s)
SAMPLETIME	QUANT	1.00000E-002	Sa&mple Period (s)
CHARGESTOPAT1	MULTIPARAM	4	1.00000E+000	Charge Stop At &1	Voltage > Limit	V
CHARGESTOPAT2	MULTIPARAM	0	0.00000E+000	Charge Stop At &2	None	N/A
AESBHCSELECTOR	TOGGLE	F	Save Both Half Cells
IRCOMP	TOGGLE	F	IR &Measure
EOC	QUANT	0	Open Circuit (V)
SEQUENCER	TOGGLE	TRUE	Run as Sequence
PSTATMODEL	IQUANT	53	Pstat Model
PSTATSECTION	LABEL	IFC5000-01520	Pstat Section
PSTATSERIALNO	LABEL	01520	Pstat Serial Number
CTRLMODE	IQUANT	0	Control Mode
ELECTROMETER	IQUANT	1	RE=0 or CS=1
IESTAB	IQUANT	0	I/E Stability
CASPEED	IQUANT	4	Control Amp Speed
CONVENTION	IQUANT	1	Current Convention
ICHRANGE	IQUANT	2	Ich Range
ICHRANGEMODE	TOGGLE	T	Ich Auto Range
ICHOFFSETENABLE	TOGGLE	F	Ich Offset Enable
ICHOFFSET	QUANT	0	Ich Offset (V)
ICHFILTER	IQUANT	1	Ich Filter
VCHRANGE	IQUANT	2	Vch Range
VCHRANGEMODE	TOGGLE	T	Vch Auto Range
VCHOFFSETENABLE	TOGGLE	F	Vch Offset Enable
VCHOFFSET	QUANT	0	Vch Offset (V)
VCHFILTER	IQUANT	1	Vch Filter
IERANGELOWERLIMIT	IQUANT	9	I/E Range Lower Limit
IERANGEMODE	TOGGLE	F	I/E AutoRange
IERANGE	IQUANT	10	I/E Range
ACHSELECT	IQUANT	1	Ach Select
ACHRANGE	IQUANT	2	Ach Range
ACHOFFSETENABLE	TOGGLE	F	Ach Offset Enable
ACHOFFSET	QUANT	0	Ach Offset (V)
ACHFILTER	IQUANT	1	Ach Filter
CABLEID	IQUANT	14	Cable ID
DCCALDATE	LABEL	20-10-2016	DC Calibration Date
ACCALDATE	LABEL	12/3/2015	AC Calibration Date
FRAMEWORKVERSION	QUANT	7.01	Framework Version
INSTRUMENTVERSION	LABEL	4.00	Instrument Version
CURVE	TABLE	53
	Pt	T	Vf	Im	Vu	Pwr	Sig	Ach	Temp	IERange	Over
	#	s	V	A	V	W	V	V	deg C	#	bits
	0	0.013333	6.53984E-001	5.99352E-003	0.00000E+000	3.91966E-003	3.59960E-001	-1.17235E+000	3.57780E+000	10	...........
	1	0.026667	6.63254E-001	5.99346E-003	0.00000E+000	3.97519E-003	3.59960E-001	-1.17105E+000	3.57780E+000	10	...........
	2	0.04	6.71799E-001	5.99241E-003	0.00000E+000	4.02570E-003	3.59960E-001	-1.18218E+000	3.57780E+000	10	...........
	3	0.053333	6.79894E-001	5.98991E-003	0.00000E+000	4.07251E-003	3.59960E-001	-1.17203E+000	3.57780E+000	10	...........
	4	0.066667	6.87696E-001	5.99470E-003	0.00000E+000	4.12253E-003	3.59960E-001	-1.17042E+000	3.57780E+000	10	...........
	5	0.08	6.95305E-001	5.99076E-003	0.00000E+000	4.16540E-003	3.59960E-001	-1.18167E+000	3.57780E+000	10	...........
	6	0.093333	7.02778E-001	5.99712E-003	0.00000E+000	4.21464E-003	3.59960E-001	-1.17203E+000	3.57780E+000	10	...........
	7	0.106667	7.10097E-001	5.99368E-003	0.00000E+000	4.25609E-003	3.59960E-001	-1.17055E+000	3.57780E+000	10	...........
	8	0.12	7.17376E-001	5.99383E-003	0.00000E+000	4.29983E-003	3.59960E-001	-1.18164E+000	3.57780E+000	10	...........
	9	0.133333	7.24552E-001	5.99130E-003	0.00000E+000	4.34101E-003	3.59960E-001	-1.17184E+000	3.57780E+000	10	...........
	10	0.146667	7.31631E-001	5.99334E-003	0.00000E+000	4.38492E-003	3.59960E-001	-1.17032E+000	3.57780E+000	10	...........
	11	0.16	7.38656E-001	5.99465E-003	0.00000E+000	4.42798E-003	3.59960E-001	-1.18191E+000	3.57780E+000	10	...........
	12	0.173333	7.45659E-001	5.99429E-003	0.00000E+000	4.46970E-003	3.59960E-001	-1.17222E+000	3.57780E+000	10	...........
	13	0.186667	7.52626E-001	5.98961E-003	0.00000E+000	4.50794E-003	3.59960E-001	-1.17031E+000	3.57780E+000	10	...........
	14	0.2	7.59546E-001	5.99206E-003	0.00000E+000	4.55125E-003	3.59960E-001	-1.18161E+000	3.57780E+000	10	...........
	15	0.213333	7.66439E-001	5.99001E-003	0.00000E+000	4.59097E-003	3.59960E-001	-1.17219E+000	3.57780E+000	10	...........
	16	0.226667	7.73286E-001	5.99776E-003	0.00000E+000	4.63798E-003	3.59960E-001	-1.17037E+000	3.57780E+000	10	...........
	17	0.24	7.80118E-001	5.99525E-003	0.00000E+000	4.67700E-003	3.59960E-001	-1.18172E+000	3.57780E+000	10	...........
	18	0.253333	7.86921E-001	5.99148E-003	0.00000E+000	4.71482E-003	3.59960E-001	-1.17219E+000	3.57780E+000	10	...........
	19	0.266667	7.93689E-001	5.99213E-003	0.00000E+000	4.75589E-003	3.59960E-001	-1.16983E+000	3.57780E+000	10	...........
	20	0.28	8.00475E-001	5.99577E-003	0.00000E+000	4.79947E-003	3.59960E-001	-1.18110E+000	3.57780E+000	10	...........
	21	0.293333	8.07176E-001	5.99251E-003	0.00000E+000	4.83701E-003	3.59960E-001	-1.17208E+000	3.57780E+000	10	...........
	22	0.306667	8.13885E-001	5.99619E-003	0.00000E+000	4.88021E-003	3.59960E-001	-1.16997E+000	3.57780E+000	10	...........
	23	0.32	8.20578E-001	5.99677E-003	0.00000E+000	4.92082E-003	3.59960E-001	-1.18135E+000	3.57780E+000	10	...........
	24	0.333333	8.27226E-001	5.99443E-003	0.00000E+000	4.95875E-003	3.59960E-001	-1.17199E+000	3.57780E+000	10	...........
	25	0.346667	8.33866E-001	5.99405E-003	0.00000E+000	4.99824E-003	3.59960E-001	-1.16985E+000	3.57780E+000	10	...........
	26	0.36	8.40429E-001	5.99822E-003	0.00000E+000	5.04108E-003	3.59960E-001	-1.18116E+000	3.57780E+000	10	...........
	27	0.373333	8.47052E-001	5.99348E-003	0.00000E+000	5.07679E-003	3.59960E-001	-1.17217E+000	3.57780E+000	10	...........
	28	0.386667	8.53589E-001	5.99368E-003	0.00000E+000	5.11613E-003	3.59960E-001	-1.16972E+000	3.57780E+000	10	...........
	29	0.4	8.60133E-001	5.99579E-003	0.00000E+000	5.15718E-003	3.59960E-001	-1.18114E+000	3.57780E+000	10	...........
	30	0.413333	8.66651E-001	5.99562E-003	0.00000E+000	5.19611E-003	3.59960E-001	-1.17215E+000	3.57780E+000	10	...........
	31	0.426667	8.73110E-001	5.99083E-003	0.00000E+000	5.23065E-003	3.59960E-001	-1.16966E+000	3.57780E+000	10	...........
	32	0.44	8.79503E-001	5.99487E-003	0.00000E+000	5.27250E-003	3.59960E-001	-1.18121E+000	3.57780E+000	10	...........
	33	0.453333	8.85908E-001	5.99317E-003	0.00000E+000	5.30939E-003	3.59960E-001	-1.17227E+000	3.57780E+000	10	...........
	34	0.466667	8.92279E-001	5.99203E-003	0.00000E+000	5.34656E-003	3.59960E-001	-1.16956E+000	3.57780E+000	10	...........
	35	0.48	8.98603E-001	5.99367E-003	0.00000E+000	5.38592E-003	3.59960E-001	-1.18095E+000	3.57780E+000	10	...........
	36	0.493333	9.04856E-001	5.99553E-003	0.00000E+000	5.42510E-003	3.59960E-001	-1.17234E+000	3.57780E+000	10	...........
	37	0.506667	9.11121E-001	5.99333E-003	0.00000E+000	5.46065E-003	3.59960E-001	-1.16987E+000	3.57780E+000	10	...........
	38	0.52	9.17308E-001	5.99333E-003	0.00000E+000	5.49773E-003	3.59960E-001	-1.18105E+000	3.57780E+000	10	...........
	39	0.533333	9.23534E-001	5.99183E-003	0.00000E+000	5.53366E-003	3.59960E-001	-1.17218E+000	3.57780E+000	10	...........
	40	0.546667	9.29649E-001	5.99488E-003	0.00000E+000	5.57313E-003	3.59960E-001	-1.16943E+000	3.57780E+000	10	...........
	41	0.56	9.35725E-001	5.99644E-003	0.00000E+000	5.61102E-003	3.59960E-001	-1.18078E+000	3.57780E+000	10	...........
	42	0.573333	9.41729E-001	5.99493E-003	0.00000E+000	5.64560E-003	3.59960E-001	-1.17213E+000	3.57780E+000	10	...........
	43	0.586667	9.47746E-001	5.99356E-003	0.00000E+000	5.68037E-003	3.59960E-001	-1.16907E+000	3.57780E+000	10	...........
	44	0.6	9.53751E-001	5.99725E-003	0.00000E+000	5.71989E-003	3.59960E-001	-1.18028E+000	3.57780E+000	10	...........
	45	0.613333	9.59664E-001	5.99802E-003	0.00000E+000	5.75608E-003	3.59960E-001	-1.17203E+000	3.57780E+000	10	...........
	46	0.626667	9.65481E-001	5.98994E-003	0.00000E+000	5.78318E-003	3.59960E-001	-1.16935E+000	3.57780E+000	10	...........
	47	0.64	9.71271E-001	5.99832E-003	0.00000E+000	5.82599E-003	3.59960E-001	-1.18060E+000	3.57805E+000	10	...........
	48	0.653333	9.77062E-001	5.99517E-003	0.00000E+000	5.85765E-003	3.59960E-001	-1.17227E+000	3.57880E+000	10	...........
	49	0.666667	9.82723E-001	5.99134E-003	0.00000E+000	5.88783E-003	3.59960E-001	-1.16899E+000	3.57880E+000	10	...........
	50	0.68	9.88385E-001	5.99597E-003	0.00000E+000	5.92633E-003	3.59960E-001	-1.18018E+000	3.57880E+000	10	...........
	51	0.693333	9.93987E-001	5.99518E-003	0.00000E+000	5.95913E-003	3.59960E-001	-1.17236E+000	3.57880E+000	10	...........
	52	0.703333	9.98795E-001	5.99684E-003	0.00000E+000	5.98961E-003	3.59960E-001	-1.17000E+000	3.57880E+000	10	...........
STARTTIMEOFFSET	QUANT	1468.501	Start Time Offset (s)