File: Data/CV_CRGO300517_1/PWRCCD_CRGO300517_1/CHARGE_DISCHARGE/CHARGE_#408.DTA
EXPLAIN
TAG	PWR800_CHARGE
TITLE	LABEL	PWR Cyclic Charge Discharge (Cell) - Charge Step	Test &Identifier
DATE	LABEL	22-6-2017	Date
TIME	LABEL	15:52:17	Time
NOTES	NOTES	3	&Notes...
	supercap test cell
	0.6mg
	6M KOH
PSTAT	PSTAT	IFC5000-01520	Potentiostat
CAPACITY	QUANT	1.00000E-003	Capacity (A-hr)
CELLTYPE	SELECTOR	1	&Cell Type
WORKINGCONNECTION	SELECTOR	0	&Working Lead
MAXCHARGETIME	VARIABLEANDUNITS	1.00000E+002	s	1.00000E+002	second(s)	Max &Charge Time
CHARGECURRENT	QUANT	6.00000E-003	&Charge Current (A)
VOLTAGEFINISH	TWOPARAM	F	1.00000E-003	3.60000E+003	&Voltage Finish	 I (A) < 	Max Time(s)
SAMPLETIME	QUANT	1.00000E-002	Sa&mple Period (s)
CHARGESTOPAT1	MULTIPARAM	4	1.00000E+000	Charge Stop At &1	Voltage > Limit	V
CHARGESTOPAT2	MULTIPARAM	0	0.00000E+000	Charge Stop At &2	None	N/A
AESBHCSELECTOR	TOGGLE	F	Save Both Half Cells
IRCOMP	TOGGLE	F	IR &Measure
EOC	QUANT	0	Open Circuit (V)
SEQUENCER	TOGGLE	TRUE	Run as Sequence
PSTATMODEL	IQUANT	53	Pstat Model
PSTATSECTION	LABEL	IFC5000-01520	Pstat Section
PSTATSERIALNO	LABEL	01520	Pstat Serial Number
CTRLMODE	IQUANT	0	Control Mode
ELECTROMETER	IQUANT	1	RE=0 or CS=1
IESTAB	IQUANT	0	I/E Stability
CASPEED	IQUANT	4	Control Amp Speed
CONVENTION	IQUANT	1	Current Convention
ICHRANGE	IQUANT	2	Ich Range
ICHRANGEMODE	TOGGLE	T	Ich Auto Range
ICHOFFSETENABLE	TOGGLE	F	Ich Offset Enable
ICHOFFSET	QUANT	0	Ich Offset (V)
ICHFILTER	IQUANT	1	Ich Filter
VCHRANGE	IQUANT	2	Vch Range
VCHRANGEMODE	TOGGLE	T	Vch Auto Range
VCHOFFSETENABLE	TOGGLE	F	Vch Offset Enable
VCHOFFSET	QUANT	0	Vch Offset (V)
VCHFILTER	IQUANT	1	Vch Filter
IERANGELOWERLIMIT	IQUANT	9	I/E Range Lower Limit
IERANGEMODE	TOGGLE	F	I/E AutoRange
IERANGE	IQUANT	10	I/E Range
ACHSELECT	IQUANT	1	Ach Select
ACHRANGE	IQUANT	2	Ach Range
ACHOFFSETENABLE	TOGGLE	F	Ach Offset Enable
ACHOFFSET	QUANT	0	Ach Offset (V)
ACHFILTER	IQUANT	1	Ach Filter
CABLEID	IQUANT	14	Cable ID
DCCALDATE	LABEL	20-10-2016	DC Calibration Date
ACCALDATE	LABEL	12/3/2015	AC Calibration Date
FRAMEWORKVERSION	QUANT	7.01	Framework Version
INSTRUMENTVERSION	LABEL	4.00	Instrument Version
CURVE	TABLE	60
	Pt	T	Vf	Im	Vu	Pwr	Sig	Ach	Temp	IERange	Over
	#	s	V	A	V	W	V	V	deg C	#	bits
	0	0.013333	6.25233E-001	5.98926E-003	0.00000E+000	3.74469E-003	3.59960E-001	-1.11434E+000	3.57790E+000	10	...........
	1	0.026667	6.34002E-001	5.99219E-003	0.00000E+000	3.79906E-003	3.59960E-001	-1.12069E+000	3.57790E+000	10	...........
	2	0.04	6.42102E-001	5.99301E-003	0.00000E+000	3.84812E-003	3.59960E-001	-1.12213E+000	3.57790E+000	10	...........
	3	0.053333	6.49776E-001	5.99043E-003	0.00000E+000	3.89244E-003	3.59960E-001	-1.11457E+000	3.57790E+000	10	...........
	4	0.066667	6.57120E-001	5.99456E-003	0.00000E+000	3.93915E-003	3.59960E-001	-1.12093E+000	3.57790E+000	10	...........
	5	0.08	6.64306E-001	5.99415E-003	0.00000E+000	3.98195E-003	3.59960E-001	-1.12255E+000	3.57790E+000	10	...........
	6	0.093333	6.71311E-001	5.99351E-003	0.00000E+000	4.02351E-003	3.59960E-001	-1.11461E+000	3.57790E+000	10	...........
	7	0.106667	6.78221E-001	5.99286E-003	0.00000E+000	4.06449E-003	3.59960E-001	-1.12076E+000	3.57790E+000	10	...........
	8	0.12	6.85049E-001	5.99631E-003	0.00000E+000	4.10776E-003	3.59960E-001	-1.12248E+000	3.57790E+000	10	...........
	9	0.133333	6.91818E-001	6.00277E-003	0.00000E+000	4.15282E-003	3.59960E-001	-1.11502E+000	3.57790E+000	10	...........
	10	0.146667	6.98486E-001	5.99238E-003	0.00000E+000	4.18560E-003	3.59960E-001	-1.12118E+000	3.57790E+000	10	...........
	11	0.16	7.05146E-001	5.99359E-003	0.00000E+000	4.22636E-003	3.59960E-001	-1.12252E+000	3.57790E+000	10	...........
	12	0.173333	7.11750E-001	5.99563E-003	0.00000E+000	4.26739E-003	3.59960E-001	-1.11494E+000	3.57790E+000	10	...........
	13	0.186667	7.18387E-001	5.99256E-003	0.00000E+000	4.30498E-003	3.59960E-001	-1.12150E+000	3.57790E+000	10	...........
	14	0.2	7.24950E-001	5.99248E-003	0.00000E+000	4.34424E-003	3.59960E-001	-1.12299E+000	3.57790E+000	10	...........
	15	0.213333	7.31450E-001	5.99518E-003	0.00000E+000	4.38517E-003	3.59960E-001	-1.11535E+000	3.57790E+000	10	...........
	16	0.226667	7.37966E-001	5.99825E-003	0.00000E+000	4.42650E-003	3.59960E-001	-1.12158E+000	3.57790E+000	10	...........
	17	0.24	7.44490E-001	5.99605E-003	0.00000E+000	4.46400E-003	3.59960E-001	-1.12283E+000	3.57790E+000	10	...........
	18	0.253333	7.50911E-001	5.99217E-003	0.00000E+000	4.49959E-003	3.59960E-001	-1.11523E+000	3.57790E+000	10	...........
	19	0.266667	7.57357E-001	5.99106E-003	0.00000E+000	4.53737E-003	3.59960E-001	-1.12199E+000	3.57790E+000	10	...........
	20	0.28	7.63753E-001	5.99309E-003	0.00000E+000	4.57724E-003	3.59960E-001	-1.12334E+000	3.57790E+000	10	...........
	21	0.293333	7.70167E-001	5.99628E-003	0.00000E+000	4.61814E-003	3.59960E-001	-1.11532E+000	3.57790E+000	10	...........
	22	0.306667	7.76526E-001	5.99246E-003	0.00000E+000	4.65330E-003	3.59960E-001	-1.12172E+000	3.57790E+000	10	...........
	23	0.32	7.82919E-001	5.99772E-003	0.00000E+000	4.69573E-003	3.59960E-001	-1.12298E+000	3.57790E+000	10	...........
	24	0.333333	7.89311E-001	5.99700E-003	0.00000E+000	4.73350E-003	3.59960E-001	-1.11555E+000	3.57790E+000	10	...........
	25	0.346667	7.95696E-001	5.99433E-003	0.00000E+000	4.76967E-003	3.59960E-001	-1.12229E+000	3.57790E+000	10	...........
	26	0.36	8.02057E-001	5.99480E-003	0.00000E+000	4.80817E-003	3.59960E-001	-1.12310E+000	3.57790E+000	10	...........
	27	0.373333	8.08353E-001	5.99437E-003	0.00000E+000	4.84556E-003	3.59960E-001	-1.11565E+000	3.57790E+000	10	...........
	28	0.386667	8.14662E-001	5.99472E-003	0.00000E+000	4.88367E-003	3.59960E-001	-1.12238E+000	3.57790E+000	10	...........
	29	0.4	8.21025E-001	5.99283E-003	0.00000E+000	4.92027E-003	3.59960E-001	-1.12323E+000	3.57790E+000	10	...........
	30	0.413333	8.27348E-001	5.99761E-003	0.00000E+000	4.96211E-003	3.59960E-001	-1.11593E+000	3.57790E+000	10	...........
	31	0.426667	8.33612E-001	5.99112E-003	0.00000E+000	4.99427E-003	3.59960E-001	-1.12263E+000	3.57790E+000	10	...........
	32	0.44	8.39864E-001	5.99641E-003	0.00000E+000	5.03617E-003	3.59960E-001	-1.12326E+000	3.57790E+000	10	...........
	33	0.453333	8.46125E-001	5.99237E-003	0.00000E+000	5.07029E-003	3.59960E-001	-1.11610E+000	3.57790E+000	10	...........
	34	0.466667	8.52361E-001	5.99406E-003	0.00000E+000	5.10910E-003	3.59960E-001	-1.12285E+000	3.57790E+000	10	...........
	35	0.48	8.58582E-001	5.99546E-003	0.00000E+000	5.14759E-003	3.59960E-001	-1.12358E+000	3.57790E+000	10	...........
	36	0.493333	8.64758E-001	5.99650E-003	0.00000E+000	5.18552E-003	3.59960E-001	-1.11639E+000	3.57790E+000	10	...........
	37	0.506667	8.70949E-001	5.99911E-003	0.00000E+000	5.22492E-003	3.59960E-001	-1.12305E+000	3.57790E+000	10	...........
	38	0.52	8.77146E-001	5.99618E-003	0.00000E+000	5.25953E-003	3.59960E-001	-1.12398E+000	3.57790E+000	10	...........
	39	0.533333	8.83306E-001	5.99219E-003	0.00000E+000	5.29293E-003	3.59960E-001	-1.11695E+000	3.57790E+000	10	...........
	40	0.546667	8.89406E-001	5.99297E-003	0.00000E+000	5.33018E-003	3.59960E-001	-1.12377E+000	3.57778E+000	10	...........
	41	0.56	8.95502E-001	5.99804E-003	0.00000E+000	5.37125E-003	3.59960E-001	-1.12401E+000	3.57690E+000	10	...........
	42	0.573333	9.01536E-001	5.99503E-003	0.00000E+000	5.40474E-003	3.59960E-001	-1.11678E+000	3.57690E+000	10	...........
	43	0.586667	9.07589E-001	5.99457E-003	0.00000E+000	5.44061E-003	3.59960E-001	-1.12368E+000	3.57690E+000	10	...........
	44	0.6	9.13591E-001	5.99982E-003	0.00000E+000	5.48138E-003	3.59960E-001	-1.12441E+000	3.57690E+000	10	...........
	45	0.613333	9.19567E-001	5.99399E-003	0.00000E+000	5.51187E-003	3.59960E-001	-1.11691E+000	3.57690E+000	10	...........
	46	0.626667	9.25524E-001	5.99045E-003	0.00000E+000	5.54431E-003	3.59960E-001	-1.12369E+000	3.57690E+000	10	...........
	47	0.64	9.31450E-001	5.99714E-003	0.00000E+000	5.58604E-003	3.59960E-001	-1.12405E+000	3.57690E+000	10	...........
	48	0.653333	9.37332E-001	5.99372E-003	0.00000E+000	5.61810E-003	3.59960E-001	-1.11703E+000	3.57690E+000	10	...........
	49	0.666667	9.43183E-001	5.99460E-003	0.00000E+000	5.65401E-003	3.59960E-001	-1.12415E+000	3.57690E+000	10	...........
	50	0.68	9.49054E-001	5.99639E-003	0.00000E+000	5.69090E-003	3.59960E-001	-1.12430E+000	3.57690E+000	10	...........
	51	0.693333	9.54807E-001	5.99524E-003	0.00000E+000	5.72430E-003	3.59960E-001	-1.11731E+000	3.57690E+000	10	...........
	52	0.706667	9.60518E-001	5.99787E-003	0.00000E+000	5.76106E-003	3.59960E-001	-1.12413E+000	3.57690E+000	10	...........
	53	0.72	9.66203E-001	5.99607E-003	0.00000E+000	5.79341E-003	3.59960E-001	-1.12449E+000	3.57690E+000	10	...........
	54	0.733333	9.71869E-001	5.99552E-003	0.00000E+000	5.82686E-003	3.59960E-001	-1.11737E+000	3.57690E+000	10	...........
	55	0.746667	9.77556E-001	5.99928E-003	0.00000E+000	5.86463E-003	3.59960E-001	-1.12453E+000	3.57690E+000	10	...........
	56	0.76	9.83090E-001	5.99658E-003	0.00000E+000	5.89518E-003	3.59960E-001	-1.12453E+000	3.57690E+000	10	...........
	57	0.773333	9.88625E-001	5.99499E-003	0.00000E+000	5.92680E-003	3.59960E-001	-1.11725E+000	3.57690E+000	10	...........
	58	0.786667	9.94112E-001	5.99004E-003	0.00000E+000	5.95477E-003	3.59960E-001	-1.12472E+000	3.57690E+000	10	...........
	59	0.796667	9.98888E-001	5.99609E-003	0.00000E+000	5.98942E-003	3.59960E-001	-1.12257E+000	3.57690E+000	10	...........
STARTTIMEOFFSET	QUANT	715.3551	Start Time Offset (s)