File: Data/CV_CRGO300517_1/PWRCCD_CRGO300517_1/CHARGE_DISCHARGE/CHARGE_#160.DTA
EXPLAIN
TAG	PWR800_CHARGE
TITLE	LABEL	PWR Cyclic Charge Discharge (Cell) - Charge Step	Test &Identifier
DATE	LABEL	22-6-2017	Date
TIME	LABEL	15:42:07	Time
NOTES	NOTES	3	&Notes...
	supercap test cell
	0.6mg
	6M KOH
PSTAT	PSTAT	IFC5000-01520	Potentiostat
CAPACITY	QUANT	1.00000E-003	Capacity (A-hr)
CELLTYPE	SELECTOR	1	&Cell Type
WORKINGCONNECTION	SELECTOR	0	&Working Lead
MAXCHARGETIME	VARIABLEANDUNITS	1.00000E+002	s	1.00000E+002	second(s)	Max &Charge Time
CHARGECURRENT	QUANT	6.00000E-003	&Charge Current (A)
VOLTAGEFINISH	TWOPARAM	F	1.00000E-003	3.60000E+003	&Voltage Finish	 I (A) < 	Max Time(s)
SAMPLETIME	QUANT	1.00000E-002	Sa&mple Period (s)
CHARGESTOPAT1	MULTIPARAM	4	1.00000E+000	Charge Stop At &1	Voltage > Limit	V
CHARGESTOPAT2	MULTIPARAM	0	0.00000E+000	Charge Stop At &2	None	N/A
AESBHCSELECTOR	TOGGLE	F	Save Both Half Cells
IRCOMP	TOGGLE	F	IR &Measure
EOC	QUANT	0	Open Circuit (V)
SEQUENCER	TOGGLE	TRUE	Run as Sequence
PSTATMODEL	IQUANT	53	Pstat Model
PSTATSECTION	LABEL	IFC5000-01520	Pstat Section
PSTATSERIALNO	LABEL	01520	Pstat Serial Number
CTRLMODE	IQUANT	0	Control Mode
ELECTROMETER	IQUANT	1	RE=0 or CS=1
IESTAB	IQUANT	0	I/E Stability
CASPEED	IQUANT	4	Control Amp Speed
CONVENTION	IQUANT	1	Current Convention
ICHRANGE	IQUANT	2	Ich Range
ICHRANGEMODE	TOGGLE	T	Ich Auto Range
ICHOFFSETENABLE	TOGGLE	F	Ich Offset Enable
ICHOFFSET	QUANT	0	Ich Offset (V)
ICHFILTER	IQUANT	1	Ich Filter
VCHRANGE	IQUANT	2	Vch Range
VCHRANGEMODE	TOGGLE	T	Vch Auto Range
VCHOFFSETENABLE	TOGGLE	F	Vch Offset Enable
VCHOFFSET	QUANT	0	Vch Offset (V)
VCHFILTER	IQUANT	1	Vch Filter
IERANGELOWERLIMIT	IQUANT	9	I/E Range Lower Limit
IERANGEMODE	TOGGLE	F	I/E AutoRange
IERANGE	IQUANT	10	I/E Range
ACHSELECT	IQUANT	1	Ach Select
ACHRANGE	IQUANT	2	Ach Range
ACHOFFSETENABLE	TOGGLE	F	Ach Offset Enable
ACHOFFSET	QUANT	0	Ach Offset (V)
ACHFILTER	IQUANT	1	Ach Filter
CABLEID	IQUANT	14	Cable ID
DCCALDATE	LABEL	20-10-2016	DC Calibration Date
ACCALDATE	LABEL	12/3/2015	AC Calibration Date
FRAMEWORKVERSION	QUANT	7.01	Framework Version
INSTRUMENTVERSION	LABEL	4.00	Instrument Version
CURVE	TABLE	67
	Pt	T	Vf	Im	Vu	Pwr	Sig	Ach	Temp	IERange	Over
	#	s	V	A	V	W	V	V	deg C	#	bits
	0	0.013333	5.99546E-001	5.99084E-003	0.00000E+000	3.59178E-003	3.59960E-001	-1.08456E+000	3.57740E+000	10	...........
	1	0.026667	6.07993E-001	5.99439E-003	0.00000E+000	3.64454E-003	3.59960E-001	-1.07451E+000	3.57740E+000	10	...........
	2	0.04	6.15741E-001	5.99322E-003	0.00000E+000	3.69027E-003	3.59960E-001	-1.07860E+000	3.57740E+000	10	...........
	3	0.053333	6.23062E-001	5.99040E-003	0.00000E+000	3.73239E-003	3.59960E-001	-1.08458E+000	3.57740E+000	10	...........
	4	0.066667	6.30041E-001	5.99352E-003	0.00000E+000	3.77616E-003	3.59960E-001	-1.07478E+000	3.57740E+000	10	...........
	5	0.08	6.36892E-001	5.99071E-003	0.00000E+000	3.81544E-003	3.59960E-001	-1.07866E+000	3.57740E+000	10	...........
	6	0.093333	6.43611E-001	5.99265E-003	0.00000E+000	3.85694E-003	3.59960E-001	-1.08492E+000	3.57740E+000	10	...........
	7	0.106667	6.50188E-001	5.99469E-003	0.00000E+000	3.89768E-003	3.59960E-001	-1.07467E+000	3.57740E+000	10	...........
	8	0.12	6.56717E-001	5.99077E-003	0.00000E+000	3.93424E-003	3.59960E-001	-1.07879E+000	3.57740E+000	10	...........
	9	0.133333	6.63153E-001	5.99681E-003	0.00000E+000	3.97680E-003	3.59960E-001	-1.08481E+000	3.57740E+000	10	...........
	10	0.146667	6.69521E-001	5.99293E-003	0.00000E+000	4.01239E-003	3.59960E-001	-1.07456E+000	3.57740E+000	10	...........
	11	0.16	6.75842E-001	5.99219E-003	0.00000E+000	4.04977E-003	3.59960E-001	-1.07829E+000	3.57740E+000	10	...........
	12	0.173333	6.82130E-001	5.99146E-003	0.00000E+000	4.08695E-003	3.59960E-001	-1.08461E+000	3.57740E+000	10	...........
	13	0.186667	6.88370E-001	5.99393E-003	0.00000E+000	4.12604E-003	3.59960E-001	-1.07408E+000	3.57740E+000	10	...........
	14	0.2	6.94597E-001	5.99822E-003	0.00000E+000	4.16635E-003	3.59960E-001	-1.07791E+000	3.57740E+000	10	...........
	15	0.213333	7.00758E-001	5.99312E-003	0.00000E+000	4.19973E-003	3.59960E-001	-1.08447E+000	3.57740E+000	10	...........
	16	0.226667	7.06929E-001	5.99206E-003	0.00000E+000	4.23596E-003	3.59960E-001	-1.07407E+000	3.57732E+000	10	...........
	17	0.24	7.13057E-001	5.99350E-003	0.00000E+000	4.27370E-003	3.59960E-001	-1.07805E+000	3.57730E+000	10	...........
	18	0.253333	7.19229E-001	5.99710E-003	0.00000E+000	4.31329E-003	3.59960E-001	-1.08456E+000	3.57730E+000	10	...........
	19	0.266667	7.25336E-001	5.99469E-003	0.00000E+000	4.34816E-003	3.59960E-001	-1.07436E+000	3.57730E+000	10	...........
	20	0.28	7.31418E-001	5.99205E-003	0.00000E+000	4.38270E-003	3.59960E-001	-1.07795E+000	3.57730E+000	10	...........
	21	0.293333	7.37524E-001	5.99505E-003	0.00000E+000	4.42150E-003	3.59960E-001	-1.08448E+000	3.57730E+000	10	...........
	22	0.306667	7.43617E-001	5.99402E-003	0.00000E+000	4.45725E-003	3.59960E-001	-1.07426E+000	3.57730E+000	10	...........
	23	0.32	7.49691E-001	5.99451E-003	0.00000E+000	4.49403E-003	3.59960E-001	-1.07777E+000	3.57730E+000	10	...........
	24	0.333333	7.55777E-001	5.99298E-003	0.00000E+000	4.52936E-003	3.59960E-001	-1.08441E+000	3.57730E+000	10	...........
	25	0.346667	7.61850E-001	5.99699E-003	0.00000E+000	4.56881E-003	3.59960E-001	-1.07410E+000	3.57730E+000	10	...........
	26	0.36	7.67884E-001	5.99282E-003	0.00000E+000	4.60179E-003	3.59960E-001	-1.07757E+000	3.57730E+000	10	...........
	27	0.373333	7.73969E-001	5.99416E-003	0.00000E+000	4.63929E-003	3.59960E-001	-1.08451E+000	3.57730E+000	10	...........
	28	0.386667	7.79998E-001	5.99043E-003	0.00000E+000	4.67252E-003	3.59960E-001	-1.07431E+000	3.57730E+000	10	...........
	29	0.4	7.86040E-001	5.99287E-003	0.00000E+000	4.71064E-003	3.59960E-001	-1.07782E+000	3.57730E+000	10	...........
	30	0.413333	7.92047E-001	5.99348E-003	0.00000E+000	4.74712E-003	3.59960E-001	-1.08459E+000	3.57730E+000	10	...........
	31	0.426667	7.98047E-001	5.99149E-003	0.00000E+000	4.78149E-003	3.59960E-001	-1.07434E+000	3.57730E+000	10	...........
	32	0.44	8.04059E-001	5.99378E-003	0.00000E+000	4.81935E-003	3.59960E-001	-1.07778E+000	3.57730E+000	10	...........
	33	0.453333	8.10048E-001	5.99238E-003	0.00000E+000	4.85412E-003	3.59960E-001	-1.08476E+000	3.57730E+000	10	...........
	34	0.466667	8.16081E-001	5.99188E-003	0.00000E+000	4.88986E-003	3.59960E-001	-1.07407E+000	3.57730E+000	10	...........
	35	0.48	8.22097E-001	5.99589E-003	0.00000E+000	4.92920E-003	3.59960E-001	-1.07745E+000	3.57730E+000	10	...........
	36	0.493333	8.28125E-001	5.99521E-003	0.00000E+000	4.96479E-003	3.59960E-001	-1.08422E+000	3.57730E+000	10	...........
	37	0.506667	8.34110E-001	5.99566E-003	0.00000E+000	5.00104E-003	3.59960E-001	-1.07362E+000	3.57730E+000	10	...........
	38	0.52	8.40092E-001	5.99492E-003	0.00000E+000	5.03628E-003	3.59960E-001	-1.07689E+000	3.57730E+000	10	...........
	39	0.533333	8.46072E-001	5.99231E-003	0.00000E+000	5.06993E-003	3.59960E-001	-1.08434E+000	3.57730E+000	10	...........
	40	0.546667	8.52043E-001	5.99389E-003	0.00000E+000	5.10705E-003	3.59960E-001	-1.07363E+000	3.57730E+000	10	...........
	41	0.56	8.57961E-001	5.99402E-003	0.00000E+000	5.14264E-003	3.59960E-001	-1.07695E+000	3.57730E+000	10	...........
	42	0.573333	8.63890E-001	5.98913E-003	0.00000E+000	5.17395E-003	3.59960E-001	-1.08426E+000	3.57730E+000	10	...........
	43	0.586667	8.69827E-001	5.99632E-003	0.00000E+000	5.21576E-003	3.59960E-001	-1.07367E+000	3.57730E+000	10	...........
	44	0.6	8.75773E-001	5.99546E-003	0.00000E+000	5.25066E-003	3.59960E-001	-1.07692E+000	3.57730E+000	10	...........
	45	0.613333	8.81663E-001	5.99281E-003	0.00000E+000	5.28364E-003	3.59960E-001	-1.08432E+000	3.57730E+000	10	...........
	46	0.626667	8.87569E-001	5.99468E-003	0.00000E+000	5.32069E-003	3.59960E-001	-1.07353E+000	3.57730E+000	10	...........
	47	0.64	8.93435E-001	5.99219E-003	0.00000E+000	5.35363E-003	3.59960E-001	-1.07688E+000	3.57730E+000	10	...........
	48	0.653333	8.99292E-001	5.99653E-003	0.00000E+000	5.39263E-003	3.59960E-001	-1.08427E+000	3.57730E+000	10	...........
	49	0.666667	9.05081E-001	5.99737E-003	0.00000E+000	5.42811E-003	3.59960E-001	-1.07379E+000	3.57730E+000	10	...........
	50	0.68	9.10946E-001	5.98925E-003	0.00000E+000	5.45589E-003	3.59960E-001	-1.07668E+000	3.57730E+000	10	...........
	51	0.693333	9.16703E-001	5.99684E-003	0.00000E+000	5.49732E-003	3.59960E-001	-1.08425E+000	3.57730E+000	10	...........
	52	0.706667	9.22603E-001	5.99237E-003	0.00000E+000	5.52858E-003	3.59960E-001	-1.07376E+000	3.57730E+000	10	...........
	53	0.72	9.28365E-001	5.99596E-003	0.00000E+000	5.56644E-003	3.59960E-001	-1.07705E+000	3.57730E+000	10	...........
	54	0.733333	9.34075E-001	5.98964E-003	0.00000E+000	5.59477E-003	3.59960E-001	-1.08458E+000	3.57730E+000	10	...........
	55	0.746667	9.39794E-001	5.99632E-003	0.00000E+000	5.63530E-003	3.59960E-001	-1.07390E+000	3.57730E+000	10	...........
	56	0.76	9.45485E-001	5.99621E-003	0.00000E+000	5.66933E-003	3.59960E-001	-1.07663E+000	3.57730E+000	10	...........
	57	0.773333	9.51147E-001	5.99244E-003	0.00000E+000	5.69969E-003	3.59960E-001	-1.08465E+000	3.57730E+000	10	...........
	58	0.786667	9.56758E-001	5.99675E-003	0.00000E+000	5.73744E-003	3.59960E-001	-1.07375E+000	3.57730E+000	10	...........
	59	0.8	9.62364E-001	5.99766E-003	0.00000E+000	5.77193E-003	3.59960E-001	-1.07678E+000	3.57730E+000	10	...........
	60	0.813333	9.67922E-001	5.99424E-003	0.00000E+000	5.80196E-003	3.59960E-001	-1.08423E+000	3.57730E+000	10	...........
	61	0.826667	9.73443E-001	5.99343E-003	0.00000E+000	5.83426E-003	3.59960E-001	-1.07340E+000	3.57730E+000	10	...........
	62	0.84	9.78929E-001	5.99040E-003	0.00000E+000	5.86418E-003	3.59960E-001	-1.07636E+000	3.57730E+000	10	...........
	63	0.853333	9.84423E-001	5.99418E-003	0.00000E+000	5.90081E-003	3.59960E-001	-1.08430E+000	3.57730E+000	10	...........
	64	0.866667	9.89831E-001	5.98916E-003	0.00000E+000	5.92826E-003	3.59960E-001	-1.07363E+000	3.57730E+000	10	...........
	65	0.88	9.95221E-001	5.99022E-003	0.00000E+000	5.96160E-003	3.59960E-001	-1.07634E+000	3.57730E+000	10	...........
	66	0.886667	9.99274E-001	5.99882E-003	0.00000E+000	5.99446E-003	3.59960E-001	-1.08165E+000	3.57730E+000	10	...........
STARTTIMEOFFSET	QUANT	303.2951	Start Time Offset (s)