File: Data/CV_CRGO300517_1/PWRCCD_CRGO300517_1/CHARGE_DISCHARGE/CHARGE_#535.DTA
EXPLAIN
TAG	PWR800_CHARGE
TITLE	LABEL	PWR Cyclic Charge Discharge (Cell) - Charge Step	Test &Identifier
DATE	LABEL	22-6-2017	Date
TIME	LABEL	15:57:16	Time
NOTES	NOTES	3	&Notes...
	supercap test cell
	0.6mg
	6M KOH
PSTAT	PSTAT	IFC5000-01520	Potentiostat
CAPACITY	QUANT	1.00000E-003	Capacity (A-hr)
CELLTYPE	SELECTOR	1	&Cell Type
WORKINGCONNECTION	SELECTOR	0	&Working Lead
MAXCHARGETIME	VARIABLEANDUNITS	1.00000E+002	s	1.00000E+002	second(s)	Max &Charge Time
CHARGECURRENT	QUANT	6.00000E-003	&Charge Current (A)
VOLTAGEFINISH	TWOPARAM	F	1.00000E-003	3.60000E+003	&Voltage Finish	 I (A) < 	Max Time(s)
SAMPLETIME	QUANT	1.00000E-002	Sa&mple Period (s)
CHARGESTOPAT1	MULTIPARAM	4	1.00000E+000	Charge Stop At &1	Voltage > Limit	V
CHARGESTOPAT2	MULTIPARAM	0	0.00000E+000	Charge Stop At &2	None	N/A
AESBHCSELECTOR	TOGGLE	F	Save Both Half Cells
IRCOMP	TOGGLE	F	IR &Measure
EOC	QUANT	0	Open Circuit (V)
SEQUENCER	TOGGLE	TRUE	Run as Sequence
PSTATMODEL	IQUANT	53	Pstat Model
PSTATSECTION	LABEL	IFC5000-01520	Pstat Section
PSTATSERIALNO	LABEL	01520	Pstat Serial Number
CTRLMODE	IQUANT	0	Control Mode
ELECTROMETER	IQUANT	1	RE=0 or CS=1
IESTAB	IQUANT	0	I/E Stability
CASPEED	IQUANT	4	Control Amp Speed
CONVENTION	IQUANT	1	Current Convention
ICHRANGE	IQUANT	2	Ich Range
ICHRANGEMODE	TOGGLE	T	Ich Auto Range
ICHOFFSETENABLE	TOGGLE	F	Ich Offset Enable
ICHOFFSET	QUANT	0	Ich Offset (V)
ICHFILTER	IQUANT	1	Ich Filter
VCHRANGE	IQUANT	2	Vch Range
VCHRANGEMODE	TOGGLE	T	Vch Auto Range
VCHOFFSETENABLE	TOGGLE	F	Vch Offset Enable
VCHOFFSET	QUANT	0	Vch Offset (V)
VCHFILTER	IQUANT	1	Vch Filter
IERANGELOWERLIMIT	IQUANT	9	I/E Range Lower Limit
IERANGEMODE	TOGGLE	F	I/E AutoRange
IERANGE	IQUANT	10	I/E Range
ACHSELECT	IQUANT	1	Ach Select
ACHRANGE	IQUANT	2	Ach Range
ACHOFFSETENABLE	TOGGLE	F	Ach Offset Enable
ACHOFFSET	QUANT	0	Ach Offset (V)
ACHFILTER	IQUANT	1	Ach Filter
CABLEID	IQUANT	14	Cable ID
DCCALDATE	LABEL	20-10-2016	DC Calibration Date
ACCALDATE	LABEL	12/3/2015	AC Calibration Date
FRAMEWORKVERSION	QUANT	7.01	Framework Version
INSTRUMENTVERSION	LABEL	4.00	Instrument Version
CURVE	TABLE	58
	Pt	T	Vf	Im	Vu	Pwr	Sig	Ach	Temp	IERange	Over
	#	s	V	A	V	W	V	V	deg C	#	bits
	0	0.013333	6.34409E-001	5.99898E-003	0.00000E+000	3.80580E-003	3.59960E-001	-1.14635E+000	3.57780E+000	10	...........
	1	0.026667	6.43346E-001	5.99250E-003	0.00000E+000	3.85525E-003	3.59960E-001	-1.14112E+000	3.57780E+000	10	...........
	2	0.04	6.51529E-001	5.99253E-003	0.00000E+000	3.90431E-003	3.59960E-001	-1.13638E+000	3.57780E+000	10	...........
	3	0.053333	6.59297E-001	5.99226E-003	0.00000E+000	3.95068E-003	3.59960E-001	-1.14645E+000	3.57780E+000	10	...........
	4	0.066667	6.66797E-001	5.99645E-003	0.00000E+000	3.99842E-003	3.59960E-001	-1.14090E+000	3.57780E+000	10	...........
	5	0.08	6.74111E-001	5.99560E-003	0.00000E+000	4.04170E-003	3.59960E-001	-1.13626E+000	3.57780E+000	10	...........
	6	0.093333	6.81282E-001	5.99224E-003	0.00000E+000	4.08241E-003	3.59960E-001	-1.14611E+000	3.57780E+000	10	...........
	7	0.106667	6.88295E-001	5.99206E-003	0.00000E+000	4.12431E-003	3.59960E-001	-1.14072E+000	3.57780E+000	10	...........
	8	0.12	6.95311E-001	5.99591E-003	0.00000E+000	4.16902E-003	3.59960E-001	-1.13649E+000	3.57780E+000	10	...........
	9	0.133333	7.02159E-001	5.99141E-003	0.00000E+000	4.20692E-003	3.59960E-001	-1.14620E+000	3.57780E+000	10	...........
	10	0.146667	7.08988E-001	5.99128E-003	0.00000E+000	4.24774E-003	3.59960E-001	-1.14082E+000	3.57780E+000	10	...........
	11	0.16	7.15781E-001	5.99213E-003	0.00000E+000	4.28906E-003	3.59960E-001	-1.13644E+000	3.57780E+000	10	...........
	12	0.173333	7.22588E-001	5.99207E-003	0.00000E+000	4.32980E-003	3.59960E-001	-1.14620E+000	3.57780E+000	10	...........
	13	0.186667	7.29276E-001	5.99821E-003	0.00000E+000	4.37436E-003	3.59960E-001	-1.14081E+000	3.57780E+000	10	...........
	14	0.2	7.35921E-001	5.99582E-003	0.00000E+000	4.41245E-003	3.59960E-001	-1.13653E+000	3.57780E+000	10	...........
	15	0.213333	7.42586E-001	5.99787E-003	0.00000E+000	4.45394E-003	3.59960E-001	-1.14632E+000	3.57780E+000	10	...........
	16	0.226667	7.49190E-001	5.99344E-003	0.00000E+000	4.49022E-003	3.59960E-001	-1.14043E+000	3.57780E+000	10	...........
	17	0.24	7.55770E-001	5.99331E-003	0.00000E+000	4.52956E-003	3.59960E-001	-1.13628E+000	3.57780E+000	10	...........
	18	0.253333	7.62317E-001	5.99696E-003	0.00000E+000	4.57159E-003	3.59960E-001	-1.14638E+000	3.57780E+000	10	...........
	19	0.266667	7.68859E-001	5.99706E-003	0.00000E+000	4.61089E-003	3.59960E-001	-1.14040E+000	3.57780E+000	10	...........
	20	0.28	7.75411E-001	5.99799E-003	0.00000E+000	4.65091E-003	3.59960E-001	-1.13653E+000	3.57780E+000	10	...........
	21	0.293333	7.81937E-001	5.99443E-003	0.00000E+000	4.68727E-003	3.59960E-001	-1.14636E+000	3.57780E+000	10	...........
	22	0.306667	7.88409E-001	5.98820E-003	0.00000E+000	4.72115E-003	3.59960E-001	-1.14029E+000	3.57780E+000	10	...........
	23	0.32	7.94959E-001	5.99393E-003	0.00000E+000	4.76493E-003	3.59960E-001	-1.13664E+000	3.57780E+000	10	...........
	24	0.333333	8.01404E-001	5.99572E-003	0.00000E+000	4.80500E-003	3.59960E-001	-1.14675E+000	3.57780E+000	10	...........
	25	0.346667	8.07854E-001	5.99639E-003	0.00000E+000	4.84421E-003	3.59960E-001	-1.14039E+000	3.57780E+000	10	...........
	26	0.36	8.14260E-001	5.99255E-003	0.00000E+000	4.87950E-003	3.59960E-001	-1.13632E+000	3.57780E+000	10	...........
	27	0.373333	8.20733E-001	5.99128E-003	0.00000E+000	4.91724E-003	3.59960E-001	-1.14656E+000	3.57780E+000	10	...........
	28	0.386667	8.27135E-001	5.99587E-003	0.00000E+000	4.95939E-003	3.59960E-001	-1.14009E+000	3.57780E+000	10	...........
	29	0.4	8.33475E-001	5.99445E-003	0.00000E+000	4.99622E-003	3.59960E-001	-1.13609E+000	3.57780E+000	10	...........
	30	0.413333	8.39869E-001	5.99558E-003	0.00000E+000	5.03549E-003	3.59960E-001	-1.14620E+000	3.57780E+000	10	...........
	31	0.426667	8.46211E-001	5.99425E-003	0.00000E+000	5.07240E-003	3.59960E-001	-1.13963E+000	3.57780E+000	10	...........
	32	0.44	8.52501E-001	5.99714E-003	0.00000E+000	5.11257E-003	3.59960E-001	-1.13594E+000	3.57780E+000	10	...........
	33	0.453333	8.58783E-001	5.99435E-003	0.00000E+000	5.14785E-003	3.59960E-001	-1.14615E+000	3.57780E+000	10	...........
	34	0.466667	8.65083E-001	5.99176E-003	0.00000E+000	5.18337E-003	3.59960E-001	-1.13976E+000	3.57780E+000	10	...........
	35	0.48	8.71381E-001	5.99496E-003	0.00000E+000	5.22390E-003	3.59960E-001	-1.13605E+000	3.57780E+000	10	...........
	36	0.493333	8.77599E-001	5.99350E-003	0.00000E+000	5.25989E-003	3.59960E-001	-1.14613E+000	3.57705E+000	10	...........
	37	0.506667	8.83805E-001	5.99442E-003	0.00000E+000	5.29789E-003	3.59960E-001	-1.13946E+000	3.57680E+000	10	...........
	38	0.52	8.90003E-001	5.99444E-003	0.00000E+000	5.33507E-003	3.59960E-001	-1.13625E+000	3.57680E+000	10	...........
	39	0.533333	8.96126E-001	5.99559E-003	0.00000E+000	5.37280E-003	3.59960E-001	-1.14632E+000	3.57680E+000	10	...........
	40	0.546667	9.02302E-001	5.99370E-003	0.00000E+000	5.40812E-003	3.59960E-001	-1.13946E+000	3.57680E+000	10	...........
	41	0.56	9.08376E-001	5.99488E-003	0.00000E+000	5.44560E-003	3.59960E-001	-1.13595E+000	3.57680E+000	10	...........
	42	0.573333	9.14481E-001	5.99587E-003	0.00000E+000	5.48311E-003	3.59960E-001	-1.14607E+000	3.57680E+000	10	...........
	43	0.586667	9.20595E-001	5.99505E-003	0.00000E+000	5.51901E-003	3.59960E-001	-1.13927E+000	3.57680E+000	10	...........
	44	0.6	9.26607E-001	5.99240E-003	0.00000E+000	5.55260E-003	3.59960E-001	-1.13605E+000	3.57680E+000	10	...........
	45	0.613333	9.32555E-001	5.99275E-003	0.00000E+000	5.58857E-003	3.59960E-001	-1.14591E+000	3.57680E+000	10	...........
	46	0.626667	9.38475E-001	5.99585E-003	0.00000E+000	5.62695E-003	3.59960E-001	-1.13870E+000	3.57680E+000	10	...........
	47	0.64	9.44387E-001	5.99731E-003	0.00000E+000	5.66378E-003	3.59960E-001	-1.13523E+000	3.57680E+000	10	...........
	48	0.653333	9.50266E-001	5.99351E-003	0.00000E+000	5.69543E-003	3.59960E-001	-1.14553E+000	3.57680E+000	10	...........
	49	0.666667	9.56083E-001	5.98811E-003	0.00000E+000	5.72513E-003	3.59960E-001	-1.13843E+000	3.57680E+000	10	...........
	50	0.68	9.61871E-001	5.99605E-003	0.00000E+000	5.76743E-003	3.59960E-001	-1.13512E+000	3.57680E+000	10	...........
	51	0.693333	9.67605E-001	5.98896E-003	0.00000E+000	5.79495E-003	3.59960E-001	-1.14519E+000	3.57680E+000	10	...........
	52	0.706667	9.73335E-001	5.99062E-003	0.00000E+000	5.83088E-003	3.59960E-001	-1.13755E+000	3.57680E+000	10	...........
	53	0.72	9.79036E-001	5.99177E-003	0.00000E+000	5.86616E-003	3.59960E-001	-1.13435E+000	3.57680E+000	10	...........
	54	0.733333	9.84574E-001	5.99403E-003	0.00000E+000	5.90157E-003	3.59960E-001	-1.14464E+000	3.57680E+000	10	...........
	55	0.746667	9.90130E-001	5.99085E-003	0.00000E+000	5.93172E-003	3.59960E-001	-1.13733E+000	3.57680E+000	10	...........
	56	0.76	9.95629E-001	5.99121E-003	0.00000E+000	5.96501E-003	3.59960E-001	-1.13448E+000	3.57680E+000	10	...........
	57	0.765	9.99457E-001	5.98815E-003	0.00000E+000	5.98489E-003	3.59960E-001	-1.14719E+000	3.57680E+000	10	...........
STARTTIMEOFFSET	QUANT	912.6783	Start Time Offset (s)