File: Data/CV_CRGO300517_1/PWRCCD_CRGO300517_1/CHARGE_DISCHARGE/CHARGE_#930.DTA
EXPLAIN
TAG	PWR800_CHARGE
TITLE	LABEL	PWR Cyclic Charge Discharge (Cell) - Charge Step	Test &Identifier
DATE	LABEL	22-6-2017	Date
TIME	LABEL	16:12:05	Time
NOTES	NOTES	3	&Notes...
	supercap test cell
	0.6mg
	6M KOH
PSTAT	PSTAT	IFC5000-01520	Potentiostat
CAPACITY	QUANT	1.00000E-003	Capacity (A-hr)
CELLTYPE	SELECTOR	1	&Cell Type
WORKINGCONNECTION	SELECTOR	0	&Working Lead
MAXCHARGETIME	VARIABLEANDUNITS	1.00000E+002	s	1.00000E+002	second(s)	Max &Charge Time
CHARGECURRENT	QUANT	6.00000E-003	&Charge Current (A)
VOLTAGEFINISH	TWOPARAM	F	1.00000E-003	3.60000E+003	&Voltage Finish	 I (A) < 	Max Time(s)
SAMPLETIME	QUANT	1.00000E-002	Sa&mple Period (s)
CHARGESTOPAT1	MULTIPARAM	4	1.00000E+000	Charge Stop At &1	Voltage > Limit	V
CHARGESTOPAT2	MULTIPARAM	0	0.00000E+000	Charge Stop At &2	None	N/A
AESBHCSELECTOR	TOGGLE	F	Save Both Half Cells
IRCOMP	TOGGLE	F	IR &Measure
EOC	QUANT	0	Open Circuit (V)
SEQUENCER	TOGGLE	TRUE	Run as Sequence
PSTATMODEL	IQUANT	53	Pstat Model
PSTATSECTION	LABEL	IFC5000-01520	Pstat Section
PSTATSERIALNO	LABEL	01520	Pstat Serial Number
CTRLMODE	IQUANT	0	Control Mode
ELECTROMETER	IQUANT	1	RE=0 or CS=1
IESTAB	IQUANT	0	I/E Stability
CASPEED	IQUANT	4	Control Amp Speed
CONVENTION	IQUANT	1	Current Convention
ICHRANGE	IQUANT	2	Ich Range
ICHRANGEMODE	TOGGLE	T	Ich Auto Range
ICHOFFSETENABLE	TOGGLE	F	Ich Offset Enable
ICHOFFSET	QUANT	0	Ich Offset (V)
ICHFILTER	IQUANT	1	Ich Filter
VCHRANGE	IQUANT	2	Vch Range
VCHRANGEMODE	TOGGLE	T	Vch Auto Range
VCHOFFSETENABLE	TOGGLE	F	Vch Offset Enable
VCHOFFSET	QUANT	0	Vch Offset (V)
VCHFILTER	IQUANT	1	Vch Filter
IERANGELOWERLIMIT	IQUANT	9	I/E Range Lower Limit
IERANGEMODE	TOGGLE	F	I/E AutoRange
IERANGE	IQUANT	10	I/E Range
ACHSELECT	IQUANT	1	Ach Select
ACHRANGE	IQUANT	2	Ach Range
ACHOFFSETENABLE	TOGGLE	F	Ach Offset Enable
ACHOFFSET	QUANT	0	Ach Offset (V)
ACHFILTER	IQUANT	1	Ach Filter
CABLEID	IQUANT	14	Cable ID
DCCALDATE	LABEL	20-10-2016	DC Calibration Date
ACCALDATE	LABEL	12/3/2015	AC Calibration Date
FRAMEWORKVERSION	QUANT	7.01	Framework Version
INSTRUMENTVERSION	LABEL	4.00	Instrument Version
CURVE	TABLE	53
	Pt	T	Vf	Im	Vu	Pwr	Sig	Ach	Temp	IERange	Over
	#	s	V	A	V	W	V	V	deg C	#	bits
	0	0.013333	6.54579E-001	5.99376E-003	0.00000E+000	3.92339E-003	3.59960E-001	-1.16745E+000	3.57640E+000	10	...........
	1	0.026667	6.63885E-001	5.99452E-003	0.00000E+000	3.97967E-003	3.59960E-001	-1.17433E+000	3.57640E+000	10	...........
	2	0.04	6.72420E-001	5.99057E-003	0.00000E+000	4.02818E-003	3.59960E-001	-1.17438E+000	3.57640E+000	10	...........
	3	0.053333	6.80518E-001	5.99591E-003	0.00000E+000	4.08033E-003	3.59960E-001	-1.16706E+000	3.57640E+000	10	...........
	4	0.066667	6.88294E-001	5.99675E-003	0.00000E+000	4.12753E-003	3.59960E-001	-1.17411E+000	3.57640E+000	10	...........
	5	0.08	6.95893E-001	5.99169E-003	0.00000E+000	4.16958E-003	3.59960E-001	-1.17406E+000	3.57640E+000	10	...........
	6	0.093333	7.03319E-001	5.99495E-003	0.00000E+000	4.21636E-003	3.59960E-001	-1.16667E+000	3.57640E+000	10	...........
	7	0.106667	7.10633E-001	5.99524E-003	0.00000E+000	4.26042E-003	3.59960E-001	-1.17384E+000	3.57640E+000	10	...........
	8	0.12	7.17925E-001	5.99409E-003	0.00000E+000	4.30331E-003	3.59960E-001	-1.17375E+000	3.57640E+000	10	...........
	9	0.133333	7.25090E-001	5.99325E-003	0.00000E+000	4.34564E-003	3.59960E-001	-1.16679E+000	3.57640E+000	10	...........
	10	0.146667	7.32199E-001	5.99617E-003	0.00000E+000	4.39039E-003	3.59960E-001	-1.17391E+000	3.57640E+000	10	...........
	11	0.16	7.39250E-001	5.99398E-003	0.00000E+000	4.43105E-003	3.59960E-001	-1.17369E+000	3.57640E+000	10	...........
	12	0.173333	7.46276E-001	5.99185E-003	0.00000E+000	4.47158E-003	3.59960E-001	-1.16658E+000	3.57640E+000	10	...........
	13	0.186667	7.53270E-001	5.99482E-003	0.00000E+000	4.51572E-003	3.59960E-001	-1.17389E+000	3.57640E+000	10	...........
	14	0.2	7.60174E-001	5.99475E-003	0.00000E+000	4.55705E-003	3.59960E-001	-1.17346E+000	3.57640E+000	10	...........
	15	0.213333	7.67034E-001	5.99079E-003	0.00000E+000	4.59514E-003	3.59960E-001	-1.16654E+000	3.57640E+000	10	...........
	16	0.226667	7.73934E-001	5.99614E-003	0.00000E+000	4.64062E-003	3.59960E-001	-1.17371E+000	3.57640E+000	10	...........
	17	0.24	7.80758E-001	5.99126E-003	0.00000E+000	4.67772E-003	3.59960E-001	-1.17317E+000	3.57640E+000	10	...........
	18	0.253333	7.87563E-001	5.99043E-003	0.00000E+000	4.71784E-003	3.59960E-001	-1.16618E+000	3.57640E+000	10	...........
	19	0.266667	7.94348E-001	5.98861E-003	0.00000E+000	4.75704E-003	3.59960E-001	-1.17399E+000	3.57640E+000	10	...........
	20	0.28	8.01097E-001	5.99460E-003	0.00000E+000	4.80226E-003	3.59960E-001	-1.17341E+000	3.57640E+000	10	...........
	21	0.293333	8.07765E-001	5.99074E-003	0.00000E+000	4.83911E-003	3.59960E-001	-1.16640E+000	3.57640E+000	10	...........
	22	0.306667	8.14428E-001	5.99225E-003	0.00000E+000	4.88025E-003	3.59960E-001	-1.17375E+000	3.57640E+000	10	...........
	23	0.32	8.21114E-001	5.99610E-003	0.00000E+000	4.92348E-003	3.59960E-001	-1.17330E+000	3.57640E+000	10	...........
	24	0.333333	8.27755E-001	5.99322E-003	0.00000E+000	4.96092E-003	3.59960E-001	-1.16644E+000	3.57640E+000	10	...........
	25	0.346667	8.34355E-001	5.99199E-003	0.00000E+000	4.99945E-003	3.59960E-001	-1.17390E+000	3.57647E+000	10	...........
	26	0.36	8.40926E-001	5.99264E-003	0.00000E+000	5.03937E-003	3.59960E-001	-1.17307E+000	3.57660E+000	10	...........
	27	0.373333	8.47538E-001	5.99178E-003	0.00000E+000	5.07826E-003	3.59960E-001	-1.16619E+000	3.57660E+000	10	...........
	28	0.386667	8.54073E-001	5.99952E-003	0.00000E+000	5.12402E-003	3.59960E-001	-1.17349E+000	3.57660E+000	10	...........
	29	0.4	8.60606E-001	5.99673E-003	0.00000E+000	5.16083E-003	3.59960E-001	-1.17279E+000	3.57660E+000	10	...........
	30	0.413333	8.67060E-001	5.99740E-003	0.00000E+000	5.20010E-003	3.59960E-001	-1.16598E+000	3.57660E+000	10	...........
	31	0.426667	8.73532E-001	5.99357E-003	0.00000E+000	5.23558E-003	3.59960E-001	-1.17345E+000	3.57660E+000	10	...........
	32	0.44	8.79971E-001	5.99464E-003	0.00000E+000	5.27511E-003	3.59960E-001	-1.17229E+000	3.57660E+000	10	...........
	33	0.453333	8.86368E-001	5.99647E-003	0.00000E+000	5.31508E-003	3.59960E-001	-1.16592E+000	3.57660E+000	10	...........
	34	0.466667	8.92704E-001	5.99158E-003	0.00000E+000	5.34871E-003	3.59960E-001	-1.17388E+000	3.57660E+000	10	...........
	35	0.48	8.99077E-001	5.99300E-003	0.00000E+000	5.38816E-003	3.59960E-001	-1.17259E+000	3.57660E+000	10	...........
	36	0.493333	9.05343E-001	5.99883E-003	0.00000E+000	5.43100E-003	3.59960E-001	-1.16568E+000	3.57660E+000	10	...........
	37	0.506667	9.11615E-001	5.99500E-003	0.00000E+000	5.46513E-003	3.59960E-001	-1.17341E+000	3.57660E+000	10	...........
	38	0.52	9.17785E-001	5.99171E-003	0.00000E+000	5.49910E-003	3.59960E-001	-1.17228E+000	3.57660E+000	10	...........
	39	0.533333	9.24016E-001	5.99418E-003	0.00000E+000	5.53872E-003	3.59960E-001	-1.16571E+000	3.57660E+000	10	...........
	40	0.546667	9.30114E-001	5.99250E-003	0.00000E+000	5.57371E-003	3.59960E-001	-1.17355E+000	3.57660E+000	10	...........
	41	0.56	9.36143E-001	5.98848E-003	0.00000E+000	5.60607E-003	3.59960E-001	-1.17191E+000	3.57660E+000	10	...........
	42	0.573333	9.42156E-001	5.99423E-003	0.00000E+000	5.64750E-003	3.59960E-001	-1.16537E+000	3.57660E+000	10	...........
	43	0.586667	9.48204E-001	5.99357E-003	0.00000E+000	5.68313E-003	3.59960E-001	-1.17354E+000	3.57660E+000	10	...........
	44	0.6	9.54146E-001	5.98726E-003	0.00000E+000	5.71272E-003	3.59960E-001	-1.17207E+000	3.57660E+000	10	...........
	45	0.613333	9.60024E-001	5.99643E-003	0.00000E+000	5.75672E-003	3.59960E-001	-1.16581E+000	3.57660E+000	10	...........
	46	0.626667	9.65808E-001	5.99292E-003	0.00000E+000	5.78800E-003	3.59960E-001	-1.17351E+000	3.57660E+000	10	...........
	47	0.64	9.71592E-001	5.99198E-003	0.00000E+000	5.82176E-003	3.59960E-001	-1.17203E+000	3.57660E+000	10	...........
	48	0.653333	9.77374E-001	5.99166E-003	0.00000E+000	5.85610E-003	3.59960E-001	-1.16561E+000	3.57660E+000	10	...........
	49	0.666667	9.83049E-001	5.99141E-003	0.00000E+000	5.88985E-003	3.59960E-001	-1.17382E+000	3.57660E+000	10	...........
	50	0.68	9.88709E-001	5.99520E-003	0.00000E+000	5.92750E-003	3.59960E-001	-1.17185E+000	3.57660E+000	10	...........
	51	0.693333	9.94287E-001	5.99106E-003	0.00000E+000	5.95683E-003	3.59960E-001	-1.16542E+000	3.57660E+000	10	...........
	52	0.701667	9.98782E-001	5.99608E-003	0.00000E+000	5.98877E-003	3.59960E-001	-1.17897E+000	3.57660E+000	10	...........
STARTTIMEOFFSET	QUANT	1488.076	Start Time Offset (s)