File: Data/CV_CRGO300517_1/PWRCCD_CRGO300517_1/CHARGE_DISCHARGE/CHARGE_#637.DTA
EXPLAIN
TAG	PWR800_CHARGE
TITLE	LABEL	PWR Cyclic Charge Discharge (Cell) - Charge Step	Test &Identifier
DATE	LABEL	22-6-2017	Date
TIME	LABEL	16:01:10	Time
NOTES	NOTES	3	&Notes...
	supercap test cell
	0.6mg
	6M KOH
PSTAT	PSTAT	IFC5000-01520	Potentiostat
CAPACITY	QUANT	1.00000E-003	Capacity (A-hr)
CELLTYPE	SELECTOR	1	&Cell Type
WORKINGCONNECTION	SELECTOR	0	&Working Lead
MAXCHARGETIME	VARIABLEANDUNITS	1.00000E+002	s	1.00000E+002	second(s)	Max &Charge Time
CHARGECURRENT	QUANT	6.00000E-003	&Charge Current (A)
VOLTAGEFINISH	TWOPARAM	F	1.00000E-003	3.60000E+003	&Voltage Finish	 I (A) < 	Max Time(s)
SAMPLETIME	QUANT	1.00000E-002	Sa&mple Period (s)
CHARGESTOPAT1	MULTIPARAM	4	1.00000E+000	Charge Stop At &1	Voltage > Limit	V
CHARGESTOPAT2	MULTIPARAM	0	0.00000E+000	Charge Stop At &2	None	N/A
AESBHCSELECTOR	TOGGLE	F	Save Both Half Cells
IRCOMP	TOGGLE	F	IR &Measure
EOC	QUANT	0	Open Circuit (V)
SEQUENCER	TOGGLE	TRUE	Run as Sequence
PSTATMODEL	IQUANT	53	Pstat Model
PSTATSECTION	LABEL	IFC5000-01520	Pstat Section
PSTATSERIALNO	LABEL	01520	Pstat Serial Number
CTRLMODE	IQUANT	0	Control Mode
ELECTROMETER	IQUANT	1	RE=0 or CS=1
IESTAB	IQUANT	0	I/E Stability
CASPEED	IQUANT	4	Control Amp Speed
CONVENTION	IQUANT	1	Current Convention
ICHRANGE	IQUANT	2	Ich Range
ICHRANGEMODE	TOGGLE	T	Ich Auto Range
ICHOFFSETENABLE	TOGGLE	F	Ich Offset Enable
ICHOFFSET	QUANT	0	Ich Offset (V)
ICHFILTER	IQUANT	1	Ich Filter
VCHRANGE	IQUANT	2	Vch Range
VCHRANGEMODE	TOGGLE	T	Vch Auto Range
VCHOFFSETENABLE	TOGGLE	F	Vch Offset Enable
VCHOFFSET	QUANT	0	Vch Offset (V)
VCHFILTER	IQUANT	1	Vch Filter
IERANGELOWERLIMIT	IQUANT	9	I/E Range Lower Limit
IERANGEMODE	TOGGLE	F	I/E AutoRange
IERANGE	IQUANT	10	I/E Range
ACHSELECT	IQUANT	1	Ach Select
ACHRANGE	IQUANT	2	Ach Range
ACHOFFSETENABLE	TOGGLE	F	Ach Offset Enable
ACHOFFSET	QUANT	0	Ach Offset (V)
ACHFILTER	IQUANT	1	Ach Filter
CABLEID	IQUANT	14	Cable ID
DCCALDATE	LABEL	20-10-2016	DC Calibration Date
ACCALDATE	LABEL	12/3/2015	AC Calibration Date
FRAMEWORKVERSION	QUANT	7.01	Framework Version
INSTRUMENTVERSION	LABEL	4.00	Instrument Version
CURVE	TABLE	57
	Pt	T	Vf	Im	Vu	Pwr	Sig	Ach	Temp	IERange	Over
	#	s	V	A	V	W	V	V	deg C	#	bits
	0	0.013333	6.39696E-001	5.99101E-003	0.00000E+000	3.83242E-003	3.59960E-001	-1.14790E+000	3.57760E+000	10	...........
	1	0.026667	6.48735E-001	5.98882E-003	0.00000E+000	3.88516E-003	3.59960E-001	-1.15357E+000	3.57760E+000	10	...........
	2	0.04	6.57051E-001	5.99870E-003	0.00000E+000	3.94145E-003	3.59960E-001	-1.15613E+000	3.57760E+000	10	...........
	3	0.053333	6.64924E-001	5.99447E-003	0.00000E+000	3.98587E-003	3.59960E-001	-1.14781E+000	3.57760E+000	10	...........
	4	0.066667	6.72557E-001	5.99272E-003	0.00000E+000	4.03044E-003	3.59960E-001	-1.15373E+000	3.57760E+000	10	...........
	5	0.08	6.79948E-001	5.99350E-003	0.00000E+000	4.07527E-003	3.59960E-001	-1.15606E+000	3.57760E+000	10	...........
	6	0.093333	6.87182E-001	5.99375E-003	0.00000E+000	4.11880E-003	3.59960E-001	-1.14772E+000	3.57760E+000	10	...........
	7	0.106667	6.94338E-001	5.99127E-003	0.00000E+000	4.15997E-003	3.59960E-001	-1.15328E+000	3.57760E+000	10	...........
	8	0.12	7.01402E-001	5.99035E-003	0.00000E+000	4.20165E-003	3.59960E-001	-1.15569E+000	3.57760E+000	10	...........
	9	0.133333	7.08370E-001	5.98994E-003	0.00000E+000	4.24310E-003	3.59960E-001	-1.14744E+000	3.57760E+000	10	...........
	10	0.146667	7.15221E-001	5.99752E-003	0.00000E+000	4.28955E-003	3.59960E-001	-1.15313E+000	3.57760E+000	10	...........
	11	0.16	7.22100E-001	5.99136E-003	0.00000E+000	4.32636E-003	3.59960E-001	-1.15581E+000	3.57760E+000	10	...........
	12	0.173333	7.28924E-001	5.99807E-003	0.00000E+000	4.37213E-003	3.59960E-001	-1.14735E+000	3.57760E+000	10	...........
	13	0.186667	7.35698E-001	5.99226E-003	0.00000E+000	4.40849E-003	3.59960E-001	-1.15299E+000	3.57760E+000	10	...........
	14	0.2	7.42436E-001	5.99287E-003	0.00000E+000	4.44933E-003	3.59960E-001	-1.15566E+000	3.57760E+000	10	...........
	15	0.213333	7.49131E-001	5.99285E-003	0.00000E+000	4.48943E-003	3.59960E-001	-1.14738E+000	3.57760E+000	10	...........
	16	0.226667	7.55821E-001	5.98919E-003	0.00000E+000	4.52676E-003	3.59960E-001	-1.15313E+000	3.57760E+000	10	...........
	17	0.24	7.62486E-001	5.99768E-003	0.00000E+000	4.57315E-003	3.59960E-001	-1.15561E+000	3.57760E+000	10	...........
	18	0.253333	7.69134E-001	5.99135E-003	0.00000E+000	4.60815E-003	3.59960E-001	-1.14740E+000	3.57760E+000	10	...........
	19	0.266667	7.75781E-001	5.99269E-003	0.00000E+000	4.64901E-003	3.59960E-001	-1.15313E+000	3.57760E+000	10	...........
	20	0.28	7.82392E-001	5.99924E-003	0.00000E+000	4.69376E-003	3.59960E-001	-1.15546E+000	3.57760E+000	10	...........
	21	0.293333	7.89007E-001	5.99271E-003	0.00000E+000	4.72829E-003	3.59960E-001	-1.14718E+000	3.57760E+000	10	...........
	22	0.306667	7.95592E-001	5.98890E-003	0.00000E+000	4.76472E-003	3.59960E-001	-1.15291E+000	3.57760E+000	10	...........
	23	0.32	8.02138E-001	5.99544E-003	0.00000E+000	4.80917E-003	3.59960E-001	-1.15536E+000	3.57760E+000	10	...........
	24	0.333333	8.08659E-001	5.99560E-003	0.00000E+000	4.84840E-003	3.59960E-001	-1.14730E+000	3.57760E+000	10	...........
	25	0.346667	8.15133E-001	5.99234E-003	0.00000E+000	4.88456E-003	3.59960E-001	-1.15310E+000	3.57760E+000	10	...........
	26	0.36	8.21623E-001	5.99579E-003	0.00000E+000	4.92628E-003	3.59960E-001	-1.15554E+000	3.57760E+000	10	...........
	27	0.373333	8.28087E-001	5.98983E-003	0.00000E+000	4.96010E-003	3.59960E-001	-1.14709E+000	3.57760E+000	10	...........
	28	0.386667	8.34488E-001	5.98939E-003	0.00000E+000	4.99807E-003	3.59960E-001	-1.15297E+000	3.57760E+000	10	...........
	29	0.4	8.40946E-001	5.99556E-003	0.00000E+000	5.04195E-003	3.59960E-001	-1.15559E+000	3.57760E+000	10	...........
	30	0.413333	8.47395E-001	5.99694E-003	0.00000E+000	5.08178E-003	3.59960E-001	-1.14693E+000	3.57760E+000	10	...........
	31	0.426667	8.53726E-001	5.99370E-003	0.00000E+000	5.11698E-003	3.59960E-001	-1.15267E+000	3.57760E+000	10	...........
	32	0.44	8.60101E-001	5.99579E-003	0.00000E+000	5.15699E-003	3.59960E-001	-1.15497E+000	3.57760E+000	10	...........
	33	0.453333	8.66428E-001	5.98859E-003	0.00000E+000	5.18868E-003	3.59960E-001	-1.14677E+000	3.57760E+000	10	...........
	34	0.466667	8.72776E-001	5.99560E-003	0.00000E+000	5.23281E-003	3.59960E-001	-1.15258E+000	3.57760E+000	10	...........
	35	0.48	8.79034E-001	5.99038E-003	0.00000E+000	5.26575E-003	3.59960E-001	-1.15508E+000	3.57693E+000	10	...........
	36	0.493333	8.85290E-001	5.99551E-003	0.00000E+000	5.30777E-003	3.59960E-001	-1.14675E+000	3.57670E+000	10	...........
	37	0.506667	8.91526E-001	5.99925E-003	0.00000E+000	5.34849E-003	3.59960E-001	-1.15237E+000	3.57670E+000	10	...........
	38	0.52	8.97730E-001	5.99696E-003	0.00000E+000	5.38365E-003	3.59960E-001	-1.15493E+000	3.57670E+000	10	...........
	39	0.533333	9.03912E-001	5.99154E-003	0.00000E+000	5.41582E-003	3.59960E-001	-1.14671E+000	3.57670E+000	10	...........
	40	0.546667	9.10072E-001	5.99117E-003	0.00000E+000	5.45240E-003	3.59960E-001	-1.15255E+000	3.57670E+000	10	...........
	41	0.56	9.16187E-001	5.99155E-003	0.00000E+000	5.48938E-003	3.59960E-001	-1.15509E+000	3.57670E+000	10	...........
	42	0.573333	9.22305E-001	5.99355E-003	0.00000E+000	5.52788E-003	3.59960E-001	-1.14645E+000	3.57670E+000	10	...........
	43	0.586667	9.28381E-001	5.99093E-003	0.00000E+000	5.56187E-003	3.59960E-001	-1.15230E+000	3.57670E+000	10	...........
	44	0.6	9.34346E-001	5.99356E-003	0.00000E+000	5.60006E-003	3.59960E-001	-1.15490E+000	3.57670E+000	10	...........
	45	0.613333	9.40286E-001	5.99552E-003	0.00000E+000	5.63750E-003	3.59960E-001	-1.14671E+000	3.57670E+000	10	...........
	46	0.626667	9.46192E-001	5.99191E-003	0.00000E+000	5.66950E-003	3.59960E-001	-1.15240E+000	3.57670E+000	10	...........
	47	0.64	9.52109E-001	5.99421E-003	0.00000E+000	5.70714E-003	3.59960E-001	-1.15494E+000	3.57670E+000	10	...........
	48	0.653333	9.57938E-001	5.99110E-003	0.00000E+000	5.73911E-003	3.59960E-001	-1.14691E+000	3.57670E+000	10	...........
	49	0.666667	9.63706E-001	5.99646E-003	0.00000E+000	5.77882E-003	3.59960E-001	-1.15269E+000	3.57670E+000	10	...........
	50	0.68	9.69434E-001	5.99442E-003	0.00000E+000	5.81119E-003	3.59960E-001	-1.15520E+000	3.57670E+000	10	...........
	51	0.693333	9.75214E-001	5.99279E-003	0.00000E+000	5.84425E-003	3.59960E-001	-1.14685E+000	3.57670E+000	10	...........
	52	0.706667	9.80864E-001	5.99332E-003	0.00000E+000	5.87864E-003	3.59960E-001	-1.15249E+000	3.57670E+000	10	...........
	53	0.72	9.86470E-001	5.99269E-003	0.00000E+000	5.91161E-003	3.59960E-001	-1.15505E+000	3.57670E+000	10	...........
	54	0.733333	9.92022E-001	5.99208E-003	0.00000E+000	5.94428E-003	3.59960E-001	-1.14693E+000	3.57670E+000	10	...........
	55	0.746667	9.97553E-001	5.99417E-003	0.00000E+000	5.97950E-003	3.59960E-001	-1.15251E+000	3.57670E+000	10	...........
	56	0.748333	1.00070E+000	5.99880E-003	0.00000E+000	6.00302E-003	3.59960E-001	-1.13474E+000	3.57670E+000	10	...........
STARTTIMEOFFSET	QUANT	1066.165	Start Time Offset (s)