File: Data/CV_CRGO300517_1/PWRCCD_CRGO300517_1/CHARGE_DISCHARGE/CHARGE_#762.DTA
EXPLAIN
TAG	PWR800_CHARGE
TITLE	LABEL	PWR Cyclic Charge Discharge (Cell) - Charge Step	Test &Identifier
DATE	LABEL	22-6-2017	Date
TIME	LABEL	16:05:52	Time
NOTES	NOTES	3	&Notes...
	supercap test cell
	0.6mg
	6M KOH
PSTAT	PSTAT	IFC5000-01520	Potentiostat
CAPACITY	QUANT	1.00000E-003	Capacity (A-hr)
CELLTYPE	SELECTOR	1	&Cell Type
WORKINGCONNECTION	SELECTOR	0	&Working Lead
MAXCHARGETIME	VARIABLEANDUNITS	1.00000E+002	s	1.00000E+002	second(s)	Max &Charge Time
CHARGECURRENT	QUANT	6.00000E-003	&Charge Current (A)
VOLTAGEFINISH	TWOPARAM	F	1.00000E-003	3.60000E+003	&Voltage Finish	 I (A) < 	Max Time(s)
SAMPLETIME	QUANT	1.00000E-002	Sa&mple Period (s)
CHARGESTOPAT1	MULTIPARAM	4	1.00000E+000	Charge Stop At &1	Voltage > Limit	V
CHARGESTOPAT2	MULTIPARAM	0	0.00000E+000	Charge Stop At &2	None	N/A
AESBHCSELECTOR	TOGGLE	F	Save Both Half Cells
IRCOMP	TOGGLE	F	IR &Measure
EOC	QUANT	0	Open Circuit (V)
SEQUENCER	TOGGLE	TRUE	Run as Sequence
PSTATMODEL	IQUANT	53	Pstat Model
PSTATSECTION	LABEL	IFC5000-01520	Pstat Section
PSTATSERIALNO	LABEL	01520	Pstat Serial Number
CTRLMODE	IQUANT	0	Control Mode
ELECTROMETER	IQUANT	1	RE=0 or CS=1
IESTAB	IQUANT	0	I/E Stability
CASPEED	IQUANT	4	Control Amp Speed
CONVENTION	IQUANT	1	Current Convention
ICHRANGE	IQUANT	2	Ich Range
ICHRANGEMODE	TOGGLE	T	Ich Auto Range
ICHOFFSETENABLE	TOGGLE	F	Ich Offset Enable
ICHOFFSET	QUANT	0	Ich Offset (V)
ICHFILTER	IQUANT	1	Ich Filter
VCHRANGE	IQUANT	2	Vch Range
VCHRANGEMODE	TOGGLE	T	Vch Auto Range
VCHOFFSETENABLE	TOGGLE	F	Vch Offset Enable
VCHOFFSET	QUANT	0	Vch Offset (V)
VCHFILTER	IQUANT	1	Vch Filter
IERANGELOWERLIMIT	IQUANT	9	I/E Range Lower Limit
IERANGEMODE	TOGGLE	F	I/E AutoRange
IERANGE	IQUANT	10	I/E Range
ACHSELECT	IQUANT	1	Ach Select
ACHRANGE	IQUANT	2	Ach Range
ACHOFFSETENABLE	TOGGLE	F	Ach Offset Enable
ACHOFFSET	QUANT	0	Ach Offset (V)
ACHFILTER	IQUANT	1	Ach Filter
CABLEID	IQUANT	14	Cable ID
DCCALDATE	LABEL	20-10-2016	DC Calibration Date
ACCALDATE	LABEL	12/3/2015	AC Calibration Date
FRAMEWORKVERSION	QUANT	7.01	Framework Version
INSTRUMENTVERSION	LABEL	4.00	Instrument Version
CURVE	TABLE	55
	Pt	T	Vf	Im	Vu	Pwr	Sig	Ach	Temp	IERange	Over
	#	s	V	A	V	W	V	V	deg C	#	bits
	0	0.013333	6.47109E-001	5.99204E-003	0.00000E+000	3.87750E-003	3.59960E-001	-1.16074E+000	3.57780E+000	10	...........
	1	0.026667	6.56229E-001	5.99254E-003	0.00000E+000	3.93248E-003	3.59960E-001	-1.16965E+000	3.57780E+000	10	...........
	2	0.04	6.64634E-001	5.99259E-003	0.00000E+000	3.98288E-003	3.59960E-001	-1.16641E+000	3.57780E+000	10	...........
	3	0.053333	6.72648E-001	5.99365E-003	0.00000E+000	4.03161E-003	3.59960E-001	-1.16055E+000	3.57780E+000	10	...........
	4	0.066667	6.80331E-001	5.99305E-003	0.00000E+000	4.07726E-003	3.59960E-001	-1.16917E+000	3.57780E+000	10	...........
	5	0.08	6.87824E-001	5.99325E-003	0.00000E+000	4.12230E-003	3.59960E-001	-1.16647E+000	3.57780E+000	10	...........
	6	0.093333	6.95163E-001	5.99228E-003	0.00000E+000	4.16561E-003	3.59960E-001	-1.16065E+000	3.57780E+000	10	...........
	7	0.106667	7.02416E-001	5.99394E-003	0.00000E+000	4.21024E-003	3.59960E-001	-1.16934E+000	3.57780E+000	10	...........
	8	0.12	7.09542E-001	5.99518E-003	0.00000E+000	4.25383E-003	3.59960E-001	-1.16618E+000	3.57780E+000	10	...........
	9	0.133333	7.16650E-001	5.99264E-003	0.00000E+000	4.29463E-003	3.59960E-001	-1.16029E+000	3.57780E+000	10	...........
	10	0.146667	7.23667E-001	5.99335E-003	0.00000E+000	4.33719E-003	3.59960E-001	-1.16914E+000	3.57780E+000	10	...........
	11	0.16	7.30634E-001	5.99343E-003	0.00000E+000	4.37900E-003	3.59960E-001	-1.16606E+000	3.57780E+000	10	...........
	12	0.173333	7.37551E-001	5.99583E-003	0.00000E+000	4.42223E-003	3.59960E-001	-1.16048E+000	3.57780E+000	10	...........
	13	0.186667	7.44468E-001	5.99793E-003	0.00000E+000	4.46527E-003	3.59960E-001	-1.16884E+000	3.57780E+000	10	...........
	14	0.2	7.51257E-001	5.99535E-003	0.00000E+000	4.50405E-003	3.59960E-001	-1.16544E+000	3.57780E+000	10	...........
	15	0.213333	7.58076E-001	5.99020E-003	0.00000E+000	4.54103E-003	3.59960E-001	-1.15977E+000	3.57780E+000	10	...........
	16	0.226667	7.64818E-001	5.99600E-003	0.00000E+000	4.58585E-003	3.59960E-001	-1.16876E+000	3.57780E+000	10	...........
	17	0.24	7.71558E-001	5.99583E-003	0.00000E+000	4.62613E-003	3.59960E-001	-1.16552E+000	3.57780E+000	10	...........
	18	0.253333	7.78288E-001	5.99924E-003	0.00000E+000	4.66913E-003	3.59960E-001	-1.15955E+000	3.57780E+000	10	...........
	19	0.266667	7.84982E-001	5.99272E-003	0.00000E+000	4.70418E-003	3.59960E-001	-1.16843E+000	3.57780E+000	10	...........
	20	0.28	7.91668E-001	5.98888E-003	0.00000E+000	4.74120E-003	3.59960E-001	-1.16532E+000	3.57780E+000	10	...........
	21	0.293333	7.98342E-001	5.99455E-003	0.00000E+000	4.78570E-003	3.59960E-001	-1.15975E+000	3.57780E+000	10	...........
	22	0.306667	8.04974E-001	5.99838E-003	0.00000E+000	4.82854E-003	3.59960E-001	-1.16869E+000	3.57780E+000	10	...........
	23	0.32	8.11564E-001	5.99363E-003	0.00000E+000	4.86422E-003	3.59960E-001	-1.16508E+000	3.57780E+000	10	...........
	24	0.333333	8.18152E-001	5.99503E-003	0.00000E+000	4.90485E-003	3.59960E-001	-1.15940E+000	3.57780E+000	10	...........
	25	0.346667	8.24729E-001	5.99528E-003	0.00000E+000	4.94448E-003	3.59960E-001	-1.16816E+000	3.57780E+000	10	...........
	26	0.36	8.31259E-001	5.99086E-003	0.00000E+000	4.97996E-003	3.59960E-001	-1.16501E+000	3.57780E+000	10	...........
	27	0.373333	8.37769E-001	5.99173E-003	0.00000E+000	5.01968E-003	3.59960E-001	-1.15954E+000	3.57780E+000	10	...........
	28	0.386667	8.44290E-001	5.99565E-003	0.00000E+000	5.06207E-003	3.59960E-001	-1.16838E+000	3.57780E+000	10	...........
	29	0.4	8.50764E-001	5.99739E-003	0.00000E+000	5.10236E-003	3.59960E-001	-1.16505E+000	3.57780E+000	10	...........
	30	0.413333	8.57175E-001	5.98986E-003	0.00000E+000	5.13436E-003	3.59960E-001	-1.15934E+000	3.57780E+000	10	...........
	31	0.426667	8.63577E-001	5.99489E-003	0.00000E+000	5.17705E-003	3.59960E-001	-1.16851E+000	3.57780E+000	10	...........
	32	0.44	8.70021E-001	5.99731E-003	0.00000E+000	5.21778E-003	3.59960E-001	-1.16515E+000	3.57780E+000	10	...........
	33	0.453333	8.76388E-001	5.99400E-003	0.00000E+000	5.25307E-003	3.59960E-001	-1.15926E+000	3.57780E+000	10	...........
	34	0.466667	8.82742E-001	5.99385E-003	0.00000E+000	5.29103E-003	3.59960E-001	-1.16826E+000	3.57780E+000	10	...........
	35	0.48	8.89032E-001	5.99045E-003	0.00000E+000	5.32570E-003	3.59960E-001	-1.16473E+000	3.57780E+000	10	...........
	36	0.493333	8.95362E-001	5.99315E-003	0.00000E+000	5.36603E-003	3.59960E-001	-1.15938E+000	3.57780E+000	10	...........
	37	0.506667	9.01569E-001	5.99463E-003	0.00000E+000	5.40457E-003	3.59960E-001	-1.16836E+000	3.57780E+000	10	...........
	38	0.52	9.07786E-001	5.99466E-003	0.00000E+000	5.44187E-003	3.59960E-001	-1.16428E+000	3.57780E+000	10	...........
	39	0.533333	9.13983E-001	5.99206E-003	0.00000E+000	5.47664E-003	3.59960E-001	-1.15866E+000	3.57780E+000	10	...........
	40	0.546667	9.20117E-001	5.99089E-003	0.00000E+000	5.51232E-003	3.59960E-001	-1.16789E+000	3.57780E+000	10	...........
	41	0.56	9.26245E-001	5.99193E-003	0.00000E+000	5.55000E-003	3.59960E-001	-1.16446E+000	3.57780E+000	10	...........
	42	0.573333	9.32303E-001	5.99604E-003	0.00000E+000	5.59013E-003	3.59960E-001	-1.15890E+000	3.57780E+000	10	...........
	43	0.586667	9.38337E-001	5.99446E-003	0.00000E+000	5.62483E-003	3.59960E-001	-1.16807E+000	3.57780E+000	10	...........
	44	0.6	9.44328E-001	5.99385E-003	0.00000E+000	5.66017E-003	3.59960E-001	-1.16402E+000	3.57780E+000	10	...........
	45	0.613333	9.50288E-001	5.99405E-003	0.00000E+000	5.69608E-003	3.59960E-001	-1.15878E+000	3.57780E+000	10	...........
	46	0.626667	9.56141E-001	5.99268E-003	0.00000E+000	5.72985E-003	3.59960E-001	-1.16828E+000	3.57780E+000	10	...........
	47	0.64	9.61957E-001	5.98952E-003	0.00000E+000	5.76166E-003	3.59960E-001	-1.16427E+000	3.57780E+000	10	...........
	48	0.653333	9.67758E-001	5.98766E-003	0.00000E+000	5.79461E-003	3.59960E-001	-1.15880E+000	3.57780E+000	10	...........
	49	0.666667	9.73524E-001	5.99220E-003	0.00000E+000	5.83355E-003	3.59960E-001	-1.16790E+000	3.57780E+000	10	...........
	50	0.68	9.79264E-001	5.99602E-003	0.00000E+000	5.87169E-003	3.59960E-001	-1.16395E+000	3.57780E+000	10	...........
	51	0.693333	9.84867E-001	5.99423E-003	0.00000E+000	5.90352E-003	3.59960E-001	-1.15873E+000	3.57780E+000	10	...........
	52	0.706667	9.90504E-001	5.99696E-003	0.00000E+000	5.94002E-003	3.59960E-001	-1.16822E+000	3.57780E+000	10	...........
	53	0.72	9.96079E-001	5.99786E-003	0.00000E+000	5.97434E-003	3.59960E-001	-1.16411E+000	3.57780E+000	10	...........
	54	0.725	9.99871E-001	6.00119E-003	0.00000E+000	6.00041E-003	3.59960E-001	-1.16732E+000	3.57780E+000	10	...........
STARTTIMEOFFSET	QUANT	1249.436	Start Time Offset (s)