File: Data/CV_CRGO300517_1/PWRCCD_CRGO300517_1/CHARGE_DISCHARGE/CHARGE_#974.DTA
EXPLAIN
TAG	PWR800_CHARGE
TITLE	LABEL	PWR Cyclic Charge Discharge (Cell) - Charge Step	Test &Identifier
DATE	LABEL	22-6-2017	Date
TIME	LABEL	16:13:41	Time
NOTES	NOTES	3	&Notes...
	supercap test cell
	0.6mg
	6M KOH
PSTAT	PSTAT	IFC5000-01520	Potentiostat
CAPACITY	QUANT	1.00000E-003	Capacity (A-hr)
CELLTYPE	SELECTOR	1	&Cell Type
WORKINGCONNECTION	SELECTOR	0	&Working Lead
MAXCHARGETIME	VARIABLEANDUNITS	1.00000E+002	s	1.00000E+002	second(s)	Max &Charge Time
CHARGECURRENT	QUANT	6.00000E-003	&Charge Current (A)
VOLTAGEFINISH	TWOPARAM	F	1.00000E-003	3.60000E+003	&Voltage Finish	 I (A) < 	Max Time(s)
SAMPLETIME	QUANT	1.00000E-002	Sa&mple Period (s)
CHARGESTOPAT1	MULTIPARAM	4	1.00000E+000	Charge Stop At &1	Voltage > Limit	V
CHARGESTOPAT2	MULTIPARAM	0	0.00000E+000	Charge Stop At &2	None	N/A
AESBHCSELECTOR	TOGGLE	F	Save Both Half Cells
IRCOMP	TOGGLE	F	IR &Measure
EOC	QUANT	0	Open Circuit (V)
SEQUENCER	TOGGLE	TRUE	Run as Sequence
PSTATMODEL	IQUANT	53	Pstat Model
PSTATSECTION	LABEL	IFC5000-01520	Pstat Section
PSTATSERIALNO	LABEL	01520	Pstat Serial Number
CTRLMODE	IQUANT	0	Control Mode
ELECTROMETER	IQUANT	1	RE=0 or CS=1
IESTAB	IQUANT	0	I/E Stability
CASPEED	IQUANT	4	Control Amp Speed
CONVENTION	IQUANT	1	Current Convention
ICHRANGE	IQUANT	2	Ich Range
ICHRANGEMODE	TOGGLE	T	Ich Auto Range
ICHOFFSETENABLE	TOGGLE	F	Ich Offset Enable
ICHOFFSET	QUANT	0	Ich Offset (V)
ICHFILTER	IQUANT	1	Ich Filter
VCHRANGE	IQUANT	2	Vch Range
VCHRANGEMODE	TOGGLE	T	Vch Auto Range
VCHOFFSETENABLE	TOGGLE	F	Vch Offset Enable
VCHOFFSET	QUANT	0	Vch Offset (V)
VCHFILTER	IQUANT	1	Vch Filter
IERANGELOWERLIMIT	IQUANT	9	I/E Range Lower Limit
IERANGEMODE	TOGGLE	F	I/E AutoRange
IERANGE	IQUANT	10	I/E Range
ACHSELECT	IQUANT	1	Ach Select
ACHRANGE	IQUANT	2	Ach Range
ACHOFFSETENABLE	TOGGLE	F	Ach Offset Enable
ACHOFFSET	QUANT	0	Ach Offset (V)
ACHFILTER	IQUANT	1	Ach Filter
CABLEID	IQUANT	14	Cable ID
DCCALDATE	LABEL	20-10-2016	DC Calibration Date
ACCALDATE	LABEL	12/3/2015	AC Calibration Date
FRAMEWORKVERSION	QUANT	7.01	Framework Version
INSTRUMENTVERSION	LABEL	4.00	Instrument Version
CURVE	TABLE	53
	Pt	T	Vf	Im	Vu	Pwr	Sig	Ach	Temp	IERange	Over
	#	s	V	A	V	W	V	V	deg C	#	bits
	0	0.013333	6.56528E-001	5.99283E-003	0.00000E+000	3.93446E-003	3.59960E-001	-1.17757E+000	3.57640E+000	10	...........
	1	0.026667	6.65854E-001	5.99227E-003	0.00000E+000	3.98998E-003	3.59960E-001	-1.18027E+000	3.57640E+000	10	...........
	2	0.04	6.74434E-001	5.99695E-003	0.00000E+000	4.04455E-003	3.59960E-001	-1.17164E+000	3.57640E+000	10	...........
	3	0.053333	6.82528E-001	5.99231E-003	0.00000E+000	4.08992E-003	3.59960E-001	-1.17717E+000	3.57640E+000	10	...........
	4	0.066667	6.90391E-001	5.99355E-003	0.00000E+000	4.13789E-003	3.59960E-001	-1.18021E+000	3.57640E+000	10	...........
	5	0.08	6.98072E-001	5.99460E-003	0.00000E+000	4.18467E-003	3.59960E-001	-1.17195E+000	3.57640E+000	10	...........
	6	0.093333	7.05588E-001	5.99142E-003	0.00000E+000	4.22747E-003	3.59960E-001	-1.17736E+000	3.57640E+000	10	...........
	7	0.106667	7.12945E-001	5.99493E-003	0.00000E+000	4.27406E-003	3.59960E-001	-1.17994E+000	3.57640E+000	10	...........
	8	0.12	7.20267E-001	5.99028E-003	0.00000E+000	4.31460E-003	3.59960E-001	-1.17155E+000	3.57640E+000	10	...........
	9	0.133333	7.27474E-001	5.99317E-003	0.00000E+000	4.35987E-003	3.59960E-001	-1.17724E+000	3.57640E+000	10	...........
	10	0.146667	7.34600E-001	5.99198E-003	0.00000E+000	4.40170E-003	3.59960E-001	-1.18002E+000	3.57640E+000	10	...........
	11	0.16	7.41627E-001	5.99285E-003	0.00000E+000	4.44446E-003	3.59960E-001	-1.17165E+000	3.57640E+000	10	...........
	12	0.173333	7.48665E-001	5.99573E-003	0.00000E+000	4.48879E-003	3.59960E-001	-1.17713E+000	3.57640E+000	10	...........
	13	0.186667	7.55675E-001	5.99227E-003	0.00000E+000	4.52821E-003	3.59960E-001	-1.17990E+000	3.57640E+000	10	...........
	14	0.2	7.62630E-001	5.98728E-003	0.00000E+000	4.56608E-003	3.59960E-001	-1.17168E+000	3.57640E+000	10	...........
	15	0.213333	7.69518E-001	5.99046E-003	0.00000E+000	4.60977E-003	3.59960E-001	-1.17730E+000	3.57640E+000	10	...........
	16	0.226667	7.76415E-001	5.99150E-003	0.00000E+000	4.65189E-003	3.59960E-001	-1.18003E+000	3.57640E+000	10	...........
	17	0.24	7.83249E-001	5.99141E-003	0.00000E+000	4.69277E-003	3.59960E-001	-1.17163E+000	3.57640E+000	10	...........
	18	0.253333	7.90059E-001	5.99317E-003	0.00000E+000	4.73495E-003	3.59960E-001	-1.17714E+000	3.57640E+000	10	...........
	19	0.266667	7.96888E-001	5.99362E-003	0.00000E+000	4.77625E-003	3.59960E-001	-1.17975E+000	3.57640E+000	10	...........
	20	0.28	8.03651E-001	5.99776E-003	0.00000E+000	4.82010E-003	3.59960E-001	-1.17135E+000	3.57640E+000	10	...........
	21	0.293333	8.10358E-001	5.99853E-003	0.00000E+000	4.86095E-003	3.59960E-001	-1.17691E+000	3.57640E+000	10	...........
	22	0.306667	8.17075E-001	5.99091E-003	0.00000E+000	4.89503E-003	3.59960E-001	-1.17937E+000	3.57640E+000	10	...........
	23	0.32	8.23790E-001	5.99751E-003	0.00000E+000	4.94069E-003	3.59960E-001	-1.17117E+000	3.57640E+000	10	...........
	24	0.333333	8.30454E-001	5.99321E-003	0.00000E+000	4.97708E-003	3.59960E-001	-1.17692E+000	3.57640E+000	10	...........
	25	0.346667	8.37077E-001	5.99636E-003	0.00000E+000	5.01942E-003	3.59960E-001	-1.17964E+000	3.57640E+000	10	...........
	26	0.36	8.43657E-001	5.99279E-003	0.00000E+000	5.05586E-003	3.59960E-001	-1.17107E+000	3.57678E+000	10	...........
	27	0.373333	8.50321E-001	5.98667E-003	0.00000E+000	5.09059E-003	3.59960E-001	-1.17675E+000	3.57690E+000	10	...........
	28	0.386667	8.56877E-001	5.99743E-003	0.00000E+000	5.13906E-003	3.59960E-001	-1.17949E+000	3.57690E+000	10	...........
	29	0.4	8.63396E-001	5.99108E-003	0.00000E+000	5.17267E-003	3.59960E-001	-1.17109E+000	3.57690E+000	10	...........
	30	0.413333	8.69898E-001	5.99710E-003	0.00000E+000	5.21687E-003	3.59960E-001	-1.17685E+000	3.57690E+000	10	...........
	31	0.426667	8.76336E-001	5.99169E-003	0.00000E+000	5.25074E-003	3.59960E-001	-1.17958E+000	3.57690E+000	10	...........
	32	0.44	8.82752E-001	5.98954E-003	0.00000E+000	5.28727E-003	3.59960E-001	-1.17110E+000	3.57690E+000	10	...........
	33	0.453333	8.89184E-001	5.99673E-003	0.00000E+000	5.33220E-003	3.59960E-001	-1.17672E+000	3.57690E+000	10	...........
	34	0.466667	8.95518E-001	5.99666E-003	0.00000E+000	5.37012E-003	3.59960E-001	-1.17942E+000	3.57690E+000	10	...........
	35	0.48	9.01868E-001	5.99451E-003	0.00000E+000	5.40626E-003	3.59960E-001	-1.17118E+000	3.57690E+000	10	...........
	36	0.493333	9.08160E-001	5.99123E-003	0.00000E+000	5.44099E-003	3.59960E-001	-1.17699E+000	3.57690E+000	10	...........
	37	0.506667	9.14350E-001	5.99647E-003	0.00000E+000	5.48287E-003	3.59960E-001	-1.17967E+000	3.57690E+000	10	...........
	38	0.52	9.20611E-001	5.99915E-003	0.00000E+000	5.52288E-003	3.59960E-001	-1.17140E+000	3.57690E+000	10	...........
	39	0.533333	9.26772E-001	5.99426E-003	0.00000E+000	5.55531E-003	3.59960E-001	-1.17703E+000	3.57690E+000	10	...........
	40	0.546667	9.32880E-001	5.99366E-003	0.00000E+000	5.59136E-003	3.59960E-001	-1.17959E+000	3.57690E+000	10	...........
	41	0.56	9.38935E-001	5.99407E-003	0.00000E+000	5.62805E-003	3.59960E-001	-1.17143E+000	3.57690E+000	10	...........
	42	0.573333	9.45007E-001	5.99083E-003	0.00000E+000	5.66138E-003	3.59960E-001	-1.17695E+000	3.57690E+000	10	...........
	43	0.586667	9.50982E-001	5.99206E-003	0.00000E+000	5.69834E-003	3.59960E-001	-1.17955E+000	3.57690E+000	10	...........
	44	0.6	9.56938E-001	5.99235E-003	0.00000E+000	5.73431E-003	3.59960E-001	-1.17093E+000	3.57690E+000	10	...........
	45	0.613333	9.62776E-001	5.99008E-003	0.00000E+000	5.76711E-003	3.59960E-001	-1.17669E+000	3.57690E+000	10	...........
	46	0.626667	9.68595E-001	5.99271E-003	0.00000E+000	5.80451E-003	3.59960E-001	-1.17927E+000	3.57690E+000	10	...........
	47	0.64	9.74406E-001	5.99442E-003	0.00000E+000	5.84099E-003	3.59960E-001	-1.17098E+000	3.57690E+000	10	...........
	48	0.653333	9.80065E-001	5.99173E-003	0.00000E+000	5.87228E-003	3.59960E-001	-1.17678E+000	3.57690E+000	10	...........
	49	0.666667	9.85752E-001	5.99648E-003	0.00000E+000	5.91105E-003	3.59960E-001	-1.17920E+000	3.57690E+000	10	...........
	50	0.68	9.91357E-001	5.99064E-003	0.00000E+000	5.93886E-003	3.59960E-001	-1.17125E+000	3.57690E+000	10	...........
	51	0.693333	9.96914E-001	5.99244E-003	0.00000E+000	5.97394E-003	3.59960E-001	-1.17691E+000	3.57690E+000	10	...........
	52	0.695	1.00005E+000	6.00138E-003	0.00000E+000	6.00171E-003	3.59960E-001	-1.15975E+000	3.57690E+000	10	...........
STARTTIMEOFFSET	QUANT	1549.318	Start Time Offset (s)