File: Data/CV_CRGO300517_1/PWRCCD_CRGO300517_1/CHARGE_DISCHARGE/CHARGE_#656.DTA
EXPLAIN
TAG	PWR800_CHARGE
TITLE	LABEL	PWR Cyclic Charge Discharge (Cell) - Charge Step	Test &Identifier
DATE	LABEL	22-6-2017	Date
TIME	LABEL	16:01:54	Time
NOTES	NOTES	3	&Notes...
	supercap test cell
	0.6mg
	6M KOH
PSTAT	PSTAT	IFC5000-01520	Potentiostat
CAPACITY	QUANT	1.00000E-003	Capacity (A-hr)
CELLTYPE	SELECTOR	1	&Cell Type
WORKINGCONNECTION	SELECTOR	0	&Working Lead
MAXCHARGETIME	VARIABLEANDUNITS	1.00000E+002	s	1.00000E+002	second(s)	Max &Charge Time
CHARGECURRENT	QUANT	6.00000E-003	&Charge Current (A)
VOLTAGEFINISH	TWOPARAM	F	1.00000E-003	3.60000E+003	&Voltage Finish	 I (A) < 	Max Time(s)
SAMPLETIME	QUANT	1.00000E-002	Sa&mple Period (s)
CHARGESTOPAT1	MULTIPARAM	4	1.00000E+000	Charge Stop At &1	Voltage > Limit	V
CHARGESTOPAT2	MULTIPARAM	0	0.00000E+000	Charge Stop At &2	None	N/A
AESBHCSELECTOR	TOGGLE	F	Save Both Half Cells
IRCOMP	TOGGLE	F	IR &Measure
EOC	QUANT	0	Open Circuit (V)
SEQUENCER	TOGGLE	TRUE	Run as Sequence
PSTATMODEL	IQUANT	53	Pstat Model
PSTATSECTION	LABEL	IFC5000-01520	Pstat Section
PSTATSERIALNO	LABEL	01520	Pstat Serial Number
CTRLMODE	IQUANT	0	Control Mode
ELECTROMETER	IQUANT	1	RE=0 or CS=1
IESTAB	IQUANT	0	I/E Stability
CASPEED	IQUANT	4	Control Amp Speed
CONVENTION	IQUANT	1	Current Convention
ICHRANGE	IQUANT	2	Ich Range
ICHRANGEMODE	TOGGLE	T	Ich Auto Range
ICHOFFSETENABLE	TOGGLE	F	Ich Offset Enable
ICHOFFSET	QUANT	0	Ich Offset (V)
ICHFILTER	IQUANT	1	Ich Filter
VCHRANGE	IQUANT	2	Vch Range
VCHRANGEMODE	TOGGLE	T	Vch Auto Range
VCHOFFSETENABLE	TOGGLE	F	Vch Offset Enable
VCHOFFSET	QUANT	0	Vch Offset (V)
VCHFILTER	IQUANT	1	Vch Filter
IERANGELOWERLIMIT	IQUANT	9	I/E Range Lower Limit
IERANGEMODE	TOGGLE	F	I/E AutoRange
IERANGE	IQUANT	10	I/E Range
ACHSELECT	IQUANT	1	Ach Select
ACHRANGE	IQUANT	2	Ach Range
ACHOFFSETENABLE	TOGGLE	F	Ach Offset Enable
ACHOFFSET	QUANT	0	Ach Offset (V)
ACHFILTER	IQUANT	1	Ach Filter
CABLEID	IQUANT	14	Cable ID
DCCALDATE	LABEL	20-10-2016	DC Calibration Date
ACCALDATE	LABEL	12/3/2015	AC Calibration Date
FRAMEWORKVERSION	QUANT	7.01	Framework Version
INSTRUMENTVERSION	LABEL	4.00	Instrument Version
CURVE	TABLE	56
	Pt	T	Vf	Im	Vu	Pwr	Sig	Ach	Temp	IERange	Over
	#	s	V	A	V	W	V	V	deg C	#	bits
	0	0.013333	6.40912E-001	5.99423E-003	0.00000E+000	3.84178E-003	3.59960E-001	-1.15441E+000	3.57730E+000	10	...........
	1	0.026667	6.49972E-001	5.99393E-003	0.00000E+000	3.89589E-003	3.59960E-001	-1.16058E+000	3.57774E+000	10	...........
	2	0.04	6.58298E-001	5.99179E-003	0.00000E+000	3.94438E-003	3.59960E-001	-1.15089E+000	3.57780E+000	10	...........
	3	0.053333	6.66212E-001	5.99773E-003	0.00000E+000	3.99576E-003	3.59960E-001	-1.15452E+000	3.57780E+000	10	...........
	4	0.066667	6.73802E-001	5.99166E-003	0.00000E+000	4.03720E-003	3.59960E-001	-1.16057E+000	3.57780E+000	10	...........
	5	0.08	6.81219E-001	5.99238E-003	0.00000E+000	4.08212E-003	3.59960E-001	-1.15078E+000	3.57780E+000	10	...........
	6	0.093333	6.88498E-001	5.99390E-003	0.00000E+000	4.12678E-003	3.59960E-001	-1.15429E+000	3.57780E+000	10	...........
	7	0.106667	6.95656E-001	5.99444E-003	0.00000E+000	4.17007E-003	3.59960E-001	-1.16048E+000	3.57780E+000	10	...........
	8	0.12	7.02670E-001	5.99432E-003	0.00000E+000	4.21203E-003	3.59960E-001	-1.15063E+000	3.57780E+000	10	...........
	9	0.133333	7.09615E-001	5.99836E-003	0.00000E+000	4.25653E-003	3.59960E-001	-1.15452E+000	3.57780E+000	10	...........
	10	0.146667	7.16557E-001	5.99100E-003	0.00000E+000	4.29289E-003	3.59960E-001	-1.16049E+000	3.57780E+000	10	...........
	11	0.16	7.23493E-001	6.00092E-003	0.00000E+000	4.34162E-003	3.59960E-001	-1.15053E+000	3.57780E+000	10	...........
	12	0.173333	7.30282E-001	5.99464E-003	0.00000E+000	4.37777E-003	3.59960E-001	-1.15426E+000	3.57780E+000	10	...........
	13	0.186667	7.37051E-001	5.99661E-003	0.00000E+000	4.41980E-003	3.59960E-001	-1.16052E+000	3.57780E+000	10	...........
	14	0.2	7.43854E-001	5.99302E-003	0.00000E+000	4.45793E-003	3.59960E-001	-1.15077E+000	3.57780E+000	10	...........
	15	0.213333	7.50562E-001	5.99171E-003	0.00000E+000	4.49714E-003	3.59960E-001	-1.15442E+000	3.57780E+000	10	...........
	16	0.226667	7.57268E-001	5.99271E-003	0.00000E+000	4.53809E-003	3.59960E-001	-1.16039E+000	3.57780E+000	10	...........
	17	0.24	7.63919E-001	5.99085E-003	0.00000E+000	4.57653E-003	3.59960E-001	-1.15077E+000	3.57780E+000	10	...........
	18	0.253333	7.70593E-001	5.98702E-003	0.00000E+000	4.61356E-003	3.59960E-001	-1.15450E+000	3.57780E+000	10	...........
	19	0.266667	7.77237E-001	5.98940E-003	0.00000E+000	4.65518E-003	3.59960E-001	-1.16000E+000	3.57780E+000	10	...........
	20	0.28	7.83845E-001	5.99387E-003	0.00000E+000	4.69827E-003	3.59960E-001	-1.15044E+000	3.57780E+000	10	...........
	21	0.293333	7.90440E-001	5.99063E-003	0.00000E+000	4.73524E-003	3.59960E-001	-1.15398E+000	3.57780E+000	10	...........
	22	0.306667	7.97050E-001	5.99201E-003	0.00000E+000	4.77593E-003	3.59960E-001	-1.15974E+000	3.57780E+000	10	...........
	23	0.32	8.03609E-001	5.99885E-003	0.00000E+000	4.82073E-003	3.59960E-001	-1.15020E+000	3.57780E+000	10	...........
	24	0.333333	8.10166E-001	5.99495E-003	0.00000E+000	4.85691E-003	3.59960E-001	-1.15412E+000	3.57780E+000	10	...........
	25	0.346667	8.16649E-001	5.99251E-003	0.00000E+000	4.89377E-003	3.59960E-001	-1.15974E+000	3.57780E+000	10	...........
	26	0.36	8.23166E-001	5.99576E-003	0.00000E+000	4.93551E-003	3.59960E-001	-1.15013E+000	3.57780E+000	10	...........
	27	0.373333	8.29607E-001	5.99298E-003	0.00000E+000	4.97182E-003	3.59960E-001	-1.15408E+000	3.57780E+000	10	...........
	28	0.386667	8.36096E-001	5.99467E-003	0.00000E+000	5.01212E-003	3.59960E-001	-1.15974E+000	3.57780E+000	10	...........
	29	0.4	8.42502E-001	5.99859E-003	0.00000E+000	5.05382E-003	3.59960E-001	-1.15024E+000	3.57780E+000	10	...........
	30	0.413333	8.48929E-001	5.99265E-003	0.00000E+000	5.08734E-003	3.59960E-001	-1.15434E+000	3.57780E+000	10	...........
	31	0.426667	8.55330E-001	5.99692E-003	0.00000E+000	5.12935E-003	3.59960E-001	-1.15975E+000	3.57780E+000	10	...........
	32	0.44	8.61642E-001	5.99399E-003	0.00000E+000	5.16467E-003	3.59960E-001	-1.15024E+000	3.57780E+000	10	...........
	33	0.453333	8.67971E-001	5.99677E-003	0.00000E+000	5.20503E-003	3.59960E-001	-1.15438E+000	3.57780E+000	10	...........
	34	0.466667	8.74321E-001	5.99567E-003	0.00000E+000	5.24214E-003	3.59960E-001	-1.15975E+000	3.57780E+000	10	...........
	35	0.48	8.80630E-001	5.99148E-003	0.00000E+000	5.27627E-003	3.59960E-001	-1.15033E+000	3.57780E+000	10	...........
	36	0.493333	8.86895E-001	5.99300E-003	0.00000E+000	5.31516E-003	3.59960E-001	-1.15448E+000	3.57780E+000	10	...........
	37	0.506667	8.93151E-001	5.99249E-003	0.00000E+000	5.35219E-003	3.59960E-001	-1.15966E+000	3.57780E+000	10	...........
	38	0.52	8.99346E-001	5.99243E-003	0.00000E+000	5.38926E-003	3.59960E-001	-1.15022E+000	3.57780E+000	10	...........
	39	0.533333	9.05498E-001	5.99009E-003	0.00000E+000	5.42401E-003	3.59960E-001	-1.15462E+000	3.57780E+000	10	...........
	40	0.546667	9.11695E-001	5.99586E-003	0.00000E+000	5.46639E-003	3.59960E-001	-1.15963E+000	3.57780E+000	10	...........
	41	0.56	9.17786E-001	5.99585E-003	0.00000E+000	5.50290E-003	3.59960E-001	-1.15035E+000	3.57780E+000	10	...........
	42	0.573333	9.23943E-001	5.99321E-003	0.00000E+000	5.53738E-003	3.59960E-001	-1.15449E+000	3.57780E+000	10	...........
	43	0.586667	9.29968E-001	5.99128E-003	0.00000E+000	5.57170E-003	3.59960E-001	-1.15931E+000	3.57780E+000	10	...........
	44	0.6	9.35934E-001	5.99550E-003	0.00000E+000	5.61139E-003	3.59960E-001	-1.15007E+000	3.57780E+000	10	...........
	45	0.613333	9.41885E-001	5.99604E-003	0.00000E+000	5.64758E-003	3.59960E-001	-1.15449E+000	3.57780E+000	10	...........
	46	0.626667	9.47808E-001	5.99855E-003	0.00000E+000	5.68547E-003	3.59960E-001	-1.15922E+000	3.57780E+000	10	...........
	47	0.64	9.53667E-001	5.98913E-003	0.00000E+000	5.71163E-003	3.59960E-001	-1.14997E+000	3.57780E+000	10	...........
	48	0.653333	9.59525E-001	5.99629E-003	0.00000E+000	5.75360E-003	3.59960E-001	-1.15446E+000	3.57780E+000	10	...........
	49	0.666667	9.65296E-001	5.99601E-003	0.00000E+000	5.78793E-003	3.59960E-001	-1.15932E+000	3.57780E+000	10	...........
	50	0.68	9.71023E-001	5.99346E-003	0.00000E+000	5.81979E-003	3.59960E-001	-1.15004E+000	3.57780E+000	10	...........
	51	0.693333	9.76798E-001	5.99474E-003	0.00000E+000	5.85565E-003	3.59960E-001	-1.15460E+000	3.57780E+000	10	...........
	52	0.706667	9.82406E-001	5.99507E-003	0.00000E+000	5.88960E-003	3.59960E-001	-1.15913E+000	3.57780E+000	10	...........
	53	0.72	9.88031E-001	5.99330E-003	0.00000E+000	5.92157E-003	3.59960E-001	-1.15036E+000	3.57780E+000	10	...........
	54	0.733333	9.93577E-001	5.99185E-003	0.00000E+000	5.95336E-003	3.59960E-001	-1.15468E+000	3.57780E+000	10	...........
	55	0.743333	9.98402E-001	5.99461E-003	0.00000E+000	5.98503E-003	3.59960E-001	-1.15794E+000	3.57780E+000	10	...........
STARTTIMEOFFSET	QUANT	1094.375	Start Time Offset (s)