File: Data/CV_CRGO300517_1/PWRCCD_CRGO300517_1/CHARGE_DISCHARGE/CHARGE_#499.DTA
EXPLAIN
TAG	PWR800_CHARGE
TITLE	LABEL	PWR Cyclic Charge Discharge (Cell) - Charge Step	Test &Identifier
DATE	LABEL	22-6-2017	Date
TIME	LABEL	15:55:53	Time
NOTES	NOTES	3	&Notes...
	supercap test cell
	0.6mg
	6M KOH
PSTAT	PSTAT	IFC5000-01520	Potentiostat
CAPACITY	QUANT	1.00000E-003	Capacity (A-hr)
CELLTYPE	SELECTOR	1	&Cell Type
WORKINGCONNECTION	SELECTOR	0	&Working Lead
MAXCHARGETIME	VARIABLEANDUNITS	1.00000E+002	s	1.00000E+002	second(s)	Max &Charge Time
CHARGECURRENT	QUANT	6.00000E-003	&Charge Current (A)
VOLTAGEFINISH	TWOPARAM	F	1.00000E-003	3.60000E+003	&Voltage Finish	 I (A) < 	Max Time(s)
SAMPLETIME	QUANT	1.00000E-002	Sa&mple Period (s)
CHARGESTOPAT1	MULTIPARAM	4	1.00000E+000	Charge Stop At &1	Voltage > Limit	V
CHARGESTOPAT2	MULTIPARAM	0	0.00000E+000	Charge Stop At &2	None	N/A
AESBHCSELECTOR	TOGGLE	F	Save Both Half Cells
IRCOMP	TOGGLE	F	IR &Measure
EOC	QUANT	0	Open Circuit (V)
SEQUENCER	TOGGLE	TRUE	Run as Sequence
PSTATMODEL	IQUANT	53	Pstat Model
PSTATSECTION	LABEL	IFC5000-01520	Pstat Section
PSTATSERIALNO	LABEL	01520	Pstat Serial Number
CTRLMODE	IQUANT	0	Control Mode
ELECTROMETER	IQUANT	1	RE=0 or CS=1
IESTAB	IQUANT	0	I/E Stability
CASPEED	IQUANT	4	Control Amp Speed
CONVENTION	IQUANT	1	Current Convention
ICHRANGE	IQUANT	2	Ich Range
ICHRANGEMODE	TOGGLE	T	Ich Auto Range
ICHOFFSETENABLE	TOGGLE	F	Ich Offset Enable
ICHOFFSET	QUANT	0	Ich Offset (V)
ICHFILTER	IQUANT	1	Ich Filter
VCHRANGE	IQUANT	2	Vch Range
VCHRANGEMODE	TOGGLE	T	Vch Auto Range
VCHOFFSETENABLE	TOGGLE	F	Vch Offset Enable
VCHOFFSET	QUANT	0	Vch Offset (V)
VCHFILTER	IQUANT	1	Vch Filter
IERANGELOWERLIMIT	IQUANT	9	I/E Range Lower Limit
IERANGEMODE	TOGGLE	F	I/E AutoRange
IERANGE	IQUANT	10	I/E Range
ACHSELECT	IQUANT	1	Ach Select
ACHRANGE	IQUANT	2	Ach Range
ACHOFFSETENABLE	TOGGLE	F	Ach Offset Enable
ACHOFFSET	QUANT	0	Ach Offset (V)
ACHFILTER	IQUANT	1	Ach Filter
CABLEID	IQUANT	14	Cable ID
DCCALDATE	LABEL	20-10-2016	DC Calibration Date
ACCALDATE	LABEL	12/3/2015	AC Calibration Date
FRAMEWORKVERSION	QUANT	7.01	Framework Version
INSTRUMENTVERSION	LABEL	4.00	Instrument Version
CURVE	TABLE	58
	Pt	T	Vf	Im	Vu	Pwr	Sig	Ach	Temp	IERange	Over
	#	s	V	A	V	W	V	V	deg C	#	bits
	0	0.013333	6.32097E-001	5.99701E-003	0.00000E+000	3.79069E-003	3.59960E-001	-1.14305E+000	3.57670E+000	10	...........
	1	0.026667	6.41018E-001	5.99135E-003	0.00000E+000	3.84056E-003	3.59960E-001	-1.14078E+000	3.57670E+000	10	...........
	2	0.04	6.49167E-001	5.99512E-003	0.00000E+000	3.89183E-003	3.59960E-001	-1.13500E+000	3.57670E+000	10	...........
	3	0.053333	6.56952E-001	6.00117E-003	0.00000E+000	3.94248E-003	3.59960E-001	-1.14315E+000	3.57670E+000	10	...........
	4	0.066667	6.64427E-001	5.98940E-003	0.00000E+000	3.97952E-003	3.59960E-001	-1.14048E+000	3.57670E+000	10	...........
	5	0.08	6.71700E-001	5.99287E-003	0.00000E+000	4.02541E-003	3.59960E-001	-1.13471E+000	3.57670E+000	10	...........
	6	0.093333	6.78829E-001	5.99497E-003	0.00000E+000	4.06956E-003	3.59960E-001	-1.14271E+000	3.57670E+000	10	...........
	7	0.106667	6.85857E-001	5.99467E-003	0.00000E+000	4.11148E-003	3.59960E-001	-1.14020E+000	3.57670E+000	10	...........
	8	0.12	6.92808E-001	5.99455E-003	0.00000E+000	4.15307E-003	3.59960E-001	-1.13435E+000	3.57670E+000	10	...........
	9	0.133333	6.99640E-001	5.99663E-003	0.00000E+000	4.19548E-003	3.59960E-001	-1.14238E+000	3.57670E+000	10	...........
	10	0.146667	7.06415E-001	5.99550E-003	0.00000E+000	4.23531E-003	3.59960E-001	-1.13977E+000	3.57670E+000	10	...........
	11	0.16	7.13152E-001	5.99046E-003	0.00000E+000	4.27211E-003	3.59960E-001	-1.13415E+000	3.57670E+000	10	...........
	12	0.173333	7.19889E-001	5.99187E-003	0.00000E+000	4.31348E-003	3.59960E-001	-1.14231E+000	3.57670E+000	10	...........
	13	0.186667	7.26562E-001	5.99374E-003	0.00000E+000	4.35482E-003	3.59960E-001	-1.13952E+000	3.57670E+000	10	...........
	14	0.2	7.33168E-001	5.99834E-003	0.00000E+000	4.39779E-003	3.59960E-001	-1.13368E+000	3.57670E+000	10	...........
	15	0.213333	7.39790E-001	5.99350E-003	0.00000E+000	4.43393E-003	3.59960E-001	-1.14188E+000	3.57670E+000	10	...........
	16	0.226667	7.46394E-001	5.99397E-003	0.00000E+000	4.47386E-003	3.59960E-001	-1.13938E+000	3.57670E+000	10	...........
	17	0.24	7.52993E-001	5.99260E-003	0.00000E+000	4.51238E-003	3.59960E-001	-1.13359E+000	3.57670E+000	10	...........
	18	0.253333	7.59541E-001	5.99389E-003	0.00000E+000	4.55260E-003	3.59960E-001	-1.14158E+000	3.57670E+000	10	...........
	19	0.266667	7.66079E-001	5.99541E-003	0.00000E+000	4.59295E-003	3.59960E-001	-1.13914E+000	3.57670E+000	10	...........
	20	0.28	7.72609E-001	5.99210E-003	0.00000E+000	4.62955E-003	3.59960E-001	-1.13318E+000	3.57670E+000	10	...........
	21	0.293333	7.79082E-001	5.98866E-003	0.00000E+000	4.66566E-003	3.59960E-001	-1.14171E+000	3.57670E+000	10	...........
	22	0.306667	7.85561E-001	5.99645E-003	0.00000E+000	4.71058E-003	3.59960E-001	-1.13886E+000	3.57670E+000	10	...........
	23	0.32	7.91998E-001	5.99026E-003	0.00000E+000	4.74427E-003	3.59960E-001	-1.13317E+000	3.57670E+000	10	...........
	24	0.333333	7.98496E-001	5.99537E-003	0.00000E+000	4.78727E-003	3.59960E-001	-1.14119E+000	3.57670E+000	10	...........
	25	0.346667	8.04917E-001	5.99594E-003	0.00000E+000	4.82623E-003	3.59960E-001	-1.13860E+000	3.57670E+000	10	...........
	26	0.36	8.11307E-001	5.99746E-003	0.00000E+000	4.86578E-003	3.59960E-001	-1.13302E+000	3.57670E+000	10	...........
	27	0.373333	8.17732E-001	5.99602E-003	0.00000E+000	4.90314E-003	3.59960E-001	-1.14110E+000	3.57670E+000	10	...........
	28	0.386667	8.24074E-001	5.99510E-003	0.00000E+000	4.94040E-003	3.59960E-001	-1.13820E+000	3.57670E+000	10	...........
	29	0.4	8.30435E-001	5.99538E-003	0.00000E+000	4.97877E-003	3.59960E-001	-1.13261E+000	3.57670E+000	10	...........
	30	0.413333	8.36780E-001	6.00023E-003	0.00000E+000	5.02087E-003	3.59960E-001	-1.14055E+000	3.57670E+000	10	...........
	31	0.426667	8.43080E-001	5.99165E-003	0.00000E+000	5.05144E-003	3.59960E-001	-1.13763E+000	3.57670E+000	10	...........
	32	0.44	8.49392E-001	5.99380E-003	0.00000E+000	5.09109E-003	3.59960E-001	-1.13188E+000	3.57670E+000	10	...........
	33	0.453333	8.55706E-001	5.99262E-003	0.00000E+000	5.12792E-003	3.59960E-001	-1.13991E+000	3.57670E+000	10	...........
	34	0.466667	8.61970E-001	5.99695E-003	0.00000E+000	5.16920E-003	3.59960E-001	-1.13699E+000	3.57670E+000	10	...........
	35	0.48	8.68246E-001	5.99705E-003	0.00000E+000	5.20691E-003	3.59960E-001	-1.13130E+000	3.57670E+000	10	...........
	36	0.493333	8.74485E-001	5.99416E-003	0.00000E+000	5.24180E-003	3.59960E-001	-1.13984E+000	3.57670E+000	10	...........
	37	0.506667	8.80706E-001	5.99090E-003	0.00000E+000	5.27622E-003	3.59960E-001	-1.13699E+000	3.57670E+000	10	...........
	38	0.52	8.86916E-001	5.99536E-003	0.00000E+000	5.31738E-003	3.59960E-001	-1.13130E+000	3.57670E+000	10	...........
	39	0.533333	8.93034E-001	5.99086E-003	0.00000E+000	5.35004E-003	3.59960E-001	-1.13948E+000	3.57670E+000	10	...........
	40	0.546667	8.99164E-001	5.99043E-003	0.00000E+000	5.38638E-003	3.59960E-001	-1.13653E+000	3.57670E+000	10	...........
	41	0.56	9.05288E-001	5.99320E-003	0.00000E+000	5.42557E-003	3.59960E-001	-1.13113E+000	3.57670E+000	10	...........
	42	0.573333	9.11357E-001	5.98974E-003	0.00000E+000	5.45880E-003	3.59960E-001	-1.13953E+000	3.57670E+000	10	...........
	43	0.586667	9.17390E-001	5.99616E-003	0.00000E+000	5.50081E-003	3.59960E-001	-1.13667E+000	3.57670E+000	10	...........
	44	0.6	9.23491E-001	5.99344E-003	0.00000E+000	5.53488E-003	3.59960E-001	-1.13101E+000	3.57670E+000	10	...........
	45	0.613333	9.29438E-001	5.99163E-003	0.00000E+000	5.56885E-003	3.59960E-001	-1.13936E+000	3.57670E+000	10	...........
	46	0.626667	9.35355E-001	5.99397E-003	0.00000E+000	5.60649E-003	3.59960E-001	-1.13662E+000	3.57670E+000	10	...........
	47	0.64	9.41274E-001	5.99293E-003	0.00000E+000	5.64098E-003	3.59960E-001	-1.13125E+000	3.57670E+000	10	...........
	48	0.653333	9.47162E-001	5.99635E-003	0.00000E+000	5.67951E-003	3.59960E-001	-1.13961E+000	3.57670E+000	10	...........
	49	0.666667	9.52975E-001	5.99662E-003	0.00000E+000	5.71463E-003	3.59960E-001	-1.13664E+000	3.57670E+000	10	...........
	50	0.68	9.58764E-001	5.99825E-003	0.00000E+000	5.75090E-003	3.59960E-001	-1.13104E+000	3.57670E+000	10	...........
	51	0.693333	9.64495E-001	5.99594E-003	0.00000E+000	5.78305E-003	3.59960E-001	-1.13972E+000	3.57670E+000	10	...........
	52	0.706667	9.70174E-001	5.99428E-003	0.00000E+000	5.81550E-003	3.59960E-001	-1.13676E+000	3.57670E+000	10	...........
	53	0.72	9.75914E-001	5.99689E-003	0.00000E+000	5.85245E-003	3.59960E-001	-1.13094E+000	3.57670E+000	10	...........
	54	0.733333	9.81486E-001	5.99107E-003	0.00000E+000	5.88015E-003	3.59960E-001	-1.13882E+000	3.57670E+000	10	...........
	55	0.746667	9.87024E-001	5.99448E-003	0.00000E+000	5.91670E-003	3.59960E-001	-1.13603E+000	3.57670E+000	10	...........
	56	0.76	9.92554E-001	5.99359E-003	0.00000E+000	5.94896E-003	3.59960E-001	-1.13045E+000	3.57670E+000	10	...........
	57	0.773333	9.98037E-001	5.99529E-003	0.00000E+000	5.98352E-003	3.59960E-001	-1.13896E+000	3.57670E+000	10	...........
STARTTIMEOFFSET	QUANT	857.4886	Start Time Offset (s)