File: Data/CV_CRGO300517_1/PWRCCD_CRGO300517_1/CHARGE_DISCHARGE/CHARGE_#318.DTA
EXPLAIN
TAG	PWR800_CHARGE
TITLE	LABEL	PWR Cyclic Charge Discharge (Cell) - Charge Step	Test &Identifier
DATE	LABEL	22-6-2017	Date
TIME	LABEL	15:48:40	Time
NOTES	NOTES	3	&Notes...
	supercap test cell
	0.6mg
	6M KOH
PSTAT	PSTAT	IFC5000-01520	Potentiostat
CAPACITY	QUANT	1.00000E-003	Capacity (A-hr)
CELLTYPE	SELECTOR	1	&Cell Type
WORKINGCONNECTION	SELECTOR	0	&Working Lead
MAXCHARGETIME	VARIABLEANDUNITS	1.00000E+002	s	1.00000E+002	second(s)	Max &Charge Time
CHARGECURRENT	QUANT	6.00000E-003	&Charge Current (A)
VOLTAGEFINISH	TWOPARAM	F	1.00000E-003	3.60000E+003	&Voltage Finish	 I (A) < 	Max Time(s)
SAMPLETIME	QUANT	1.00000E-002	Sa&mple Period (s)
CHARGESTOPAT1	MULTIPARAM	4	1.00000E+000	Charge Stop At &1	Voltage > Limit	V
CHARGESTOPAT2	MULTIPARAM	0	0.00000E+000	Charge Stop At &2	None	N/A
AESBHCSELECTOR	TOGGLE	F	Save Both Half Cells
IRCOMP	TOGGLE	F	IR &Measure
EOC	QUANT	0	Open Circuit (V)
SEQUENCER	TOGGLE	TRUE	Run as Sequence
PSTATMODEL	IQUANT	53	Pstat Model
PSTATSECTION	LABEL	IFC5000-01520	Pstat Section
PSTATSERIALNO	LABEL	01520	Pstat Serial Number
CTRLMODE	IQUANT	0	Control Mode
ELECTROMETER	IQUANT	1	RE=0 or CS=1
IESTAB	IQUANT	0	I/E Stability
CASPEED	IQUANT	4	Control Amp Speed
CONVENTION	IQUANT	1	Current Convention
ICHRANGE	IQUANT	2	Ich Range
ICHRANGEMODE	TOGGLE	T	Ich Auto Range
ICHOFFSETENABLE	TOGGLE	F	Ich Offset Enable
ICHOFFSET	QUANT	0	Ich Offset (V)
ICHFILTER	IQUANT	1	Ich Filter
VCHRANGE	IQUANT	2	Vch Range
VCHRANGEMODE	TOGGLE	T	Vch Auto Range
VCHOFFSETENABLE	TOGGLE	F	Vch Offset Enable
VCHOFFSET	QUANT	0	Vch Offset (V)
VCHFILTER	IQUANT	1	Vch Filter
IERANGELOWERLIMIT	IQUANT	9	I/E Range Lower Limit
IERANGEMODE	TOGGLE	F	I/E AutoRange
IERANGE	IQUANT	10	I/E Range
ACHSELECT	IQUANT	1	Ach Select
ACHRANGE	IQUANT	2	Ach Range
ACHOFFSETENABLE	TOGGLE	F	Ach Offset Enable
ACHOFFSET	QUANT	0	Ach Offset (V)
ACHFILTER	IQUANT	1	Ach Filter
CABLEID	IQUANT	14	Cable ID
DCCALDATE	LABEL	20-10-2016	DC Calibration Date
ACCALDATE	LABEL	12/3/2015	AC Calibration Date
FRAMEWORKVERSION	QUANT	7.01	Framework Version
INSTRUMENTVERSION	LABEL	4.00	Instrument Version
CURVE	TABLE	62
	Pt	T	Vf	Im	Vu	Pwr	Sig	Ach	Temp	IERange	Over
	#	s	V	A	V	W	V	V	deg C	#	bits
	0	0.013333	6.17709E-001	5.99357E-003	0.00000E+000	3.70228E-003	3.59960E-001	-1.12084E+000	3.57680E+000	10	...........
	1	0.026667	6.26273E-001	5.99440E-003	0.00000E+000	3.75413E-003	3.59960E-001	-1.11353E+000	3.57680E+000	10	...........
	2	0.04	6.34221E-001	5.99638E-003	0.00000E+000	3.80303E-003	3.59960E-001	-1.11071E+000	3.57680E+000	10	...........
	3	0.053333	6.41788E-001	5.99282E-003	0.00000E+000	3.84612E-003	3.59960E-001	-1.12080E+000	3.57680E+000	10	...........
	4	0.066667	6.49002E-001	5.99479E-003	0.00000E+000	3.89063E-003	3.59960E-001	-1.11350E+000	3.57680E+000	10	...........
	5	0.08	6.56076E-001	5.99422E-003	0.00000E+000	3.93266E-003	3.59960E-001	-1.11036E+000	3.57680E+000	10	...........
	6	0.093333	6.62984E-001	5.99450E-003	0.00000E+000	3.97426E-003	3.59960E-001	-1.12091E+000	3.57680E+000	10	...........
	7	0.106667	6.69856E-001	5.99656E-003	0.00000E+000	4.01683E-003	3.59960E-001	-1.11377E+000	3.57680E+000	10	...........
	8	0.12	6.76607E-001	5.99633E-003	0.00000E+000	4.05716E-003	3.59960E-001	-1.11041E+000	3.57680E+000	10	...........
	9	0.133333	6.83281E-001	5.99288E-003	0.00000E+000	4.09482E-003	3.59960E-001	-1.12035E+000	3.57680E+000	10	...........
	10	0.146667	6.89853E-001	5.99359E-003	0.00000E+000	4.13470E-003	3.59960E-001	-1.11371E+000	3.57680E+000	10	...........
	11	0.16	6.96394E-001	5.98719E-003	0.00000E+000	4.16944E-003	3.59960E-001	-1.11051E+000	3.57680E+000	10	...........
	12	0.173333	7.02899E-001	5.99211E-003	0.00000E+000	4.21185E-003	3.59960E-001	-1.12040E+000	3.57680E+000	10	...........
	13	0.186667	7.09335E-001	5.99141E-003	0.00000E+000	4.24992E-003	3.59960E-001	-1.11380E+000	3.57680E+000	10	...........
	14	0.2	7.15783E-001	5.99499E-003	0.00000E+000	4.29111E-003	3.59960E-001	-1.11003E+000	3.57680E+000	10	...........
	15	0.213333	7.22219E-001	5.99664E-003	0.00000E+000	4.33089E-003	3.59960E-001	-1.11987E+000	3.57776E+000	10	...........
	16	0.226667	7.28611E-001	5.99293E-003	0.00000E+000	4.36651E-003	3.59960E-001	-1.11378E+000	3.57790E+000	10	...........
	17	0.24	7.34921E-001	5.99318E-003	0.00000E+000	4.40451E-003	3.59960E-001	-1.10947E+000	3.57790E+000	10	...........
	18	0.253333	7.41325E-001	5.99453E-003	0.00000E+000	4.44389E-003	3.59960E-001	-1.11891E+000	3.57790E+000	10	...........
	19	0.266667	7.47719E-001	5.99629E-003	0.00000E+000	4.48355E-003	3.59960E-001	-1.11285E+000	3.57790E+000	10	...........
	20	0.28	7.54017E-001	5.99613E-003	0.00000E+000	4.52118E-003	3.59960E-001	-1.10892E+000	3.57790E+000	10	...........
	21	0.293333	7.60353E-001	5.99185E-003	0.00000E+000	4.55592E-003	3.59960E-001	-1.11809E+000	3.57790E+000	10	...........
	22	0.306667	7.66616E-001	5.99815E-003	0.00000E+000	4.59828E-003	3.59960E-001	-1.11241E+000	3.57790E+000	10	...........
	23	0.32	7.72935E-001	5.99477E-003	0.00000E+000	4.63357E-003	3.59960E-001	-1.10757E+000	3.57790E+000	10	...........
	24	0.333333	7.79242E-001	5.99536E-003	0.00000E+000	4.67184E-003	3.59960E-001	-1.11613E+000	3.57790E+000	10	...........
	25	0.346667	7.85508E-001	5.99292E-003	0.00000E+000	4.70749E-003	3.59960E-001	-1.11084E+000	3.57790E+000	10	...........
	26	0.36	7.91766E-001	5.99178E-003	0.00000E+000	4.74409E-003	3.59960E-001	-1.10614E+000	3.57790E+000	10	...........
	27	0.373333	7.97998E-001	5.99434E-003	0.00000E+000	4.78347E-003	3.59960E-001	-1.11506E+000	3.57790E+000	10	...........
	28	0.386667	8.04215E-001	5.99190E-003	0.00000E+000	4.81878E-003	3.59960E-001	-1.11002E+000	3.57790E+000	10	...........
	29	0.4	8.10479E-001	5.99204E-003	0.00000E+000	4.85642E-003	3.59960E-001	-1.10533E+000	3.57790E+000	10	...........
	30	0.413333	8.16644E-001	5.99036E-003	0.00000E+000	4.89199E-003	3.59960E-001	-1.11482E+000	3.57790E+000	10	...........
	31	0.426667	8.22881E-001	5.99870E-003	0.00000E+000	4.93622E-003	3.59960E-001	-1.11075E+000	3.57790E+000	10	...........
	32	0.44	8.29058E-001	5.99190E-003	0.00000E+000	4.96764E-003	3.59960E-001	-1.10599E+000	3.57790E+000	10	...........
	33	0.453333	8.35222E-001	5.98956E-003	0.00000E+000	5.00261E-003	3.59960E-001	-1.11483E+000	3.57790E+000	10	...........
	34	0.466667	8.41415E-001	5.99484E-003	0.00000E+000	5.04415E-003	3.59960E-001	-1.11086E+000	3.57790E+000	10	...........
	35	0.48	8.47645E-001	5.99375E-003	0.00000E+000	5.08057E-003	3.59960E-001	-1.10606E+000	3.57790E+000	10	...........
	36	0.493333	8.53789E-001	5.99149E-003	0.00000E+000	5.11546E-003	3.59960E-001	-1.11519E+000	3.57790E+000	10	...........
	37	0.506667	8.59943E-001	5.99458E-003	0.00000E+000	5.15500E-003	3.59960E-001	-1.11156E+000	3.57790E+000	10	...........
	38	0.52	8.66027E-001	5.99795E-003	0.00000E+000	5.19439E-003	3.59960E-001	-1.10619E+000	3.57790E+000	10	...........
	39	0.533333	8.72162E-001	5.99764E-003	0.00000E+000	5.23091E-003	3.59960E-001	-1.11458E+000	3.57790E+000	10	...........
	40	0.546667	8.78219E-001	5.99740E-003	0.00000E+000	5.26703E-003	3.59960E-001	-1.11159E+000	3.57790E+000	10	...........
	41	0.56	8.84299E-001	5.99584E-003	0.00000E+000	5.30211E-003	3.59960E-001	-1.10624E+000	3.57790E+000	10	...........
	42	0.573333	8.90301E-001	5.99668E-003	0.00000E+000	5.33885E-003	3.59960E-001	-1.11456E+000	3.57790E+000	10	...........
	43	0.586667	8.96329E-001	5.99171E-003	0.00000E+000	5.37054E-003	3.59960E-001	-1.11140E+000	3.57790E+000	10	...........
	44	0.6	9.02343E-001	5.99297E-003	0.00000E+000	5.40771E-003	3.59960E-001	-1.10606E+000	3.57790E+000	10	...........
	45	0.613333	9.08326E-001	5.99667E-003	0.00000E+000	5.44693E-003	3.59960E-001	-1.11430E+000	3.57790E+000	10	...........
	46	0.626667	9.14282E-001	5.99269E-003	0.00000E+000	5.47901E-003	3.59960E-001	-1.11200E+000	3.57790E+000	10	...........
	47	0.64	9.20236E-001	5.99536E-003	0.00000E+000	5.51714E-003	3.59960E-001	-1.10624E+000	3.57790E+000	10	...........
	48	0.653333	9.26154E-001	5.99637E-003	0.00000E+000	5.55356E-003	3.59960E-001	-1.11409E+000	3.57790E+000	10	...........
	49	0.666667	9.32015E-001	5.99290E-003	0.00000E+000	5.58548E-003	3.59960E-001	-1.11179E+000	3.57790E+000	10	...........
	50	0.68	9.37843E-001	5.99199E-003	0.00000E+000	5.61955E-003	3.59960E-001	-1.10624E+000	3.57790E+000	10	...........
	51	0.693333	9.43634E-001	5.99285E-003	0.00000E+000	5.65506E-003	3.59960E-001	-1.11400E+000	3.57790E+000	10	...........
	52	0.706667	9.49459E-001	5.99265E-003	0.00000E+000	5.68978E-003	3.59960E-001	-1.11199E+000	3.57790E+000	10	...........
	53	0.72	9.55172E-001	5.99540E-003	0.00000E+000	5.72664E-003	3.59960E-001	-1.10582E+000	3.57790E+000	10	...........
	54	0.733333	9.60887E-001	5.99261E-003	0.00000E+000	5.75822E-003	3.59960E-001	-1.11353E+000	3.57790E+000	10	...........
	55	0.746667	9.66509E-001	5.99578E-003	0.00000E+000	5.79498E-003	3.59960E-001	-1.11198E+000	3.57790E+000	10	...........
	56	0.76	9.72176E-001	5.99225E-003	0.00000E+000	5.82552E-003	3.59960E-001	-1.10596E+000	3.57790E+000	10	...........
	57	0.773333	9.77757E-001	5.99645E-003	0.00000E+000	5.86307E-003	3.59960E-001	-1.11355E+000	3.57790E+000	10	...........
	58	0.786667	9.83247E-001	5.99716E-003	0.00000E+000	5.89669E-003	3.59960E-001	-1.11223E+000	3.57790E+000	10	...........
	59	0.8	9.88760E-001	5.99643E-003	0.00000E+000	5.92903E-003	3.59960E-001	-1.10573E+000	3.57790E+000	10	...........
	60	0.813333	9.94148E-001	5.99495E-003	0.00000E+000	5.95987E-003	3.59960E-001	-1.11327E+000	3.57790E+000	10	...........
	61	0.823333	9.98947E-001	5.99399E-003	0.00000E+000	5.98767E-003	3.59960E-001	-1.11006E+000	3.57790E+000	10	...........
STARTTIMEOFFSET	QUANT	570.6699	Start Time Offset (s)