File: Data/CV_CRGO300517_1/PWRCCD_CRGO300517_1/CHARGE_DISCHARGE/CHARGE_#724.DTA
EXPLAIN
TAG	PWR800_CHARGE
TITLE	LABEL	PWR Cyclic Charge Discharge (Cell) - Charge Step	Test &Identifier
DATE	LABEL	22-6-2017	Date
TIME	LABEL	16:04:27	Time
NOTES	NOTES	3	&Notes...
	supercap test cell
	0.6mg
	6M KOH
PSTAT	PSTAT	IFC5000-01520	Potentiostat
CAPACITY	QUANT	1.00000E-003	Capacity (A-hr)
CELLTYPE	SELECTOR	1	&Cell Type
WORKINGCONNECTION	SELECTOR	0	&Working Lead
MAXCHARGETIME	VARIABLEANDUNITS	1.00000E+002	s	1.00000E+002	second(s)	Max &Charge Time
CHARGECURRENT	QUANT	6.00000E-003	&Charge Current (A)
VOLTAGEFINISH	TWOPARAM	F	1.00000E-003	3.60000E+003	&Voltage Finish	 I (A) < 	Max Time(s)
SAMPLETIME	QUANT	1.00000E-002	Sa&mple Period (s)
CHARGESTOPAT1	MULTIPARAM	4	1.00000E+000	Charge Stop At &1	Voltage > Limit	V
CHARGESTOPAT2	MULTIPARAM	0	0.00000E+000	Charge Stop At &2	None	N/A
AESBHCSELECTOR	TOGGLE	F	Save Both Half Cells
IRCOMP	TOGGLE	F	IR &Measure
EOC	QUANT	0	Open Circuit (V)
SEQUENCER	TOGGLE	TRUE	Run as Sequence
PSTATMODEL	IQUANT	53	Pstat Model
PSTATSECTION	LABEL	IFC5000-01520	Pstat Section
PSTATSERIALNO	LABEL	01520	Pstat Serial Number
CTRLMODE	IQUANT	0	Control Mode
ELECTROMETER	IQUANT	1	RE=0 or CS=1
IESTAB	IQUANT	0	I/E Stability
CASPEED	IQUANT	4	Control Amp Speed
CONVENTION	IQUANT	1	Current Convention
ICHRANGE	IQUANT	2	Ich Range
ICHRANGEMODE	TOGGLE	T	Ich Auto Range
ICHOFFSETENABLE	TOGGLE	F	Ich Offset Enable
ICHOFFSET	QUANT	0	Ich Offset (V)
ICHFILTER	IQUANT	1	Ich Filter
VCHRANGE	IQUANT	2	Vch Range
VCHRANGEMODE	TOGGLE	T	Vch Auto Range
VCHOFFSETENABLE	TOGGLE	F	Vch Offset Enable
VCHOFFSET	QUANT	0	Vch Offset (V)
VCHFILTER	IQUANT	1	Vch Filter
IERANGELOWERLIMIT	IQUANT	9	I/E Range Lower Limit
IERANGEMODE	TOGGLE	F	I/E AutoRange
IERANGE	IQUANT	10	I/E Range
ACHSELECT	IQUANT	1	Ach Select
ACHRANGE	IQUANT	2	Ach Range
ACHOFFSETENABLE	TOGGLE	F	Ach Offset Enable
ACHOFFSET	QUANT	0	Ach Offset (V)
ACHFILTER	IQUANT	1	Ach Filter
CABLEID	IQUANT	14	Cable ID
DCCALDATE	LABEL	20-10-2016	DC Calibration Date
ACCALDATE	LABEL	12/3/2015	AC Calibration Date
FRAMEWORKVERSION	QUANT	7.01	Framework Version
INSTRUMENTVERSION	LABEL	4.00	Instrument Version
CURVE	TABLE	55
	Pt	T	Vf	Im	Vu	Pwr	Sig	Ach	Temp	IERange	Over
	#	s	V	A	V	W	V	V	deg C	#	bits
	0	0.013333	6.44854E-001	5.99245E-003	0.00000E+000	3.86425E-003	3.59960E-001	-1.15626E+000	3.57780E+000	10	...........
	1	0.026667	6.53960E-001	5.99439E-003	0.00000E+000	3.92009E-003	3.59960E-001	-1.15739E+000	3.57780E+000	10	...........
	2	0.04	6.62365E-001	5.98993E-003	0.00000E+000	3.96752E-003	3.59960E-001	-1.16689E+000	3.57780E+000	10	...........
	3	0.053333	6.70336E-001	5.99398E-003	0.00000E+000	4.01798E-003	3.59960E-001	-1.15632E+000	3.57780E+000	10	...........
	4	0.066667	6.78007E-001	5.99494E-003	0.00000E+000	4.06461E-003	3.59960E-001	-1.15724E+000	3.57780E+000	10	...........
	5	0.08	6.85480E-001	5.99923E-003	0.00000E+000	4.11235E-003	3.59960E-001	-1.16691E+000	3.57780E+000	10	...........
	6	0.093333	6.92787E-001	5.99129E-003	0.00000E+000	4.15068E-003	3.59960E-001	-1.15570E+000	3.57780E+000	10	...........
	7	0.106667	7.00006E-001	5.99474E-003	0.00000E+000	4.19635E-003	3.59960E-001	-1.15661E+000	3.57780E+000	10	...........
	8	0.12	7.07114E-001	5.99254E-003	0.00000E+000	4.23741E-003	3.59960E-001	-1.16641E+000	3.57780E+000	10	...........
	9	0.133333	7.14105E-001	5.98979E-003	0.00000E+000	4.27733E-003	3.59960E-001	-1.15562E+000	3.57780E+000	10	...........
	10	0.146667	7.21123E-001	5.99313E-003	0.00000E+000	4.32179E-003	3.59960E-001	-1.15676E+000	3.57780E+000	10	...........
	11	0.16	7.28026E-001	5.99685E-003	0.00000E+000	4.36586E-003	3.59960E-001	-1.16636E+000	3.57780E+000	10	...........
	12	0.173333	7.34890E-001	5.99090E-003	0.00000E+000	4.40265E-003	3.59960E-001	-1.15540E+000	3.57780E+000	10	...........
	13	0.186667	7.41742E-001	5.98908E-003	0.00000E+000	4.44235E-003	3.59960E-001	-1.15677E+000	3.57780E+000	10	...........
	14	0.2	7.48565E-001	5.99474E-003	0.00000E+000	4.48745E-003	3.59960E-001	-1.16631E+000	3.57780E+000	10	...........
	15	0.213333	7.55380E-001	5.99749E-003	0.00000E+000	4.53039E-003	3.59960E-001	-1.15529E+000	3.57780E+000	10	...........
	16	0.226667	7.62121E-001	5.99616E-003	0.00000E+000	4.56980E-003	3.59960E-001	-1.15664E+000	3.57780E+000	10	...........
	17	0.24	7.68799E-001	5.99731E-003	0.00000E+000	4.61072E-003	3.59960E-001	-1.16608E+000	3.57780E+000	10	...........
	18	0.253333	7.75513E-001	5.99527E-003	0.00000E+000	4.64941E-003	3.59960E-001	-1.15520E+000	3.57780E+000	10	...........
	19	0.266667	7.82186E-001	5.99455E-003	0.00000E+000	4.68886E-003	3.59960E-001	-1.15678E+000	3.57780E+000	10	...........
	20	0.28	7.88810E-001	5.99308E-003	0.00000E+000	4.72740E-003	3.59960E-001	-1.16602E+000	3.57780E+000	10	...........
	21	0.293333	7.95477E-001	5.99415E-003	0.00000E+000	4.76821E-003	3.59960E-001	-1.15518E+000	3.57780E+000	10	...........
	22	0.306667	8.02125E-001	5.99597E-003	0.00000E+000	4.80952E-003	3.59960E-001	-1.15673E+000	3.57780E+000	10	...........
	23	0.32	8.08688E-001	5.99752E-003	0.00000E+000	4.85012E-003	3.59960E-001	-1.16613E+000	3.57780E+000	10	...........
	24	0.333333	8.15266E-001	5.99759E-003	0.00000E+000	4.88963E-003	3.59960E-001	-1.15550E+000	3.57780E+000	10	...........
	25	0.346667	8.21806E-001	5.99632E-003	0.00000E+000	4.92781E-003	3.59960E-001	-1.15697E+000	3.57780E+000	10	...........
	26	0.36	8.28312E-001	5.99026E-003	0.00000E+000	4.96180E-003	3.59960E-001	-1.16600E+000	3.57780E+000	10	...........
	27	0.373333	8.34810E-001	5.98893E-003	0.00000E+000	4.99962E-003	3.59960E-001	-1.15529E+000	3.57780E+000	10	...........
	28	0.386667	8.41293E-001	5.99047E-003	0.00000E+000	5.03974E-003	3.59960E-001	-1.15684E+000	3.57780E+000	10	...........
	29	0.4	8.47791E-001	5.99754E-003	0.00000E+000	5.08466E-003	3.59960E-001	-1.16604E+000	3.57780E+000	10	...........
	30	0.413333	8.54221E-001	5.98610E-003	0.00000E+000	5.11346E-003	3.59960E-001	-1.15506E+000	3.57780E+000	10	...........
	31	0.426667	8.60620E-001	5.99139E-003	0.00000E+000	5.15631E-003	3.59960E-001	-1.15641E+000	3.57780E+000	10	...........
	32	0.44	8.67027E-001	5.99432E-003	0.00000E+000	5.19724E-003	3.59960E-001	-1.16541E+000	3.57780E+000	10	...........
	33	0.453333	8.73391E-001	5.99132E-003	0.00000E+000	5.23276E-003	3.59960E-001	-1.15476E+000	3.57780E+000	10	...........
	34	0.466667	8.79704E-001	5.99349E-003	0.00000E+000	5.27250E-003	3.59960E-001	-1.15645E+000	3.57780E+000	10	...........
	35	0.48	8.86023E-001	5.99600E-003	0.00000E+000	5.31260E-003	3.59960E-001	-1.16547E+000	3.57780E+000	10	...........
	36	0.493333	8.92260E-001	5.99272E-003	0.00000E+000	5.34706E-003	3.59960E-001	-1.15452E+000	3.57780E+000	10	...........
	37	0.506667	8.98513E-001	5.98978E-003	0.00000E+000	5.38189E-003	3.59960E-001	-1.15631E+000	3.57780E+000	10	...........
	38	0.52	9.04720E-001	5.99686E-003	0.00000E+000	5.42548E-003	3.59960E-001	-1.16531E+000	3.57780E+000	10	...........
	39	0.533333	9.10952E-001	5.99456E-003	0.00000E+000	5.46076E-003	3.59960E-001	-1.15451E+000	3.57780E+000	10	...........
	40	0.546667	9.17076E-001	5.99659E-003	0.00000E+000	5.49933E-003	3.59960E-001	-1.15660E+000	3.57780E+000	10	...........
	41	0.56	9.23253E-001	5.99374E-003	0.00000E+000	5.53374E-003	3.59960E-001	-1.16517E+000	3.57780E+000	10	...........
	42	0.573333	9.29338E-001	5.98997E-003	0.00000E+000	5.56671E-003	3.59960E-001	-1.15448E+000	3.57780E+000	10	...........
	43	0.586667	9.35340E-001	5.99370E-003	0.00000E+000	5.60615E-003	3.59960E-001	-1.15651E+000	3.57787E+000	10	...........
	44	0.6	9.41293E-001	5.99374E-003	0.00000E+000	5.64187E-003	3.59960E-001	-1.16515E+000	3.57800E+000	10	...........
	45	0.613333	9.47268E-001	5.99236E-003	0.00000E+000	5.67637E-003	3.59960E-001	-1.15439E+000	3.57800E+000	10	...........
	46	0.626667	9.53162E-001	5.99132E-003	0.00000E+000	5.71070E-003	3.59960E-001	-1.15650E+000	3.57800E+000	10	...........
	47	0.64	9.59024E-001	5.99457E-003	0.00000E+000	5.74894E-003	3.59960E-001	-1.16526E+000	3.57800E+000	10	...........
	48	0.653333	9.64846E-001	5.99569E-003	0.00000E+000	5.78492E-003	3.59960E-001	-1.15465E+000	3.57800E+000	10	...........
	49	0.666667	9.70604E-001	5.99638E-003	0.00000E+000	5.82011E-003	3.59960E-001	-1.15660E+000	3.57800E+000	10	...........
	50	0.68	9.76366E-001	5.99794E-003	0.00000E+000	5.85619E-003	3.59960E-001	-1.16492E+000	3.57800E+000	10	...........
	51	0.693333	9.82029E-001	5.99681E-003	0.00000E+000	5.88903E-003	3.59960E-001	-1.15437E+000	3.57800E+000	10	...........
	52	0.706667	9.87651E-001	5.99342E-003	0.00000E+000	5.91940E-003	3.59960E-001	-1.15671E+000	3.57800E+000	10	...........
	53	0.72	9.93200E-001	5.99404E-003	0.00000E+000	5.95328E-003	3.59960E-001	-1.16522E+000	3.57800E+000	10	...........
	54	0.731667	9.98385E-001	5.99708E-003	0.00000E+000	5.98739E-003	3.59960E-001	-1.15231E+000	3.57800E+000	10	...........
STARTTIMEOFFSET	QUANT	1194.307	Start Time Offset (s)