File: Data/CV_CRGO300517_1/PWRCCD_CRGO300517_1/CHARGE_DISCHARGE/CHARGE_#850.DTA
EXPLAIN
TAG	PWR800_CHARGE
TITLE	LABEL	PWR Cyclic Charge Discharge (Cell) - Charge Step	Test &Identifier
DATE	LABEL	22-6-2017	Date
TIME	LABEL	16:09:08	Time
NOTES	NOTES	3	&Notes...
	supercap test cell
	0.6mg
	6M KOH
PSTAT	PSTAT	IFC5000-01520	Potentiostat
CAPACITY	QUANT	1.00000E-003	Capacity (A-hr)
CELLTYPE	SELECTOR	1	&Cell Type
WORKINGCONNECTION	SELECTOR	0	&Working Lead
MAXCHARGETIME	VARIABLEANDUNITS	1.00000E+002	s	1.00000E+002	second(s)	Max &Charge Time
CHARGECURRENT	QUANT	6.00000E-003	&Charge Current (A)
VOLTAGEFINISH	TWOPARAM	F	1.00000E-003	3.60000E+003	&Voltage Finish	 I (A) < 	Max Time(s)
SAMPLETIME	QUANT	1.00000E-002	Sa&mple Period (s)
CHARGESTOPAT1	MULTIPARAM	4	1.00000E+000	Charge Stop At &1	Voltage > Limit	V
CHARGESTOPAT2	MULTIPARAM	0	0.00000E+000	Charge Stop At &2	None	N/A
AESBHCSELECTOR	TOGGLE	F	Save Both Half Cells
IRCOMP	TOGGLE	F	IR &Measure
EOC	QUANT	0	Open Circuit (V)
SEQUENCER	TOGGLE	TRUE	Run as Sequence
PSTATMODEL	IQUANT	53	Pstat Model
PSTATSECTION	LABEL	IFC5000-01520	Pstat Section
PSTATSERIALNO	LABEL	01520	Pstat Serial Number
CTRLMODE	IQUANT	0	Control Mode
ELECTROMETER	IQUANT	1	RE=0 or CS=1
IESTAB	IQUANT	0	I/E Stability
CASPEED	IQUANT	4	Control Amp Speed
CONVENTION	IQUANT	1	Current Convention
ICHRANGE	IQUANT	2	Ich Range
ICHRANGEMODE	TOGGLE	T	Ich Auto Range
ICHOFFSETENABLE	TOGGLE	F	Ich Offset Enable
ICHOFFSET	QUANT	0	Ich Offset (V)
ICHFILTER	IQUANT	1	Ich Filter
VCHRANGE	IQUANT	2	Vch Range
VCHRANGEMODE	TOGGLE	T	Vch Auto Range
VCHOFFSETENABLE	TOGGLE	F	Vch Offset Enable
VCHOFFSET	QUANT	0	Vch Offset (V)
VCHFILTER	IQUANT	1	Vch Filter
IERANGELOWERLIMIT	IQUANT	9	I/E Range Lower Limit
IERANGEMODE	TOGGLE	F	I/E AutoRange
IERANGE	IQUANT	10	I/E Range
ACHSELECT	IQUANT	1	Ach Select
ACHRANGE	IQUANT	2	Ach Range
ACHOFFSETENABLE	TOGGLE	F	Ach Offset Enable
ACHOFFSET	QUANT	0	Ach Offset (V)
ACHFILTER	IQUANT	1	Ach Filter
CABLEID	IQUANT	14	Cable ID
DCCALDATE	LABEL	20-10-2016	DC Calibration Date
ACCALDATE	LABEL	12/3/2015	AC Calibration Date
FRAMEWORKVERSION	QUANT	7.01	Framework Version
INSTRUMENTVERSION	LABEL	4.00	Instrument Version
CURVE	TABLE	54
	Pt	T	Vf	Im	Vu	Pwr	Sig	Ach	Temp	IERange	Over
	#	s	V	A	V	W	V	V	deg C	#	bits
	0	0.013333	6.50935E-001	5.99201E-003	0.00000E+000	3.90041E-003	3.59960E-001	-1.16722E+000	3.57780E+000	10	...........
	1	0.026667	6.60167E-001	5.99149E-003	0.00000E+000	3.95538E-003	3.59960E-001	-1.16209E+000	3.57780E+000	10	...........
	2	0.04	6.68678E-001	5.99593E-003	0.00000E+000	4.00934E-003	3.59960E-001	-1.17113E+000	3.57780E+000	10	...........
	3	0.053333	6.76764E-001	5.99209E-003	0.00000E+000	4.05523E-003	3.59960E-001	-1.16700E+000	3.57780E+000	10	...........
	4	0.066667	6.84507E-001	5.99197E-003	0.00000E+000	4.10155E-003	3.59960E-001	-1.16196E+000	3.57780E+000	10	...........
	5	0.08	6.92048E-001	5.99556E-003	0.00000E+000	4.14922E-003	3.59960E-001	-1.17120E+000	3.57780E+000	10	...........
	6	0.093333	6.99480E-001	5.99934E-003	0.00000E+000	4.19642E-003	3.59960E-001	-1.16720E+000	3.57780E+000	10	...........
	7	0.106667	7.06811E-001	5.99580E-003	0.00000E+000	4.23790E-003	3.59960E-001	-1.16205E+000	3.57780E+000	10	...........
	8	0.12	7.13969E-001	5.98962E-003	0.00000E+000	4.27641E-003	3.59960E-001	-1.17131E+000	3.57780E+000	10	...........
	9	0.133333	7.21105E-001	5.99433E-003	0.00000E+000	4.32254E-003	3.59960E-001	-1.16758E+000	3.57780E+000	10	...........
	10	0.146667	7.28150E-001	5.99239E-003	0.00000E+000	4.36336E-003	3.59960E-001	-1.16209E+000	3.57780E+000	10	...........
	11	0.16	7.35121E-001	5.99377E-003	0.00000E+000	4.40615E-003	3.59960E-001	-1.17094E+000	3.57780E+000	10	...........
	12	0.173333	7.42105E-001	5.99343E-003	0.00000E+000	4.44775E-003	3.59960E-001	-1.16735E+000	3.57780E+000	10	...........
	13	0.186667	7.48991E-001	5.99720E-003	0.00000E+000	4.49185E-003	3.59960E-001	-1.16223E+000	3.57780E+000	10	...........
	14	0.2	7.55854E-001	5.99622E-003	0.00000E+000	4.53227E-003	3.59960E-001	-1.17109E+000	3.57780E+000	10	...........
	15	0.213333	7.62710E-001	5.99482E-003	0.00000E+000	4.57231E-003	3.59960E-001	-1.16723E+000	3.57780E+000	10	...........
	16	0.226667	7.69559E-001	5.99370E-003	0.00000E+000	4.61250E-003	3.59960E-001	-1.16180E+000	3.57780E+000	10	...........
	17	0.24	7.76346E-001	5.99662E-003	0.00000E+000	4.65545E-003	3.59960E-001	-1.17059E+000	3.57780E+000	10	...........
	18	0.253333	7.83154E-001	5.99295E-003	0.00000E+000	4.69340E-003	3.59960E-001	-1.16757E+000	3.57780E+000	10	...........
	19	0.266667	7.89854E-001	5.99565E-003	0.00000E+000	4.73569E-003	3.59960E-001	-1.16214E+000	3.57780E+000	10	...........
	20	0.28	7.96607E-001	5.99383E-003	0.00000E+000	4.77473E-003	3.59960E-001	-1.17066E+000	3.57780E+000	10	...........
	21	0.293333	8.03305E-001	5.99285E-003	0.00000E+000	4.81409E-003	3.59960E-001	-1.16747E+000	3.57780E+000	10	...........
	22	0.306667	8.09960E-001	5.99817E-003	0.00000E+000	4.85828E-003	3.59960E-001	-1.16166E+000	3.57780E+000	10	...........
	23	0.32	8.16576E-001	5.99501E-003	0.00000E+000	4.89538E-003	3.59960E-001	-1.17049E+000	3.57780E+000	10	...........
	24	0.333333	8.23244E-001	5.99331E-003	0.00000E+000	4.93396E-003	3.59960E-001	-1.16777E+000	3.57780E+000	10	...........
	25	0.346667	8.29805E-001	5.99245E-003	0.00000E+000	4.97256E-003	3.59960E-001	-1.16219E+000	3.57780E+000	10	...........
	26	0.36	8.36383E-001	5.99324E-003	0.00000E+000	5.01265E-003	3.59960E-001	-1.17043E+000	3.57780E+000	10	...........
	27	0.373333	8.42930E-001	5.99309E-003	0.00000E+000	5.05176E-003	3.59960E-001	-1.16776E+000	3.57780E+000	10	...........
	28	0.386667	8.49455E-001	5.99399E-003	0.00000E+000	5.09162E-003	3.59960E-001	-1.16213E+000	3.57780E+000	10	...........
	29	0.4	8.55963E-001	5.99441E-003	0.00000E+000	5.13099E-003	3.59960E-001	-1.17057E+000	3.57780E+000	10	...........
	30	0.413333	8.62446E-001	5.98948E-003	0.00000E+000	5.16560E-003	3.59960E-001	-1.16797E+000	3.57780E+000	10	...........
	31	0.426667	8.68910E-001	5.99556E-003	0.00000E+000	5.20961E-003	3.59960E-001	-1.16194E+000	3.57780E+000	10	...........
	32	0.44	8.75308E-001	5.98999E-003	0.00000E+000	5.24309E-003	3.59960E-001	-1.17042E+000	3.57780E+000	10	...........
	33	0.453333	8.81685E-001	5.98904E-003	0.00000E+000	5.28044E-003	3.59960E-001	-1.16833E+000	3.57780E+000	10	...........
	34	0.466667	8.88061E-001	5.99511E-003	0.00000E+000	5.32402E-003	3.59960E-001	-1.16228E+000	3.57780E+000	10	...........
	35	0.48	8.94354E-001	5.99108E-003	0.00000E+000	5.35814E-003	3.59960E-001	-1.17032E+000	3.57780E+000	10	...........
	36	0.493333	9.00658E-001	5.99333E-003	0.00000E+000	5.39795E-003	3.59960E-001	-1.16797E+000	3.57780E+000	10	...........
	37	0.506667	9.06906E-001	5.99318E-003	0.00000E+000	5.43525E-003	3.59960E-001	-1.16175E+000	3.57780E+000	10	...........
	38	0.52	9.13088E-001	5.99258E-003	0.00000E+000	5.47175E-003	3.59960E-001	-1.16985E+000	3.57780E+000	10	...........
	39	0.533333	9.19315E-001	5.99653E-003	0.00000E+000	5.51271E-003	3.59960E-001	-1.16775E+000	3.57780E+000	10	...........
	40	0.546667	9.25475E-001	5.99815E-003	0.00000E+000	5.55114E-003	3.59960E-001	-1.16159E+000	3.57780E+000	10	...........
	41	0.56	9.31531E-001	5.99503E-003	0.00000E+000	5.58456E-003	3.59960E-001	-1.16937E+000	3.57780E+000	10	...........
	42	0.573333	9.37601E-001	5.99546E-003	0.00000E+000	5.62135E-003	3.59960E-001	-1.16790E+000	3.57780E+000	10	...........
	43	0.586667	9.43582E-001	5.99454E-003	0.00000E+000	5.65634E-003	3.59960E-001	-1.16172E+000	3.57780E+000	10	...........
	44	0.6	9.49602E-001	5.99238E-003	0.00000E+000	5.69038E-003	3.59960E-001	-1.16962E+000	3.57780E+000	10	...........
	45	0.613333	9.55470E-001	5.99190E-003	0.00000E+000	5.72508E-003	3.59960E-001	-1.16790E+000	3.57780E+000	10	...........
	46	0.626667	9.61325E-001	5.99452E-003	0.00000E+000	5.76268E-003	3.59960E-001	-1.16147E+000	3.57780E+000	10	...........
	47	0.64	9.67117E-001	5.99128E-003	0.00000E+000	5.79427E-003	3.59960E-001	-1.16941E+000	3.57780E+000	10	...........
	48	0.653333	9.72886E-001	5.99487E-003	0.00000E+000	5.83232E-003	3.59960E-001	-1.16828E+000	3.57780E+000	10	...........
	49	0.666667	9.78617E-001	5.99223E-003	0.00000E+000	5.86410E-003	3.59960E-001	-1.16167E+000	3.57780E+000	10	...........
	50	0.68	9.84268E-001	5.99745E-003	0.00000E+000	5.90310E-003	3.59960E-001	-1.16931E+000	3.57780E+000	10	...........
	51	0.693333	9.89873E-001	5.99210E-003	0.00000E+000	5.93142E-003	3.59960E-001	-1.16809E+000	3.57780E+000	10	...........
	52	0.706667	9.95415E-001	5.99177E-003	0.00000E+000	5.96429E-003	3.59960E-001	-1.16137E+000	3.57780E+000	10	...........
	53	0.713333	9.99576E-001	6.00201E-003	0.00000E+000	5.99947E-003	3.59960E-001	-1.17588E+000	3.57780E+000	10	...........
STARTTIMEOFFSET	QUANT	1375.443	Start Time Offset (s)