File: Data/CV_CRGO300517_1/PWRCCD_CRGO300517_1/CHARGE_DISCHARGE/CHARGE_#992.DTA
EXPLAIN
TAG	PWR800_CHARGE
TITLE	LABEL	PWR Cyclic Charge Discharge (Cell) - Charge Step	Test &Identifier
DATE	LABEL	22-6-2017	Date
TIME	LABEL	16:14:21	Time
NOTES	NOTES	3	&Notes...
	supercap test cell
	0.6mg
	6M KOH
PSTAT	PSTAT	IFC5000-01520	Potentiostat
CAPACITY	QUANT	1.00000E-003	Capacity (A-hr)
CELLTYPE	SELECTOR	1	&Cell Type
WORKINGCONNECTION	SELECTOR	0	&Working Lead
MAXCHARGETIME	VARIABLEANDUNITS	1.00000E+002	s	1.00000E+002	second(s)	Max &Charge Time
CHARGECURRENT	QUANT	6.00000E-003	&Charge Current (A)
VOLTAGEFINISH	TWOPARAM	F	1.00000E-003	3.60000E+003	&Voltage Finish	 I (A) < 	Max Time(s)
SAMPLETIME	QUANT	1.00000E-002	Sa&mple Period (s)
CHARGESTOPAT1	MULTIPARAM	4	1.00000E+000	Charge Stop At &1	Voltage > Limit	V
CHARGESTOPAT2	MULTIPARAM	0	0.00000E+000	Charge Stop At &2	None	N/A
AESBHCSELECTOR	TOGGLE	F	Save Both Half Cells
IRCOMP	TOGGLE	F	IR &Measure
EOC	QUANT	0	Open Circuit (V)
SEQUENCER	TOGGLE	TRUE	Run as Sequence
PSTATMODEL	IQUANT	53	Pstat Model
PSTATSECTION	LABEL	IFC5000-01520	Pstat Section
PSTATSERIALNO	LABEL	01520	Pstat Serial Number
CTRLMODE	IQUANT	0	Control Mode
ELECTROMETER	IQUANT	1	RE=0 or CS=1
IESTAB	IQUANT	0	I/E Stability
CASPEED	IQUANT	4	Control Amp Speed
CONVENTION	IQUANT	1	Current Convention
ICHRANGE	IQUANT	2	Ich Range
ICHRANGEMODE	TOGGLE	T	Ich Auto Range
ICHOFFSETENABLE	TOGGLE	F	Ich Offset Enable
ICHOFFSET	QUANT	0	Ich Offset (V)
ICHFILTER	IQUANT	1	Ich Filter
VCHRANGE	IQUANT	2	Vch Range
VCHRANGEMODE	TOGGLE	T	Vch Auto Range
VCHOFFSETENABLE	TOGGLE	F	Vch Offset Enable
VCHOFFSET	QUANT	0	Vch Offset (V)
VCHFILTER	IQUANT	1	Vch Filter
IERANGELOWERLIMIT	IQUANT	9	I/E Range Lower Limit
IERANGEMODE	TOGGLE	F	I/E AutoRange
IERANGE	IQUANT	10	I/E Range
ACHSELECT	IQUANT	1	Ach Select
ACHRANGE	IQUANT	2	Ach Range
ACHOFFSETENABLE	TOGGLE	F	Ach Offset Enable
ACHOFFSET	QUANT	0	Ach Offset (V)
ACHFILTER	IQUANT	1	Ach Filter
CABLEID	IQUANT	14	Cable ID
DCCALDATE	LABEL	20-10-2016	DC Calibration Date
ACCALDATE	LABEL	12/3/2015	AC Calibration Date
FRAMEWORKVERSION	QUANT	7.01	Framework Version
INSTRUMENTVERSION	LABEL	4.00	Instrument Version
CURVE	TABLE	52
	Pt	T	Vf	Im	Vu	Pwr	Sig	Ach	Temp	IERange	Over
	#	s	V	A	V	W	V	V	deg C	#	bits
	0	0.013333	6.56833E-001	5.98954E-003	0.00000E+000	3.93413E-003	3.59960E-001	-1.17294E+000	3.57680E+000	10	...........
	1	0.026667	6.66199E-001	5.99381E-003	0.00000E+000	3.99307E-003	3.59960E-001	-1.17121E+000	3.57680E+000	10	...........
	2	0.04	6.74831E-001	5.99403E-003	0.00000E+000	4.04496E-003	3.59960E-001	-1.18241E+000	3.57680E+000	10	...........
	3	0.053333	6.82944E-001	5.99470E-003	0.00000E+000	4.09405E-003	3.59960E-001	-1.17273E+000	3.57680E+000	10	...........
	4	0.066667	6.90827E-001	5.99254E-003	0.00000E+000	4.13981E-003	3.59960E-001	-1.17097E+000	3.57680E+000	10	...........
	5	0.08	6.98471E-001	5.99390E-003	0.00000E+000	4.18656E-003	3.59960E-001	-1.18226E+000	3.57680E+000	10	...........
	6	0.093333	7.05995E-001	5.99445E-003	0.00000E+000	4.23205E-003	3.59960E-001	-1.17240E+000	3.57680E+000	10	...........
	7	0.106667	7.13407E-001	5.99440E-003	0.00000E+000	4.27644E-003	3.59960E-001	-1.17123E+000	3.57680E+000	10	...........
	8	0.12	7.20714E-001	5.99680E-003	0.00000E+000	4.32198E-003	3.59960E-001	-1.18253E+000	3.57680E+000	10	...........
	9	0.133333	7.27937E-001	5.99383E-003	0.00000E+000	4.36313E-003	3.59960E-001	-1.17252E+000	3.57680E+000	10	...........
	10	0.146667	7.35111E-001	5.99803E-003	0.00000E+000	4.40922E-003	3.59960E-001	-1.17124E+000	3.57680E+000	10	...........
	11	0.16	7.42214E-001	5.99488E-003	0.00000E+000	4.44948E-003	3.59960E-001	-1.18217E+000	3.57680E+000	10	...........
	12	0.173333	7.49230E-001	5.99154E-003	0.00000E+000	4.48904E-003	3.59960E-001	-1.17222E+000	3.57683E+000	10	...........
	13	0.186667	7.56219E-001	5.99556E-003	0.00000E+000	4.53396E-003	3.59960E-001	-1.17127E+000	3.57690E+000	10	...........
	14	0.2	7.63199E-001	5.98901E-003	0.00000E+000	4.57081E-003	3.59960E-001	-1.18224E+000	3.57690E+000	10	...........
	15	0.213333	7.70138E-001	5.99270E-003	0.00000E+000	4.61520E-003	3.59960E-001	-1.17167E+000	3.57690E+000	10	...........
	16	0.226667	7.77013E-001	5.99779E-003	0.00000E+000	4.66036E-003	3.59960E-001	-1.17085E+000	3.57690E+000	10	...........
	17	0.24	7.83830E-001	5.99069E-003	0.00000E+000	4.69569E-003	3.59960E-001	-1.18208E+000	3.57690E+000	10	...........
	18	0.253333	7.90687E-001	5.99142E-003	0.00000E+000	4.73734E-003	3.59960E-001	-1.17188E+000	3.57690E+000	10	...........
	19	0.266667	7.97499E-001	5.99467E-003	0.00000E+000	4.78074E-003	3.59960E-001	-1.17096E+000	3.57690E+000	10	...........
	20	0.28	8.04324E-001	5.99458E-003	0.00000E+000	4.82159E-003	3.59960E-001	-1.18190E+000	3.57690E+000	10	...........
	21	0.293333	8.11030E-001	5.99370E-003	0.00000E+000	4.86107E-003	3.59960E-001	-1.17183E+000	3.57690E+000	10	...........
	22	0.306667	8.17738E-001	5.99382E-003	0.00000E+000	4.90138E-003	3.59960E-001	-1.17099E+000	3.57690E+000	10	...........
	23	0.32	8.24469E-001	5.99743E-003	0.00000E+000	4.94470E-003	3.59960E-001	-1.18214E+000	3.57690E+000	10	...........
	24	0.333333	8.31092E-001	5.98843E-003	0.00000E+000	4.97693E-003	3.59960E-001	-1.17182E+000	3.57690E+000	10	...........
	25	0.346667	8.37720E-001	5.99555E-003	0.00000E+000	5.02260E-003	3.59960E-001	-1.17085E+000	3.57690E+000	10	...........
	26	0.36	8.44361E-001	5.99284E-003	0.00000E+000	5.06013E-003	3.59960E-001	-1.18197E+000	3.57690E+000	10	...........
	27	0.373333	8.50926E-001	5.99522E-003	0.00000E+000	5.10149E-003	3.59960E-001	-1.17170E+000	3.57690E+000	10	...........
	28	0.386667	8.57493E-001	5.99748E-003	0.00000E+000	5.14280E-003	3.59960E-001	-1.17121E+000	3.57690E+000	10	...........
	29	0.4	8.63992E-001	5.99152E-003	0.00000E+000	5.17663E-003	3.59960E-001	-1.18224E+000	3.57690E+000	10	...........
	30	0.413333	8.70540E-001	5.99054E-003	0.00000E+000	5.21500E-003	3.59960E-001	-1.17197E+000	3.57690E+000	10	...........
	31	0.426667	8.76992E-001	5.99449E-003	0.00000E+000	5.25712E-003	3.59960E-001	-1.17151E+000	3.57690E+000	10	...........
	32	0.44	8.83402E-001	5.99433E-003	0.00000E+000	5.29541E-003	3.59960E-001	-1.18222E+000	3.57690E+000	10	...........
	33	0.453333	8.89791E-001	5.99417E-003	0.00000E+000	5.33355E-003	3.59960E-001	-1.17194E+000	3.57690E+000	10	...........
	34	0.466667	8.96161E-001	5.99936E-003	0.00000E+000	5.37639E-003	3.59960E-001	-1.17151E+000	3.57690E+000	10	...........
	35	0.48	9.02479E-001	5.99731E-003	0.00000E+000	5.41244E-003	3.59960E-001	-1.18238E+000	3.57690E+000	10	...........
	36	0.493333	9.08773E-001	5.99365E-003	0.00000E+000	5.44686E-003	3.59960E-001	-1.17183E+000	3.57690E+000	10	...........
	37	0.506667	9.15031E-001	5.99857E-003	0.00000E+000	5.48888E-003	3.59960E-001	-1.17169E+000	3.57690E+000	10	...........
	38	0.52	9.21256E-001	5.99331E-003	0.00000E+000	5.52138E-003	3.59960E-001	-1.18236E+000	3.57690E+000	10	...........
	39	0.533333	9.27457E-001	5.99285E-003	0.00000E+000	5.55811E-003	3.59960E-001	-1.17171E+000	3.57690E+000	10	...........
	40	0.546667	9.33564E-001	5.99574E-003	0.00000E+000	5.59741E-003	3.59960E-001	-1.17136E+000	3.57690E+000	10	...........
	41	0.56	9.39613E-001	5.99311E-003	0.00000E+000	5.63121E-003	3.59960E-001	-1.18225E+000	3.57690E+000	10	...........
	42	0.573333	9.45675E-001	5.99062E-003	0.00000E+000	5.66518E-003	3.59960E-001	-1.17163E+000	3.57690E+000	10	...........
	43	0.586667	9.51657E-001	5.99464E-003	0.00000E+000	5.70484E-003	3.59960E-001	-1.17142E+000	3.57690E+000	10	...........
	44	0.6	9.57580E-001	5.99547E-003	0.00000E+000	5.74114E-003	3.59960E-001	-1.18212E+000	3.57690E+000	10	...........
	45	0.613333	9.63407E-001	5.99067E-003	0.00000E+000	5.77145E-003	3.59960E-001	-1.17171E+000	3.57690E+000	10	...........
	46	0.626667	9.69245E-001	5.99331E-003	0.00000E+000	5.80899E-003	3.59960E-001	-1.17164E+000	3.57690E+000	10	...........
	47	0.64	9.75042E-001	5.99367E-003	0.00000E+000	5.84408E-003	3.59960E-001	-1.18233E+000	3.57690E+000	10	...........
	48	0.653333	9.80782E-001	5.99244E-003	0.00000E+000	5.87727E-003	3.59960E-001	-1.17174E+000	3.57690E+000	10	...........
	49	0.666667	9.86441E-001	5.99508E-003	0.00000E+000	5.91380E-003	3.59960E-001	-1.17184E+000	3.57690E+000	10	...........
	50	0.68	9.92032E-001	6.00080E-003	0.00000E+000	5.95299E-003	3.59960E-001	-1.18255E+000	3.57690E+000	10	...........
	51	0.693333	9.97598E-001	5.99331E-003	0.00000E+000	5.97892E-003	3.59960E-001	-1.17183E+000	3.57690E+000	10	...........
STARTTIMEOFFSET	QUANT	1574.217	Start Time Offset (s)