File: Data/CV_CRGO300517_1/PWRCCD_CRGO300517_1/CHARGE_DISCHARGE/CHARGE_#792.DTA
EXPLAIN
TAG	PWR800_CHARGE
TITLE	LABEL	PWR Cyclic Charge Discharge (Cell) - Charge Step	Test &Identifier
DATE	LABEL	22-6-2017	Date
TIME	LABEL	16:06:59	Time
NOTES	NOTES	3	&Notes...
	supercap test cell
	0.6mg
	6M KOH
PSTAT	PSTAT	IFC5000-01520	Potentiostat
CAPACITY	QUANT	1.00000E-003	Capacity (A-hr)
CELLTYPE	SELECTOR	1	&Cell Type
WORKINGCONNECTION	SELECTOR	0	&Working Lead
MAXCHARGETIME	VARIABLEANDUNITS	1.00000E+002	s	1.00000E+002	second(s)	Max &Charge Time
CHARGECURRENT	QUANT	6.00000E-003	&Charge Current (A)
VOLTAGEFINISH	TWOPARAM	F	1.00000E-003	3.60000E+003	&Voltage Finish	 I (A) < 	Max Time(s)
SAMPLETIME	QUANT	1.00000E-002	Sa&mple Period (s)
CHARGESTOPAT1	MULTIPARAM	4	1.00000E+000	Charge Stop At &1	Voltage > Limit	V
CHARGESTOPAT2	MULTIPARAM	0	0.00000E+000	Charge Stop At &2	None	N/A
AESBHCSELECTOR	TOGGLE	F	Save Both Half Cells
IRCOMP	TOGGLE	F	IR &Measure
EOC	QUANT	0	Open Circuit (V)
SEQUENCER	TOGGLE	TRUE	Run as Sequence
PSTATMODEL	IQUANT	53	Pstat Model
PSTATSECTION	LABEL	IFC5000-01520	Pstat Section
PSTATSERIALNO	LABEL	01520	Pstat Serial Number
CTRLMODE	IQUANT	0	Control Mode
ELECTROMETER	IQUANT	1	RE=0 or CS=1
IESTAB	IQUANT	0	I/E Stability
CASPEED	IQUANT	4	Control Amp Speed
CONVENTION	IQUANT	1	Current Convention
ICHRANGE	IQUANT	2	Ich Range
ICHRANGEMODE	TOGGLE	T	Ich Auto Range
ICHOFFSETENABLE	TOGGLE	F	Ich Offset Enable
ICHOFFSET	QUANT	0	Ich Offset (V)
ICHFILTER	IQUANT	1	Ich Filter
VCHRANGE	IQUANT	2	Vch Range
VCHRANGEMODE	TOGGLE	T	Vch Auto Range
VCHOFFSETENABLE	TOGGLE	F	Vch Offset Enable
VCHOFFSET	QUANT	0	Vch Offset (V)
VCHFILTER	IQUANT	1	Vch Filter
IERANGELOWERLIMIT	IQUANT	9	I/E Range Lower Limit
IERANGEMODE	TOGGLE	F	I/E AutoRange
IERANGE	IQUANT	10	I/E Range
ACHSELECT	IQUANT	1	Ach Select
ACHRANGE	IQUANT	2	Ach Range
ACHOFFSETENABLE	TOGGLE	F	Ach Offset Enable
ACHOFFSET	QUANT	0	Ach Offset (V)
ACHFILTER	IQUANT	1	Ach Filter
CABLEID	IQUANT	14	Cable ID
DCCALDATE	LABEL	20-10-2016	DC Calibration Date
ACCALDATE	LABEL	12/3/2015	AC Calibration Date
FRAMEWORKVERSION	QUANT	7.01	Framework Version
INSTRUMENTVERSION	LABEL	4.00	Instrument Version
CURVE	TABLE	55
	Pt	T	Vf	Im	Vu	Pwr	Sig	Ach	Temp	IERange	Over
	#	s	V	A	V	W	V	V	deg C	#	bits
	0	0.013333	6.47629E-001	5.99271E-003	0.00000E+000	3.88105E-003	3.59960E-001	-1.16667E+000	3.57650E+000	10	...........
	1	0.026667	6.56828E-001	5.99501E-003	0.00000E+000	3.93769E-003	3.59960E-001	-1.16203E+000	3.57650E+000	10	...........
	2	0.04	6.65245E-001	5.99304E-003	0.00000E+000	3.98684E-003	3.59960E-001	-1.17206E+000	3.57650E+000	10	...........
	3	0.053333	6.73256E-001	5.99782E-003	0.00000E+000	4.03807E-003	3.59960E-001	-1.16648E+000	3.57650E+000	10	...........
	4	0.066667	6.80939E-001	5.99483E-003	0.00000E+000	4.08211E-003	3.59960E-001	-1.16182E+000	3.57650E+000	10	...........
	5	0.08	6.88484E-001	5.99420E-003	0.00000E+000	4.12691E-003	3.59960E-001	-1.17204E+000	3.57680E+000	10	...........
	6	0.093333	6.95840E-001	5.98793E-003	0.00000E+000	4.16664E-003	3.59960E-001	-1.16606E+000	3.57690E+000	10	...........
	7	0.106667	7.03106E-001	5.99427E-003	0.00000E+000	4.21461E-003	3.59960E-001	-1.16145E+000	3.57690E+000	10	...........
	8	0.12	7.10273E-001	5.99722E-003	0.00000E+000	4.25967E-003	3.59960E-001	-1.17185E+000	3.57690E+000	10	...........
	9	0.133333	7.17387E-001	5.99196E-003	0.00000E+000	4.29855E-003	3.59960E-001	-1.16604E+000	3.57690E+000	10	...........
	10	0.146667	7.24415E-001	5.99201E-003	0.00000E+000	4.34070E-003	3.59960E-001	-1.16156E+000	3.57690E+000	10	...........
	11	0.16	7.31366E-001	5.99300E-003	0.00000E+000	4.38308E-003	3.59960E-001	-1.17178E+000	3.57690E+000	10	...........
	12	0.173333	7.38297E-001	5.99367E-003	0.00000E+000	4.42511E-003	3.59960E-001	-1.16600E+000	3.57690E+000	10	...........
	13	0.186667	7.45215E-001	5.99700E-003	0.00000E+000	4.46906E-003	3.59960E-001	-1.16183E+000	3.57690E+000	10	...........
	14	0.2	7.52072E-001	5.99648E-003	0.00000E+000	4.50979E-003	3.59960E-001	-1.17213E+000	3.57690E+000	10	...........
	15	0.213333	7.58894E-001	5.99171E-003	0.00000E+000	4.54707E-003	3.59960E-001	-1.16597E+000	3.57690E+000	10	...........
	16	0.226667	7.65721E-001	5.99295E-003	0.00000E+000	4.58893E-003	3.59960E-001	-1.16154E+000	3.57690E+000	10	...........
	17	0.24	7.72525E-001	5.99308E-003	0.00000E+000	4.62981E-003	3.59960E-001	-1.17204E+000	3.57690E+000	10	...........
	18	0.253333	7.79214E-001	5.99355E-003	0.00000E+000	4.67026E-003	3.59960E-001	-1.16539E+000	3.57690E+000	10	...........
	19	0.266667	7.85956E-001	5.99960E-003	0.00000E+000	4.71542E-003	3.59960E-001	-1.16128E+000	3.57690E+000	10	...........
	20	0.28	7.92646E-001	5.99658E-003	0.00000E+000	4.75316E-003	3.59960E-001	-1.17174E+000	3.57690E+000	10	...........
	21	0.293333	7.99300E-001	5.99769E-003	0.00000E+000	4.79395E-003	3.59960E-001	-1.16513E+000	3.57690E+000	10	...........
	22	0.306667	8.05945E-001	5.99463E-003	0.00000E+000	4.83134E-003	3.59960E-001	-1.16100E+000	3.57690E+000	10	...........
	23	0.32	8.12566E-001	5.99422E-003	0.00000E+000	4.87070E-003	3.59960E-001	-1.17166E+000	3.57690E+000	10	...........
	24	0.333333	8.19185E-001	5.99523E-003	0.00000E+000	4.91120E-003	3.59960E-001	-1.16503E+000	3.57690E+000	10	...........
	25	0.346667	8.25762E-001	5.99223E-003	0.00000E+000	4.94815E-003	3.59960E-001	-1.16086E+000	3.57690E+000	10	...........
	26	0.36	8.32298E-001	5.99528E-003	0.00000E+000	4.98986E-003	3.59960E-001	-1.17151E+000	3.57690E+000	10	...........
	27	0.373333	8.38803E-001	5.99424E-003	0.00000E+000	5.02799E-003	3.59960E-001	-1.16462E+000	3.57690E+000	10	...........
	28	0.386667	8.45311E-001	5.99318E-003	0.00000E+000	5.06609E-003	3.59960E-001	-1.16087E+000	3.57690E+000	10	...........
	29	0.4	8.51822E-001	5.99249E-003	0.00000E+000	5.10453E-003	3.59960E-001	-1.17143E+000	3.57690E+000	10	...........
	30	0.413333	8.58294E-001	5.99650E-003	0.00000E+000	5.14676E-003	3.59960E-001	-1.16454E+000	3.57690E+000	10	...........
	31	0.426667	8.64703E-001	5.99655E-003	0.00000E+000	5.18523E-003	3.59960E-001	-1.16068E+000	3.57690E+000	10	...........
	32	0.44	8.71095E-001	5.99466E-003	0.00000E+000	5.22192E-003	3.59960E-001	-1.17138E+000	3.57690E+000	10	...........
	33	0.453333	8.77491E-001	5.99491E-003	0.00000E+000	5.26048E-003	3.59960E-001	-1.16453E+000	3.57690E+000	10	...........
	34	0.466667	8.83852E-001	5.99349E-003	0.00000E+000	5.29736E-003	3.59960E-001	-1.16087E+000	3.57690E+000	10	...........
	35	0.48	8.90156E-001	5.99329E-003	0.00000E+000	5.33496E-003	3.59960E-001	-1.17165E+000	3.57690E+000	10	...........
	36	0.493333	8.96438E-001	5.99667E-003	0.00000E+000	5.37564E-003	3.59960E-001	-1.16466E+000	3.57690E+000	10	...........
	37	0.506667	9.02713E-001	5.99191E-003	0.00000E+000	5.40898E-003	3.59960E-001	-1.16107E+000	3.57690E+000	10	...........
	38	0.52	9.08935E-001	5.99548E-003	0.00000E+000	5.44950E-003	3.59960E-001	-1.17175E+000	3.57690E+000	10	...........
	39	0.533333	9.15066E-001	5.99593E-003	0.00000E+000	5.48667E-003	3.59960E-001	-1.16470E+000	3.57690E+000	10	...........
	40	0.546667	9.21291E-001	5.99186E-003	0.00000E+000	5.52025E-003	3.59960E-001	-1.16118E+000	3.57690E+000	10	...........
	41	0.56	9.27412E-001	5.98797E-003	0.00000E+000	5.55332E-003	3.59960E-001	-1.17197E+000	3.57690E+000	10	...........
	42	0.573333	9.33474E-001	5.98800E-003	0.00000E+000	5.58965E-003	3.59960E-001	-1.16467E+000	3.57690E+000	10	...........
	43	0.586667	9.39457E-001	5.99297E-003	0.00000E+000	5.63013E-003	3.59960E-001	-1.16110E+000	3.57690E+000	10	...........
	44	0.6	9.45464E-001	5.99438E-003	0.00000E+000	5.66746E-003	3.59960E-001	-1.17197E+000	3.57690E+000	10	...........
	45	0.613333	9.51367E-001	5.99130E-003	0.00000E+000	5.69993E-003	3.59960E-001	-1.16456E+000	3.57690E+000	10	...........
	46	0.626667	9.57248E-001	5.98849E-003	0.00000E+000	5.73247E-003	3.59960E-001	-1.16101E+000	3.57690E+000	10	...........
	47	0.64	9.63055E-001	5.99420E-003	0.00000E+000	5.77274E-003	3.59960E-001	-1.17173E+000	3.57690E+000	10	...........
	48	0.653333	9.68859E-001	5.99182E-003	0.00000E+000	5.80523E-003	3.59960E-001	-1.16454E+000	3.57690E+000	10	...........
	49	0.666667	9.74631E-001	5.99410E-003	0.00000E+000	5.84204E-003	3.59960E-001	-1.16124E+000	3.57690E+000	10	...........
	50	0.68	9.80334E-001	5.99008E-003	0.00000E+000	5.87228E-003	3.59960E-001	-1.17216E+000	3.57690E+000	10	...........
	51	0.693333	9.85934E-001	5.99430E-003	0.00000E+000	5.90999E-003	3.59960E-001	-1.16439E+000	3.57690E+000	10	...........
	52	0.706667	9.91526E-001	5.99220E-003	0.00000E+000	5.94142E-003	3.59960E-001	-1.16107E+000	3.57690E+000	10	...........
	53	0.72	9.97128E-001	5.99500E-003	0.00000E+000	5.97778E-003	3.59960E-001	-1.17216E+000	3.57690E+000	10	...........
	54	0.721667	1.00027E+000	5.99037E-003	0.00000E+000	5.99201E-003	3.59960E-001	-1.14915E+000	3.57690E+000	10	...........
STARTTIMEOFFSET	QUANT	1292.64	Start Time Offset (s)