File: Data/CV_CRGO300517_1/PWRCCD_CRGO300517_1/CHARGE_DISCHARGE/CHARGE_#122.DTA
EXPLAIN
TAG	PWR800_CHARGE
TITLE	LABEL	PWR Cyclic Charge Discharge (Cell) - Charge Step	Test &Identifier
DATE	LABEL	22-6-2017	Date
TIME	LABEL	15:40:28	Time
NOTES	NOTES	3	&Notes...
	supercap test cell
	0.6mg
	6M KOH
PSTAT	PSTAT	IFC5000-01520	Potentiostat
CAPACITY	QUANT	1.00000E-003	Capacity (A-hr)
CELLTYPE	SELECTOR	1	&Cell Type
WORKINGCONNECTION	SELECTOR	0	&Working Lead
MAXCHARGETIME	VARIABLEANDUNITS	1.00000E+002	s	1.00000E+002	second(s)	Max &Charge Time
CHARGECURRENT	QUANT	6.00000E-003	&Charge Current (A)
VOLTAGEFINISH	TWOPARAM	F	1.00000E-003	3.60000E+003	&Voltage Finish	 I (A) < 	Max Time(s)
SAMPLETIME	QUANT	1.00000E-002	Sa&mple Period (s)
CHARGESTOPAT1	MULTIPARAM	4	1.00000E+000	Charge Stop At &1	Voltage > Limit	V
CHARGESTOPAT2	MULTIPARAM	0	0.00000E+000	Charge Stop At &2	None	N/A
AESBHCSELECTOR	TOGGLE	F	Save Both Half Cells
IRCOMP	TOGGLE	F	IR &Measure
EOC	QUANT	0	Open Circuit (V)
SEQUENCER	TOGGLE	TRUE	Run as Sequence
PSTATMODEL	IQUANT	53	Pstat Model
PSTATSECTION	LABEL	IFC5000-01520	Pstat Section
PSTATSERIALNO	LABEL	01520	Pstat Serial Number
CTRLMODE	IQUANT	0	Control Mode
ELECTROMETER	IQUANT	1	RE=0 or CS=1
IESTAB	IQUANT	0	I/E Stability
CASPEED	IQUANT	4	Control Amp Speed
CONVENTION	IQUANT	1	Current Convention
ICHRANGE	IQUANT	2	Ich Range
ICHRANGEMODE	TOGGLE	T	Ich Auto Range
ICHOFFSETENABLE	TOGGLE	F	Ich Offset Enable
ICHOFFSET	QUANT	0	Ich Offset (V)
ICHFILTER	IQUANT	1	Ich Filter
VCHRANGE	IQUANT	2	Vch Range
VCHRANGEMODE	TOGGLE	T	Vch Auto Range
VCHOFFSETENABLE	TOGGLE	F	Vch Offset Enable
VCHOFFSET	QUANT	0	Vch Offset (V)
VCHFILTER	IQUANT	1	Vch Filter
IERANGELOWERLIMIT	IQUANT	9	I/E Range Lower Limit
IERANGEMODE	TOGGLE	F	I/E AutoRange
IERANGE	IQUANT	10	I/E Range
ACHSELECT	IQUANT	1	Ach Select
ACHRANGE	IQUANT	2	Ach Range
ACHOFFSETENABLE	TOGGLE	F	Ach Offset Enable
ACHOFFSET	QUANT	0	Ach Offset (V)
ACHFILTER	IQUANT	1	Ach Filter
CABLEID	IQUANT	14	Cable ID
DCCALDATE	LABEL	20-10-2016	DC Calibration Date
ACCALDATE	LABEL	12/3/2015	AC Calibration Date
FRAMEWORKVERSION	QUANT	7.01	Framework Version
INSTRUMENTVERSION	LABEL	4.00	Instrument Version
CURVE	TABLE	69
	Pt	T	Vf	Im	Vu	Pwr	Sig	Ach	Temp	IERange	Over
	#	s	V	A	V	W	V	V	deg C	#	bits
	0	0.013333	5.93032E-001	5.99195E-003	0.00000E+000	3.55342E-003	3.59960E-001	-1.08191E+000	3.57690E+000	10	...........
	1	0.026667	6.01328E-001	5.99383E-003	0.00000E+000	3.60426E-003	3.59960E-001	-1.07053E+000	3.57690E+000	10	...........
	2	0.04	6.08926E-001	5.99323E-003	0.00000E+000	3.64943E-003	3.59960E-001	-1.07070E+000	3.57690E+000	10	...........
	3	0.053333	6.16151E-001	5.99396E-003	0.00000E+000	3.69318E-003	3.59960E-001	-1.08211E+000	3.57690E+000	10	...........
	4	0.066667	6.23085E-001	5.99213E-003	0.00000E+000	3.73361E-003	3.59960E-001	-1.07038E+000	3.57690E+000	10	...........
	5	0.08	6.29810E-001	5.99171E-003	0.00000E+000	3.77363E-003	3.59960E-001	-1.07038E+000	3.57690E+000	10	...........
	6	0.093333	6.36412E-001	5.99217E-003	0.00000E+000	3.81349E-003	3.59960E-001	-1.08150E+000	3.57690E+000	10	...........
	7	0.106667	6.42980E-001	5.99772E-003	0.00000E+000	3.85641E-003	3.59960E-001	-1.07005E+000	3.57690E+000	10	...........
	8	0.12	6.49384E-001	5.99448E-003	0.00000E+000	3.89272E-003	3.59960E-001	-1.07009E+000	3.57690E+000	10	...........
	9	0.133333	6.55737E-001	5.99447E-003	0.00000E+000	3.93079E-003	3.59960E-001	-1.08145E+000	3.57690E+000	10	...........
	10	0.146667	6.62087E-001	5.99226E-003	0.00000E+000	3.96739E-003	3.59960E-001	-1.06965E+000	3.57690E+000	10	...........
	11	0.16	6.68334E-001	5.99213E-003	0.00000E+000	4.00475E-003	3.59960E-001	-1.06971E+000	3.57690E+000	10	...........
	12	0.173333	6.74477E-001	5.99535E-003	0.00000E+000	4.04373E-003	3.59960E-001	-1.08156E+000	3.57690E+000	10	...........
	13	0.186667	6.80645E-001	5.99763E-003	0.00000E+000	4.08226E-003	3.59960E-001	-1.07020E+000	3.57690E+000	10	...........
	14	0.2	6.86782E-001	5.99577E-003	0.00000E+000	4.11779E-003	3.59960E-001	-1.06991E+000	3.57690E+000	10	...........
	15	0.213333	6.92903E-001	5.99459E-003	0.00000E+000	4.15367E-003	3.59960E-001	-1.08117E+000	3.57690E+000	10	...........
	16	0.226667	6.98993E-001	5.99164E-003	0.00000E+000	4.18811E-003	3.59960E-001	-1.06985E+000	3.57690E+000	10	...........
	17	0.24	7.05055E-001	5.99317E-003	0.00000E+000	4.22551E-003	3.59960E-001	-1.07004E+000	3.57690E+000	10	...........
	18	0.253333	7.11118E-001	5.99629E-003	0.00000E+000	4.26408E-003	3.59960E-001	-1.08130E+000	3.57695E+000	10	...........
	19	0.266667	7.17173E-001	5.99514E-003	0.00000E+000	4.29955E-003	3.59960E-001	-1.06951E+000	3.57710E+000	10	...........
	20	0.28	7.23213E-001	5.99297E-003	0.00000E+000	4.33419E-003	3.59960E-001	-1.06956E+000	3.57710E+000	10	...........
	21	0.293333	7.29243E-001	5.99469E-003	0.00000E+000	4.37158E-003	3.59960E-001	-1.08122E+000	3.57710E+000	10	...........
	22	0.306667	7.35200E-001	5.99473E-003	0.00000E+000	4.40732E-003	3.59960E-001	-1.06992E+000	3.57710E+000	10	...........
	23	0.32	7.41213E-001	5.99383E-003	0.00000E+000	4.44271E-003	3.59960E-001	-1.07019E+000	3.57710E+000	10	...........
	24	0.333333	7.47231E-001	5.99125E-003	0.00000E+000	4.47684E-003	3.59960E-001	-1.08131E+000	3.57710E+000	10	...........
	25	0.346667	7.53179E-001	5.99670E-003	0.00000E+000	4.51659E-003	3.59960E-001	-1.06981E+000	3.57710E+000	10	...........
	26	0.36	7.59147E-001	5.99036E-003	0.00000E+000	4.54757E-003	3.59960E-001	-1.06991E+000	3.57710E+000	10	...........
	27	0.373333	7.65107E-001	5.99506E-003	0.00000E+000	4.58687E-003	3.59960E-001	-1.08153E+000	3.57710E+000	10	...........
	28	0.386667	7.71096E-001	5.99534E-003	0.00000E+000	4.62298E-003	3.59960E-001	-1.06999E+000	3.57710E+000	10	...........
	29	0.4	7.77048E-001	5.99378E-003	0.00000E+000	4.65745E-003	3.59960E-001	-1.06963E+000	3.57710E+000	10	...........
	30	0.413333	7.83001E-001	5.99692E-003	0.00000E+000	4.69560E-003	3.59960E-001	-1.08073E+000	3.57710E+000	10	...........
	31	0.426667	7.88970E-001	5.99596E-003	0.00000E+000	4.73063E-003	3.59960E-001	-1.06934E+000	3.57710E+000	10	...........
	32	0.44	7.94964E-001	5.99780E-003	0.00000E+000	4.76803E-003	3.59960E-001	-1.06944E+000	3.57710E+000	10	...........
	33	0.453333	8.00924E-001	5.99480E-003	0.00000E+000	4.80138E-003	3.59960E-001	-1.08082E+000	3.57710E+000	10	...........
	34	0.466667	8.06849E-001	5.99395E-003	0.00000E+000	4.83621E-003	3.59960E-001	-1.06921E+000	3.57710E+000	10	...........
	35	0.48	8.12735E-001	5.99173E-003	0.00000E+000	4.86968E-003	3.59960E-001	-1.06914E+000	3.57710E+000	10	...........
	36	0.493333	8.18697E-001	5.99144E-003	0.00000E+000	4.90518E-003	3.59960E-001	-1.08068E+000	3.57710E+000	10	...........
	37	0.506667	8.24652E-001	5.99501E-003	0.00000E+000	4.94380E-003	3.59960E-001	-1.06923E+000	3.57710E+000	10	...........
	38	0.52	8.30589E-001	5.99482E-003	0.00000E+000	4.97923E-003	3.59960E-001	-1.06921E+000	3.57710E+000	10	...........
	39	0.533333	8.36447E-001	5.99524E-003	0.00000E+000	5.01470E-003	3.59960E-001	-1.08071E+000	3.57710E+000	10	...........
	40	0.546667	8.42357E-001	5.99486E-003	0.00000E+000	5.04981E-003	3.59960E-001	-1.06888E+000	3.57710E+000	10	...........
	41	0.56	8.48267E-001	5.99391E-003	0.00000E+000	5.08443E-003	3.59960E-001	-1.06906E+000	3.57710E+000	10	...........
	42	0.573333	8.54138E-001	5.99638E-003	0.00000E+000	5.12173E-003	3.59960E-001	-1.08064E+000	3.57710E+000	10	...........
	43	0.586667	8.60038E-001	5.99493E-003	0.00000E+000	5.15587E-003	3.59960E-001	-1.06920E+000	3.57710E+000	10	...........
	44	0.6	8.65909E-001	5.99171E-003	0.00000E+000	5.18827E-003	3.59960E-001	-1.06915E+000	3.57710E+000	10	...........
	45	0.613333	8.71818E-001	5.99441E-003	0.00000E+000	5.22603E-003	3.59960E-001	-1.08047E+000	3.57710E+000	10	...........
	46	0.626667	8.77655E-001	5.99328E-003	0.00000E+000	5.26003E-003	3.59960E-001	-1.06908E+000	3.57710E+000	10	...........
	47	0.64	8.83527E-001	5.99577E-003	0.00000E+000	5.29743E-003	3.59960E-001	-1.06932E+000	3.57710E+000	10	...........
	48	0.653333	8.89326E-001	5.99638E-003	0.00000E+000	5.33273E-003	3.59960E-001	-1.08083E+000	3.57710E+000	10	...........
	49	0.666667	8.95143E-001	5.99428E-003	0.00000E+000	5.36574E-003	3.59960E-001	-1.06922E+000	3.57710E+000	10	...........
	50	0.68	9.00961E-001	5.99086E-003	0.00000E+000	5.39753E-003	3.59960E-001	-1.06927E+000	3.57710E+000	10	...........
	51	0.693333	9.06729E-001	5.99257E-003	0.00000E+000	5.43364E-003	3.59960E-001	-1.08079E+000	3.57710E+000	10	...........
	52	0.706667	9.12527E-001	5.99546E-003	0.00000E+000	5.47102E-003	3.59960E-001	-1.06931E+000	3.57710E+000	10	...........
	53	0.72	9.18259E-001	5.99370E-003	0.00000E+000	5.50377E-003	3.59960E-001	-1.06951E+000	3.57710E+000	10	...........
	54	0.733333	9.24035E-001	5.99298E-003	0.00000E+000	5.53772E-003	3.59960E-001	-1.08027E+000	3.57710E+000	10	...........
	55	0.746667	9.29734E-001	5.99328E-003	0.00000E+000	5.57216E-003	3.59960E-001	-1.06854E+000	3.57710E+000	10	...........
	56	0.76	9.35426E-001	5.99498E-003	0.00000E+000	5.60786E-003	3.59960E-001	-1.06879E+000	3.57710E+000	10	...........
	57	0.773333	9.41095E-001	5.99465E-003	0.00000E+000	5.64153E-003	3.59960E-001	-1.08041E+000	3.57710E+000	10	...........
	58	0.786667	9.46736E-001	5.99829E-003	0.00000E+000	5.67879E-003	3.59960E-001	-1.06901E+000	3.57710E+000	10	...........
	59	0.8	9.52310E-001	5.99321E-003	0.00000E+000	5.70739E-003	3.59960E-001	-1.06891E+000	3.57710E+000	10	...........
	60	0.813333	9.57881E-001	5.99542E-003	0.00000E+000	5.74290E-003	3.59960E-001	-1.08028E+000	3.57710E+000	10	...........
	61	0.826667	9.63420E-001	5.98991E-003	0.00000E+000	5.77080E-003	3.59960E-001	-1.06882E+000	3.57710E+000	10	...........
	62	0.84	9.68959E-001	5.99617E-003	0.00000E+000	5.81004E-003	3.59960E-001	-1.06887E+000	3.57710E+000	10	...........
	63	0.853333	9.74482E-001	5.99345E-003	0.00000E+000	5.84051E-003	3.59960E-001	-1.08024E+000	3.57710E+000	10	...........
	64	0.866667	9.79977E-001	5.99211E-003	0.00000E+000	5.87213E-003	3.59960E-001	-1.06879E+000	3.57710E+000	10	...........
	65	0.88	9.85419E-001	5.99384E-003	0.00000E+000	5.90644E-003	3.59960E-001	-1.06880E+000	3.57710E+000	10	...........
	66	0.893333	9.90782E-001	5.99284E-003	0.00000E+000	5.93760E-003	3.59960E-001	-1.08006E+000	3.57710E+000	10	...........
	67	0.906667	9.96105E-001	5.99347E-003	0.00000E+000	5.97012E-003	3.59960E-001	-1.06883E+000	3.57710E+000	10	...........
	68	0.911667	9.99767E-001	6.00280E-003	0.00000E+000	6.00141E-003	3.59960E-001	-1.08207E+000	3.57710E+000	10	...........
STARTTIMEOFFSET	QUANT	235.4167	Start Time Offset (s)