File: Data/CV_CRGO300517_1/PWRCCD_CRGO300517_1/CHARGE_DISCHARGE/CHARGE_#683.DTA
EXPLAIN
TAG	PWR800_CHARGE
TITLE	LABEL	PWR Cyclic Charge Discharge (Cell) - Charge Step	Test &Identifier
DATE	LABEL	22-6-2017	Date
TIME	LABEL	16:02:55	Time
NOTES	NOTES	3	&Notes...
	supercap test cell
	0.6mg
	6M KOH
PSTAT	PSTAT	IFC5000-01520	Potentiostat
CAPACITY	QUANT	1.00000E-003	Capacity (A-hr)
CELLTYPE	SELECTOR	1	&Cell Type
WORKINGCONNECTION	SELECTOR	0	&Working Lead
MAXCHARGETIME	VARIABLEANDUNITS	1.00000E+002	s	1.00000E+002	second(s)	Max &Charge Time
CHARGECURRENT	QUANT	6.00000E-003	&Charge Current (A)
VOLTAGEFINISH	TWOPARAM	F	1.00000E-003	3.60000E+003	&Voltage Finish	 I (A) < 	Max Time(s)
SAMPLETIME	QUANT	1.00000E-002	Sa&mple Period (s)
CHARGESTOPAT1	MULTIPARAM	4	1.00000E+000	Charge Stop At &1	Voltage > Limit	V
CHARGESTOPAT2	MULTIPARAM	0	0.00000E+000	Charge Stop At &2	None	N/A
AESBHCSELECTOR	TOGGLE	F	Save Both Half Cells
IRCOMP	TOGGLE	F	IR &Measure
EOC	QUANT	0	Open Circuit (V)
SEQUENCER	TOGGLE	TRUE	Run as Sequence
PSTATMODEL	IQUANT	53	Pstat Model
PSTATSECTION	LABEL	IFC5000-01520	Pstat Section
PSTATSERIALNO	LABEL	01520	Pstat Serial Number
CTRLMODE	IQUANT	0	Control Mode
ELECTROMETER	IQUANT	1	RE=0 or CS=1
IESTAB	IQUANT	0	I/E Stability
CASPEED	IQUANT	4	Control Amp Speed
CONVENTION	IQUANT	1	Current Convention
ICHRANGE	IQUANT	2	Ich Range
ICHRANGEMODE	TOGGLE	T	Ich Auto Range
ICHOFFSETENABLE	TOGGLE	F	Ich Offset Enable
ICHOFFSET	QUANT	0	Ich Offset (V)
ICHFILTER	IQUANT	1	Ich Filter
VCHRANGE	IQUANT	2	Vch Range
VCHRANGEMODE	TOGGLE	T	Vch Auto Range
VCHOFFSETENABLE	TOGGLE	F	Vch Offset Enable
VCHOFFSET	QUANT	0	Vch Offset (V)
VCHFILTER	IQUANT	1	Vch Filter
IERANGELOWERLIMIT	IQUANT	9	I/E Range Lower Limit
IERANGEMODE	TOGGLE	F	I/E AutoRange
IERANGE	IQUANT	10	I/E Range
ACHSELECT	IQUANT	1	Ach Select
ACHRANGE	IQUANT	2	Ach Range
ACHOFFSETENABLE	TOGGLE	F	Ach Offset Enable
ACHOFFSET	QUANT	0	Ach Offset (V)
ACHFILTER	IQUANT	1	Ach Filter
CABLEID	IQUANT	14	Cable ID
DCCALDATE	LABEL	20-10-2016	DC Calibration Date
ACCALDATE	LABEL	12/3/2015	AC Calibration Date
FRAMEWORKVERSION	QUANT	7.01	Framework Version
INSTRUMENTVERSION	LABEL	4.00	Instrument Version
CURVE	TABLE	56
	Pt	T	Vf	Im	Vu	Pwr	Sig	Ach	Temp	IERange	Over
	#	s	V	A	V	W	V	V	deg C	#	bits
	0	0.013333	6.41999E-001	5.99335E-003	0.00000E+000	3.84773E-003	3.59960E-001	-1.15570E+000	3.57670E+000	10	...........
	1	0.026667	6.51091E-001	5.99005E-003	0.00000E+000	3.90007E-003	3.59960E-001	-1.16509E+000	3.57670E+000	10	...........
	2	0.04	6.59452E-001	5.99448E-003	0.00000E+000	3.95307E-003	3.59960E-001	-1.15416E+000	3.57670E+000	10	...........
	3	0.053333	6.67386E-001	5.99517E-003	0.00000E+000	4.00109E-003	3.59960E-001	-1.15531E+000	3.57670E+000	10	...........
	4	0.066667	6.74996E-001	5.99221E-003	0.00000E+000	4.04472E-003	3.59960E-001	-1.16399E+000	3.57670E+000	10	...........
	5	0.08	6.82415E-001	5.99616E-003	0.00000E+000	4.09187E-003	3.59960E-001	-1.15354E+000	3.57670E+000	10	...........
	6	0.093333	6.89709E-001	5.99360E-003	0.00000E+000	4.13384E-003	3.59960E-001	-1.15511E+000	3.57670E+000	10	...........
	7	0.106667	6.96893E-001	5.98810E-003	0.00000E+000	4.17306E-003	3.59960E-001	-1.16417E+000	3.57670E+000	10	...........
	8	0.12	7.03985E-001	5.99237E-003	0.00000E+000	4.21854E-003	3.59960E-001	-1.15327E+000	3.57670E+000	10	...........
	9	0.133333	7.10968E-001	5.99812E-003	0.00000E+000	4.26447E-003	3.59960E-001	-1.15492E+000	3.57670E+000	10	...........
	10	0.146667	7.17927E-001	5.99491E-003	0.00000E+000	4.30391E-003	3.59960E-001	-1.16404E+000	3.57670E+000	10	...........
	11	0.16	7.24836E-001	5.99335E-003	0.00000E+000	4.34420E-003	3.59960E-001	-1.15318E+000	3.57670E+000	10	...........
	12	0.173333	7.31672E-001	5.99177E-003	0.00000E+000	4.38401E-003	3.59960E-001	-1.15494E+000	3.57670E+000	10	...........
	13	0.186667	7.38495E-001	5.99053E-003	0.00000E+000	4.42397E-003	3.59960E-001	-1.16374E+000	3.57670E+000	10	...........
	14	0.2	7.45282E-001	5.98768E-003	0.00000E+000	4.46251E-003	3.59960E-001	-1.15295E+000	3.57670E+000	10	...........
	15	0.213333	7.51991E-001	5.99563E-003	0.00000E+000	4.50866E-003	3.59960E-001	-1.15499E+000	3.57670E+000	10	...........
	16	0.226667	7.58744E-001	5.99679E-003	0.00000E+000	4.55002E-003	3.59960E-001	-1.16394E+000	3.57670E+000	10	...........
	17	0.24	7.65441E-001	5.99107E-003	0.00000E+000	4.58581E-003	3.59960E-001	-1.15321E+000	3.57670E+000	10	...........
	18	0.253333	7.72141E-001	5.99340E-003	0.00000E+000	4.62775E-003	3.59960E-001	-1.15478E+000	3.57670E+000	10	...........
	19	0.266667	7.78755E-001	5.99066E-003	0.00000E+000	4.66526E-003	3.59960E-001	-1.16369E+000	3.57670E+000	10	...........
	20	0.28	7.85418E-001	5.99334E-003	0.00000E+000	4.70728E-003	3.59960E-001	-1.15313E+000	3.57670E+000	10	...........
	21	0.293333	7.91980E-001	5.99279E-003	0.00000E+000	4.74617E-003	3.59960E-001	-1.15512E+000	3.57670E+000	10	...........
	22	0.306667	7.98575E-001	5.99635E-003	0.00000E+000	4.78853E-003	3.59960E-001	-1.16366E+000	3.57670E+000	10	...........
	23	0.32	8.05138E-001	5.99479E-003	0.00000E+000	4.82664E-003	3.59960E-001	-1.15319E+000	3.57670E+000	10	...........
	24	0.333333	8.11709E-001	5.99071E-003	0.00000E+000	4.86272E-003	3.59960E-001	-1.15490E+000	3.57670E+000	10	...........
	25	0.346667	8.18226E-001	5.99246E-003	0.00000E+000	4.90318E-003	3.59960E-001	-1.16371E+000	3.57670E+000	10	...........
	26	0.36	8.24739E-001	5.99289E-003	0.00000E+000	4.94258E-003	3.59960E-001	-1.15301E+000	3.57670E+000	10	...........
	27	0.373333	8.31210E-001	5.99419E-003	0.00000E+000	4.98243E-003	3.59960E-001	-1.15507E+000	3.57670E+000	10	...........
	28	0.386667	8.37668E-001	5.99892E-003	0.00000E+000	5.02510E-003	3.59960E-001	-1.16313E+000	3.57670E+000	10	...........
	29	0.4	8.44148E-001	5.99622E-003	0.00000E+000	5.06170E-003	3.59960E-001	-1.15231E+000	3.57670E+000	10	...........
	30	0.413333	8.50608E-001	5.99478E-003	0.00000E+000	5.09921E-003	3.59960E-001	-1.15458E+000	3.57670E+000	10	...........
	31	0.426667	8.56970E-001	5.99103E-003	0.00000E+000	5.13413E-003	3.59960E-001	-1.16303E+000	3.57670E+000	10	...........
	32	0.44	8.63366E-001	5.99691E-003	0.00000E+000	5.17753E-003	3.59960E-001	-1.15215E+000	3.57670E+000	10	...........
	33	0.453333	8.69756E-001	5.99405E-003	0.00000E+000	5.21336E-003	3.59960E-001	-1.15442E+000	3.57670E+000	10	...........
	34	0.466667	8.76071E-001	5.99424E-003	0.00000E+000	5.25138E-003	3.59960E-001	-1.16262E+000	3.57670E+000	10	...........
	35	0.48	8.82377E-001	5.99231E-003	0.00000E+000	5.28747E-003	3.59960E-001	-1.15229E+000	3.57670E+000	10	...........
	36	0.493333	8.88654E-001	5.99530E-003	0.00000E+000	5.32775E-003	3.59960E-001	-1.15475E+000	3.57670E+000	10	...........
	37	0.506667	8.94889E-001	5.99755E-003	0.00000E+000	5.36714E-003	3.59960E-001	-1.16286E+000	3.57670E+000	10	...........
	38	0.52	9.01095E-001	5.99884E-003	0.00000E+000	5.40552E-003	3.59960E-001	-1.15221E+000	3.57670E+000	10	...........
	39	0.533333	9.07308E-001	5.99512E-003	0.00000E+000	5.43942E-003	3.59960E-001	-1.15441E+000	3.57670E+000	10	...........
	40	0.546667	9.13431E-001	5.99069E-003	0.00000E+000	5.47208E-003	3.59960E-001	-1.16271E+000	3.57670E+000	10	...........
	41	0.56	9.19563E-001	5.99505E-003	0.00000E+000	5.51283E-003	3.59960E-001	-1.15210E+000	3.57670E+000	10	...........
	42	0.573333	9.25698E-001	5.99522E-003	0.00000E+000	5.54976E-003	3.59960E-001	-1.15481E+000	3.57670E+000	10	...........
	43	0.586667	9.31710E-001	5.99405E-003	0.00000E+000	5.58472E-003	3.59960E-001	-1.16250E+000	3.57670E+000	10	...........
	44	0.6	9.37658E-001	5.99203E-003	0.00000E+000	5.61848E-003	3.59960E-001	-1.15202E+000	3.57670E+000	10	...........
	45	0.613333	9.43611E-001	5.99141E-003	0.00000E+000	5.65356E-003	3.59960E-001	-1.15489E+000	3.57670E+000	10	...........
	46	0.626667	9.49552E-001	5.99561E-003	0.00000E+000	5.69314E-003	3.59960E-001	-1.16283E+000	3.57670E+000	10	...........
	47	0.64	9.55455E-001	5.99285E-003	0.00000E+000	5.72590E-003	3.59960E-001	-1.15240E+000	3.57670E+000	10	...........
	48	0.653333	9.61258E-001	5.99879E-003	0.00000E+000	5.76638E-003	3.59960E-001	-1.15503E+000	3.57670E+000	10	...........
	49	0.666667	9.67046E-001	5.99303E-003	0.00000E+000	5.79553E-003	3.59960E-001	-1.16249E+000	3.57670E+000	10	...........
	50	0.68	9.72794E-001	5.99404E-003	0.00000E+000	5.83097E-003	3.59960E-001	-1.15206E+000	3.57670E+000	10	...........
	51	0.693333	9.78486E-001	5.99292E-003	0.00000E+000	5.86398E-003	3.59960E-001	-1.15527E+000	3.57670E+000	10	...........
	52	0.706667	9.84093E-001	5.99697E-003	0.00000E+000	5.90158E-003	3.59960E-001	-1.16240E+000	3.57670E+000	10	...........
	53	0.72	9.89654E-001	5.99559E-003	0.00000E+000	5.93355E-003	3.59960E-001	-1.15177E+000	3.57670E+000	10	...........
	54	0.733333	9.95207E-001	5.99223E-003	0.00000E+000	5.96351E-003	3.59960E-001	-1.15478E+000	3.57670E+000	10	...........
	55	0.74	9.99311E-001	5.98618E-003	0.00000E+000	5.98205E-003	3.59960E-001	-1.15924E+000	3.57670E+000	10	...........
STARTTIMEOFFSET	QUANT	1134.231	Start Time Offset (s)