File: Data/CV_CRGO300517_1/PWRCCD_CRGO300517_1/CHARGE_DISCHARGE/CHARGE_#510.DTA
EXPLAIN
TAG	PWR800_CHARGE
TITLE	LABEL	PWR Cyclic Charge Discharge (Cell) - Charge Step	Test &Identifier
DATE	LABEL	22-6-2017	Date
TIME	LABEL	15:56:18	Time
NOTES	NOTES	3	&Notes...
	supercap test cell
	0.6mg
	6M KOH
PSTAT	PSTAT	IFC5000-01520	Potentiostat
CAPACITY	QUANT	1.00000E-003	Capacity (A-hr)
CELLTYPE	SELECTOR	1	&Cell Type
WORKINGCONNECTION	SELECTOR	0	&Working Lead
MAXCHARGETIME	VARIABLEANDUNITS	1.00000E+002	s	1.00000E+002	second(s)	Max &Charge Time
CHARGECURRENT	QUANT	6.00000E-003	&Charge Current (A)
VOLTAGEFINISH	TWOPARAM	F	1.00000E-003	3.60000E+003	&Voltage Finish	 I (A) < 	Max Time(s)
SAMPLETIME	QUANT	1.00000E-002	Sa&mple Period (s)
CHARGESTOPAT1	MULTIPARAM	4	1.00000E+000	Charge Stop At &1	Voltage > Limit	V
CHARGESTOPAT2	MULTIPARAM	0	0.00000E+000	Charge Stop At &2	None	N/A
AESBHCSELECTOR	TOGGLE	F	Save Both Half Cells
IRCOMP	TOGGLE	F	IR &Measure
EOC	QUANT	0	Open Circuit (V)
SEQUENCER	TOGGLE	TRUE	Run as Sequence
PSTATMODEL	IQUANT	53	Pstat Model
PSTATSECTION	LABEL	IFC5000-01520	Pstat Section
PSTATSERIALNO	LABEL	01520	Pstat Serial Number
CTRLMODE	IQUANT	0	Control Mode
ELECTROMETER	IQUANT	1	RE=0 or CS=1
IESTAB	IQUANT	0	I/E Stability
CASPEED	IQUANT	4	Control Amp Speed
CONVENTION	IQUANT	1	Current Convention
ICHRANGE	IQUANT	2	Ich Range
ICHRANGEMODE	TOGGLE	T	Ich Auto Range
ICHOFFSETENABLE	TOGGLE	F	Ich Offset Enable
ICHOFFSET	QUANT	0	Ich Offset (V)
ICHFILTER	IQUANT	1	Ich Filter
VCHRANGE	IQUANT	2	Vch Range
VCHRANGEMODE	TOGGLE	T	Vch Auto Range
VCHOFFSETENABLE	TOGGLE	F	Vch Offset Enable
VCHOFFSET	QUANT	0	Vch Offset (V)
VCHFILTER	IQUANT	1	Vch Filter
IERANGELOWERLIMIT	IQUANT	9	I/E Range Lower Limit
IERANGEMODE	TOGGLE	F	I/E AutoRange
IERANGE	IQUANT	10	I/E Range
ACHSELECT	IQUANT	1	Ach Select
ACHRANGE	IQUANT	2	Ach Range
ACHOFFSETENABLE	TOGGLE	F	Ach Offset Enable
ACHOFFSET	QUANT	0	Ach Offset (V)
ACHFILTER	IQUANT	1	Ach Filter
CABLEID	IQUANT	14	Cable ID
DCCALDATE	LABEL	20-10-2016	DC Calibration Date
ACCALDATE	LABEL	12/3/2015	AC Calibration Date
FRAMEWORKVERSION	QUANT	7.01	Framework Version
INSTRUMENTVERSION	LABEL	4.00	Instrument Version
CURVE	TABLE	58
	Pt	T	Vf	Im	Vu	Pwr	Sig	Ach	Temp	IERange	Over
	#	s	V	A	V	W	V	V	deg C	#	bits
	0	0.013333	6.32703E-001	5.99326E-003	0.00000E+000	3.79195E-003	3.59960E-001	-1.12530E+000	3.57640E+000	10	...........
	1	0.026667	6.41604E-001	5.99260E-003	0.00000E+000	3.84488E-003	3.59960E-001	-1.12452E+000	3.57640E+000	10	...........
	2	0.04	6.49790E-001	5.99334E-003	0.00000E+000	3.89441E-003	3.59960E-001	-1.13512E+000	3.57640E+000	10	...........
	3	0.053333	6.57531E-001	5.99567E-003	0.00000E+000	3.94234E-003	3.59960E-001	-1.12524E+000	3.57640E+000	10	...........
	4	0.066667	6.65009E-001	5.99167E-003	0.00000E+000	3.98452E-003	3.59960E-001	-1.12481E+000	3.57640E+000	10	...........
	5	0.08	6.72363E-001	5.99366E-003	0.00000E+000	4.02991E-003	3.59960E-001	-1.13534E+000	3.57640E+000	10	...........
	6	0.093333	6.79478E-001	5.99220E-003	0.00000E+000	4.07156E-003	3.59960E-001	-1.12555E+000	3.57640E+000	10	...........
	7	0.106667	6.86517E-001	5.99651E-003	0.00000E+000	4.11671E-003	3.59960E-001	-1.12547E+000	3.57640E+000	10	...........
	8	0.12	6.93432E-001	5.99674E-003	0.00000E+000	4.15833E-003	3.59960E-001	-1.13580E+000	3.57640E+000	10	...........
	9	0.133333	7.00327E-001	5.99601E-003	0.00000E+000	4.19917E-003	3.59960E-001	-1.12585E+000	3.57640E+000	10	...........
	10	0.146667	7.07097E-001	5.99225E-003	0.00000E+000	4.23710E-003	3.59960E-001	-1.12586E+000	3.57640E+000	10	...........
	11	0.16	7.13838E-001	5.99130E-003	0.00000E+000	4.27682E-003	3.59960E-001	-1.13596E+000	3.57640E+000	10	...........
	12	0.173333	7.20614E-001	5.99005E-003	0.00000E+000	4.31651E-003	3.59960E-001	-1.12583E+000	3.57640E+000	10	...........
	13	0.186667	7.27252E-001	5.99394E-003	0.00000E+000	4.35910E-003	3.59960E-001	-1.12577E+000	3.57640E+000	10	...........
	14	0.2	7.33912E-001	5.99560E-003	0.00000E+000	4.40024E-003	3.59960E-001	-1.13587E+000	3.57640E+000	10	...........
	15	0.213333	7.40547E-001	5.99525E-003	0.00000E+000	4.43976E-003	3.59960E-001	-1.12555E+000	3.57640E+000	10	...........
	16	0.226667	7.47140E-001	5.99351E-003	0.00000E+000	4.47799E-003	3.59960E-001	-1.12567E+000	3.57640E+000	10	...........
	17	0.24	7.53692E-001	5.99214E-003	0.00000E+000	4.51623E-003	3.59960E-001	-1.13574E+000	3.57640E+000	10	...........
	18	0.253333	7.60223E-001	5.99784E-003	0.00000E+000	4.55969E-003	3.59960E-001	-1.12567E+000	3.57640E+000	10	...........
	19	0.266667	7.66735E-001	5.99305E-003	0.00000E+000	4.59508E-003	3.59960E-001	-1.12566E+000	3.57640E+000	10	...........
	20	0.28	7.73296E-001	5.99559E-003	0.00000E+000	4.63636E-003	3.59960E-001	-1.13570E+000	3.57640E+000	10	...........
	21	0.293333	7.79828E-001	5.99485E-003	0.00000E+000	4.67495E-003	3.59960E-001	-1.12546E+000	3.57640E+000	10	...........
	22	0.306667	7.86311E-001	5.99415E-003	0.00000E+000	4.71326E-003	3.59960E-001	-1.12568E+000	3.57640E+000	10	...........
	23	0.32	7.92739E-001	5.99452E-003	0.00000E+000	4.75209E-003	3.59960E-001	-1.13584E+000	3.57640E+000	10	...........
	24	0.333333	7.99252E-001	5.99714E-003	0.00000E+000	4.79323E-003	3.59960E-001	-1.12531E+000	3.57641E+000	10	...........
	25	0.346667	8.05670E-001	5.99490E-003	0.00000E+000	4.82991E-003	3.59960E-001	-1.12553E+000	3.57660E+000	10	...........
	26	0.36	8.12079E-001	5.99287E-003	0.00000E+000	4.86669E-003	3.59960E-001	-1.13534E+000	3.57660E+000	10	...........
	27	0.373333	8.18492E-001	5.99410E-003	0.00000E+000	4.90613E-003	3.59960E-001	-1.12542E+000	3.57660E+000	10	...........
	28	0.386667	8.24877E-001	5.99372E-003	0.00000E+000	4.94408E-003	3.59960E-001	-1.12568E+000	3.57660E+000	10	...........
	29	0.4	8.31284E-001	5.99393E-003	0.00000E+000	4.98266E-003	3.59960E-001	-1.13533E+000	3.57660E+000	10	...........
	30	0.413333	8.37603E-001	5.99372E-003	0.00000E+000	5.02035E-003	3.59960E-001	-1.12491E+000	3.57660E+000	10	...........
	31	0.426667	8.43965E-001	5.99354E-003	0.00000E+000	5.05834E-003	3.59960E-001	-1.12551E+000	3.57660E+000	10	...........
	32	0.44	8.50261E-001	5.99184E-003	0.00000E+000	5.09463E-003	3.59960E-001	-1.13515E+000	3.57660E+000	10	...........
	33	0.453333	8.56550E-001	5.99517E-003	0.00000E+000	5.13516E-003	3.59960E-001	-1.12505E+000	3.57660E+000	10	...........
	34	0.466667	8.62832E-001	5.99761E-003	0.00000E+000	5.17493E-003	3.59960E-001	-1.12568E+000	3.57660E+000	10	...........
	35	0.48	8.69137E-001	5.99592E-003	0.00000E+000	5.21127E-003	3.59960E-001	-1.13542E+000	3.57660E+000	10	...........
	36	0.493333	8.75353E-001	5.99455E-003	0.00000E+000	5.24735E-003	3.59960E-001	-1.12490E+000	3.57660E+000	10	...........
	37	0.506667	8.81553E-001	5.99387E-003	0.00000E+000	5.28392E-003	3.59960E-001	-1.12578E+000	3.57660E+000	10	...........
	38	0.52	8.87752E-001	5.99523E-003	0.00000E+000	5.32228E-003	3.59960E-001	-1.13520E+000	3.57660E+000	10	...........
	39	0.533333	8.93891E-001	5.99839E-003	0.00000E+000	5.36191E-003	3.59960E-001	-1.12468E+000	3.57660E+000	10	...........
	40	0.546667	9.00006E-001	5.99385E-003	0.00000E+000	5.39450E-003	3.59960E-001	-1.12542E+000	3.57660E+000	10	...........
	41	0.56	9.06147E-001	5.99929E-003	0.00000E+000	5.43624E-003	3.59960E-001	-1.13487E+000	3.57660E+000	10	...........
	42	0.573333	9.12247E-001	5.99403E-003	0.00000E+000	5.46803E-003	3.59960E-001	-1.12471E+000	3.57660E+000	10	...........
	43	0.586667	9.18283E-001	5.99311E-003	0.00000E+000	5.50337E-003	3.59960E-001	-1.12555E+000	3.57660E+000	10	...........
	44	0.6	9.24371E-001	5.99702E-003	0.00000E+000	5.54348E-003	3.59960E-001	-1.13536E+000	3.57660E+000	10	...........
	45	0.613333	9.30319E-001	5.99613E-003	0.00000E+000	5.57831E-003	3.59960E-001	-1.12445E+000	3.57660E+000	10	...........
	46	0.626667	9.36263E-001	5.99475E-003	0.00000E+000	5.61266E-003	3.59960E-001	-1.12540E+000	3.57660E+000	10	...........
	47	0.64	9.42130E-001	5.99203E-003	0.00000E+000	5.64527E-003	3.59960E-001	-1.13461E+000	3.57660E+000	10	...........
	48	0.653333	9.48018E-001	5.98817E-003	0.00000E+000	5.67690E-003	3.59960E-001	-1.12396E+000	3.57660E+000	10	...........
	49	0.666667	9.53844E-001	5.98764E-003	0.00000E+000	5.71127E-003	3.59960E-001	-1.12482E+000	3.57660E+000	10	...........
	50	0.68	9.59644E-001	5.99879E-003	0.00000E+000	5.75670E-003	3.59960E-001	-1.13403E+000	3.57660E+000	10	...........
	51	0.693333	9.65401E-001	5.99331E-003	0.00000E+000	5.78595E-003	3.59960E-001	-1.12354E+000	3.57660E+000	10	...........
	52	0.706667	9.71090E-001	5.98971E-003	0.00000E+000	5.81655E-003	3.59960E-001	-1.12484E+000	3.57660E+000	10	...........
	53	0.72	9.76787E-001	5.99690E-003	0.00000E+000	5.85769E-003	3.59960E-001	-1.13440E+000	3.57660E+000	10	...........
	54	0.733333	9.82432E-001	5.99781E-003	0.00000E+000	5.89244E-003	3.59960E-001	-1.12421E+000	3.57660E+000	10	...........
	55	0.746667	9.88007E-001	5.99854E-003	0.00000E+000	5.92660E-003	3.59960E-001	-1.12543E+000	3.57660E+000	10	...........
	56	0.76	9.93520E-001	5.99400E-003	0.00000E+000	5.95516E-003	3.59960E-001	-1.13476E+000	3.57660E+000	10	...........
	57	0.77	9.98345E-001	5.99510E-003	0.00000E+000	5.98518E-003	3.59960E-001	-1.12007E+000	3.57660E+000	10	...........
STARTTIMEOFFSET	QUANT	874.4053	Start Time Offset (s)