File: Data/CV_CRGO300517_1/PWRCCD_CRGO300517_1/CHARGE_DISCHARGE/CHARGE_#240.DTA
EXPLAIN
TAG	PWR800_CHARGE
TITLE	LABEL	PWR Cyclic Charge Discharge (Cell) - Charge Step	Test &Identifier
DATE	LABEL	22-6-2017	Date
TIME	LABEL	15:45:28	Time
NOTES	NOTES	3	&Notes...
	supercap test cell
	0.6mg
	6M KOH
PSTAT	PSTAT	IFC5000-01520	Potentiostat
CAPACITY	QUANT	1.00000E-003	Capacity (A-hr)
CELLTYPE	SELECTOR	1	&Cell Type
WORKINGCONNECTION	SELECTOR	0	&Working Lead
MAXCHARGETIME	VARIABLEANDUNITS	1.00000E+002	s	1.00000E+002	second(s)	Max &Charge Time
CHARGECURRENT	QUANT	6.00000E-003	&Charge Current (A)
VOLTAGEFINISH	TWOPARAM	F	1.00000E-003	3.60000E+003	&Voltage Finish	 I (A) < 	Max Time(s)
SAMPLETIME	QUANT	1.00000E-002	Sa&mple Period (s)
CHARGESTOPAT1	MULTIPARAM	4	1.00000E+000	Charge Stop At &1	Voltage > Limit	V
CHARGESTOPAT2	MULTIPARAM	0	0.00000E+000	Charge Stop At &2	None	N/A
AESBHCSELECTOR	TOGGLE	F	Save Both Half Cells
IRCOMP	TOGGLE	F	IR &Measure
EOC	QUANT	0	Open Circuit (V)
SEQUENCER	TOGGLE	TRUE	Run as Sequence
PSTATMODEL	IQUANT	53	Pstat Model
PSTATSECTION	LABEL	IFC5000-01520	Pstat Section
PSTATSERIALNO	LABEL	01520	Pstat Serial Number
CTRLMODE	IQUANT	0	Control Mode
ELECTROMETER	IQUANT	1	RE=0 or CS=1
IESTAB	IQUANT	0	I/E Stability
CASPEED	IQUANT	4	Control Amp Speed
CONVENTION	IQUANT	1	Current Convention
ICHRANGE	IQUANT	2	Ich Range
ICHRANGEMODE	TOGGLE	T	Ich Auto Range
ICHOFFSETENABLE	TOGGLE	F	Ich Offset Enable
ICHOFFSET	QUANT	0	Ich Offset (V)
ICHFILTER	IQUANT	1	Ich Filter
VCHRANGE	IQUANT	2	Vch Range
VCHRANGEMODE	TOGGLE	T	Vch Auto Range
VCHOFFSETENABLE	TOGGLE	F	Vch Offset Enable
VCHOFFSET	QUANT	0	Vch Offset (V)
VCHFILTER	IQUANT	1	Vch Filter
IERANGELOWERLIMIT	IQUANT	9	I/E Range Lower Limit
IERANGEMODE	TOGGLE	F	I/E AutoRange
IERANGE	IQUANT	10	I/E Range
ACHSELECT	IQUANT	1	Ach Select
ACHRANGE	IQUANT	2	Ach Range
ACHOFFSETENABLE	TOGGLE	F	Ach Offset Enable
ACHOFFSET	QUANT	0	Ach Offset (V)
ACHFILTER	IQUANT	1	Ach Filter
CABLEID	IQUANT	14	Cable ID
DCCALDATE	LABEL	20-10-2016	DC Calibration Date
ACCALDATE	LABEL	12/3/2015	AC Calibration Date
FRAMEWORKVERSION	QUANT	7.01	Framework Version
INSTRUMENTVERSION	LABEL	4.00	Instrument Version
CURVE	TABLE	64
	Pt	T	Vf	Im	Vu	Pwr	Sig	Ach	Temp	IERange	Over
	#	s	V	A	V	W	V	V	deg C	#	bits
	0	0.013333	6.10670E-001	5.99406E-003	0.00000E+000	3.66039E-003	3.59960E-001	-1.10169E+000	3.57700E+000	10	...........
	1	0.026667	6.19214E-001	5.99337E-003	0.00000E+000	3.71118E-003	3.59960E-001	-1.09952E+000	3.57700E+000	10	...........
	2	0.04	6.27022E-001	5.99148E-003	0.00000E+000	3.75679E-003	3.59960E-001	-1.09412E+000	3.57700E+000	10	...........
	3	0.053333	6.34433E-001	5.99295E-003	0.00000E+000	3.80212E-003	3.59960E-001	-1.10155E+000	3.57700E+000	10	...........
	4	0.066667	6.41599E-001	5.99650E-003	0.00000E+000	3.84735E-003	3.59960E-001	-1.09938E+000	3.57700E+000	10	...........
	5	0.08	6.48540E-001	5.99573E-003	0.00000E+000	3.88847E-003	3.59960E-001	-1.09424E+000	3.57700E+000	10	...........
	6	0.093333	6.55413E-001	5.99394E-003	0.00000E+000	3.92850E-003	3.59960E-001	-1.10169E+000	3.57700E+000	10	...........
	7	0.106667	6.62105E-001	5.99681E-003	0.00000E+000	3.97052E-003	3.59960E-001	-1.09946E+000	3.57700E+000	10	...........
	8	0.12	6.68765E-001	5.99127E-003	0.00000E+000	4.00675E-003	3.59960E-001	-1.09401E+000	3.57700E+000	10	...........
	9	0.133333	6.75293E-001	5.99040E-003	0.00000E+000	4.04528E-003	3.59960E-001	-1.10165E+000	3.57700E+000	10	...........
	10	0.146667	6.81788E-001	5.99483E-003	0.00000E+000	4.08720E-003	3.59960E-001	-1.09948E+000	3.57700E+000	10	...........
	11	0.16	6.88240E-001	5.99551E-003	0.00000E+000	4.12635E-003	3.59960E-001	-1.09411E+000	3.57700E+000	10	...........
	12	0.173333	6.94670E-001	5.99222E-003	0.00000E+000	4.16261E-003	3.59960E-001	-1.10137E+000	3.57700E+000	10	...........
	13	0.186667	7.01053E-001	5.99870E-003	0.00000E+000	4.20541E-003	3.59960E-001	-1.09908E+000	3.57700E+000	10	...........
	14	0.2	7.07356E-001	5.99307E-003	0.00000E+000	4.23923E-003	3.59960E-001	-1.09353E+000	3.57700E+000	10	...........
	15	0.213333	7.13689E-001	5.99810E-003	0.00000E+000	4.28078E-003	3.59960E-001	-1.10111E+000	3.57700E+000	10	...........
	16	0.226667	7.20044E-001	5.99515E-003	0.00000E+000	4.31677E-003	3.59960E-001	-1.09906E+000	3.57700E+000	10	...........
	17	0.24	7.26302E-001	5.99574E-003	0.00000E+000	4.35472E-003	3.59960E-001	-1.09351E+000	3.57700E+000	10	...........
	18	0.253333	7.32534E-001	5.98886E-003	0.00000E+000	4.38704E-003	3.59960E-001	-1.10091E+000	3.57700E+000	10	...........
	19	0.266667	7.38772E-001	5.99523E-003	0.00000E+000	4.42911E-003	3.59960E-001	-1.09910E+000	3.57700E+000	10	...........
	20	0.28	7.45039E-001	5.99528E-003	0.00000E+000	4.46672E-003	3.59960E-001	-1.09353E+000	3.57700E+000	10	...........
	21	0.293333	7.51217E-001	5.99518E-003	0.00000E+000	4.50368E-003	3.59960E-001	-1.10070E+000	3.57700E+000	10	...........
	22	0.306667	7.57442E-001	6.00011E-003	0.00000E+000	4.54474E-003	3.59960E-001	-1.09914E+000	3.57700E+000	10	...........
	23	0.32	7.63622E-001	5.99829E-003	0.00000E+000	4.58042E-003	3.59960E-001	-1.09353E+000	3.57700E+000	10	...........
	24	0.333333	7.69820E-001	5.99187E-003	0.00000E+000	4.61266E-003	3.59960E-001	-1.10075E+000	3.57700E+000	10	...........
	25	0.346667	7.76044E-001	5.99933E-003	0.00000E+000	4.65574E-003	3.59960E-001	-1.09910E+000	3.57700E+000	10	...........
	26	0.36	7.82233E-001	5.99190E-003	0.00000E+000	4.68707E-003	3.59960E-001	-1.09343E+000	3.57700E+000	10	...........
	27	0.373333	7.88368E-001	5.99399E-003	0.00000E+000	4.72547E-003	3.59960E-001	-1.10056E+000	3.57700E+000	10	...........
	28	0.386667	7.94532E-001	5.99740E-003	0.00000E+000	4.76513E-003	3.59960E-001	-1.09925E+000	3.57700E+000	10	...........
	29	0.4	8.00700E-001	5.99595E-003	0.00000E+000	4.80096E-003	3.59960E-001	-1.09334E+000	3.57700E+000	10	...........
	30	0.413333	8.06830E-001	5.99430E-003	0.00000E+000	4.83638E-003	3.59960E-001	-1.10065E+000	3.57700E+000	10	...........
	31	0.426667	8.12979E-001	5.99434E-003	0.00000E+000	4.87327E-003	3.59960E-001	-1.09923E+000	3.57700E+000	10	...........
	32	0.44	8.19117E-001	5.99404E-003	0.00000E+000	4.90982E-003	3.59960E-001	-1.09325E+000	3.57700E+000	10	...........
	33	0.453333	8.25181E-001	5.99590E-003	0.00000E+000	4.94770E-003	3.59960E-001	-1.10042E+000	3.57700E+000	10	...........
	34	0.466667	8.31280E-001	5.99275E-003	0.00000E+000	4.98165E-003	3.59960E-001	-1.09920E+000	3.57700E+000	10	...........
	35	0.48	8.37351E-001	5.99226E-003	0.00000E+000	5.01763E-003	3.59960E-001	-1.09326E+000	3.57700E+000	10	...........
	36	0.493333	8.43462E-001	5.99432E-003	0.00000E+000	5.05599E-003	3.59960E-001	-1.10040E+000	3.57700E+000	10	...........
	37	0.506667	8.49523E-001	5.99038E-003	0.00000E+000	5.08897E-003	3.59960E-001	-1.09884E+000	3.57700E+000	10	...........
	38	0.52	8.55577E-001	5.99640E-003	0.00000E+000	5.13038E-003	3.59960E-001	-1.09289E+000	3.57700E+000	10	...........
	39	0.533333	8.61643E-001	5.99528E-003	0.00000E+000	5.16579E-003	3.59960E-001	-1.09977E+000	3.57700E+000	10	...........
	40	0.546667	8.67688E-001	5.99264E-003	0.00000E+000	5.19974E-003	3.59960E-001	-1.09865E+000	3.57700E+000	10	...........
	41	0.56	8.73721E-001	5.99633E-003	0.00000E+000	5.23912E-003	3.59960E-001	-1.09280E+000	3.57700E+000	10	...........
	42	0.573333	8.79691E-001	5.99256E-003	0.00000E+000	5.27160E-003	3.59960E-001	-1.09984E+000	3.57700E+000	10	...........
	43	0.586667	8.85677E-001	5.99336E-003	0.00000E+000	5.30818E-003	3.59960E-001	-1.09897E+000	3.57700E+000	10	...........
	44	0.6	8.91610E-001	5.99377E-003	0.00000E+000	5.34411E-003	3.59960E-001	-1.09289E+000	3.57700E+000	10	...........
	45	0.613333	8.97596E-001	5.99154E-003	0.00000E+000	5.37798E-003	3.59960E-001	-1.09974E+000	3.57700E+000	10	...........
	46	0.626667	9.03520E-001	5.99453E-003	0.00000E+000	5.41618E-003	3.59960E-001	-1.09900E+000	3.57700E+000	10	...........
	47	0.64	9.09403E-001	5.99500E-003	0.00000E+000	5.45187E-003	3.59960E-001	-1.09288E+000	3.57700E+000	10	...........
	48	0.653333	9.15284E-001	5.99176E-003	0.00000E+000	5.48416E-003	3.59960E-001	-1.09979E+000	3.57700E+000	10	...........
	49	0.666667	9.21209E-001	5.99062E-003	0.00000E+000	5.51861E-003	3.59960E-001	-1.09888E+000	3.57700E+000	10	...........
	50	0.68	9.27036E-001	5.99096E-003	0.00000E+000	5.55384E-003	3.59960E-001	-1.09276E+000	3.57700E+000	10	...........
	51	0.693333	9.32773E-001	5.98869E-003	0.00000E+000	5.58609E-003	3.59960E-001	-1.09961E+000	3.57700E+000	10	...........
	52	0.706667	9.38541E-001	5.99332E-003	0.00000E+000	5.62498E-003	3.59960E-001	-1.09909E+000	3.57700E+000	10	...........
	53	0.72	9.44286E-001	5.99241E-003	0.00000E+000	5.65855E-003	3.59960E-001	-1.09284E+000	3.57700E+000	10	...........
	54	0.733333	9.50042E-001	5.99318E-003	0.00000E+000	5.69377E-003	3.59960E-001	-1.09959E+000	3.57700E+000	10	...........
	55	0.746667	9.55735E-001	5.99354E-003	0.00000E+000	5.72824E-003	3.59960E-001	-1.09896E+000	3.57700E+000	10	...........
	56	0.76	9.61367E-001	5.99561E-003	0.00000E+000	5.76398E-003	3.59960E-001	-1.09277E+000	3.57700E+000	10	...........
	57	0.773333	9.66998E-001	5.99670E-003	0.00000E+000	5.79880E-003	3.59960E-001	-1.09973E+000	3.57700E+000	10	...........
	58	0.786667	9.72600E-001	5.99137E-003	0.00000E+000	5.82721E-003	3.59960E-001	-1.09899E+000	3.57700E+000	10	...........
	59	0.8	9.78166E-001	5.99563E-003	0.00000E+000	5.86472E-003	3.59960E-001	-1.09264E+000	3.57700E+000	10	...........
	60	0.813333	9.83645E-001	5.99278E-003	0.00000E+000	5.89477E-003	3.59960E-001	-1.09937E+000	3.57700E+000	10	...........
	61	0.826667	9.89114E-001	5.99287E-003	0.00000E+000	5.92763E-003	3.59960E-001	-1.09872E+000	3.57700E+000	10	...........
	62	0.84	9.94534E-001	5.99397E-003	0.00000E+000	5.96121E-003	3.59960E-001	-1.09252E+000	3.57700E+000	10	...........
	63	0.848333	9.98894E-001	5.98939E-003	0.00000E+000	5.98276E-003	3.59960E-001	-1.10484E+000	3.57700E+000	10	...........
STARTTIMEOFFSET	QUANT	441.1234	Start Time Offset (s)