File: Data/CV_CRGO300517_1/PWRCCD_CRGO300517_1/CHARGE_DISCHARGE/CHARGE_#57.DTA
EXPLAIN
TAG	PWR800_CHARGE
TITLE	LABEL	PWR Cyclic Charge Discharge (Cell) - Charge Step	Test &Identifier
DATE	LABEL	22-6-2017	Date
TIME	LABEL	15:37:35	Time
NOTES	NOTES	3	&Notes...
	supercap test cell
	0.6mg
	6M KOH
PSTAT	PSTAT	IFC5000-01520	Potentiostat
CAPACITY	QUANT	1.00000E-003	Capacity (A-hr)
CELLTYPE	SELECTOR	1	&Cell Type
WORKINGCONNECTION	SELECTOR	0	&Working Lead
MAXCHARGETIME	VARIABLEANDUNITS	1.00000E+002	s	1.00000E+002	second(s)	Max &Charge Time
CHARGECURRENT	QUANT	6.00000E-003	&Charge Current (A)
VOLTAGEFINISH	TWOPARAM	F	1.00000E-003	3.60000E+003	&Voltage Finish	 I (A) < 	Max Time(s)
SAMPLETIME	QUANT	1.00000E-002	Sa&mple Period (s)
CHARGESTOPAT1	MULTIPARAM	4	1.00000E+000	Charge Stop At &1	Voltage > Limit	V
CHARGESTOPAT2	MULTIPARAM	0	0.00000E+000	Charge Stop At &2	None	N/A
AESBHCSELECTOR	TOGGLE	F	Save Both Half Cells
IRCOMP	TOGGLE	F	IR &Measure
EOC	QUANT	0	Open Circuit (V)
SEQUENCER	TOGGLE	TRUE	Run as Sequence
PSTATMODEL	IQUANT	53	Pstat Model
PSTATSECTION	LABEL	IFC5000-01520	Pstat Section
PSTATSERIALNO	LABEL	01520	Pstat Serial Number
CTRLMODE	IQUANT	0	Control Mode
ELECTROMETER	IQUANT	1	RE=0 or CS=1
IESTAB	IQUANT	0	I/E Stability
CASPEED	IQUANT	4	Control Amp Speed
CONVENTION	IQUANT	1	Current Convention
ICHRANGE	IQUANT	2	Ich Range
ICHRANGEMODE	TOGGLE	T	Ich Auto Range
ICHOFFSETENABLE	TOGGLE	F	Ich Offset Enable
ICHOFFSET	QUANT	0	Ich Offset (V)
ICHFILTER	IQUANT	1	Ich Filter
VCHRANGE	IQUANT	2	Vch Range
VCHRANGEMODE	TOGGLE	T	Vch Auto Range
VCHOFFSETENABLE	TOGGLE	F	Vch Offset Enable
VCHOFFSET	QUANT	0	Vch Offset (V)
VCHFILTER	IQUANT	1	Vch Filter
IERANGELOWERLIMIT	IQUANT	9	I/E Range Lower Limit
IERANGEMODE	TOGGLE	F	I/E AutoRange
IERANGE	IQUANT	10	I/E Range
ACHSELECT	IQUANT	1	Ach Select
ACHRANGE	IQUANT	2	Ach Range
ACHOFFSETENABLE	TOGGLE	F	Ach Offset Enable
ACHOFFSET	QUANT	0	Ach Offset (V)
ACHFILTER	IQUANT	1	Ach Filter
CABLEID	IQUANT	14	Cable ID
DCCALDATE	LABEL	20-10-2016	DC Calibration Date
ACCALDATE	LABEL	12/3/2015	AC Calibration Date
FRAMEWORKVERSION	QUANT	7.01	Framework Version
INSTRUMENTVERSION	LABEL	4.00	Instrument Version
CURVE	TABLE	73
	Pt	T	Vf	Im	Vu	Pwr	Sig	Ach	Temp	IERange	Over
	#	s	V	A	V	W	V	V	deg C	#	bits
	0	0.013333	5.76949E-001	5.99561E-003	0.00000E+000	3.45916E-003	3.59960E-001	-1.04149E+000	3.57720E+000	10	...........
	1	0.026667	5.85054E-001	5.99043E-003	0.00000E+000	3.50473E-003	3.59960E-001	-1.05154E+000	3.57720E+000	10	...........
	2	0.04	5.92573E-001	5.99303E-003	0.00000E+000	3.55131E-003	3.59960E-001	-1.04715E+000	3.57720E+000	10	...........
	3	0.053333	5.99601E-001	5.99429E-003	0.00000E+000	3.59418E-003	3.59960E-001	-1.04134E+000	3.57720E+000	10	...........
	4	0.066667	6.06353E-001	5.99203E-003	0.00000E+000	3.63329E-003	3.59960E-001	-1.05163E+000	3.57720E+000	10	...........
	5	0.08	6.12977E-001	5.99292E-003	0.00000E+000	3.67352E-003	3.59960E-001	-1.04734E+000	3.57720E+000	10	...........
	6	0.093333	6.19506E-001	5.99637E-003	0.00000E+000	3.71478E-003	3.59960E-001	-1.04134E+000	3.57720E+000	10	...........
	7	0.106667	6.25813E-001	5.99399E-003	0.00000E+000	3.75112E-003	3.59960E-001	-1.05111E+000	3.57720E+000	10	...........
	8	0.12	6.32033E-001	5.99263E-003	0.00000E+000	3.78754E-003	3.59960E-001	-1.04718E+000	3.57720E+000	10	...........
	9	0.133333	6.38218E-001	5.99798E-003	0.00000E+000	3.82802E-003	3.59960E-001	-1.04125E+000	3.57720E+000	10	...........
	10	0.146667	6.44323E-001	5.99467E-003	0.00000E+000	3.86250E-003	3.59960E-001	-1.05109E+000	3.57720E+000	10	...........
	11	0.16	6.50412E-001	5.99014E-003	0.00000E+000	3.89606E-003	3.59960E-001	-1.04714E+000	3.57720E+000	10	...........
	12	0.173333	6.56456E-001	5.99662E-003	0.00000E+000	3.93651E-003	3.59960E-001	-1.04074E+000	3.57720E+000	10	...........
	13	0.186667	6.62452E-001	5.99323E-003	0.00000E+000	3.97022E-003	3.59960E-001	-1.05067E+000	3.57720E+000	10	...........
	14	0.2	6.68410E-001	5.99217E-003	0.00000E+000	4.00523E-003	3.59960E-001	-1.04755E+000	3.57720E+000	10	...........
	15	0.213333	6.74351E-001	5.99688E-003	0.00000E+000	4.04400E-003	3.59960E-001	-1.04131E+000	3.57720E+000	10	...........
	16	0.226667	6.80226E-001	5.99732E-003	0.00000E+000	4.07953E-003	3.59960E-001	-1.05053E+000	3.57720E+000	10	...........
	17	0.24	6.86105E-001	5.99428E-003	0.00000E+000	4.11271E-003	3.59960E-001	-1.04743E+000	3.57720E+000	10	...........
	18	0.253333	6.91966E-001	5.99394E-003	0.00000E+000	4.14760E-003	3.59960E-001	-1.04106E+000	3.57720E+000	10	...........
	19	0.266667	6.97796E-001	5.99096E-003	0.00000E+000	4.18047E-003	3.59960E-001	-1.05039E+000	3.57720E+000	10	...........
	20	0.28	7.03614E-001	5.99365E-003	0.00000E+000	4.21722E-003	3.59960E-001	-1.04759E+000	3.57720E+000	10	...........
	21	0.293333	7.09462E-001	5.99534E-003	0.00000E+000	4.25346E-003	3.59960E-001	-1.04079E+000	3.57720E+000	10	...........
	22	0.306667	7.15259E-001	5.99487E-003	0.00000E+000	4.28788E-003	3.59960E-001	-1.04963E+000	3.57720E+000	10	...........
	23	0.32	7.21138E-001	5.99425E-003	0.00000E+000	4.32268E-003	3.59960E-001	-1.04711E+000	3.57720E+000	10	...........
	24	0.333333	7.26928E-001	5.99464E-003	0.00000E+000	4.35767E-003	3.59960E-001	-1.04055E+000	3.57720E+000	10	...........
	25	0.346667	7.32719E-001	5.99783E-003	0.00000E+000	4.39472E-003	3.59960E-001	-1.04949E+000	3.57720E+000	10	...........
	26	0.36	7.38486E-001	5.99306E-003	0.00000E+000	4.42579E-003	3.59960E-001	-1.04708E+000	3.57720E+000	10	...........
	27	0.373333	7.44328E-001	5.99589E-003	0.00000E+000	4.46291E-003	3.59960E-001	-1.04018E+000	3.57720E+000	10	...........
	28	0.386667	7.50094E-001	5.99335E-003	0.00000E+000	4.49558E-003	3.59960E-001	-1.04953E+000	3.57720E+000	10	...........
	29	0.4	7.55894E-001	5.99296E-003	0.00000E+000	4.53004E-003	3.59960E-001	-1.04753E+000	3.57720E+000	10	...........
	30	0.413333	7.61628E-001	5.99504E-003	0.00000E+000	4.56599E-003	3.59960E-001	-1.04042E+000	3.57720E+000	10	...........
	31	0.426667	7.67392E-001	5.99710E-003	0.00000E+000	4.60212E-003	3.59960E-001	-1.04929E+000	3.57720E+000	10	...........
	32	0.44	7.73204E-001	5.99838E-003	0.00000E+000	4.63797E-003	3.59960E-001	-1.04727E+000	3.57720E+000	10	...........
	33	0.453333	7.78924E-001	5.99481E-003	0.00000E+000	4.66950E-003	3.59960E-001	-1.04029E+000	3.57720E+000	10	...........
	34	0.466667	7.84699E-001	5.99375E-003	0.00000E+000	4.70329E-003	3.59960E-001	-1.04919E+000	3.57720E+000	10	...........
	35	0.48	7.90492E-001	5.99724E-003	0.00000E+000	4.74077E-003	3.59960E-001	-1.04740E+000	3.57720E+000	10	...........
	36	0.493333	7.96271E-001	5.99479E-003	0.00000E+000	4.77348E-003	3.59960E-001	-1.04005E+000	3.57720E+000	10	...........
	37	0.506667	8.02011E-001	5.99425E-003	0.00000E+000	4.80745E-003	3.59960E-001	-1.04892E+000	3.57720E+000	10	...........
	38	0.52	8.07752E-001	5.99341E-003	0.00000E+000	4.84118E-003	3.59960E-001	-1.04764E+000	3.57720E+000	10	...........
	39	0.533333	8.13494E-001	5.99288E-003	0.00000E+000	4.87517E-003	3.59960E-001	-1.04041E+000	3.57720E+000	10	...........
	40	0.546667	8.19277E-001	5.99776E-003	0.00000E+000	4.91382E-003	3.59960E-001	-1.04916E+000	3.57720E+000	10	...........
	41	0.56	8.25028E-001	5.98958E-003	0.00000E+000	4.94157E-003	3.59960E-001	-1.04761E+000	3.57720E+000	10	...........
	42	0.573333	8.30766E-001	5.99210E-003	0.00000E+000	4.97804E-003	3.59960E-001	-1.04018E+000	3.57720E+000	10	...........
	43	0.586667	8.36505E-001	5.99561E-003	0.00000E+000	5.01535E-003	3.59960E-001	-1.04886E+000	3.57720E+000	10	...........
	44	0.6	8.42271E-001	5.99224E-003	0.00000E+000	5.04709E-003	3.59960E-001	-1.04788E+000	3.57720E+000	10	...........
	45	0.613333	8.48015E-001	5.99310E-003	0.00000E+000	5.08224E-003	3.59960E-001	-1.04012E+000	3.57720E+000	10	...........
	46	0.626667	8.53742E-001	5.99349E-003	0.00000E+000	5.11690E-003	3.59960E-001	-1.04798E+000	3.57958E+000	10	...........
	47	0.64	8.59431E-001	5.99405E-003	0.00000E+000	5.15147E-003	3.59960E-001	-1.04746E+000	3.58070E+000	10	...........
	48	0.653333	8.65165E-001	5.99282E-003	0.00000E+000	5.18478E-003	3.59960E-001	-1.03980E+000	3.58070E+000	10	...........
	49	0.666667	8.70909E-001	5.99419E-003	0.00000E+000	5.22039E-003	3.59960E-001	-1.04816E+000	3.58070E+000	10	...........
	50	0.68	8.76595E-001	5.99526E-003	0.00000E+000	5.25541E-003	3.59960E-001	-1.04769E+000	3.58070E+000	10	...........
	51	0.693333	8.82314E-001	5.99397E-003	0.00000E+000	5.28856E-003	3.59960E-001	-1.03954E+000	3.58070E+000	10	...........
	52	0.706667	8.87996E-001	5.99365E-003	0.00000E+000	5.32234E-003	3.59960E-001	-1.04769E+000	3.58070E+000	10	...........
	53	0.72	8.93662E-001	5.99714E-003	0.00000E+000	5.35942E-003	3.59960E-001	-1.04754E+000	3.58070E+000	10	...........
	54	0.733333	8.99318E-001	5.99588E-003	0.00000E+000	5.39220E-003	3.59960E-001	-1.03956E+000	3.58070E+000	10	...........
	55	0.746667	9.04978E-001	5.99494E-003	0.00000E+000	5.42529E-003	3.59960E-001	-1.04753E+000	3.58070E+000	10	...........
	56	0.76	9.10688E-001	5.99593E-003	0.00000E+000	5.46042E-003	3.59960E-001	-1.04749E+000	3.58070E+000	10	...........
	57	0.773333	9.16323E-001	5.99124E-003	0.00000E+000	5.48991E-003	3.59960E-001	-1.03949E+000	3.58070E+000	10	...........
	58	0.786667	9.21993E-001	5.99392E-003	0.00000E+000	5.52635E-003	3.59960E-001	-1.04777E+000	3.58070E+000	10	...........
	59	0.8	9.27608E-001	5.99671E-003	0.00000E+000	5.56260E-003	3.59960E-001	-1.04790E+000	3.58070E+000	10	...........
	60	0.813333	9.33183E-001	5.99472E-003	0.00000E+000	5.59417E-003	3.59960E-001	-1.03955E+000	3.58070E+000	10	...........
	61	0.826667	9.38734E-001	5.99370E-003	0.00000E+000	5.62649E-003	3.59960E-001	-1.04727E+000	3.58070E+000	10	...........
	62	0.84	9.44290E-001	5.99710E-003	0.00000E+000	5.66300E-003	3.59960E-001	-1.04787E+000	3.58070E+000	10	...........
	63	0.853333	9.49847E-001	5.99709E-003	0.00000E+000	5.69631E-003	3.59960E-001	-1.03974E+000	3.58070E+000	10	...........
	64	0.866667	9.55361E-001	5.99308E-003	0.00000E+000	5.72556E-003	3.59960E-001	-1.04757E+000	3.58070E+000	10	...........
	65	0.88	9.60878E-001	5.99253E-003	0.00000E+000	5.75809E-003	3.59960E-001	-1.04811E+000	3.58070E+000	10	...........
	66	0.893333	9.66320E-001	5.99409E-003	0.00000E+000	5.79221E-003	3.59960E-001	-1.03971E+000	3.58070E+000	10	...........
	67	0.906667	9.71749E-001	5.99356E-003	0.00000E+000	5.82423E-003	3.59960E-001	-1.04714E+000	3.58070E+000	10	...........
	68	0.92	9.77190E-001	5.99288E-003	0.00000E+000	5.85619E-003	3.59960E-001	-1.04835E+000	3.58070E+000	10	...........
	69	0.933333	9.82544E-001	5.99287E-003	0.00000E+000	5.88826E-003	3.59960E-001	-1.03976E+000	3.58070E+000	10	...........
	70	0.946667	9.87921E-001	5.99266E-003	0.00000E+000	5.92028E-003	3.59960E-001	-1.04687E+000	3.58070E+000	10	...........
	71	0.96	9.93208E-001	5.99307E-003	0.00000E+000	5.95237E-003	3.59960E-001	-1.04779E+000	3.58070E+000	10	...........
	72	0.97167	9.98153E-001	5.99557E-003	0.00000E+000	5.98450E-003	3.59960E-001	-1.03693E+000	3.58070E+000	10	...........
STARTTIMEOFFSET	QUANT	114.1433	Start Time Offset (s)