File: Data/CV_CRGO300517_1/PWRCCD_CRGO300517_1/CHARGE_DISCHARGE/CHARGE_#899.DTA
EXPLAIN
TAG	PWR800_CHARGE
TITLE	LABEL	PWR Cyclic Charge Discharge (Cell) - Charge Step	Test &Identifier
DATE	LABEL	22-6-2017	Date
TIME	LABEL	16:10:57	Time
NOTES	NOTES	3	&Notes...
	supercap test cell
	0.6mg
	6M KOH
PSTAT	PSTAT	IFC5000-01520	Potentiostat
CAPACITY	QUANT	1.00000E-003	Capacity (A-hr)
CELLTYPE	SELECTOR	1	&Cell Type
WORKINGCONNECTION	SELECTOR	0	&Working Lead
MAXCHARGETIME	VARIABLEANDUNITS	1.00000E+002	s	1.00000E+002	second(s)	Max &Charge Time
CHARGECURRENT	QUANT	6.00000E-003	&Charge Current (A)
VOLTAGEFINISH	TWOPARAM	F	1.00000E-003	3.60000E+003	&Voltage Finish	 I (A) < 	Max Time(s)
SAMPLETIME	QUANT	1.00000E-002	Sa&mple Period (s)
CHARGESTOPAT1	MULTIPARAM	4	1.00000E+000	Charge Stop At &1	Voltage > Limit	V
CHARGESTOPAT2	MULTIPARAM	0	0.00000E+000	Charge Stop At &2	None	N/A
AESBHCSELECTOR	TOGGLE	F	Save Both Half Cells
IRCOMP	TOGGLE	F	IR &Measure
EOC	QUANT	0	Open Circuit (V)
SEQUENCER	TOGGLE	TRUE	Run as Sequence
PSTATMODEL	IQUANT	53	Pstat Model
PSTATSECTION	LABEL	IFC5000-01520	Pstat Section
PSTATSERIALNO	LABEL	01520	Pstat Serial Number
CTRLMODE	IQUANT	0	Control Mode
ELECTROMETER	IQUANT	1	RE=0 or CS=1
IESTAB	IQUANT	0	I/E Stability
CASPEED	IQUANT	4	Control Amp Speed
CONVENTION	IQUANT	1	Current Convention
ICHRANGE	IQUANT	2	Ich Range
ICHRANGEMODE	TOGGLE	T	Ich Auto Range
ICHOFFSETENABLE	TOGGLE	F	Ich Offset Enable
ICHOFFSET	QUANT	0	Ich Offset (V)
ICHFILTER	IQUANT	1	Ich Filter
VCHRANGE	IQUANT	2	Vch Range
VCHRANGEMODE	TOGGLE	T	Vch Auto Range
VCHOFFSETENABLE	TOGGLE	F	Vch Offset Enable
VCHOFFSET	QUANT	0	Vch Offset (V)
VCHFILTER	IQUANT	1	Vch Filter
IERANGELOWERLIMIT	IQUANT	9	I/E Range Lower Limit
IERANGEMODE	TOGGLE	F	I/E AutoRange
IERANGE	IQUANT	10	I/E Range
ACHSELECT	IQUANT	1	Ach Select
ACHRANGE	IQUANT	2	Ach Range
ACHOFFSETENABLE	TOGGLE	F	Ach Offset Enable
ACHOFFSET	QUANT	0	Ach Offset (V)
ACHFILTER	IQUANT	1	Ach Filter
CABLEID	IQUANT	14	Cable ID
DCCALDATE	LABEL	20-10-2016	DC Calibration Date
ACCALDATE	LABEL	12/3/2015	AC Calibration Date
FRAMEWORKVERSION	QUANT	7.01	Framework Version
INSTRUMENTVERSION	LABEL	4.00	Instrument Version
CURVE	TABLE	53
	Pt	T	Vf	Im	Vu	Pwr	Sig	Ach	Temp	IERange	Over
	#	s	V	A	V	W	V	V	deg C	#	bits
	0	0.013333	6.53225E-001	6.00027E-003	0.00000E+000	3.91952E-003	3.59960E-001	-1.17877E+000	3.57760E+000	10	...........
	1	0.026667	6.62485E-001	5.99197E-003	0.00000E+000	3.96959E-003	3.59960E-001	-1.16926E+000	3.57760E+000	10	...........
	2	0.04	6.71051E-001	5.99329E-003	0.00000E+000	4.02180E-003	3.59960E-001	-1.16772E+000	3.57760E+000	10	...........
	3	0.053333	6.79135E-001	5.99363E-003	0.00000E+000	4.07049E-003	3.59960E-001	-1.17865E+000	3.57760E+000	10	...........
	4	0.066667	6.86929E-001	5.99788E-003	0.00000E+000	4.12012E-003	3.59960E-001	-1.16928E+000	3.57760E+000	10	...........
	5	0.08	6.94572E-001	5.99424E-003	0.00000E+000	4.16343E-003	3.59960E-001	-1.16725E+000	3.57760E+000	10	...........
	6	0.093333	7.02015E-001	6.00068E-003	0.00000E+000	4.21256E-003	3.59960E-001	-1.17856E+000	3.57760E+000	10	...........
	7	0.106667	7.09329E-001	5.99255E-003	0.00000E+000	4.25069E-003	3.59960E-001	-1.16913E+000	3.57760E+000	10	...........
	8	0.12	7.16584E-001	5.99712E-003	0.00000E+000	4.29744E-003	3.59960E-001	-1.16746E+000	3.57760E+000	10	...........
	9	0.133333	7.23743E-001	5.99433E-003	0.00000E+000	4.33836E-003	3.59960E-001	-1.17854E+000	3.57760E+000	10	...........
	10	0.146667	7.30843E-001	5.99061E-003	0.00000E+000	4.37820E-003	3.59960E-001	-1.16888E+000	3.57760E+000	10	...........
	11	0.16	7.37856E-001	5.99444E-003	0.00000E+000	4.42303E-003	3.59960E-001	-1.16720E+000	3.57760E+000	10	...........
	12	0.173333	7.44861E-001	5.98884E-003	0.00000E+000	4.46085E-003	3.59960E-001	-1.17855E+000	3.57760E+000	10	...........
	13	0.186667	7.51816E-001	5.98985E-003	0.00000E+000	4.50326E-003	3.59960E-001	-1.16900E+000	3.57760E+000	10	...........
	14	0.2	7.58746E-001	5.99538E-003	0.00000E+000	4.54897E-003	3.59960E-001	-1.16717E+000	3.57760E+000	10	...........
	15	0.213333	7.65614E-001	5.99947E-003	0.00000E+000	4.59327E-003	3.59960E-001	-1.17846E+000	3.57760E+000	10	...........
	16	0.226667	7.72444E-001	5.99759E-003	0.00000E+000	4.63280E-003	3.59960E-001	-1.16889E+000	3.57760E+000	10	...........
	17	0.24	7.79231E-001	5.99195E-003	0.00000E+000	4.66911E-003	3.59960E-001	-1.16747E+000	3.57760E+000	10	...........
	18	0.253333	7.86034E-001	5.99459E-003	0.00000E+000	4.71195E-003	3.59960E-001	-1.17860E+000	3.57760E+000	10	...........
	19	0.266667	7.92821E-001	5.99324E-003	0.00000E+000	4.75157E-003	3.59960E-001	-1.16878E+000	3.57760E+000	10	...........
	20	0.28	7.99605E-001	5.99045E-003	0.00000E+000	4.79000E-003	3.59960E-001	-1.16717E+000	3.57760E+000	10	...........
	21	0.293333	8.06307E-001	5.99576E-003	0.00000E+000	4.83443E-003	3.59960E-001	-1.17831E+000	3.57760E+000	10	...........
	22	0.306667	8.12954E-001	5.98760E-003	0.00000E+000	4.86764E-003	3.59960E-001	-1.16882E+000	3.57760E+000	10	...........
	23	0.32	8.19635E-001	5.99579E-003	0.00000E+000	4.91436E-003	3.59960E-001	-1.16720E+000	3.57760E+000	10	...........
	24	0.333333	8.26286E-001	5.99401E-003	0.00000E+000	4.95277E-003	3.59960E-001	-1.17810E+000	3.57760E+000	10	...........
	25	0.346667	8.32900E-001	5.99042E-003	0.00000E+000	4.98942E-003	3.59960E-001	-1.16830E+000	3.57760E+000	10	...........
	26	0.36	8.39462E-001	5.99237E-003	0.00000E+000	5.03037E-003	3.59960E-001	-1.16685E+000	3.57760E+000	10	...........
	27	0.373333	8.46083E-001	5.99399E-003	0.00000E+000	5.07141E-003	3.59960E-001	-1.17812E+000	3.57760E+000	10	...........
	28	0.386667	8.52596E-001	5.99404E-003	0.00000E+000	5.11049E-003	3.59960E-001	-1.16853E+000	3.57760E+000	10	...........
	29	0.4	8.59074E-001	5.99717E-003	0.00000E+000	5.15202E-003	3.59960E-001	-1.16675E+000	3.57760E+000	10	...........
	30	0.413333	8.65563E-001	5.99359E-003	0.00000E+000	5.18783E-003	3.59960E-001	-1.17794E+000	3.57760E+000	10	...........
	31	0.426667	8.72077E-001	5.99204E-003	0.00000E+000	5.22552E-003	3.59960E-001	-1.16835E+000	3.57760E+000	10	...........
	32	0.44	8.78495E-001	5.99501E-003	0.00000E+000	5.26659E-003	3.59960E-001	-1.16688E+000	3.57760E+000	10	...........
	33	0.453333	8.84909E-001	5.99612E-003	0.00000E+000	5.30602E-003	3.59960E-001	-1.17810E+000	3.57760E+000	10	...........
	34	0.466667	8.91214E-001	5.99044E-003	0.00000E+000	5.33877E-003	3.59960E-001	-1.16819E+000	3.57760E+000	10	...........
	35	0.48	8.97537E-001	5.99129E-003	0.00000E+000	5.37740E-003	3.59960E-001	-1.16645E+000	3.57760E+000	10	...........
	36	0.493333	9.03840E-001	5.99514E-003	0.00000E+000	5.41864E-003	3.59960E-001	-1.17792E+000	3.57760E+000	10	...........
	37	0.506667	9.10066E-001	5.98813E-003	0.00000E+000	5.44959E-003	3.59960E-001	-1.16829E+000	3.57760E+000	10	...........
	38	0.52	9.16270E-001	5.99641E-003	0.00000E+000	5.49433E-003	3.59960E-001	-1.16687E+000	3.57760E+000	10	...........
	39	0.533333	9.22505E-001	5.99222E-003	0.00000E+000	5.52785E-003	3.59960E-001	-1.17802E+000	3.57760E+000	10	...........
	40	0.546667	9.28609E-001	5.99719E-003	0.00000E+000	5.56905E-003	3.59960E-001	-1.16810E+000	3.57760E+000	10	...........
	41	0.56	9.34680E-001	5.99578E-003	0.00000E+000	5.60414E-003	3.59960E-001	-1.16693E+000	3.57760E+000	10	...........
	42	0.573333	9.40698E-001	5.99707E-003	0.00000E+000	5.64143E-003	3.59960E-001	-1.17826E+000	3.57760E+000	10	...........
	43	0.586667	9.46727E-001	5.98979E-003	0.00000E+000	5.67069E-003	3.59960E-001	-1.16828E+000	3.57760E+000	10	...........
	44	0.6	9.52685E-001	5.99261E-003	0.00000E+000	5.70907E-003	3.59960E-001	-1.16677E+000	3.57760E+000	10	...........
	45	0.613333	9.58555E-001	5.99263E-003	0.00000E+000	5.74427E-003	3.59960E-001	-1.17798E+000	3.57760E+000	10	...........
	46	0.626667	9.64402E-001	5.99371E-003	0.00000E+000	5.78034E-003	3.59960E-001	-1.16834E+000	3.57760E+000	10	...........
	47	0.64	9.70160E-001	5.99400E-003	0.00000E+000	5.81514E-003	3.59960E-001	-1.16699E+000	3.57760E+000	10	...........
	48	0.653333	9.75980E-001	5.99894E-003	0.00000E+000	5.85485E-003	3.59960E-001	-1.17786E+000	3.57760E+000	10	...........
	49	0.666667	9.81625E-001	5.99686E-003	0.00000E+000	5.88666E-003	3.59960E-001	-1.16788E+000	3.57760E+000	10	...........
	50	0.68	9.87283E-001	5.99568E-003	0.00000E+000	5.91943E-003	3.59960E-001	-1.16648E+000	3.57760E+000	10	...........
	51	0.693333	9.92879E-001	5.99424E-003	0.00000E+000	5.95155E-003	3.59960E-001	-1.17756E+000	3.57760E+000	10	...........
	52	0.705	9.98119E-001	5.99099E-003	0.00000E+000	5.97972E-003	3.59960E-001	-1.16593E+000	3.57760E+000	10	...........
STARTTIMEOFFSET	QUANT	1444.658	Start Time Offset (s)