File: Data/CV_CRGO300517_1/PWRCCD_CRGO300517_1/CHARGE_DISCHARGE/CHARGE_#552.DTA
EXPLAIN
TAG	PWR800_CHARGE
TITLE	LABEL	PWR Cyclic Charge Discharge (Cell) - Charge Step	Test &Identifier
DATE	LABEL	22-6-2017	Date
TIME	LABEL	15:57:55	Time
NOTES	NOTES	3	&Notes...
	supercap test cell
	0.6mg
	6M KOH
PSTAT	PSTAT	IFC5000-01520	Potentiostat
CAPACITY	QUANT	1.00000E-003	Capacity (A-hr)
CELLTYPE	SELECTOR	1	&Cell Type
WORKINGCONNECTION	SELECTOR	0	&Working Lead
MAXCHARGETIME	VARIABLEANDUNITS	1.00000E+002	s	1.00000E+002	second(s)	Max &Charge Time
CHARGECURRENT	QUANT	6.00000E-003	&Charge Current (A)
VOLTAGEFINISH	TWOPARAM	F	1.00000E-003	3.60000E+003	&Voltage Finish	 I (A) < 	Max Time(s)
SAMPLETIME	QUANT	1.00000E-002	Sa&mple Period (s)
CHARGESTOPAT1	MULTIPARAM	4	1.00000E+000	Charge Stop At &1	Voltage > Limit	V
CHARGESTOPAT2	MULTIPARAM	0	0.00000E+000	Charge Stop At &2	None	N/A
AESBHCSELECTOR	TOGGLE	F	Save Both Half Cells
IRCOMP	TOGGLE	F	IR &Measure
EOC	QUANT	0	Open Circuit (V)
SEQUENCER	TOGGLE	TRUE	Run as Sequence
PSTATMODEL	IQUANT	53	Pstat Model
PSTATSECTION	LABEL	IFC5000-01520	Pstat Section
PSTATSERIALNO	LABEL	01520	Pstat Serial Number
CTRLMODE	IQUANT	0	Control Mode
ELECTROMETER	IQUANT	1	RE=0 or CS=1
IESTAB	IQUANT	0	I/E Stability
CASPEED	IQUANT	4	Control Amp Speed
CONVENTION	IQUANT	1	Current Convention
ICHRANGE	IQUANT	2	Ich Range
ICHRANGEMODE	TOGGLE	T	Ich Auto Range
ICHOFFSETENABLE	TOGGLE	F	Ich Offset Enable
ICHOFFSET	QUANT	0	Ich Offset (V)
ICHFILTER	IQUANT	1	Ich Filter
VCHRANGE	IQUANT	2	Vch Range
VCHRANGEMODE	TOGGLE	T	Vch Auto Range
VCHOFFSETENABLE	TOGGLE	F	Vch Offset Enable
VCHOFFSET	QUANT	0	Vch Offset (V)
VCHFILTER	IQUANT	1	Vch Filter
IERANGELOWERLIMIT	IQUANT	9	I/E Range Lower Limit
IERANGEMODE	TOGGLE	F	I/E AutoRange
IERANGE	IQUANT	10	I/E Range
ACHSELECT	IQUANT	1	Ach Select
ACHRANGE	IQUANT	2	Ach Range
ACHOFFSETENABLE	TOGGLE	F	Ach Offset Enable
ACHOFFSET	QUANT	0	Ach Offset (V)
ACHFILTER	IQUANT	1	Ach Filter
CABLEID	IQUANT	14	Cable ID
DCCALDATE	LABEL	20-10-2016	DC Calibration Date
ACCALDATE	LABEL	12/3/2015	AC Calibration Date
FRAMEWORKVERSION	QUANT	7.01	Framework Version
INSTRUMENTVERSION	LABEL	4.00	Instrument Version
CURVE	TABLE	58
	Pt	T	Vf	Im	Vu	Pwr	Sig	Ach	Temp	IERange	Over
	#	s	V	A	V	W	V	V	deg C	#	bits
	0	0.013333	6.35452E-001	5.99611E-003	0.00000E+000	3.81024E-003	3.59960E-001	-1.14584E+000	3.57640E+000	10	...........
	1	0.026667	6.44416E-001	5.99826E-003	0.00000E+000	3.86537E-003	3.59960E-001	-1.13764E+000	3.57640E+000	10	...........
	2	0.04	6.52657E-001	5.99275E-003	0.00000E+000	3.91121E-003	3.59960E-001	-1.13496E+000	3.57640E+000	10	...........
	3	0.053333	6.60441E-001	5.99203E-003	0.00000E+000	3.95738E-003	3.59960E-001	-1.14560E+000	3.57640E+000	10	...........
	4	0.066667	6.67969E-001	5.99370E-003	0.00000E+000	4.00360E-003	3.59960E-001	-1.13730E+000	3.57640E+000	10	...........
	5	0.08	6.75313E-001	5.99488E-003	0.00000E+000	4.04842E-003	3.59960E-001	-1.13485E+000	3.57640E+000	10	...........
	6	0.093333	6.82494E-001	5.99755E-003	0.00000E+000	4.09329E-003	3.59960E-001	-1.14593E+000	3.57640E+000	10	...........
	7	0.106667	6.89549E-001	5.99640E-003	0.00000E+000	4.13481E-003	3.59960E-001	-1.13734E+000	3.57640E+000	10	...........
	8	0.12	6.96518E-001	5.99040E-003	0.00000E+000	4.17242E-003	3.59960E-001	-1.13485E+000	3.57640E+000	10	...........
	9	0.133333	7.03427E-001	5.99559E-003	0.00000E+000	4.21746E-003	3.59960E-001	-1.14596E+000	3.57640E+000	10	...........
	10	0.146667	7.10266E-001	5.99258E-003	0.00000E+000	4.25632E-003	3.59960E-001	-1.13713E+000	3.57640E+000	10	...........
	11	0.16	7.17022E-001	5.98954E-003	0.00000E+000	4.29463E-003	3.59960E-001	-1.13465E+000	3.57640E+000	10	...........
	12	0.173333	7.23796E-001	5.98653E-003	0.00000E+000	4.33303E-003	3.59960E-001	-1.14568E+000	3.57640E+000	10	...........
	13	0.186667	7.30512E-001	5.99458E-003	0.00000E+000	4.37911E-003	3.59960E-001	-1.13708E+000	3.57640E+000	10	...........
	14	0.2	7.37202E-001	5.99137E-003	0.00000E+000	4.41685E-003	3.59960E-001	-1.13486E+000	3.57640E+000	10	...........
	15	0.213333	7.43852E-001	5.99173E-003	0.00000E+000	4.45696E-003	3.59960E-001	-1.14621E+000	3.57640E+000	10	...........
	16	0.226667	7.50460E-001	5.99480E-003	0.00000E+000	4.49886E-003	3.59960E-001	-1.13724E+000	3.57640E+000	10	...........
	17	0.24	7.57104E-001	5.99666E-003	0.00000E+000	4.54010E-003	3.59960E-001	-1.13511E+000	3.57640E+000	10	...........
	18	0.253333	7.63660E-001	5.99189E-003	0.00000E+000	4.57577E-003	3.59960E-001	-1.14599E+000	3.57640E+000	10	...........
	19	0.266667	7.70184E-001	5.99241E-003	0.00000E+000	4.61526E-003	3.59960E-001	-1.13690E+000	3.57640E+000	10	...........
	20	0.28	7.76746E-001	5.99326E-003	0.00000E+000	4.65524E-003	3.59960E-001	-1.13501E+000	3.57640E+000	10	...........
	21	0.293333	7.83316E-001	5.99135E-003	0.00000E+000	4.69312E-003	3.59960E-001	-1.14611E+000	3.57653E+000	10	...........
	22	0.306667	7.89841E-001	5.99372E-003	0.00000E+000	4.73409E-003	3.59960E-001	-1.13644E+000	3.57670E+000	10	...........
	23	0.32	7.96357E-001	5.99172E-003	0.00000E+000	4.77155E-003	3.59960E-001	-1.13441E+000	3.57670E+000	10	...........
	24	0.333333	8.02804E-001	5.99253E-003	0.00000E+000	4.81082E-003	3.59960E-001	-1.14554E+000	3.57670E+000	10	...........
	25	0.346667	8.09230E-001	5.98867E-003	0.00000E+000	4.84621E-003	3.59960E-001	-1.13626E+000	3.57670E+000	10	...........
	26	0.36	8.15646E-001	5.99573E-003	0.00000E+000	4.89039E-003	3.59960E-001	-1.13462E+000	3.57670E+000	10	...........
	27	0.373333	8.22087E-001	5.99270E-003	0.00000E+000	4.92652E-003	3.59960E-001	-1.14571E+000	3.57670E+000	10	...........
	28	0.386667	8.28497E-001	5.99769E-003	0.00000E+000	4.96907E-003	3.59960E-001	-1.13609E+000	3.57670E+000	10	...........
	29	0.4	8.34922E-001	5.99900E-003	0.00000E+000	5.00869E-003	3.59960E-001	-1.13450E+000	3.57670E+000	10	...........
	30	0.413333	8.41264E-001	5.99696E-003	0.00000E+000	5.04503E-003	3.59960E-001	-1.14584E+000	3.57670E+000	10	...........
	31	0.426667	8.47641E-001	5.99277E-003	0.00000E+000	5.07972E-003	3.59960E-001	-1.13604E+000	3.57670E+000	10	...........
	32	0.44	8.53930E-001	5.99662E-003	0.00000E+000	5.12069E-003	3.59960E-001	-1.13474E+000	3.57670E+000	10	...........
	33	0.453333	8.60246E-001	5.99184E-003	0.00000E+000	5.15446E-003	3.59960E-001	-1.14575E+000	3.57670E+000	10	...........
	34	0.466667	8.66545E-001	5.99054E-003	0.00000E+000	5.19107E-003	3.59960E-001	-1.13604E+000	3.57670E+000	10	...........
	35	0.48	8.72858E-001	5.99629E-003	0.00000E+000	5.23392E-003	3.59960E-001	-1.13475E+000	3.57670E+000	10	...........
	36	0.493333	8.79092E-001	6.00146E-003	0.00000E+000	5.27583E-003	3.59960E-001	-1.14584E+000	3.57670E+000	10	...........
	37	0.506667	8.85314E-001	5.99556E-003	0.00000E+000	5.30796E-003	3.59960E-001	-1.13602E+000	3.57670E+000	10	...........
	38	0.52	8.91498E-001	5.99196E-003	0.00000E+000	5.34181E-003	3.59960E-001	-1.13471E+000	3.57670E+000	10	...........
	39	0.533333	8.97695E-001	5.99001E-003	0.00000E+000	5.37720E-003	3.59960E-001	-1.14578E+000	3.57670E+000	10	...........
	40	0.546667	9.03847E-001	5.99721E-003	0.00000E+000	5.42056E-003	3.59960E-001	-1.13603E+000	3.57670E+000	10	...........
	41	0.56	9.09977E-001	5.99199E-003	0.00000E+000	5.45257E-003	3.59960E-001	-1.13483E+000	3.57670E+000	10	...........
	42	0.573333	9.16048E-001	5.99850E-003	0.00000E+000	5.49491E-003	3.59960E-001	-1.14593E+000	3.57670E+000	10	...........
	43	0.586667	9.22145E-001	5.99343E-003	0.00000E+000	5.52681E-003	3.59960E-001	-1.13594E+000	3.57670E+000	10	...........
	44	0.6	9.28184E-001	5.98935E-003	0.00000E+000	5.55921E-003	3.59960E-001	-1.13484E+000	3.57670E+000	10	...........
	45	0.613333	9.34136E-001	5.99184E-003	0.00000E+000	5.59719E-003	3.59960E-001	-1.14595E+000	3.57670E+000	10	...........
	46	0.626667	9.40092E-001	5.99525E-003	0.00000E+000	5.63609E-003	3.59960E-001	-1.13571E+000	3.57670E+000	10	...........
	47	0.64	9.45990E-001	5.99374E-003	0.00000E+000	5.67002E-003	3.59960E-001	-1.13462E+000	3.57670E+000	10	...........
	48	0.653333	9.51824E-001	5.98981E-003	0.00000E+000	5.70124E-003	3.59960E-001	-1.14542E+000	3.57670E+000	10	...........
	49	0.666667	9.57635E-001	5.99572E-003	0.00000E+000	5.74171E-003	3.59960E-001	-1.13535E+000	3.57670E+000	10	...........
	50	0.68	9.63398E-001	5.98881E-003	0.00000E+000	5.76960E-003	3.59960E-001	-1.13458E+000	3.57670E+000	10	...........
	51	0.693333	9.69118E-001	5.99346E-003	0.00000E+000	5.80837E-003	3.59960E-001	-1.14565E+000	3.57670E+000	10	...........
	52	0.706667	9.74868E-001	5.99812E-003	0.00000E+000	5.84738E-003	3.59960E-001	-1.13544E+000	3.57670E+000	10	...........
	53	0.72	9.80488E-001	5.99268E-003	0.00000E+000	5.87575E-003	3.59960E-001	-1.13493E+000	3.57670E+000	10	...........
	54	0.733333	9.86060E-001	5.99580E-003	0.00000E+000	5.91222E-003	3.59960E-001	-1.14558E+000	3.57670E+000	10	...........
	55	0.746667	9.91600E-001	5.98889E-003	0.00000E+000	5.93858E-003	3.59960E-001	-1.13568E+000	3.57670E+000	10	...........
	56	0.76	9.97128E-001	6.00025E-003	0.00000E+000	5.98301E-003	3.59960E-001	-1.13523E+000	3.57670E+000	10	...........
	57	0.761667	1.00016E+000	5.99129E-003	0.00000E+000	5.99227E-003	3.59960E-001	-1.13989E+000	3.57670E+000	10	...........
STARTTIMEOFFSET	QUANT	938.5401	Start Time Offset (s)