File: Data/CV_CRGO300517_1/PWRCCD_CRGO300517_1/CHARGE_DISCHARGE/CHARGE_#655.DTA
EXPLAIN
TAG	PWR800_CHARGE
TITLE	LABEL	PWR Cyclic Charge Discharge (Cell) - Charge Step	Test &Identifier
DATE	LABEL	22-6-2017	Date
TIME	LABEL	16:01:51	Time
NOTES	NOTES	3	&Notes...
	supercap test cell
	0.6mg
	6M KOH
PSTAT	PSTAT	IFC5000-01520	Potentiostat
CAPACITY	QUANT	1.00000E-003	Capacity (A-hr)
CELLTYPE	SELECTOR	1	&Cell Type
WORKINGCONNECTION	SELECTOR	0	&Working Lead
MAXCHARGETIME	VARIABLEANDUNITS	1.00000E+002	s	1.00000E+002	second(s)	Max &Charge Time
CHARGECURRENT	QUANT	6.00000E-003	&Charge Current (A)
VOLTAGEFINISH	TWOPARAM	F	1.00000E-003	3.60000E+003	&Voltage Finish	 I (A) < 	Max Time(s)
SAMPLETIME	QUANT	1.00000E-002	Sa&mple Period (s)
CHARGESTOPAT1	MULTIPARAM	4	1.00000E+000	Charge Stop At &1	Voltage > Limit	V
CHARGESTOPAT2	MULTIPARAM	0	0.00000E+000	Charge Stop At &2	None	N/A
AESBHCSELECTOR	TOGGLE	F	Save Both Half Cells
IRCOMP	TOGGLE	F	IR &Measure
EOC	QUANT	0	Open Circuit (V)
SEQUENCER	TOGGLE	TRUE	Run as Sequence
PSTATMODEL	IQUANT	53	Pstat Model
PSTATSECTION	LABEL	IFC5000-01520	Pstat Section
PSTATSERIALNO	LABEL	01520	Pstat Serial Number
CTRLMODE	IQUANT	0	Control Mode
ELECTROMETER	IQUANT	1	RE=0 or CS=1
IESTAB	IQUANT	0	I/E Stability
CASPEED	IQUANT	4	Control Amp Speed
CONVENTION	IQUANT	1	Current Convention
ICHRANGE	IQUANT	2	Ich Range
ICHRANGEMODE	TOGGLE	T	Ich Auto Range
ICHOFFSETENABLE	TOGGLE	F	Ich Offset Enable
ICHOFFSET	QUANT	0	Ich Offset (V)
ICHFILTER	IQUANT	1	Ich Filter
VCHRANGE	IQUANT	2	Vch Range
VCHRANGEMODE	TOGGLE	T	Vch Auto Range
VCHOFFSETENABLE	TOGGLE	F	Vch Offset Enable
VCHOFFSET	QUANT	0	Vch Offset (V)
VCHFILTER	IQUANT	1	Vch Filter
IERANGELOWERLIMIT	IQUANT	9	I/E Range Lower Limit
IERANGEMODE	TOGGLE	F	I/E AutoRange
IERANGE	IQUANT	10	I/E Range
ACHSELECT	IQUANT	1	Ach Select
ACHRANGE	IQUANT	2	Ach Range
ACHOFFSETENABLE	TOGGLE	F	Ach Offset Enable
ACHOFFSET	QUANT	0	Ach Offset (V)
ACHFILTER	IQUANT	1	Ach Filter
CABLEID	IQUANT	14	Cable ID
DCCALDATE	LABEL	20-10-2016	DC Calibration Date
ACCALDATE	LABEL	12/3/2015	AC Calibration Date
FRAMEWORKVERSION	QUANT	7.01	Framework Version
INSTRUMENTVERSION	LABEL	4.00	Instrument Version
CURVE	TABLE	56
	Pt	T	Vf	Im	Vu	Pwr	Sig	Ach	Temp	IERange	Over
	#	s	V	A	V	W	V	V	deg C	#	bits
	0	0.013333	6.40756E-001	5.99687E-003	0.00000E+000	3.84253E-003	3.59960E-001	-1.16239E+000	3.57650E+000	10	...........
	1	0.026667	6.49807E-001	5.99655E-003	0.00000E+000	3.89660E-003	3.59960E-001	-1.15247E+000	3.57650E+000	10	...........
	2	0.04	6.58143E-001	5.99476E-003	0.00000E+000	3.94541E-003	3.59960E-001	-1.15110E+000	3.57650E+000	10	...........
	3	0.053333	6.66032E-001	5.99157E-003	0.00000E+000	3.99058E-003	3.59960E-001	-1.16218E+000	3.57650E+000	10	...........
	4	0.066667	6.73645E-001	5.99210E-003	0.00000E+000	4.03655E-003	3.59960E-001	-1.15263E+000	3.57650E+000	10	...........
	5	0.08	6.81070E-001	5.99307E-003	0.00000E+000	4.08170E-003	3.59960E-001	-1.15109E+000	3.57650E+000	10	...........
	6	0.093333	6.88315E-001	5.98918E-003	0.00000E+000	4.12244E-003	3.59960E-001	-1.16192E+000	3.57650E+000	10	...........
	7	0.106667	6.95421E-001	5.99556E-003	0.00000E+000	4.16944E-003	3.59960E-001	-1.15258E+000	3.57650E+000	10	...........
	8	0.12	7.02523E-001	5.99372E-003	0.00000E+000	4.21072E-003	3.59960E-001	-1.15084E+000	3.57650E+000	10	...........
	9	0.133333	7.09499E-001	5.99385E-003	0.00000E+000	4.25263E-003	3.59960E-001	-1.16224E+000	3.57650E+000	10	...........
	10	0.146667	7.16459E-001	5.99354E-003	0.00000E+000	4.29413E-003	3.59960E-001	-1.15223E+000	3.57650E+000	10	...........
	11	0.16	7.23383E-001	5.99625E-003	0.00000E+000	4.33759E-003	3.59960E-001	-1.15093E+000	3.57650E+000	10	...........
	12	0.173333	7.30200E-001	5.99663E-003	0.00000E+000	4.37874E-003	3.59960E-001	-1.16197E+000	3.57650E+000	10	...........
	13	0.186667	7.37009E-001	5.99381E-003	0.00000E+000	4.41750E-003	3.59960E-001	-1.15242E+000	3.57650E+000	10	...........
	14	0.2	7.43748E-001	5.99437E-003	0.00000E+000	4.45830E-003	3.59960E-001	-1.15118E+000	3.57650E+000	10	...........
	15	0.213333	7.50480E-001	5.99180E-003	0.00000E+000	4.49673E-003	3.59960E-001	-1.16202E+000	3.57650E+000	10	...........
	16	0.226667	7.57185E-001	5.99449E-003	0.00000E+000	4.53894E-003	3.59960E-001	-1.15243E+000	3.57650E+000	10	...........
	17	0.24	7.63840E-001	5.99032E-003	0.00000E+000	4.57565E-003	3.59960E-001	-1.15089E+000	3.57650E+000	10	...........
	18	0.253333	7.70487E-001	5.99754E-003	0.00000E+000	4.62102E-003	3.59960E-001	-1.16198E+000	3.57650E+000	10	...........
	19	0.266667	7.77142E-001	5.99158E-003	0.00000E+000	4.65631E-003	3.59960E-001	-1.15218E+000	3.57650E+000	10	...........
	20	0.28	7.83790E-001	6.00115E-003	0.00000E+000	4.70364E-003	3.59960E-001	-1.15073E+000	3.57650E+000	10	...........
	21	0.293333	7.90345E-001	5.99015E-003	0.00000E+000	4.73429E-003	3.59960E-001	-1.16165E+000	3.57720E+000	10	...........
	22	0.306667	7.96948E-001	5.99979E-003	0.00000E+000	4.78152E-003	3.59960E-001	-1.15198E+000	3.57720E+000	10	...........
	23	0.32	8.03474E-001	5.99020E-003	0.00000E+000	4.81297E-003	3.59960E-001	-1.15063E+000	3.57720E+000	10	...........
	24	0.333333	8.10022E-001	5.99559E-003	0.00000E+000	4.85656E-003	3.59960E-001	-1.16174E+000	3.57720E+000	10	...........
	25	0.346667	8.16541E-001	5.99368E-003	0.00000E+000	4.89408E-003	3.59960E-001	-1.15188E+000	3.57720E+000	10	...........
	26	0.36	8.23054E-001	5.99355E-003	0.00000E+000	4.93301E-003	3.59960E-001	-1.15053E+000	3.57720E+000	10	...........
	27	0.373333	8.29517E-001	5.99302E-003	0.00000E+000	4.97131E-003	3.59960E-001	-1.16156E+000	3.57720E+000	10	...........
	28	0.386667	8.35953E-001	5.98990E-003	0.00000E+000	5.00728E-003	3.59960E-001	-1.15190E+000	3.57720E+000	10	...........
	29	0.4	8.42432E-001	5.99681E-003	0.00000E+000	5.05190E-003	3.59960E-001	-1.15057E+000	3.57720E+000	10	...........
	30	0.413333	8.48851E-001	5.99283E-003	0.00000E+000	5.08702E-003	3.59960E-001	-1.16167E+000	3.57720E+000	10	...........
	31	0.426667	8.55273E-001	5.99963E-003	0.00000E+000	5.13132E-003	3.59960E-001	-1.15175E+000	3.57720E+000	10	...........
	32	0.44	8.61614E-001	5.99015E-003	0.00000E+000	5.16120E-003	3.59960E-001	-1.15043E+000	3.57720E+000	10	...........
	33	0.453333	8.67985E-001	5.99316E-003	0.00000E+000	5.20197E-003	3.59960E-001	-1.16156E+000	3.57720E+000	10	...........
	34	0.466667	8.74350E-001	5.99629E-003	0.00000E+000	5.24286E-003	3.59960E-001	-1.15168E+000	3.57720E+000	10	...........
	35	0.48	8.80596E-001	6.00021E-003	0.00000E+000	5.28376E-003	3.59960E-001	-1.15062E+000	3.57720E+000	10	...........
	36	0.493333	8.86882E-001	5.99432E-003	0.00000E+000	5.31626E-003	3.59960E-001	-1.16158E+000	3.57720E+000	10	...........
	37	0.506667	8.93108E-001	5.99696E-003	0.00000E+000	5.35594E-003	3.59960E-001	-1.15168E+000	3.57720E+000	10	...........
	38	0.52	8.99315E-001	5.99332E-003	0.00000E+000	5.38989E-003	3.59960E-001	-1.15058E+000	3.57720E+000	10	...........
	39	0.533333	9.05542E-001	5.99590E-003	0.00000E+000	5.42954E-003	3.59960E-001	-1.16167E+000	3.57720E+000	10	...........
	40	0.546667	9.11689E-001	5.99038E-003	0.00000E+000	5.46136E-003	3.59960E-001	-1.15174E+000	3.57720E+000	10	...........
	41	0.56	9.17802E-001	5.99806E-003	0.00000E+000	5.50503E-003	3.59960E-001	-1.15044E+000	3.57720E+000	10	...........
	42	0.573333	9.23933E-001	5.99663E-003	0.00000E+000	5.54049E-003	3.59960E-001	-1.16134E+000	3.57720E+000	10	...........
	43	0.586667	9.29916E-001	5.99085E-003	0.00000E+000	5.57098E-003	3.59960E-001	-1.15149E+000	3.57720E+000	10	...........
	44	0.6	9.35933E-001	5.99038E-003	0.00000E+000	5.60659E-003	3.59960E-001	-1.15066E+000	3.57720E+000	10	...........
	45	0.613333	9.41941E-001	5.99316E-003	0.00000E+000	5.64520E-003	3.59960E-001	-1.16123E+000	3.57720E+000	10	...........
	46	0.626667	9.47876E-001	5.99889E-003	0.00000E+000	5.68620E-003	3.59960E-001	-1.15129E+000	3.57720E+000	10	...........
	47	0.64	9.53744E-001	5.99531E-003	0.00000E+000	5.71800E-003	3.59960E-001	-1.15012E+000	3.57720E+000	10	...........
	48	0.653333	9.59584E-001	5.99417E-003	0.00000E+000	5.75191E-003	3.59960E-001	-1.16121E+000	3.57720E+000	10	...........
	49	0.666667	9.65344E-001	5.99199E-003	0.00000E+000	5.78433E-003	3.59960E-001	-1.15099E+000	3.57720E+000	10	...........
	50	0.68	9.71051E-001	5.98984E-003	0.00000E+000	5.81644E-003	3.59960E-001	-1.15038E+000	3.57720E+000	10	...........
	51	0.693333	9.76752E-001	5.99638E-003	0.00000E+000	5.85697E-003	3.59960E-001	-1.16105E+000	3.57720E+000	10	...........
	52	0.706667	9.82409E-001	5.99534E-003	0.00000E+000	5.88987E-003	3.59960E-001	-1.15106E+000	3.57720E+000	10	...........
	53	0.72	9.88000E-001	5.99301E-003	0.00000E+000	5.92109E-003	3.59960E-001	-1.15030E+000	3.57720E+000	10	...........
	54	0.733333	9.93562E-001	5.99428E-003	0.00000E+000	5.95569E-003	3.59960E-001	-1.16131E+000	3.57720E+000	10	...........
	55	0.743333	9.98405E-001	5.99424E-003	0.00000E+000	5.98468E-003	3.59960E-001	-1.14674E+000	3.57720E+000	10	...........
STARTTIMEOFFSET	QUANT	1092.895	Start Time Offset (s)