File: Data/CV_CRGO300517_1/PWRCCD_CRGO300517_1/CHARGE_DISCHARGE/CHARGE_#802.DTA
EXPLAIN
TAG	PWR800_CHARGE
TITLE	LABEL	PWR Cyclic Charge Discharge (Cell) - Charge Step	Test &Identifier
DATE	LABEL	22-6-2017	Date
TIME	LABEL	16:07:22	Time
NOTES	NOTES	3	&Notes...
	supercap test cell
	0.6mg
	6M KOH
PSTAT	PSTAT	IFC5000-01520	Potentiostat
CAPACITY	QUANT	1.00000E-003	Capacity (A-hr)
CELLTYPE	SELECTOR	1	&Cell Type
WORKINGCONNECTION	SELECTOR	0	&Working Lead
MAXCHARGETIME	VARIABLEANDUNITS	1.00000E+002	s	1.00000E+002	second(s)	Max &Charge Time
CHARGECURRENT	QUANT	6.00000E-003	&Charge Current (A)
VOLTAGEFINISH	TWOPARAM	F	1.00000E-003	3.60000E+003	&Voltage Finish	 I (A) < 	Max Time(s)
SAMPLETIME	QUANT	1.00000E-002	Sa&mple Period (s)
CHARGESTOPAT1	MULTIPARAM	4	1.00000E+000	Charge Stop At &1	Voltage > Limit	V
CHARGESTOPAT2	MULTIPARAM	0	0.00000E+000	Charge Stop At &2	None	N/A
AESBHCSELECTOR	TOGGLE	F	Save Both Half Cells
IRCOMP	TOGGLE	F	IR &Measure
EOC	QUANT	0	Open Circuit (V)
SEQUENCER	TOGGLE	TRUE	Run as Sequence
PSTATMODEL	IQUANT	53	Pstat Model
PSTATSECTION	LABEL	IFC5000-01520	Pstat Section
PSTATSERIALNO	LABEL	01520	Pstat Serial Number
CTRLMODE	IQUANT	0	Control Mode
ELECTROMETER	IQUANT	1	RE=0 or CS=1
IESTAB	IQUANT	0	I/E Stability
CASPEED	IQUANT	4	Control Amp Speed
CONVENTION	IQUANT	1	Current Convention
ICHRANGE	IQUANT	2	Ich Range
ICHRANGEMODE	TOGGLE	T	Ich Auto Range
ICHOFFSETENABLE	TOGGLE	F	Ich Offset Enable
ICHOFFSET	QUANT	0	Ich Offset (V)
ICHFILTER	IQUANT	1	Ich Filter
VCHRANGE	IQUANT	2	Vch Range
VCHRANGEMODE	TOGGLE	T	Vch Auto Range
VCHOFFSETENABLE	TOGGLE	F	Vch Offset Enable
VCHOFFSET	QUANT	0	Vch Offset (V)
VCHFILTER	IQUANT	1	Vch Filter
IERANGELOWERLIMIT	IQUANT	9	I/E Range Lower Limit
IERANGEMODE	TOGGLE	F	I/E AutoRange
IERANGE	IQUANT	10	I/E Range
ACHSELECT	IQUANT	1	Ach Select
ACHRANGE	IQUANT	2	Ach Range
ACHOFFSETENABLE	TOGGLE	F	Ach Offset Enable
ACHOFFSET	QUANT	0	Ach Offset (V)
ACHFILTER	IQUANT	1	Ach Filter
CABLEID	IQUANT	14	Cable ID
DCCALDATE	LABEL	20-10-2016	DC Calibration Date
ACCALDATE	LABEL	12/3/2015	AC Calibration Date
FRAMEWORKVERSION	QUANT	7.01	Framework Version
INSTRUMENTVERSION	LABEL	4.00	Instrument Version
CURVE	TABLE	54
	Pt	T	Vf	Im	Vu	Pwr	Sig	Ach	Temp	IERange	Over
	#	s	V	A	V	W	V	V	deg C	#	bits
	0	0.013333	6.48615E-001	5.98995E-003	0.00000E+000	3.88518E-003	3.59960E-001	-1.16480E+000	3.57640E+000	10	...........
	1	0.026667	6.57843E-001	5.99142E-003	0.00000E+000	3.94141E-003	3.59960E-001	-1.17571E+000	3.57640E+000	10	...........
	2	0.04	6.66343E-001	5.99719E-003	0.00000E+000	3.99619E-003	3.59960E-001	-1.16513E+000	3.57640E+000	10	...........
	3	0.053333	6.74375E-001	5.99342E-003	0.00000E+000	4.04181E-003	3.59960E-001	-1.16500E+000	3.57640E+000	10	...........
	4	0.066667	6.82111E-001	5.99297E-003	0.00000E+000	4.08787E-003	3.59960E-001	-1.17592E+000	3.57640E+000	10	...........
	5	0.08	6.89634E-001	5.99416E-003	0.00000E+000	4.13378E-003	3.59960E-001	-1.16524E+000	3.57640E+000	10	...........
	6	0.093333	6.97029E-001	5.99625E-003	0.00000E+000	4.17956E-003	3.59960E-001	-1.16471E+000	3.57640E+000	10	...........
	7	0.106667	7.04268E-001	5.99367E-003	0.00000E+000	4.22115E-003	3.59960E-001	-1.17610E+000	3.57640E+000	10	...........
	8	0.12	7.11436E-001	5.99396E-003	0.00000E+000	4.26432E-003	3.59960E-001	-1.16523E+000	3.57640E+000	10	...........
	9	0.133333	7.18549E-001	5.99322E-003	0.00000E+000	4.30642E-003	3.59960E-001	-1.16447E+000	3.57640E+000	10	...........
	10	0.146667	7.25583E-001	5.99452E-003	0.00000E+000	4.34952E-003	3.59960E-001	-1.17541E+000	3.57640E+000	10	...........
	11	0.16	7.32534E-001	5.99119E-003	0.00000E+000	4.38875E-003	3.59960E-001	-1.16484E+000	3.57640E+000	10	...........
	12	0.173333	7.39500E-001	5.99815E-003	0.00000E+000	4.43563E-003	3.59960E-001	-1.16408E+000	3.57640E+000	10	...........
	13	0.186667	7.46354E-001	5.99375E-003	0.00000E+000	4.47346E-003	3.59960E-001	-1.17525E+000	3.57640E+000	10	...........
	14	0.2	7.53235E-001	5.99096E-003	0.00000E+000	4.51261E-003	3.59960E-001	-1.16449E+000	3.57640E+000	10	...........
	15	0.213333	7.60053E-001	5.99228E-003	0.00000E+000	4.55445E-003	3.59960E-001	-1.16380E+000	3.57640E+000	10	...........
	16	0.226667	7.66870E-001	5.98873E-003	0.00000E+000	4.59258E-003	3.59960E-001	-1.17527E+000	3.57719E+000	10	...........
	17	0.24	7.73698E-001	5.99166E-003	0.00000E+000	4.63574E-003	3.59960E-001	-1.16447E+000	3.57730E+000	10	...........
	18	0.253333	7.80428E-001	5.99778E-003	0.00000E+000	4.68083E-003	3.59960E-001	-1.16380E+000	3.57730E+000	10	...........
	19	0.266667	7.87138E-001	5.99665E-003	0.00000E+000	4.72019E-003	3.59960E-001	-1.17509E+000	3.57730E+000	10	...........
	20	0.28	7.93884E-001	5.99159E-003	0.00000E+000	4.75663E-003	3.59960E-001	-1.16428E+000	3.57730E+000	10	...........
	21	0.293333	8.00563E-001	5.99744E-003	0.00000E+000	4.80133E-003	3.59960E-001	-1.16373E+000	3.57730E+000	10	...........
	22	0.306667	8.07201E-001	5.99235E-003	0.00000E+000	4.83704E-003	3.59960E-001	-1.17518E+000	3.57730E+000	10	...........
	23	0.32	8.13785E-001	5.99161E-003	0.00000E+000	4.87588E-003	3.59960E-001	-1.16440E+000	3.57730E+000	10	...........
	24	0.333333	8.20421E-001	5.99282E-003	0.00000E+000	4.91664E-003	3.59960E-001	-1.16364E+000	3.57730E+000	10	...........
	25	0.346667	8.27021E-001	5.99880E-003	0.00000E+000	4.96113E-003	3.59960E-001	-1.17512E+000	3.57730E+000	10	...........
	26	0.36	8.33515E-001	5.99146E-003	0.00000E+000	4.99397E-003	3.59960E-001	-1.16444E+000	3.57730E+000	10	...........
	27	0.373333	8.40036E-001	6.00110E-003	0.00000E+000	5.04114E-003	3.59960E-001	-1.16374E+000	3.57730E+000	10	...........
	28	0.386667	8.46565E-001	5.99199E-003	0.00000E+000	5.07260E-003	3.59960E-001	-1.17514E+000	3.57730E+000	10	...........
	29	0.4	8.53033E-001	5.99714E-003	0.00000E+000	5.11576E-003	3.59960E-001	-1.16467E+000	3.57730E+000	10	...........
	30	0.413333	8.59483E-001	5.99447E-003	0.00000E+000	5.15215E-003	3.59960E-001	-1.16358E+000	3.57730E+000	10	...........
	31	0.426667	8.65903E-001	5.99006E-003	0.00000E+000	5.18681E-003	3.59960E-001	-1.17502E+000	3.57730E+000	10	...........
	32	0.44	8.72328E-001	5.99360E-003	0.00000E+000	5.22839E-003	3.59960E-001	-1.16446E+000	3.57730E+000	10	...........
	33	0.453333	8.78717E-001	5.99522E-003	0.00000E+000	5.26810E-003	3.59960E-001	-1.16376E+000	3.57730E+000	10	...........
	34	0.466667	8.85070E-001	5.99496E-003	0.00000E+000	5.30596E-003	3.59960E-001	-1.17514E+000	3.57730E+000	10	...........
	35	0.48	8.91334E-001	5.99012E-003	0.00000E+000	5.33920E-003	3.59960E-001	-1.16415E+000	3.57730E+000	10	...........
	36	0.493333	8.97622E-001	5.99559E-003	0.00000E+000	5.38177E-003	3.59960E-001	-1.16308E+000	3.57730E+000	10	...........
	37	0.506667	9.03893E-001	5.99516E-003	0.00000E+000	5.41898E-003	3.59960E-001	-1.17476E+000	3.57730E+000	10	...........
	38	0.52	9.10155E-001	5.99031E-003	0.00000E+000	5.45211E-003	3.59960E-001	-1.16414E+000	3.57730E+000	10	...........
	39	0.533333	9.16323E-001	5.99213E-003	0.00000E+000	5.49073E-003	3.59960E-001	-1.16320E+000	3.57730E+000	10	...........
	40	0.546667	9.22515E-001	5.98870E-003	0.00000E+000	5.52467E-003	3.59960E-001	-1.17460E+000	3.57730E+000	10	...........
	41	0.56	9.28573E-001	5.99568E-003	0.00000E+000	5.56742E-003	3.59960E-001	-1.16415E+000	3.57730E+000	10	...........
	42	0.573333	9.34647E-001	5.99570E-003	0.00000E+000	5.60387E-003	3.59960E-001	-1.16322E+000	3.57730E+000	10	...........
	43	0.586667	9.40670E-001	5.99895E-003	0.00000E+000	5.64303E-003	3.59960E-001	-1.17471E+000	3.57730E+000	10	...........
	44	0.6	9.46647E-001	5.98907E-003	0.00000E+000	5.66953E-003	3.59960E-001	-1.16405E+000	3.57730E+000	10	...........
	45	0.613333	9.52598E-001	5.99399E-003	0.00000E+000	5.70986E-003	3.59960E-001	-1.16322E+000	3.57730E+000	10	...........
	46	0.626667	9.58456E-001	5.99649E-003	0.00000E+000	5.74738E-003	3.59960E-001	-1.17468E+000	3.57730E+000	10	...........
	47	0.64	9.64247E-001	5.99103E-003	0.00000E+000	5.77683E-003	3.59960E-001	-1.16434E+000	3.57730E+000	10	...........
	48	0.653333	9.70038E-001	5.99227E-003	0.00000E+000	5.81273E-003	3.59960E-001	-1.16340E+000	3.57730E+000	10	...........
	49	0.666667	9.75811E-001	5.99811E-003	0.00000E+000	5.85302E-003	3.59960E-001	-1.17476E+000	3.57730E+000	10	...........
	50	0.68	9.81481E-001	5.99290E-003	0.00000E+000	5.88192E-003	3.59960E-001	-1.16432E+000	3.57730E+000	10	...........
	51	0.693333	9.87090E-001	5.98910E-003	0.00000E+000	5.91178E-003	3.59960E-001	-1.16345E+000	3.57730E+000	10	...........
	52	0.706667	9.92638E-001	5.99068E-003	0.00000E+000	5.94658E-003	3.59960E-001	-1.17498E+000	3.57730E+000	10	...........
	53	0.72	9.98183E-001	5.99402E-003	0.00000E+000	5.98313E-003	3.59960E-001	-1.16454E+000	3.57730E+000	10	...........
STARTTIMEOFFSET	QUANT	1306.983	Start Time Offset (s)