File: Data/CV_CRGO300517_1/PWRCCD_CRGO300517_1/CHARGE_DISCHARGE/CHARGE_#47.DTA
EXPLAIN
TAG	PWR800_CHARGE
TITLE	LABEL	PWR Cyclic Charge Discharge (Cell) - Charge Step	Test &Identifier
DATE	LABEL	22-6-2017	Date
TIME	LABEL	15:37:08	Time
NOTES	NOTES	3	&Notes...
	supercap test cell
	0.6mg
	6M KOH
PSTAT	PSTAT	IFC5000-01520	Potentiostat
CAPACITY	QUANT	1.00000E-003	Capacity (A-hr)
CELLTYPE	SELECTOR	1	&Cell Type
WORKINGCONNECTION	SELECTOR	0	&Working Lead
MAXCHARGETIME	VARIABLEANDUNITS	1.00000E+002	s	1.00000E+002	second(s)	Max &Charge Time
CHARGECURRENT	QUANT	6.00000E-003	&Charge Current (A)
VOLTAGEFINISH	TWOPARAM	F	1.00000E-003	3.60000E+003	&Voltage Finish	 I (A) < 	Max Time(s)
SAMPLETIME	QUANT	1.00000E-002	Sa&mple Period (s)
CHARGESTOPAT1	MULTIPARAM	4	1.00000E+000	Charge Stop At &1	Voltage > Limit	V
CHARGESTOPAT2	MULTIPARAM	0	0.00000E+000	Charge Stop At &2	None	N/A
AESBHCSELECTOR	TOGGLE	F	Save Both Half Cells
IRCOMP	TOGGLE	F	IR &Measure
EOC	QUANT	0	Open Circuit (V)
SEQUENCER	TOGGLE	TRUE	Run as Sequence
PSTATMODEL	IQUANT	53	Pstat Model
PSTATSECTION	LABEL	IFC5000-01520	Pstat Section
PSTATSERIALNO	LABEL	01520	Pstat Serial Number
CTRLMODE	IQUANT	0	Control Mode
ELECTROMETER	IQUANT	1	RE=0 or CS=1
IESTAB	IQUANT	0	I/E Stability
CASPEED	IQUANT	4	Control Amp Speed
CONVENTION	IQUANT	1	Current Convention
ICHRANGE	IQUANT	2	Ich Range
ICHRANGEMODE	TOGGLE	T	Ich Auto Range
ICHOFFSETENABLE	TOGGLE	F	Ich Offset Enable
ICHOFFSET	QUANT	0	Ich Offset (V)
ICHFILTER	IQUANT	1	Ich Filter
VCHRANGE	IQUANT	2	Vch Range
VCHRANGEMODE	TOGGLE	T	Vch Auto Range
VCHOFFSETENABLE	TOGGLE	F	Vch Offset Enable
VCHOFFSET	QUANT	0	Vch Offset (V)
VCHFILTER	IQUANT	1	Vch Filter
IERANGELOWERLIMIT	IQUANT	9	I/E Range Lower Limit
IERANGEMODE	TOGGLE	F	I/E AutoRange
IERANGE	IQUANT	10	I/E Range
ACHSELECT	IQUANT	1	Ach Select
ACHRANGE	IQUANT	2	Ach Range
ACHOFFSETENABLE	TOGGLE	F	Ach Offset Enable
ACHOFFSET	QUANT	0	Ach Offset (V)
ACHFILTER	IQUANT	1	Ach Filter
CABLEID	IQUANT	14	Cable ID
DCCALDATE	LABEL	20-10-2016	DC Calibration Date
ACCALDATE	LABEL	12/3/2015	AC Calibration Date
FRAMEWORKVERSION	QUANT	7.01	Framework Version
INSTRUMENTVERSION	LABEL	4.00	Instrument Version
CURVE	TABLE	74
	Pt	T	Vf	Im	Vu	Pwr	Sig	Ach	Temp	IERange	Over
	#	s	V	A	V	W	V	V	deg C	#	bits
	0	0.013333	5.73114E-001	5.99317E-003	0.00000E+000	3.43477E-003	3.59960E-001	-1.03329E+000	3.57770E+000	10	...........
	1	0.026667	5.81212E-001	5.99476E-003	0.00000E+000	3.48423E-003	3.59960E-001	-1.04295E+000	3.57770E+000	10	...........
	2	0.04	5.88663E-001	5.99002E-003	0.00000E+000	3.52610E-003	3.59960E-001	-1.03960E+000	3.57770E+000	10	...........
	3	0.053333	5.95687E-001	5.99140E-003	0.00000E+000	3.56900E-003	3.59960E-001	-1.03310E+000	3.57770E+000	10	...........
	4	0.066667	6.02427E-001	5.99381E-003	0.00000E+000	3.61083E-003	3.59960E-001	-1.04268E+000	3.57770E+000	10	...........
	5	0.08	6.08916E-001	5.99581E-003	0.00000E+000	3.65095E-003	3.59960E-001	-1.03924E+000	3.57770E+000	10	...........
	6	0.093333	6.15374E-001	5.99718E-003	0.00000E+000	3.69051E-003	3.59960E-001	-1.03292E+000	3.57770E+000	10	...........
	7	0.106667	6.21695E-001	5.99621E-003	0.00000E+000	3.72782E-003	3.59960E-001	-1.04274E+000	3.57770E+000	10	...........
	8	0.12	6.27881E-001	5.99221E-003	0.00000E+000	3.76239E-003	3.59960E-001	-1.03928E+000	3.57770E+000	10	...........
	9	0.133333	6.34040E-001	5.99761E-003	0.00000E+000	3.80272E-003	3.59960E-001	-1.03295E+000	3.57770E+000	10	...........
	10	0.146667	6.40110E-001	5.99166E-003	0.00000E+000	3.83532E-003	3.59960E-001	-1.04271E+000	3.57770E+000	10	...........
	11	0.16	6.46146E-001	5.99230E-003	0.00000E+000	3.87190E-003	3.59960E-001	-1.03901E+000	3.57770E+000	10	...........
	12	0.173333	6.52182E-001	5.99776E-003	0.00000E+000	3.91163E-003	3.59960E-001	-1.03295E+000	3.57770E+000	10	...........
	13	0.186667	6.58104E-001	5.99478E-003	0.00000E+000	3.94519E-003	3.59960E-001	-1.04282E+000	3.57770E+000	10	...........
	14	0.2	6.64003E-001	5.99555E-003	0.00000E+000	3.98107E-003	3.59960E-001	-1.03908E+000	3.57770E+000	10	...........
	15	0.213333	6.69891E-001	5.99605E-003	0.00000E+000	4.01670E-003	3.59960E-001	-1.03265E+000	3.57770E+000	10	...........
	16	0.226667	6.75730E-001	5.99812E-003	0.00000E+000	4.05311E-003	3.59960E-001	-1.04255E+000	3.57770E+000	10	...........
	17	0.24	6.81586E-001	5.99521E-003	0.00000E+000	4.08625E-003	3.59960E-001	-1.03870E+000	3.57770E+000	10	...........
	18	0.253333	6.87370E-001	5.99690E-003	0.00000E+000	4.12209E-003	3.59960E-001	-1.03271E+000	3.57770E+000	10	...........
	19	0.266667	6.93174E-001	5.99077E-003	0.00000E+000	4.15265E-003	3.59960E-001	-1.04292E+000	3.57770E+000	10	...........
	20	0.28	6.98965E-001	5.98994E-003	0.00000E+000	4.18676E-003	3.59960E-001	-1.03882E+000	3.57770E+000	10	...........
	21	0.293333	7.04737E-001	5.99434E-003	0.00000E+000	4.22444E-003	3.59960E-001	-1.03281E+000	3.57770E+000	10	...........
	22	0.306667	7.10489E-001	5.99104E-003	0.00000E+000	4.25657E-003	3.59960E-001	-1.04267E+000	3.57770E+000	10	...........
	23	0.32	7.16248E-001	5.99724E-003	0.00000E+000	4.29551E-003	3.59960E-001	-1.03898E+000	3.57770E+000	10	...........
	24	0.333333	7.22031E-001	5.99269E-003	0.00000E+000	4.32691E-003	3.59960E-001	-1.03297E+000	3.57770E+000	10	...........
	25	0.346667	7.27698E-001	5.99517E-003	0.00000E+000	4.36267E-003	3.59960E-001	-1.04270E+000	3.57770E+000	10	...........
	26	0.36	7.33443E-001	5.99503E-003	0.00000E+000	4.39701E-003	3.59960E-001	-1.03856E+000	3.57770E+000	10	...........
	27	0.373333	7.39183E-001	5.99485E-003	0.00000E+000	4.43128E-003	3.59960E-001	-1.03227E+000	3.57770E+000	10	...........
	28	0.386667	7.44972E-001	5.99163E-003	0.00000E+000	4.46360E-003	3.59960E-001	-1.04228E+000	3.57770E+000	10	...........
	29	0.4	7.50679E-001	5.99467E-003	0.00000E+000	4.50007E-003	3.59960E-001	-1.03833E+000	3.57770E+000	10	...........
	30	0.413333	7.56409E-001	5.99495E-003	0.00000E+000	4.53463E-003	3.59960E-001	-1.03229E+000	3.57770E+000	10	...........
	31	0.426667	7.62082E-001	5.99827E-003	0.00000E+000	4.57117E-003	3.59960E-001	-1.04216E+000	3.57770E+000	10	...........
	32	0.44	7.67834E-001	5.99350E-003	0.00000E+000	4.60202E-003	3.59960E-001	-1.03847E+000	3.57770E+000	10	...........
	33	0.453333	7.73599E-001	5.99487E-003	0.00000E+000	4.63762E-003	3.59960E-001	-1.03231E+000	3.57770E+000	10	...........
	34	0.466667	7.79287E-001	5.99568E-003	0.00000E+000	4.67236E-003	3.59960E-001	-1.04244E+000	3.57770E+000	10	...........
	35	0.48	7.85017E-001	5.99555E-003	0.00000E+000	4.70661E-003	3.59960E-001	-1.03818E+000	3.57770E+000	10	...........
	36	0.493333	7.90765E-001	5.99234E-003	0.00000E+000	4.73854E-003	3.59960E-001	-1.03217E+000	3.57770E+000	10	...........
	37	0.506667	7.96491E-001	5.99486E-003	0.00000E+000	4.77485E-003	3.59960E-001	-1.04242E+000	3.57770E+000	10	...........
	38	0.52	8.02175E-001	5.99333E-003	0.00000E+000	4.80770E-003	3.59960E-001	-1.03835E+000	3.57770E+000	10	...........
	39	0.533333	8.07867E-001	5.99399E-003	0.00000E+000	4.84234E-003	3.59960E-001	-1.03220E+000	3.57770E+000	10	...........
	40	0.546667	8.13579E-001	5.99645E-003	0.00000E+000	4.87859E-003	3.59960E-001	-1.04221E+000	3.57770E+000	10	...........
	41	0.56	8.19345E-001	5.99572E-003	0.00000E+000	4.91256E-003	3.59960E-001	-1.03805E+000	3.57770E+000	10	...........
	42	0.573333	8.25034E-001	5.99206E-003	0.00000E+000	4.94365E-003	3.59960E-001	-1.03211E+000	3.57770E+000	10	...........
	43	0.586667	8.30724E-001	5.99470E-003	0.00000E+000	4.97994E-003	3.59960E-001	-1.04261E+000	3.57770E+000	10	...........
	44	0.6	8.36408E-001	5.99207E-003	0.00000E+000	5.01182E-003	3.59960E-001	-1.03841E+000	3.57770E+000	10	...........
	45	0.613333	8.42141E-001	5.99443E-003	0.00000E+000	5.04815E-003	3.59960E-001	-1.03209E+000	3.57770E+000	10	...........
	46	0.626667	8.47876E-001	5.99307E-003	0.00000E+000	5.08138E-003	3.59960E-001	-1.04228E+000	3.57770E+000	10	...........
	47	0.64	8.53566E-001	5.99310E-003	0.00000E+000	5.11551E-003	3.59960E-001	-1.03810E+000	3.57770E+000	10	...........
	48	0.653333	8.59287E-001	5.99191E-003	0.00000E+000	5.14877E-003	3.59960E-001	-1.03237E+000	3.57770E+000	10	...........
	49	0.666667	8.64982E-001	5.99302E-003	0.00000E+000	5.18385E-003	3.59960E-001	-1.04240E+000	3.57770E+000	10	...........
	50	0.68	8.70671E-001	5.99497E-003	0.00000E+000	5.21965E-003	3.59960E-001	-1.03791E+000	3.57770E+000	10	...........
	51	0.693333	8.76351E-001	5.99281E-003	0.00000E+000	5.25180E-003	3.59960E-001	-1.03171E+000	3.57770E+000	10	...........
	52	0.706667	8.82013E-001	5.99124E-003	0.00000E+000	5.28435E-003	3.59960E-001	-1.04218E+000	3.57770E+000	10	...........
	53	0.72	8.87670E-001	5.99101E-003	0.00000E+000	5.31804E-003	3.59960E-001	-1.03769E+000	3.57770E+000	10	...........
	54	0.733333	8.93357E-001	5.99512E-003	0.00000E+000	5.35578E-003	3.59960E-001	-1.03172E+000	3.57770E+000	10	...........
	55	0.746667	8.99010E-001	5.99472E-003	0.00000E+000	5.38932E-003	3.59960E-001	-1.04179E+000	3.57770E+000	10	...........
	56	0.76	9.04640E-001	5.99224E-003	0.00000E+000	5.42082E-003	3.59960E-001	-1.03744E+000	3.57770E+000	10	...........
	57	0.773333	9.10285E-001	5.99128E-003	0.00000E+000	5.45377E-003	3.59960E-001	-1.03180E+000	3.57770E+000	10	...........
	58	0.786667	9.15897E-001	5.99329E-003	0.00000E+000	5.48923E-003	3.59960E-001	-1.04236E+000	3.57770E+000	10	...........
	59	0.8	9.21547E-001	5.99631E-003	0.00000E+000	5.52588E-003	3.59960E-001	-1.03754E+000	3.57770E+000	10	...........
	60	0.813333	9.27135E-001	5.99658E-003	0.00000E+000	5.55963E-003	3.59960E-001	-1.03184E+000	3.57770E+000	10	...........
	61	0.826667	9.32645E-001	5.99483E-003	0.00000E+000	5.59105E-003	3.59960E-001	-1.04224E+000	3.57770E+000	10	...........
	62	0.84	9.38221E-001	5.99356E-003	0.00000E+000	5.62329E-003	3.59960E-001	-1.03768E+000	3.57770E+000	10	...........
	63	0.853333	9.43702E-001	5.99134E-003	0.00000E+000	5.65404E-003	3.59960E-001	-1.03187E+000	3.57770E+000	10	...........
	64	0.866667	9.49259E-001	5.99277E-003	0.00000E+000	5.68869E-003	3.59960E-001	-1.04223E+000	3.57770E+000	10	...........
	65	0.88	9.54727E-001	5.99382E-003	0.00000E+000	5.72247E-003	3.59960E-001	-1.03732E+000	3.57770E+000	10	...........
	66	0.893333	9.60200E-001	5.99117E-003	0.00000E+000	5.75273E-003	3.59960E-001	-1.03169E+000	3.57770E+000	10	...........
	67	0.906667	9.65645E-001	5.99270E-003	0.00000E+000	5.78682E-003	3.59960E-001	-1.04227E+000	3.57770E+000	10	...........
	68	0.92	9.71071E-001	5.99284E-003	0.00000E+000	5.81947E-003	3.59960E-001	-1.03762E+000	3.57770E+000	10	...........
	69	0.933333	9.76497E-001	5.99159E-003	0.00000E+000	5.85077E-003	3.59960E-001	-1.03204E+000	3.57770E+000	10	...........
	70	0.946667	9.81827E-001	5.99563E-003	0.00000E+000	5.88667E-003	3.59960E-001	-1.04254E+000	3.57770E+000	10	...........
	71	0.96	9.87194E-001	5.99713E-003	0.00000E+000	5.92033E-003	3.59960E-001	-1.03741E+000	3.57860E+000	10	...........
	72	0.97333	9.92499E-001	5.99167E-003	0.00000E+000	5.94673E-003	3.59960E-001	-1.03168E+000	3.57860E+000	10	...........
	73	0.98667	9.97741E-001	5.99772E-003	0.00000E+000	5.98417E-003	3.59960E-001	-1.04255E+000	3.57860E+000	10	...........
STARTTIMEOFFSET	QUANT	94.67833	Start Time Offset (s)