File: Data/CV_CRGO300517_1/PWRCCD_CRGO300517_1/CHARGE_DISCHARGE/CHARGE_#49.DTA
EXPLAIN
TAG	PWR800_CHARGE
TITLE	LABEL	PWR Cyclic Charge Discharge (Cell) - Charge Step	Test &Identifier
DATE	LABEL	22-6-2017	Date
TIME	LABEL	15:37:13	Time
NOTES	NOTES	3	&Notes...
	supercap test cell
	0.6mg
	6M KOH
PSTAT	PSTAT	IFC5000-01520	Potentiostat
CAPACITY	QUANT	1.00000E-003	Capacity (A-hr)
CELLTYPE	SELECTOR	1	&Cell Type
WORKINGCONNECTION	SELECTOR	0	&Working Lead
MAXCHARGETIME	VARIABLEANDUNITS	1.00000E+002	s	1.00000E+002	second(s)	Max &Charge Time
CHARGECURRENT	QUANT	6.00000E-003	&Charge Current (A)
VOLTAGEFINISH	TWOPARAM	F	1.00000E-003	3.60000E+003	&Voltage Finish	 I (A) < 	Max Time(s)
SAMPLETIME	QUANT	1.00000E-002	Sa&mple Period (s)
CHARGESTOPAT1	MULTIPARAM	4	1.00000E+000	Charge Stop At &1	Voltage > Limit	V
CHARGESTOPAT2	MULTIPARAM	0	0.00000E+000	Charge Stop At &2	None	N/A
AESBHCSELECTOR	TOGGLE	F	Save Both Half Cells
IRCOMP	TOGGLE	F	IR &Measure
EOC	QUANT	0	Open Circuit (V)
SEQUENCER	TOGGLE	TRUE	Run as Sequence
PSTATMODEL	IQUANT	53	Pstat Model
PSTATSECTION	LABEL	IFC5000-01520	Pstat Section
PSTATSERIALNO	LABEL	01520	Pstat Serial Number
CTRLMODE	IQUANT	0	Control Mode
ELECTROMETER	IQUANT	1	RE=0 or CS=1
IESTAB	IQUANT	0	I/E Stability
CASPEED	IQUANT	4	Control Amp Speed
CONVENTION	IQUANT	1	Current Convention
ICHRANGE	IQUANT	2	Ich Range
ICHRANGEMODE	TOGGLE	T	Ich Auto Range
ICHOFFSETENABLE	TOGGLE	F	Ich Offset Enable
ICHOFFSET	QUANT	0	Ich Offset (V)
ICHFILTER	IQUANT	1	Ich Filter
VCHRANGE	IQUANT	2	Vch Range
VCHRANGEMODE	TOGGLE	T	Vch Auto Range
VCHOFFSETENABLE	TOGGLE	F	Vch Offset Enable
VCHOFFSET	QUANT	0	Vch Offset (V)
VCHFILTER	IQUANT	1	Vch Filter
IERANGELOWERLIMIT	IQUANT	9	I/E Range Lower Limit
IERANGEMODE	TOGGLE	F	I/E AutoRange
IERANGE	IQUANT	10	I/E Range
ACHSELECT	IQUANT	1	Ach Select
ACHRANGE	IQUANT	2	Ach Range
ACHOFFSETENABLE	TOGGLE	F	Ach Offset Enable
ACHOFFSET	QUANT	0	Ach Offset (V)
ACHFILTER	IQUANT	1	Ach Filter
CABLEID	IQUANT	14	Cable ID
DCCALDATE	LABEL	20-10-2016	DC Calibration Date
ACCALDATE	LABEL	12/3/2015	AC Calibration Date
FRAMEWORKVERSION	QUANT	7.01	Framework Version
INSTRUMENTVERSION	LABEL	4.00	Instrument Version
CURVE	TABLE	74
	Pt	T	Vf	Im	Vu	Pwr	Sig	Ach	Temp	IERange	Over
	#	s	V	A	V	W	V	V	deg C	#	bits
	0	0.013333	5.73513E-001	5.99193E-003	0.00000E+000	3.43645E-003	3.59960E-001	-1.03430E+000	3.57860E+000	10	...........
	1	0.026667	5.81609E-001	5.99834E-003	0.00000E+000	3.48869E-003	3.59960E-001	-1.04186E+000	3.57860E+000	10	...........
	2	0.04	5.89065E-001	5.99524E-003	0.00000E+000	3.53158E-003	3.59960E-001	-1.04220E+000	3.57860E+000	10	...........
	3	0.053333	5.96075E-001	5.99197E-003	0.00000E+000	3.57166E-003	3.59960E-001	-1.03382E+000	3.57860E+000	10	...........
	4	0.066667	6.02821E-001	5.99087E-003	0.00000E+000	3.61142E-003	3.59960E-001	-1.04162E+000	3.57860E+000	10	...........
	5	0.08	6.09392E-001	5.99312E-003	0.00000E+000	3.65216E-003	3.59960E-001	-1.04202E+000	3.57860E+000	10	...........
	6	0.093333	6.15841E-001	5.99842E-003	0.00000E+000	3.69407E-003	3.59960E-001	-1.03386E+000	3.57860E+000	10	...........
	7	0.106667	6.22194E-001	5.99367E-003	0.00000E+000	3.72922E-003	3.59960E-001	-1.04160E+000	3.57860E+000	10	...........
	8	0.12	6.28437E-001	5.99176E-003	0.00000E+000	3.76544E-003	3.59960E-001	-1.04207E+000	3.57860E+000	10	...........
	9	0.133333	6.34586E-001	5.99649E-003	0.00000E+000	3.80529E-003	3.59960E-001	-1.03338E+000	3.57860E+000	10	...........
	10	0.146667	6.40687E-001	5.99394E-003	0.00000E+000	3.84024E-003	3.59960E-001	-1.04159E+000	3.57860E+000	10	...........
	11	0.16	6.46718E-001	5.99259E-003	0.00000E+000	3.87552E-003	3.59960E-001	-1.04193E+000	3.57860E+000	10	...........
	12	0.173333	6.52676E-001	5.99076E-003	0.00000E+000	3.91002E-003	3.59960E-001	-1.03367E+000	3.57860E+000	10	...........
	13	0.186667	6.58654E-001	5.99364E-003	0.00000E+000	3.94773E-003	3.59960E-001	-1.04167E+000	3.57860E+000	10	...........
	14	0.2	6.64603E-001	5.99107E-003	0.00000E+000	3.98168E-003	3.59960E-001	-1.04180E+000	3.57860E+000	10	...........
	15	0.213333	6.70476E-001	5.99260E-003	0.00000E+000	4.01790E-003	3.59960E-001	-1.03345E+000	3.57860E+000	10	...........
	16	0.226667	6.76339E-001	5.99824E-003	0.00000E+000	4.05684E-003	3.59960E-001	-1.04177E+000	3.57860E+000	10	...........
	17	0.24	6.82158E-001	5.99457E-003	0.00000E+000	4.08925E-003	3.59960E-001	-1.04213E+000	3.57860E+000	10	...........
	18	0.253333	6.87980E-001	5.99184E-003	0.00000E+000	4.12227E-003	3.59960E-001	-1.03366E+000	3.57860E+000	10	...........
	19	0.266667	6.93797E-001	5.99233E-003	0.00000E+000	4.15746E-003	3.59960E-001	-1.04181E+000	3.57860E+000	10	...........
	20	0.28	6.99593E-001	5.99237E-003	0.00000E+000	4.19222E-003	3.59960E-001	-1.04188E+000	3.57860E+000	10	...........
	21	0.293333	7.05371E-001	5.99371E-003	0.00000E+000	4.22779E-003	3.59960E-001	-1.03354E+000	3.57860E+000	10	...........
	22	0.306667	7.11157E-001	5.99512E-003	0.00000E+000	4.26347E-003	3.59960E-001	-1.04197E+000	3.57860E+000	10	...........
	23	0.32	7.16933E-001	5.99003E-003	0.00000E+000	4.29445E-003	3.59960E-001	-1.04179E+000	3.57860E+000	10	...........
	24	0.333333	7.22699E-001	5.99360E-003	0.00000E+000	4.33157E-003	3.59960E-001	-1.03346E+000	3.57860E+000	10	...........
	25	0.346667	7.28450E-001	5.98969E-003	0.00000E+000	4.36319E-003	3.59960E-001	-1.04128E+000	3.57860E+000	10	...........
	26	0.36	7.34194E-001	5.99353E-003	0.00000E+000	4.40042E-003	3.59960E-001	-1.04129E+000	3.57860E+000	10	...........
	27	0.373333	7.39944E-001	5.99542E-003	0.00000E+000	4.43627E-003	3.59960E-001	-1.03328E+000	3.57860E+000	10	...........
	28	0.386667	7.45711E-001	5.99500E-003	0.00000E+000	4.47054E-003	3.59960E-001	-1.04168E+000	3.57860E+000	10	...........
	29	0.4	7.51436E-001	5.99183E-003	0.00000E+000	4.50248E-003	3.59960E-001	-1.04119E+000	3.57860E+000	10	...........
	30	0.413333	7.57198E-001	5.99134E-003	0.00000E+000	4.53663E-003	3.59960E-001	-1.03321E+000	3.57860E+000	10	...........
	31	0.426667	7.62948E-001	5.99610E-003	0.00000E+000	4.57471E-003	3.59960E-001	-1.04174E+000	3.57860E+000	10	...........
	32	0.44	7.68716E-001	5.99282E-003	0.00000E+000	4.60678E-003	3.59960E-001	-1.04138E+000	3.57860E+000	10	...........
	33	0.453333	7.74453E-001	5.99220E-003	0.00000E+000	4.64067E-003	3.59960E-001	-1.03332E+000	3.57860E+000	10	...........
	34	0.466667	7.80206E-001	5.99446E-003	0.00000E+000	4.67692E-003	3.59960E-001	-1.04156E+000	3.57845E+000	10	...........
	35	0.48	7.85952E-001	5.99347E-003	0.00000E+000	4.71058E-003	3.59960E-001	-1.04100E+000	3.57800E+000	10	...........
	36	0.493333	7.91687E-001	5.99577E-003	0.00000E+000	4.74678E-003	3.59960E-001	-1.03326E+000	3.57800E+000	10	...........
	37	0.506667	7.97422E-001	5.99256E-003	0.00000E+000	4.77860E-003	3.59960E-001	-1.04167E+000	3.57800E+000	10	...........
	38	0.52	8.03141E-001	5.99498E-003	0.00000E+000	4.81482E-003	3.59960E-001	-1.04112E+000	3.57800E+000	10	...........
	39	0.533333	8.08882E-001	5.99348E-003	0.00000E+000	4.84802E-003	3.59960E-001	-1.03316E+000	3.57800E+000	10	...........
	40	0.546667	8.14614E-001	5.99340E-003	0.00000E+000	4.88230E-003	3.59960E-001	-1.04152E+000	3.57800E+000	10	...........
	41	0.56	8.20345E-001	5.98965E-003	0.00000E+000	4.91358E-003	3.59960E-001	-1.04111E+000	3.57800E+000	10	...........
	42	0.573333	8.26077E-001	5.99416E-003	0.00000E+000	4.95164E-003	3.59960E-001	-1.03346E+000	3.57800E+000	10	...........
	43	0.586667	8.31768E-001	5.99213E-003	0.00000E+000	4.98406E-003	3.59960E-001	-1.04207E+000	3.57800E+000	10	...........
	44	0.6	8.37489E-001	5.99667E-003	0.00000E+000	5.02214E-003	3.59960E-001	-1.04113E+000	3.57800E+000	10	...........
	45	0.613333	8.43192E-001	5.99428E-003	0.00000E+000	5.05433E-003	3.59960E-001	-1.03314E+000	3.57800E+000	10	...........
	46	0.626667	8.48891E-001	5.99416E-003	0.00000E+000	5.08838E-003	3.59960E-001	-1.04166E+000	3.57800E+000	10	...........
	47	0.64	8.54631E-001	5.99240E-003	0.00000E+000	5.12130E-003	3.59960E-001	-1.04102E+000	3.57800E+000	10	...........
	48	0.653333	8.60345E-001	5.99196E-003	0.00000E+000	5.15515E-003	3.59960E-001	-1.03324E+000	3.57800E+000	10	...........
	49	0.666667	8.66009E-001	5.99237E-003	0.00000E+000	5.18945E-003	3.59960E-001	-1.04139E+000	3.57800E+000	10	...........
	50	0.68	8.71733E-001	5.99372E-003	0.00000E+000	5.22492E-003	3.59960E-001	-1.04038E+000	3.57800E+000	10	...........
	51	0.693333	8.77420E-001	5.99274E-003	0.00000E+000	5.25815E-003	3.59960E-001	-1.03289E+000	3.57800E+000	10	...........
	52	0.706667	8.83097E-001	5.99138E-003	0.00000E+000	5.29097E-003	3.59960E-001	-1.04143E+000	3.57800E+000	10	...........
	53	0.72	8.88779E-001	5.99325E-003	0.00000E+000	5.32667E-003	3.59960E-001	-1.04041E+000	3.57800E+000	10	...........
	54	0.733333	8.94435E-001	5.99444E-003	0.00000E+000	5.36163E-003	3.59960E-001	-1.03309E+000	3.57800E+000	10	...........
	55	0.746667	9.00135E-001	5.99675E-003	0.00000E+000	5.39788E-003	3.59960E-001	-1.04126E+000	3.57800E+000	10	...........
	56	0.76	9.05743E-001	5.99253E-003	0.00000E+000	5.42769E-003	3.59960E-001	-1.04042E+000	3.57800E+000	10	...........
	57	0.773333	9.11387E-001	5.99192E-003	0.00000E+000	5.46096E-003	3.59960E-001	-1.03300E+000	3.57800E+000	10	...........
	58	0.786667	9.17008E-001	5.99236E-003	0.00000E+000	5.49505E-003	3.59960E-001	-1.04173E+000	3.57800E+000	10	...........
	59	0.8	9.22643E-001	5.99212E-003	0.00000E+000	5.52859E-003	3.59960E-001	-1.04014E+000	3.57800E+000	10	...........
	60	0.813333	9.28185E-001	5.99373E-003	0.00000E+000	5.56329E-003	3.59960E-001	-1.03261E+000	3.57800E+000	10	...........
	61	0.826667	9.33774E-001	5.99228E-003	0.00000E+000	5.59544E-003	3.59960E-001	-1.04150E+000	3.57800E+000	10	...........
	62	0.84	9.39255E-001	5.99547E-003	0.00000E+000	5.63128E-003	3.59960E-001	-1.04044E+000	3.57800E+000	10	...........
	63	0.853333	9.44770E-001	5.99376E-003	0.00000E+000	5.66272E-003	3.59960E-001	-1.03280E+000	3.57800E+000	10	...........
	64	0.866667	9.50312E-001	6.00050E-003	0.00000E+000	5.70234E-003	3.59960E-001	-1.04155E+000	3.57800E+000	10	...........
	65	0.88	9.55813E-001	5.99718E-003	0.00000E+000	5.73218E-003	3.59960E-001	-1.04026E+000	3.57800E+000	10	...........
	66	0.893333	9.61273E-001	5.99155E-003	0.00000E+000	5.75952E-003	3.59960E-001	-1.03297E+000	3.57800E+000	10	...........
	67	0.906667	9.66709E-001	5.99333E-003	0.00000E+000	5.79381E-003	3.59960E-001	-1.04203E+000	3.57800E+000	10	...........
	68	0.92	9.72159E-001	5.99213E-003	0.00000E+000	5.82530E-003	3.59960E-001	-1.04034E+000	3.57800E+000	10	...........
	69	0.933333	9.77557E-001	5.99443E-003	0.00000E+000	5.85989E-003	3.59960E-001	-1.03295E+000	3.57800E+000	10	...........
	70	0.946667	9.82926E-001	5.99842E-003	0.00000E+000	5.89601E-003	3.59960E-001	-1.04167E+000	3.57800E+000	10	...........
	71	0.96	9.88280E-001	5.99579E-003	0.00000E+000	5.92552E-003	3.59960E-001	-1.04024E+000	3.57800E+000	10	...........
	72	0.97333	9.93582E-001	5.99628E-003	0.00000E+000	5.95780E-003	3.59960E-001	-1.03303E+000	3.57800E+000	10	...........
	73	0.985	9.98522E-001	5.99426E-003	0.00000E+000	5.98540E-003	3.59960E-001	-1.04473E+000	3.57800E+000	10	...........
STARTTIMEOFFSET	QUANT	98.5933	Start Time Offset (s)