File: Data/CV_CRGO300517_1/PWRCCD_CRGO300517_1/CHARGE_DISCHARGE/CHARGE_#488.DTA
EXPLAIN
TAG	PWR800_CHARGE
TITLE	LABEL	PWR Cyclic Charge Discharge (Cell) - Charge Step	Test &Identifier
DATE	LABEL	22-6-2017	Date
TIME	LABEL	15:55:27	Time
NOTES	NOTES	3	&Notes...
	supercap test cell
	0.6mg
	6M KOH
PSTAT	PSTAT	IFC5000-01520	Potentiostat
CAPACITY	QUANT	1.00000E-003	Capacity (A-hr)
CELLTYPE	SELECTOR	1	&Cell Type
WORKINGCONNECTION	SELECTOR	0	&Working Lead
MAXCHARGETIME	VARIABLEANDUNITS	1.00000E+002	s	1.00000E+002	second(s)	Max &Charge Time
CHARGECURRENT	QUANT	6.00000E-003	&Charge Current (A)
VOLTAGEFINISH	TWOPARAM	F	1.00000E-003	3.60000E+003	&Voltage Finish	 I (A) < 	Max Time(s)
SAMPLETIME	QUANT	1.00000E-002	Sa&mple Period (s)
CHARGESTOPAT1	MULTIPARAM	4	1.00000E+000	Charge Stop At &1	Voltage > Limit	V
CHARGESTOPAT2	MULTIPARAM	0	0.00000E+000	Charge Stop At &2	None	N/A
AESBHCSELECTOR	TOGGLE	F	Save Both Half Cells
IRCOMP	TOGGLE	F	IR &Measure
EOC	QUANT	0	Open Circuit (V)
SEQUENCER	TOGGLE	TRUE	Run as Sequence
PSTATMODEL	IQUANT	53	Pstat Model
PSTATSECTION	LABEL	IFC5000-01520	Pstat Section
PSTATSERIALNO	LABEL	01520	Pstat Serial Number
CTRLMODE	IQUANT	0	Control Mode
ELECTROMETER	IQUANT	1	RE=0 or CS=1
IESTAB	IQUANT	0	I/E Stability
CASPEED	IQUANT	4	Control Amp Speed
CONVENTION	IQUANT	1	Current Convention
ICHRANGE	IQUANT	2	Ich Range
ICHRANGEMODE	TOGGLE	T	Ich Auto Range
ICHOFFSETENABLE	TOGGLE	F	Ich Offset Enable
ICHOFFSET	QUANT	0	Ich Offset (V)
ICHFILTER	IQUANT	1	Ich Filter
VCHRANGE	IQUANT	2	Vch Range
VCHRANGEMODE	TOGGLE	T	Vch Auto Range
VCHOFFSETENABLE	TOGGLE	F	Vch Offset Enable
VCHOFFSET	QUANT	0	Vch Offset (V)
VCHFILTER	IQUANT	1	Vch Filter
IERANGELOWERLIMIT	IQUANT	9	I/E Range Lower Limit
IERANGEMODE	TOGGLE	F	I/E AutoRange
IERANGE	IQUANT	10	I/E Range
ACHSELECT	IQUANT	1	Ach Select
ACHRANGE	IQUANT	2	Ach Range
ACHOFFSETENABLE	TOGGLE	F	Ach Offset Enable
ACHOFFSET	QUANT	0	Ach Offset (V)
ACHFILTER	IQUANT	1	Ach Filter
CABLEID	IQUANT	14	Cable ID
DCCALDATE	LABEL	20-10-2016	DC Calibration Date
ACCALDATE	LABEL	12/3/2015	AC Calibration Date
FRAMEWORKVERSION	QUANT	7.01	Framework Version
INSTRUMENTVERSION	LABEL	4.00	Instrument Version
CURVE	TABLE	58
	Pt	T	Vf	Im	Vu	Pwr	Sig	Ach	Temp	IERange	Over
	#	s	V	A	V	W	V	V	deg C	#	bits
	0	0.013333	6.38839E-001	5.99176E-003	0.00000E+000	3.82777E-003	3.59960E-001	-1.13237E+000	3.57690E+000	10	...........
	1	0.026667	6.47525E-001	5.99950E-003	0.00000E+000	3.88482E-003	3.59960E-001	-1.13882E+000	3.57690E+000	10	...........
	2	0.04	6.55472E-001	5.99566E-003	0.00000E+000	3.92998E-003	3.59960E-001	-1.12916E+000	3.57690E+000	10	...........
	3	0.053333	6.63029E-001	5.99621E-003	0.00000E+000	3.97566E-003	3.59960E-001	-1.13253E+000	3.57690E+000	10	...........
	4	0.066667	6.70381E-001	5.99998E-003	0.00000E+000	4.02227E-003	3.59960E-001	-1.13868E+000	3.57690E+000	10	...........
	5	0.08	6.77455E-001	5.99565E-003	0.00000E+000	4.06178E-003	3.59960E-001	-1.12897E+000	3.57690E+000	10	...........
	6	0.093333	6.84462E-001	5.99970E-003	0.00000E+000	4.10656E-003	3.59960E-001	-1.13188E+000	3.57690E+000	10	...........
	7	0.106667	6.91345E-001	5.99697E-003	0.00000E+000	4.14598E-003	3.59960E-001	-1.13825E+000	3.57690E+000	10	...........
	8	0.12	6.98111E-001	5.99282E-003	0.00000E+000	4.18366E-003	3.59960E-001	-1.12830E+000	3.57690E+000	10	...........
	9	0.133333	7.04852E-001	5.99567E-003	0.00000E+000	4.22606E-003	3.59960E-001	-1.13165E+000	3.57690E+000	10	...........
	10	0.146667	7.11506E-001	5.99782E-003	0.00000E+000	4.26748E-003	3.59960E-001	-1.13809E+000	3.57690E+000	10	...........
	11	0.16	7.18131E-001	5.99620E-003	0.00000E+000	4.30606E-003	3.59960E-001	-1.12822E+000	3.57690E+000	10	...........
	12	0.173333	7.24678E-001	5.99278E-003	0.00000E+000	4.34284E-003	3.59960E-001	-1.13151E+000	3.57690E+000	10	...........
	13	0.186667	7.31200E-001	5.99530E-003	0.00000E+000	4.38376E-003	3.59960E-001	-1.13827E+000	3.57690E+000	10	...........
	14	0.2	7.37710E-001	5.98983E-003	0.00000E+000	4.41875E-003	3.59960E-001	-1.12844E+000	3.57690E+000	10	...........
	15	0.213333	7.44224E-001	5.99269E-003	0.00000E+000	4.45990E-003	3.59960E-001	-1.13160E+000	3.57690E+000	10	...........
	16	0.226667	7.50643E-001	5.99213E-003	0.00000E+000	4.49795E-003	3.59960E-001	-1.13828E+000	3.57690E+000	10	...........
	17	0.24	7.57102E-001	5.99635E-003	0.00000E+000	4.53984E-003	3.59960E-001	-1.12855E+000	3.57690E+000	10	...........
	18	0.253333	7.63469E-001	5.99458E-003	0.00000E+000	4.57668E-003	3.59960E-001	-1.13188E+000	3.57690E+000	10	...........
	19	0.266667	7.69901E-001	6.00197E-003	0.00000E+000	4.62092E-003	3.59960E-001	-1.13828E+000	3.57690E+000	10	...........
	20	0.28	7.76278E-001	5.99370E-003	0.00000E+000	4.65277E-003	3.59960E-001	-1.12857E+000	3.57690E+000	10	...........
	21	0.293333	7.82659E-001	5.99166E-003	0.00000E+000	4.68943E-003	3.59960E-001	-1.13164E+000	3.57690E+000	10	...........
	22	0.306667	7.89017E-001	5.99323E-003	0.00000E+000	4.72876E-003	3.59960E-001	-1.13797E+000	3.57690E+000	10	...........
	23	0.32	7.95380E-001	5.99396E-003	0.00000E+000	4.76747E-003	3.59960E-001	-1.12841E+000	3.57690E+000	10	...........
	24	0.333333	8.01686E-001	5.99326E-003	0.00000E+000	4.80471E-003	3.59960E-001	-1.13153E+000	3.57690E+000	10	...........
	25	0.346667	8.08012E-001	5.99684E-003	0.00000E+000	4.84551E-003	3.59960E-001	-1.13816E+000	3.57690E+000	10	...........
	26	0.36	8.14284E-001	5.99723E-003	0.00000E+000	4.88345E-003	3.59960E-001	-1.12831E+000	3.57690E+000	10	...........
	27	0.373333	8.20600E-001	5.98991E-003	0.00000E+000	4.91532E-003	3.59960E-001	-1.13173E+000	3.57690E+000	10	...........
	28	0.386667	8.26876E-001	5.99451E-003	0.00000E+000	4.95672E-003	3.59960E-001	-1.13798E+000	3.57690E+000	10	...........
	29	0.4	8.33100E-001	5.99581E-003	0.00000E+000	4.99511E-003	3.59960E-001	-1.12821E+000	3.57690E+000	10	...........
	30	0.413333	8.39325E-001	5.99068E-003	0.00000E+000	5.02813E-003	3.59960E-001	-1.13149E+000	3.57690E+000	10	...........
	31	0.426667	8.45564E-001	5.99408E-003	0.00000E+000	5.06838E-003	3.59960E-001	-1.13785E+000	3.57690E+000	10	...........
	32	0.44	8.51779E-001	5.98987E-003	0.00000E+000	5.10205E-003	3.59960E-001	-1.12777E+000	3.57690E+000	10	...........
	33	0.453333	8.57970E-001	5.98904E-003	0.00000E+000	5.13841E-003	3.59960E-001	-1.13087E+000	3.57690E+000	10	...........
	34	0.466667	8.64128E-001	5.99804E-003	0.00000E+000	5.18307E-003	3.59960E-001	-1.13775E+000	3.57690E+000	10	...........
	35	0.48	8.70288E-001	5.99415E-003	0.00000E+000	5.21664E-003	3.59960E-001	-1.12793E+000	3.57690E+000	10	...........
	36	0.493333	8.76428E-001	5.99277E-003	0.00000E+000	5.25223E-003	3.59960E-001	-1.13094E+000	3.57690E+000	10	...........
	37	0.506667	8.82534E-001	5.99402E-003	0.00000E+000	5.28993E-003	3.59960E-001	-1.13776E+000	3.57690E+000	10	...........
	38	0.52	8.88610E-001	5.99578E-003	0.00000E+000	5.32792E-003	3.59960E-001	-1.12780E+000	3.57690E+000	10	...........
	39	0.533333	8.94701E-001	5.99192E-003	0.00000E+000	5.36098E-003	3.59960E-001	-1.13102E+000	3.57690E+000	10	...........
	40	0.546667	9.00752E-001	5.98962E-003	0.00000E+000	5.39516E-003	3.59960E-001	-1.13755E+000	3.57981E+000	10	...........
	41	0.56	9.06773E-001	5.99345E-003	0.00000E+000	5.43470E-003	3.59960E-001	-1.12800E+000	3.58020E+000	10	...........
	42	0.573333	9.12750E-001	5.99167E-003	0.00000E+000	5.46890E-003	3.59960E-001	-1.13120E+000	3.58020E+000	10	...........
	43	0.586667	9.18736E-001	5.99719E-003	0.00000E+000	5.50984E-003	3.59960E-001	-1.13767E+000	3.58020E+000	10	...........
	44	0.6	9.24711E-001	5.99711E-003	0.00000E+000	5.54559E-003	3.59960E-001	-1.12798E+000	3.58020E+000	10	...........
	45	0.613333	9.30575E-001	5.99285E-003	0.00000E+000	5.57680E-003	3.59960E-001	-1.13124E+000	3.58020E+000	10	...........
	46	0.626667	9.36400E-001	5.99243E-003	0.00000E+000	5.61131E-003	3.59960E-001	-1.13823E+000	3.58020E+000	10	...........
	47	0.64	9.42239E-001	5.99321E-003	0.00000E+000	5.64703E-003	3.59960E-001	-1.12853E+000	3.58020E+000	10	...........
	48	0.653333	9.48041E-001	5.99362E-003	0.00000E+000	5.68220E-003	3.59960E-001	-1.13144E+000	3.58020E+000	10	...........
	49	0.666667	9.53811E-001	5.99832E-003	0.00000E+000	5.72126E-003	3.59960E-001	-1.13845E+000	3.58020E+000	10	...........
	50	0.68	9.59529E-001	6.00209E-003	0.00000E+000	5.75918E-003	3.59960E-001	-1.12890E+000	3.58020E+000	10	...........
	51	0.693333	9.65181E-001	5.99720E-003	0.00000E+000	5.78839E-003	3.59960E-001	-1.13162E+000	3.58020E+000	10	...........
	52	0.706667	9.70864E-001	5.99803E-003	0.00000E+000	5.82327E-003	3.59960E-001	-1.13821E+000	3.58020E+000	10	...........
	53	0.72	9.76495E-001	5.99651E-003	0.00000E+000	5.85557E-003	3.59960E-001	-1.12837E+000	3.58020E+000	10	...........
	54	0.733333	9.82047E-001	5.99497E-003	0.00000E+000	5.88734E-003	3.59960E-001	-1.13124E+000	3.58020E+000	10	...........
	55	0.746667	9.87577E-001	5.99448E-003	0.00000E+000	5.92001E-003	3.59960E-001	-1.13785E+000	3.58020E+000	10	...........
	56	0.76	9.93031E-001	5.99769E-003	0.00000E+000	5.95590E-003	3.59960E-001	-1.12800E+000	3.58020E+000	10	...........
	57	0.771667	9.98139E-001	5.99557E-003	0.00000E+000	5.98441E-003	3.59960E-001	-1.13308E+000	3.58020E+000	10	...........
STARTTIMEOFFSET	QUANT	840.527	Start Time Offset (s)