File: Data/CV_CRGO300517_1/PWRCCD_CRGO300517_1/CHARGE_DISCHARGE/CHARGE_#114.DTA
EXPLAIN
TAG	PWR800_CHARGE
TITLE	LABEL	PWR Cyclic Charge Discharge (Cell) - Charge Step	Test &Identifier
DATE	LABEL	22-6-2017	Date
TIME	LABEL	15:40:07	Time
NOTES	NOTES	3	&Notes...
	supercap test cell
	0.6mg
	6M KOH
PSTAT	PSTAT	IFC5000-01520	Potentiostat
CAPACITY	QUANT	1.00000E-003	Capacity (A-hr)
CELLTYPE	SELECTOR	1	&Cell Type
WORKINGCONNECTION	SELECTOR	0	&Working Lead
MAXCHARGETIME	VARIABLEANDUNITS	1.00000E+002	s	1.00000E+002	second(s)	Max &Charge Time
CHARGECURRENT	QUANT	6.00000E-003	&Charge Current (A)
VOLTAGEFINISH	TWOPARAM	F	1.00000E-003	3.60000E+003	&Voltage Finish	 I (A) < 	Max Time(s)
SAMPLETIME	QUANT	1.00000E-002	Sa&mple Period (s)
CHARGESTOPAT1	MULTIPARAM	4	1.00000E+000	Charge Stop At &1	Voltage > Limit	V
CHARGESTOPAT2	MULTIPARAM	0	0.00000E+000	Charge Stop At &2	None	N/A
AESBHCSELECTOR	TOGGLE	F	Save Both Half Cells
IRCOMP	TOGGLE	F	IR &Measure
EOC	QUANT	0	Open Circuit (V)
SEQUENCER	TOGGLE	TRUE	Run as Sequence
PSTATMODEL	IQUANT	53	Pstat Model
PSTATSECTION	LABEL	IFC5000-01520	Pstat Section
PSTATSERIALNO	LABEL	01520	Pstat Serial Number
CTRLMODE	IQUANT	0	Control Mode
ELECTROMETER	IQUANT	1	RE=0 or CS=1
IESTAB	IQUANT	0	I/E Stability
CASPEED	IQUANT	4	Control Amp Speed
CONVENTION	IQUANT	1	Current Convention
ICHRANGE	IQUANT	2	Ich Range
ICHRANGEMODE	TOGGLE	T	Ich Auto Range
ICHOFFSETENABLE	TOGGLE	F	Ich Offset Enable
ICHOFFSET	QUANT	0	Ich Offset (V)
ICHFILTER	IQUANT	1	Ich Filter
VCHRANGE	IQUANT	2	Vch Range
VCHRANGEMODE	TOGGLE	T	Vch Auto Range
VCHOFFSETENABLE	TOGGLE	F	Vch Offset Enable
VCHOFFSET	QUANT	0	Vch Offset (V)
VCHFILTER	IQUANT	1	Vch Filter
IERANGELOWERLIMIT	IQUANT	9	I/E Range Lower Limit
IERANGEMODE	TOGGLE	F	I/E AutoRange
IERANGE	IQUANT	10	I/E Range
ACHSELECT	IQUANT	1	Ach Select
ACHRANGE	IQUANT	2	Ach Range
ACHOFFSETENABLE	TOGGLE	F	Ach Offset Enable
ACHOFFSET	QUANT	0	Ach Offset (V)
ACHFILTER	IQUANT	1	Ach Filter
CABLEID	IQUANT	14	Cable ID
DCCALDATE	LABEL	20-10-2016	DC Calibration Date
ACCALDATE	LABEL	12/3/2015	AC Calibration Date
FRAMEWORKVERSION	QUANT	7.01	Framework Version
INSTRUMENTVERSION	LABEL	4.00	Instrument Version
CURVE	TABLE	69
	Pt	T	Vf	Im	Vu	Pwr	Sig	Ach	Temp	IERange	Over
	#	s	V	A	V	W	V	V	deg C	#	bits
	0	0.013333	5.91498E-001	5.99142E-003	0.00000E+000	3.54391E-003	3.59960E-001	-1.06474E+000	3.57780E+000	10	...........
	1	0.026667	5.99787E-001	5.99687E-003	0.00000E+000	3.59685E-003	3.59960E-001	-1.06924E+000	3.57780E+000	10	...........
	2	0.04	6.07359E-001	5.99355E-003	0.00000E+000	3.64024E-003	3.59960E-001	-1.07447E+000	3.57780E+000	10	...........
	3	0.053333	6.14604E-001	5.99465E-003	0.00000E+000	3.68433E-003	3.59960E-001	-1.06425E+000	3.57780E+000	10	...........
	4	0.066667	6.21585E-001	5.99529E-003	0.00000E+000	3.72659E-003	3.59960E-001	-1.06912E+000	3.57780E+000	10	...........
	5	0.08	6.28328E-001	5.99485E-003	0.00000E+000	3.76673E-003	3.59960E-001	-1.07479E+000	3.57780E+000	10	...........
	6	0.093333	6.34913E-001	5.99118E-003	0.00000E+000	3.80388E-003	3.59960E-001	-1.06435E+000	3.57780E+000	10	...........
	7	0.106667	6.41426E-001	5.99717E-003	0.00000E+000	3.84674E-003	3.59960E-001	-1.06859E+000	3.57780E+000	10	...........
	8	0.12	6.47815E-001	5.99651E-003	0.00000E+000	3.88463E-003	3.59960E-001	-1.07477E+000	3.57780E+000	10	...........
	9	0.133333	6.54134E-001	5.99517E-003	0.00000E+000	3.92164E-003	3.59960E-001	-1.06438E+000	3.57780E+000	10	...........
	10	0.146667	6.60435E-001	5.99516E-003	0.00000E+000	3.95941E-003	3.59960E-001	-1.06867E+000	3.57780E+000	10	...........
	11	0.16	6.66668E-001	5.99498E-003	0.00000E+000	3.99666E-003	3.59960E-001	-1.07465E+000	3.57780E+000	10	...........
	12	0.173333	6.72871E-001	5.99360E-003	0.00000E+000	4.03292E-003	3.59960E-001	-1.06401E+000	3.57780E+000	10	...........
	13	0.186667	6.79015E-001	5.99529E-003	0.00000E+000	4.07090E-003	3.59960E-001	-1.06826E+000	3.57780E+000	10	...........
	14	0.2	6.85113E-001	5.99291E-003	0.00000E+000	4.10581E-003	3.59960E-001	-1.07485E+000	3.57780E+000	10	...........
	15	0.213333	6.91190E-001	5.99363E-003	0.00000E+000	4.14274E-003	3.59960E-001	-1.06423E+000	3.57780E+000	10	...........
	16	0.226667	6.97242E-001	5.99433E-003	0.00000E+000	4.17950E-003	3.59960E-001	-1.06811E+000	3.57780E+000	10	...........
	17	0.24	7.03284E-001	5.99317E-003	0.00000E+000	4.21490E-003	3.59960E-001	-1.07487E+000	3.57780E+000	10	...........
	18	0.253333	7.09313E-001	5.99366E-003	0.00000E+000	4.25138E-003	3.59960E-001	-1.06411E+000	3.57780E+000	10	...........
	19	0.266667	7.15346E-001	5.99549E-003	0.00000E+000	4.28885E-003	3.59960E-001	-1.06815E+000	3.57780E+000	10	...........
	20	0.28	7.21400E-001	5.99246E-003	0.00000E+000	4.32296E-003	3.59960E-001	-1.07540E+000	3.57780E+000	10	...........
	21	0.293333	7.27362E-001	5.99167E-003	0.00000E+000	4.35812E-003	3.59960E-001	-1.06420E+000	3.57780E+000	10	...........
	22	0.306667	7.33395E-001	5.99303E-003	0.00000E+000	4.39526E-003	3.59960E-001	-1.06775E+000	3.57780E+000	10	...........
	23	0.32	7.39368E-001	5.99134E-003	0.00000E+000	4.42980E-003	3.59960E-001	-1.07518E+000	3.57780E+000	10	...........
	24	0.333333	7.45375E-001	5.99605E-003	0.00000E+000	4.46931E-003	3.59960E-001	-1.06426E+000	3.57780E+000	10	...........
	25	0.346667	7.51283E-001	5.99720E-003	0.00000E+000	4.50560E-003	3.59960E-001	-1.06764E+000	3.57780E+000	10	...........
	26	0.36	7.57247E-001	5.99621E-003	0.00000E+000	4.54061E-003	3.59960E-001	-1.07489E+000	3.57780E+000	10	...........
	27	0.373333	7.63135E-001	5.99346E-003	0.00000E+000	4.57382E-003	3.59960E-001	-1.06355E+000	3.57780E+000	10	...........
	28	0.386667	7.69126E-001	5.99457E-003	0.00000E+000	4.61058E-003	3.59960E-001	-1.06706E+000	3.57780E+000	10	...........
	29	0.4	7.75110E-001	5.99801E-003	0.00000E+000	4.64911E-003	3.59960E-001	-1.07510E+000	3.57780E+000	10	...........
	30	0.413333	7.81044E-001	5.99148E-003	0.00000E+000	4.67961E-003	3.59960E-001	-1.06383E+000	3.57780E+000	10	...........
	31	0.426667	7.87009E-001	5.99276E-003	0.00000E+000	4.71635E-003	3.59960E-001	-1.06684E+000	3.57780E+000	10	...........
	32	0.44	7.92941E-001	5.99767E-003	0.00000E+000	4.75580E-003	3.59960E-001	-1.07482E+000	3.57780E+000	10	...........
	33	0.453333	7.98860E-001	5.99964E-003	0.00000E+000	4.79287E-003	3.59960E-001	-1.06357E+000	3.57780E+000	10	...........
	34	0.466667	8.04758E-001	5.99402E-003	0.00000E+000	4.82374E-003	3.59960E-001	-1.06666E+000	3.57780E+000	10	...........
	35	0.48	8.10653E-001	5.99251E-003	0.00000E+000	4.85784E-003	3.59960E-001	-1.07496E+000	3.57780E+000	10	...........
	36	0.493333	8.16570E-001	5.99395E-003	0.00000E+000	4.89448E-003	3.59960E-001	-1.06337E+000	3.57780E+000	10	...........
	37	0.506667	8.22496E-001	5.99601E-003	0.00000E+000	4.93170E-003	3.59960E-001	-1.06633E+000	3.57780E+000	10	...........
	38	0.52	8.28368E-001	5.99472E-003	0.00000E+000	4.96583E-003	3.59960E-001	-1.07483E+000	3.57780E+000	10	...........
	39	0.533333	8.34294E-001	5.99404E-003	0.00000E+000	5.00079E-003	3.59960E-001	-1.06351E+000	3.57780E+000	10	...........
	40	0.546667	8.40152E-001	5.99561E-003	0.00000E+000	5.03722E-003	3.59960E-001	-1.06618E+000	3.57780E+000	10	...........
	41	0.56	8.46042E-001	5.99195E-003	0.00000E+000	5.06944E-003	3.59960E-001	-1.07484E+000	3.57780E+000	10	...........
	42	0.573333	8.51920E-001	5.99569E-003	0.00000E+000	5.10785E-003	3.59960E-001	-1.06339E+000	3.57780E+000	10	...........
	43	0.586667	8.57759E-001	5.99527E-003	0.00000E+000	5.14250E-003	3.59960E-001	-1.06603E+000	3.57780E+000	10	...........
	44	0.6	8.63632E-001	5.99175E-003	0.00000E+000	5.17467E-003	3.59960E-001	-1.07515E+000	3.57780E+000	10	...........
	45	0.613333	8.69484E-001	5.99430E-003	0.00000E+000	5.21195E-003	3.59960E-001	-1.06365E+000	3.57780E+000	10	...........
	46	0.626667	8.75334E-001	5.99502E-003	0.00000E+000	5.24765E-003	3.59960E-001	-1.06583E+000	3.57780E+000	10	...........
	47	0.64	8.81145E-001	5.99507E-003	0.00000E+000	5.28253E-003	3.59960E-001	-1.07511E+000	3.57780E+000	10	...........
	48	0.653333	8.87008E-001	5.99531E-003	0.00000E+000	5.31789E-003	3.59960E-001	-1.06334E+000	3.57780E+000	10	...........
	49	0.666667	8.92784E-001	5.99199E-003	0.00000E+000	5.34955E-003	3.59960E-001	-1.06571E+000	3.57780E+000	10	...........
	50	0.68	8.98615E-001	5.99598E-003	0.00000E+000	5.38808E-003	3.59960E-001	-1.07494E+000	3.57780E+000	10	...........
	51	0.693333	9.04361E-001	5.99747E-003	0.00000E+000	5.42388E-003	3.59960E-001	-1.06309E+000	3.57780E+000	10	...........
	52	0.706667	9.10164E-001	5.99601E-003	0.00000E+000	5.45736E-003	3.59960E-001	-1.06522E+000	3.57780E+000	10	...........
	53	0.72	9.15898E-001	5.99256E-003	0.00000E+000	5.48857E-003	3.59960E-001	-1.07506E+000	3.57780E+000	10	...........
	54	0.733333	9.21666E-001	5.99123E-003	0.00000E+000	5.52191E-003	3.59960E-001	-1.06349E+000	3.57780E+000	10	...........
	55	0.746667	9.27393E-001	5.99452E-003	0.00000E+000	5.55928E-003	3.59960E-001	-1.06519E+000	3.57780E+000	10	...........
	56	0.76	9.33052E-001	5.99203E-003	0.00000E+000	5.59087E-003	3.59960E-001	-1.07503E+000	3.57780E+000	10	...........
	57	0.773333	9.38713E-001	5.99397E-003	0.00000E+000	5.62661E-003	3.59960E-001	-1.06328E+000	3.57780E+000	10	...........
	58	0.786667	9.44375E-001	5.99309E-003	0.00000E+000	5.65972E-003	3.59960E-001	-1.06518E+000	3.57780E+000	10	...........
	59	0.8	9.49999E-001	5.99058E-003	0.00000E+000	5.69105E-003	3.59960E-001	-1.07541E+000	3.57780E+000	10	...........
	60	0.813333	9.55549E-001	5.99251E-003	0.00000E+000	5.72613E-003	3.59960E-001	-1.06365E+000	3.57780E+000	10	...........
	61	0.826667	9.61125E-001	5.99044E-003	0.00000E+000	5.75756E-003	3.59960E-001	-1.06465E+000	3.57780E+000	10	...........
	62	0.84	9.66648E-001	5.99671E-003	0.00000E+000	5.79671E-003	3.59960E-001	-1.07511E+000	3.57780E+000	10	...........
	63	0.853333	9.72134E-001	5.99229E-003	0.00000E+000	5.82531E-003	3.59960E-001	-1.06323E+000	3.57780E+000	10	...........
	64	0.866667	9.77624E-001	5.99640E-003	0.00000E+000	5.86223E-003	3.59960E-001	-1.06501E+000	3.57780E+000	10	...........
	65	0.88	9.83031E-001	5.99498E-003	0.00000E+000	5.89325E-003	3.59960E-001	-1.07528E+000	3.57780E+000	10	...........
	66	0.893333	9.88456E-001	5.99642E-003	0.00000E+000	5.92720E-003	3.59960E-001	-1.06335E+000	3.57780E+000	10	...........
	67	0.906667	9.93788E-001	5.99977E-003	0.00000E+000	5.96250E-003	3.59960E-001	-1.06477E+000	3.57780E+000	10	...........
	68	0.916667	9.98468E-001	5.99524E-003	0.00000E+000	5.98606E-003	3.59960E-001	-1.07537E+000	3.57780E+000	10	...........
STARTTIMEOFFSET	QUANT	220.8967	Start Time Offset (s)