File: Data/CV_CRGO300517_1/PWRCCD_CRGO300517_1/CHARGE_DISCHARGE/CHARGE_#497.DTA
EXPLAIN
TAG	PWR800_CHARGE
TITLE	LABEL	PWR Cyclic Charge Discharge (Cell) - Charge Step	Test &Identifier
DATE	LABEL	22-6-2017	Date
TIME	LABEL	15:55:48	Time
NOTES	NOTES	3	&Notes...
	supercap test cell
	0.6mg
	6M KOH
PSTAT	PSTAT	IFC5000-01520	Potentiostat
CAPACITY	QUANT	1.00000E-003	Capacity (A-hr)
CELLTYPE	SELECTOR	1	&Cell Type
WORKINGCONNECTION	SELECTOR	0	&Working Lead
MAXCHARGETIME	VARIABLEANDUNITS	1.00000E+002	s	1.00000E+002	second(s)	Max &Charge Time
CHARGECURRENT	QUANT	6.00000E-003	&Charge Current (A)
VOLTAGEFINISH	TWOPARAM	F	1.00000E-003	3.60000E+003	&Voltage Finish	 I (A) < 	Max Time(s)
SAMPLETIME	QUANT	1.00000E-002	Sa&mple Period (s)
CHARGESTOPAT1	MULTIPARAM	4	1.00000E+000	Charge Stop At &1	Voltage > Limit	V
CHARGESTOPAT2	MULTIPARAM	0	0.00000E+000	Charge Stop At &2	None	N/A
AESBHCSELECTOR	TOGGLE	F	Save Both Half Cells
IRCOMP	TOGGLE	F	IR &Measure
EOC	QUANT	0	Open Circuit (V)
SEQUENCER	TOGGLE	TRUE	Run as Sequence
PSTATMODEL	IQUANT	53	Pstat Model
PSTATSECTION	LABEL	IFC5000-01520	Pstat Section
PSTATSERIALNO	LABEL	01520	Pstat Serial Number
CTRLMODE	IQUANT	0	Control Mode
ELECTROMETER	IQUANT	1	RE=0 or CS=1
IESTAB	IQUANT	0	I/E Stability
CASPEED	IQUANT	4	Control Amp Speed
CONVENTION	IQUANT	1	Current Convention
ICHRANGE	IQUANT	2	Ich Range
ICHRANGEMODE	TOGGLE	T	Ich Auto Range
ICHOFFSETENABLE	TOGGLE	F	Ich Offset Enable
ICHOFFSET	QUANT	0	Ich Offset (V)
ICHFILTER	IQUANT	1	Ich Filter
VCHRANGE	IQUANT	2	Vch Range
VCHRANGEMODE	TOGGLE	T	Vch Auto Range
VCHOFFSETENABLE	TOGGLE	F	Vch Offset Enable
VCHOFFSET	QUANT	0	Vch Offset (V)
VCHFILTER	IQUANT	1	Vch Filter
IERANGELOWERLIMIT	IQUANT	9	I/E Range Lower Limit
IERANGEMODE	TOGGLE	F	I/E AutoRange
IERANGE	IQUANT	10	I/E Range
ACHSELECT	IQUANT	1	Ach Select
ACHRANGE	IQUANT	2	Ach Range
ACHOFFSETENABLE	TOGGLE	F	Ach Offset Enable
ACHOFFSET	QUANT	0	Ach Offset (V)
ACHFILTER	IQUANT	1	Ach Filter
CABLEID	IQUANT	14	Cable ID
DCCALDATE	LABEL	20-10-2016	DC Calibration Date
ACCALDATE	LABEL	12/3/2015	AC Calibration Date
FRAMEWORKVERSION	QUANT	7.01	Framework Version
INSTRUMENTVERSION	LABEL	4.00	Instrument Version
CURVE	TABLE	58
	Pt	T	Vf	Im	Vu	Pwr	Sig	Ach	Temp	IERange	Over
	#	s	V	A	V	W	V	V	deg C	#	bits
	0	0.013333	6.32067E-001	5.99417E-003	0.00000E+000	3.78871E-003	3.59960E-001	-1.12818E+000	3.57790E+000	10	...........
	1	0.026667	6.40967E-001	6.00144E-003	0.00000E+000	3.84673E-003	3.59960E-001	-1.13881E+000	3.57790E+000	10	...........
	2	0.04	6.49143E-001	5.99779E-003	0.00000E+000	3.89342E-003	3.59960E-001	-1.13140E+000	3.57790E+000	10	...........
	3	0.053333	6.56883E-001	5.99556E-003	0.00000E+000	3.93839E-003	3.59960E-001	-1.12827E+000	3.57790E+000	10	...........
	4	0.066667	6.64344E-001	5.99106E-003	0.00000E+000	3.98012E-003	3.59960E-001	-1.13883E+000	3.57790E+000	10	...........
	5	0.08	6.71638E-001	5.99502E-003	0.00000E+000	4.02648E-003	3.59960E-001	-1.13180E+000	3.57790E+000	10	...........
	6	0.093333	6.78736E-001	5.99740E-003	0.00000E+000	4.07065E-003	3.59960E-001	-1.12823E+000	3.57790E+000	10	...........
	7	0.106667	6.85713E-001	5.99355E-003	0.00000E+000	4.10986E-003	3.59960E-001	-1.13849E+000	3.57790E+000	10	...........
	8	0.12	6.92627E-001	5.99532E-003	0.00000E+000	4.15252E-003	3.59960E-001	-1.13143E+000	3.57790E+000	10	...........
	9	0.133333	6.99455E-001	5.99713E-003	0.00000E+000	4.19472E-003	3.59960E-001	-1.12826E+000	3.57790E+000	10	...........
	10	0.146667	7.06250E-001	5.99547E-003	0.00000E+000	4.23430E-003	3.59960E-001	-1.13866E+000	3.57790E+000	10	...........
	11	0.16	7.13022E-001	5.99137E-003	0.00000E+000	4.27198E-003	3.59960E-001	-1.13168E+000	3.57790E+000	10	...........
	12	0.173333	7.19762E-001	5.99523E-003	0.00000E+000	4.31514E-003	3.59960E-001	-1.12805E+000	3.57790E+000	10	...........
	13	0.186667	7.26394E-001	5.99285E-003	0.00000E+000	4.35317E-003	3.59960E-001	-1.13859E+000	3.57790E+000	10	...........
	14	0.2	7.33010E-001	5.99247E-003	0.00000E+000	4.39254E-003	3.59960E-001	-1.13176E+000	3.57790E+000	10	...........
	15	0.213333	7.39615E-001	5.99514E-003	0.00000E+000	4.43409E-003	3.59960E-001	-1.12826E+000	3.57790E+000	10	...........
	16	0.226667	7.46215E-001	5.99223E-003	0.00000E+000	4.47149E-003	3.59960E-001	-1.13864E+000	3.57790E+000	10	...........
	17	0.24	7.52789E-001	5.99011E-003	0.00000E+000	4.50929E-003	3.59960E-001	-1.13186E+000	3.57790E+000	10	...........
	18	0.253333	7.59320E-001	5.99295E-003	0.00000E+000	4.55056E-003	3.59960E-001	-1.12797E+000	3.57790E+000	10	...........
	19	0.266667	7.65854E-001	5.99534E-003	0.00000E+000	4.59155E-003	3.59960E-001	-1.13852E+000	3.57790E+000	10	...........
	20	0.28	7.72377E-001	5.99784E-003	0.00000E+000	4.63259E-003	3.59960E-001	-1.13159E+000	3.57790E+000	10	...........
	21	0.293333	7.78841E-001	5.99863E-003	0.00000E+000	4.67198E-003	3.59960E-001	-1.12783E+000	3.57790E+000	10	...........
	22	0.306667	7.85271E-001	5.99812E-003	0.00000E+000	4.71015E-003	3.59960E-001	-1.13813E+000	3.57790E+000	10	...........
	23	0.32	7.91734E-001	5.99737E-003	0.00000E+000	4.74832E-003	3.59960E-001	-1.13136E+000	3.57790E+000	10	...........
	24	0.333333	7.98196E-001	5.99301E-003	0.00000E+000	4.78359E-003	3.59960E-001	-1.12773E+000	3.57790E+000	10	...........
	25	0.346667	8.04592E-001	5.99309E-003	0.00000E+000	4.82199E-003	3.59960E-001	-1.13819E+000	3.57790E+000	10	...........
	26	0.36	8.10977E-001	5.99160E-003	0.00000E+000	4.85905E-003	3.59960E-001	-1.13139E+000	3.57790E+000	10	...........
	27	0.373333	8.17410E-001	5.99405E-003	0.00000E+000	4.89960E-003	3.59960E-001	-1.12782E+000	3.57790E+000	10	...........
	28	0.386667	8.23803E-001	5.99458E-003	0.00000E+000	4.93835E-003	3.59960E-001	-1.13797E+000	3.57790E+000	10	...........
	29	0.4	8.30125E-001	5.99225E-003	0.00000E+000	4.97431E-003	3.59960E-001	-1.13119E+000	3.57790E+000	10	...........
	30	0.413333	8.36482E-001	6.00010E-003	0.00000E+000	5.01898E-003	3.59960E-001	-1.12782E+000	3.57790E+000	10	...........
	31	0.426667	8.42806E-001	5.99627E-003	0.00000E+000	5.05369E-003	3.59960E-001	-1.13803E+000	3.57790E+000	10	...........
	32	0.44	8.49113E-001	5.99434E-003	0.00000E+000	5.08988E-003	3.59960E-001	-1.13133E+000	3.57790E+000	10	...........
	33	0.453333	8.55371E-001	5.98819E-003	0.00000E+000	5.12212E-003	3.59960E-001	-1.12767E+000	3.57790E+000	10	...........
	34	0.466667	8.61628E-001	5.99596E-003	0.00000E+000	5.16629E-003	3.59960E-001	-1.13825E+000	3.57790E+000	10	...........
	35	0.48	8.67871E-001	5.99320E-003	0.00000E+000	5.20132E-003	3.59960E-001	-1.13147E+000	3.57790E+000	10	...........
	36	0.493333	8.74150E-001	5.99505E-003	0.00000E+000	5.24058E-003	3.59960E-001	-1.12777E+000	3.57790E+000	10	...........
	37	0.506667	8.80323E-001	5.99411E-003	0.00000E+000	5.27676E-003	3.59960E-001	-1.13805E+000	3.57790E+000	10	...........
	38	0.52	8.86520E-001	5.99523E-003	0.00000E+000	5.31489E-003	3.59960E-001	-1.13117E+000	3.57790E+000	10	...........
	39	0.533333	8.92621E-001	5.99624E-003	0.00000E+000	5.35237E-003	3.59960E-001	-1.12774E+000	3.57734E+000	10	...........
	40	0.546667	8.98732E-001	5.99896E-003	0.00000E+000	5.39146E-003	3.59960E-001	-1.13820E+000	3.57700E+000	10	...........
	41	0.56	9.04839E-001	5.99346E-003	0.00000E+000	5.42311E-003	3.59960E-001	-1.13131E+000	3.57700E+000	10	...........
	42	0.573333	9.10945E-001	5.99363E-003	0.00000E+000	5.45987E-003	3.59960E-001	-1.12735E+000	3.57700E+000	10	...........
	43	0.586667	9.16950E-001	5.99385E-003	0.00000E+000	5.49606E-003	3.59960E-001	-1.13745E+000	3.57700E+000	10	...........
	44	0.6	9.23052E-001	5.99301E-003	0.00000E+000	5.53186E-003	3.59960E-001	-1.13092E+000	3.57700E+000	10	...........
	45	0.613333	9.29058E-001	5.99459E-003	0.00000E+000	5.56932E-003	3.59960E-001	-1.12723E+000	3.57700E+000	10	...........
	46	0.626667	9.34979E-001	5.99625E-003	0.00000E+000	5.60637E-003	3.59960E-001	-1.13750E+000	3.57700E+000	10	...........
	47	0.64	9.40877E-001	5.99953E-003	0.00000E+000	5.64482E-003	3.59960E-001	-1.13058E+000	3.57700E+000	10	...........
	48	0.653333	9.46769E-001	5.99634E-003	0.00000E+000	5.67715E-003	3.59960E-001	-1.12703E+000	3.57700E+000	10	...........
	49	0.666667	9.52635E-001	5.99848E-003	0.00000E+000	5.71436E-003	3.59960E-001	-1.13752E+000	3.57700E+000	10	...........
	50	0.68	9.58382E-001	5.99155E-003	0.00000E+000	5.74219E-003	3.59960E-001	-1.13066E+000	3.57700E+000	10	...........
	51	0.693333	9.64138E-001	5.99636E-003	0.00000E+000	5.78132E-003	3.59960E-001	-1.12699E+000	3.57700E+000	10	...........
	52	0.706667	9.69855E-001	5.99595E-003	0.00000E+000	5.81520E-003	3.59960E-001	-1.13743E+000	3.57700E+000	10	...........
	53	0.72	9.75521E-001	5.99214E-003	0.00000E+000	5.84546E-003	3.59960E-001	-1.13068E+000	3.57700E+000	10	...........
	54	0.733333	9.81148E-001	5.99351E-003	0.00000E+000	5.88052E-003	3.59960E-001	-1.12720E+000	3.57700E+000	10	...........
	55	0.746667	9.86703E-001	5.99279E-003	0.00000E+000	5.91310E-003	3.59960E-001	-1.13712E+000	3.57700E+000	10	...........
	56	0.76	9.92227E-001	5.99146E-003	0.00000E+000	5.94489E-003	3.59960E-001	-1.13062E+000	3.57700E+000	10	...........
	57	0.773333	9.97744E-001	5.99664E-003	0.00000E+000	5.98311E-003	3.59960E-001	-1.12665E+000	3.57700E+000	10	...........
STARTTIMEOFFSET	QUANT	854.4103	Start Time Offset (s)