File: Data/CV_CRGO300517_1/PWRCCD_CRGO300517_1/CHARGE_DISCHARGE/CHARGE_#443.DTA
EXPLAIN
TAG	PWR800_CHARGE
TITLE	LABEL	PWR Cyclic Charge Discharge (Cell) - Charge Step	Test &Identifier
DATE	LABEL	22-6-2017	Date
TIME	LABEL	15:53:40	Time
NOTES	NOTES	3	&Notes...
	supercap test cell
	0.6mg
	6M KOH
PSTAT	PSTAT	IFC5000-01520	Potentiostat
CAPACITY	QUANT	1.00000E-003	Capacity (A-hr)
CELLTYPE	SELECTOR	1	&Cell Type
WORKINGCONNECTION	SELECTOR	0	&Working Lead
MAXCHARGETIME	VARIABLEANDUNITS	1.00000E+002	s	1.00000E+002	second(s)	Max &Charge Time
CHARGECURRENT	QUANT	6.00000E-003	&Charge Current (A)
VOLTAGEFINISH	TWOPARAM	F	1.00000E-003	3.60000E+003	&Voltage Finish	 I (A) < 	Max Time(s)
SAMPLETIME	QUANT	1.00000E-002	Sa&mple Period (s)
CHARGESTOPAT1	MULTIPARAM	4	1.00000E+000	Charge Stop At &1	Voltage > Limit	V
CHARGESTOPAT2	MULTIPARAM	0	0.00000E+000	Charge Stop At &2	None	N/A
AESBHCSELECTOR	TOGGLE	F	Save Both Half Cells
IRCOMP	TOGGLE	F	IR &Measure
EOC	QUANT	0	Open Circuit (V)
SEQUENCER	TOGGLE	TRUE	Run as Sequence
PSTATMODEL	IQUANT	53	Pstat Model
PSTATSECTION	LABEL	IFC5000-01520	Pstat Section
PSTATSERIALNO	LABEL	01520	Pstat Serial Number
CTRLMODE	IQUANT	0	Control Mode
ELECTROMETER	IQUANT	1	RE=0 or CS=1
IESTAB	IQUANT	0	I/E Stability
CASPEED	IQUANT	4	Control Amp Speed
CONVENTION	IQUANT	1	Current Convention
ICHRANGE	IQUANT	2	Ich Range
ICHRANGEMODE	TOGGLE	T	Ich Auto Range
ICHOFFSETENABLE	TOGGLE	F	Ich Offset Enable
ICHOFFSET	QUANT	0	Ich Offset (V)
ICHFILTER	IQUANT	1	Ich Filter
VCHRANGE	IQUANT	2	Vch Range
VCHRANGEMODE	TOGGLE	T	Vch Auto Range
VCHOFFSETENABLE	TOGGLE	F	Vch Offset Enable
VCHOFFSET	QUANT	0	Vch Offset (V)
VCHFILTER	IQUANT	1	Vch Filter
IERANGELOWERLIMIT	IQUANT	9	I/E Range Lower Limit
IERANGEMODE	TOGGLE	F	I/E AutoRange
IERANGE	IQUANT	10	I/E Range
ACHSELECT	IQUANT	1	Ach Select
ACHRANGE	IQUANT	2	Ach Range
ACHOFFSETENABLE	TOGGLE	F	Ach Offset Enable
ACHOFFSET	QUANT	0	Ach Offset (V)
ACHFILTER	IQUANT	1	Ach Filter
CABLEID	IQUANT	14	Cable ID
DCCALDATE	LABEL	20-10-2016	DC Calibration Date
ACCALDATE	LABEL	12/3/2015	AC Calibration Date
FRAMEWORKVERSION	QUANT	7.01	Framework Version
INSTRUMENTVERSION	LABEL	4.00	Instrument Version
CURVE	TABLE	59
	Pt	T	Vf	Im	Vu	Pwr	Sig	Ach	Temp	IERange	Over
	#	s	V	A	V	W	V	V	deg C	#	bits
	0	0.013333	6.28347E-001	5.99224E-003	0.00000E+000	3.76520E-003	3.59960E-001	-1.13435E+000	3.57790E+000	10	...........
	1	0.026667	6.37149E-001	5.99454E-003	0.00000E+000	3.81941E-003	3.59960E-001	-1.13898E+000	3.57790E+000	10	...........
	2	0.04	6.45257E-001	5.99731E-003	0.00000E+000	3.86980E-003	3.59960E-001	-1.14333E+000	3.57790E+000	10	...........
	3	0.053333	6.52968E-001	5.99412E-003	0.00000E+000	3.91397E-003	3.59960E-001	-1.13440E+000	3.57790E+000	10	...........
	4	0.066667	6.60322E-001	5.99442E-003	0.00000E+000	3.95825E-003	3.59960E-001	-1.13938E+000	3.57790E+000	10	...........
	5	0.08	6.67556E-001	5.99401E-003	0.00000E+000	4.00134E-003	3.59960E-001	-1.14283E+000	3.57790E+000	10	...........
	6	0.093333	6.74650E-001	5.99472E-003	0.00000E+000	4.04434E-003	3.59960E-001	-1.13416E+000	3.57790E+000	10	...........
	7	0.106667	6.81581E-001	5.98957E-003	0.00000E+000	4.08238E-003	3.59960E-001	-1.13917E+000	3.57790E+000	10	...........
	8	0.12	6.88443E-001	5.99307E-003	0.00000E+000	4.12589E-003	3.59960E-001	-1.14286E+000	3.57790E+000	10	...........
	9	0.133333	6.95253E-001	5.99001E-003	0.00000E+000	4.16457E-003	3.59960E-001	-1.13388E+000	3.57790E+000	10	...........
	10	0.146667	7.02014E-001	5.99964E-003	0.00000E+000	4.21183E-003	3.59960E-001	-1.13913E+000	3.57790E+000	10	...........
	11	0.16	7.08665E-001	5.99146E-003	0.00000E+000	4.24593E-003	3.59960E-001	-1.14215E+000	3.57790E+000	10	...........
	12	0.173333	7.15281E-001	5.99439E-003	0.00000E+000	4.28767E-003	3.59960E-001	-1.13379E+000	3.57790E+000	10	...........
	13	0.186667	7.21929E-001	5.99708E-003	0.00000E+000	4.32946E-003	3.59960E-001	-1.13917E+000	3.57790E+000	10	...........
	14	0.2	7.28501E-001	5.99311E-003	0.00000E+000	4.36599E-003	3.59960E-001	-1.14192E+000	3.57790E+000	10	...........
	15	0.213333	7.35050E-001	5.99462E-003	0.00000E+000	4.40634E-003	3.59960E-001	-1.13334E+000	3.57790E+000	10	...........
	16	0.226667	7.41611E-001	5.99495E-003	0.00000E+000	4.44592E-003	3.59960E-001	-1.13890E+000	3.57790E+000	10	...........
	17	0.24	7.48110E-001	5.99328E-003	0.00000E+000	4.48363E-003	3.59960E-001	-1.14173E+000	3.57790E+000	10	...........
	18	0.253333	7.54616E-001	5.99142E-003	0.00000E+000	4.52122E-003	3.59960E-001	-1.13342E+000	3.57790E+000	10	...........
	19	0.266667	7.61113E-001	5.99348E-003	0.00000E+000	4.56172E-003	3.59960E-001	-1.13929E+000	3.57790E+000	10	...........
	20	0.28	7.67561E-001	5.99248E-003	0.00000E+000	4.59959E-003	3.59960E-001	-1.14138E+000	3.57790E+000	10	...........
	21	0.293333	7.73988E-001	5.99451E-003	0.00000E+000	4.63968E-003	3.59960E-001	-1.13313E+000	3.57790E+000	10	...........
	22	0.306667	7.80410E-001	5.98957E-003	0.00000E+000	4.67432E-003	3.59960E-001	-1.13923E+000	3.57790E+000	10	...........
	23	0.32	7.86814E-001	5.99104E-003	0.00000E+000	4.71383E-003	3.59960E-001	-1.14127E+000	3.57790E+000	10	...........
	24	0.333333	7.93284E-001	5.99094E-003	0.00000E+000	4.75252E-003	3.59960E-001	-1.13329E+000	3.57790E+000	10	...........
	25	0.346667	7.99640E-001	5.99323E-003	0.00000E+000	4.79242E-003	3.59960E-001	-1.13932E+000	3.57790E+000	10	...........
	26	0.36	8.05992E-001	5.99566E-003	0.00000E+000	4.83245E-003	3.59960E-001	-1.14104E+000	3.57790E+000	10	...........
	27	0.373333	8.12335E-001	5.99345E-003	0.00000E+000	4.86868E-003	3.59960E-001	-1.13321E+000	3.57790E+000	10	...........
	28	0.386667	8.18679E-001	5.98830E-003	0.00000E+000	4.90250E-003	3.59960E-001	-1.13962E+000	3.57790E+000	10	...........
	29	0.4	8.25028E-001	5.99343E-003	0.00000E+000	4.94474E-003	3.59960E-001	-1.14100E+000	3.57790E+000	10	...........
	30	0.413333	8.31340E-001	5.99500E-003	0.00000E+000	4.98389E-003	3.59960E-001	-1.13319E+000	3.57790E+000	10	...........
	31	0.426667	8.37625E-001	5.99964E-003	0.00000E+000	5.02545E-003	3.59960E-001	-1.13976E+000	3.57790E+000	10	...........
	32	0.44	8.43925E-001	5.99279E-003	0.00000E+000	5.05747E-003	3.59960E-001	-1.14076E+000	3.57790E+000	10	...........
	33	0.453333	8.50200E-001	5.99650E-003	0.00000E+000	5.09823E-003	3.59960E-001	-1.13271E+000	3.57790E+000	10	...........
	34	0.466667	8.56442E-001	5.99326E-003	0.00000E+000	5.13288E-003	3.59960E-001	-1.13960E+000	3.57790E+000	10	...........
	35	0.48	8.62653E-001	5.99607E-003	0.00000E+000	5.17252E-003	3.59960E-001	-1.14012E+000	3.57790E+000	10	...........
	36	0.493333	8.68864E-001	5.99187E-003	0.00000E+000	5.20612E-003	3.59960E-001	-1.13274E+000	3.57790E+000	10	...........
	37	0.506667	8.75074E-001	5.99470E-003	0.00000E+000	5.24581E-003	3.59960E-001	-1.13964E+000	3.57790E+000	10	...........
	38	0.52	8.81225E-001	5.99332E-003	0.00000E+000	5.28147E-003	3.59960E-001	-1.14019E+000	3.57790E+000	10	...........
	39	0.533333	8.87376E-001	5.99816E-003	0.00000E+000	5.32262E-003	3.59960E-001	-1.13278E+000	3.57790E+000	10	...........
	40	0.546667	8.93480E-001	5.99191E-003	0.00000E+000	5.35365E-003	3.59960E-001	-1.13973E+000	3.57790E+000	10	...........
	41	0.56	8.99646E-001	5.99507E-003	0.00000E+000	5.39344E-003	3.59960E-001	-1.13987E+000	3.57790E+000	10	...........
	42	0.573333	9.05690E-001	5.99185E-003	0.00000E+000	5.42676E-003	3.59960E-001	-1.13258E+000	3.57790E+000	10	...........
	43	0.586667	9.11710E-001	5.99410E-003	0.00000E+000	5.46489E-003	3.59960E-001	-1.14000E+000	3.57790E+000	10	...........
	44	0.6	9.17720E-001	5.99459E-003	0.00000E+000	5.50136E-003	3.59960E-001	-1.13966E+000	3.57790E+000	10	...........
	45	0.613333	9.23755E-001	5.99403E-003	0.00000E+000	5.53701E-003	3.59960E-001	-1.13250E+000	3.57790E+000	10	...........
	46	0.626667	9.29673E-001	5.99442E-003	0.00000E+000	5.57285E-003	3.59960E-001	-1.13997E+000	3.57790E+000	10	...........
	47	0.64	9.35570E-001	5.99456E-003	0.00000E+000	5.60833E-003	3.59960E-001	-1.13954E+000	3.57790E+000	10	...........
	48	0.653333	9.41440E-001	6.00095E-003	0.00000E+000	5.64953E-003	3.59960E-001	-1.13258E+000	3.57790E+000	10	...........
	49	0.666667	9.47321E-001	5.99148E-003	0.00000E+000	5.67585E-003	3.59960E-001	-1.14048E+000	3.57810E+000	10	...........
	50	0.68	9.53103E-001	5.99186E-003	0.00000E+000	5.71086E-003	3.59960E-001	-1.13961E+000	3.57810E+000	10	...........
	51	0.693333	9.58885E-001	5.99452E-003	0.00000E+000	5.74806E-003	3.59960E-001	-1.13273E+000	3.57810E+000	10	...........
	52	0.706667	9.64563E-001	5.99205E-003	0.00000E+000	5.77971E-003	3.59960E-001	-1.14060E+000	3.57810E+000	10	...........
	53	0.72	9.70250E-001	5.99082E-003	0.00000E+000	5.81259E-003	3.59960E-001	-1.13963E+000	3.57810E+000	10	...........
	54	0.733333	9.75936E-001	5.99425E-003	0.00000E+000	5.85001E-003	3.59960E-001	-1.13279E+000	3.57810E+000	10	...........
	55	0.746667	9.81542E-001	5.99501E-003	0.00000E+000	5.88436E-003	3.59960E-001	-1.14062E+000	3.57810E+000	10	...........
	56	0.76	9.87074E-001	5.99395E-003	0.00000E+000	5.91647E-003	3.59960E-001	-1.13903E+000	3.57810E+000	10	...........
	57	0.773333	9.92574E-001	5.99340E-003	0.00000E+000	5.94889E-003	3.59960E-001	-1.13239E+000	3.57810E+000	10	...........
	58	0.786667	9.98044E-001	5.99619E-003	0.00000E+000	5.98446E-003	3.59960E-001	-1.14040E+000	3.57810E+000	10	...........
STARTTIMEOFFSET	QUANT	770.4918	Start Time Offset (s)