File: Data/CV_CRGO300517_1/PWRCCD_CRGO300517_1/CHARGE_DISCHARGE/CHARGE_#164.DTA
EXPLAIN
TAG	PWR800_CHARGE
TITLE	LABEL	PWR Cyclic Charge Discharge (Cell) - Charge Step	Test &Identifier
DATE	LABEL	22-6-2017	Date
TIME	LABEL	15:42:17	Time
NOTES	NOTES	3	&Notes...
	supercap test cell
	0.6mg
	6M KOH
PSTAT	PSTAT	IFC5000-01520	Potentiostat
CAPACITY	QUANT	1.00000E-003	Capacity (A-hr)
CELLTYPE	SELECTOR	1	&Cell Type
WORKINGCONNECTION	SELECTOR	0	&Working Lead
MAXCHARGETIME	VARIABLEANDUNITS	1.00000E+002	s	1.00000E+002	second(s)	Max &Charge Time
CHARGECURRENT	QUANT	6.00000E-003	&Charge Current (A)
VOLTAGEFINISH	TWOPARAM	F	1.00000E-003	3.60000E+003	&Voltage Finish	 I (A) < 	Max Time(s)
SAMPLETIME	QUANT	1.00000E-002	Sa&mple Period (s)
CHARGESTOPAT1	MULTIPARAM	4	1.00000E+000	Charge Stop At &1	Voltage > Limit	V
CHARGESTOPAT2	MULTIPARAM	0	0.00000E+000	Charge Stop At &2	None	N/A
AESBHCSELECTOR	TOGGLE	F	Save Both Half Cells
IRCOMP	TOGGLE	F	IR &Measure
EOC	QUANT	0	Open Circuit (V)
SEQUENCER	TOGGLE	TRUE	Run as Sequence
PSTATMODEL	IQUANT	53	Pstat Model
PSTATSECTION	LABEL	IFC5000-01520	Pstat Section
PSTATSERIALNO	LABEL	01520	Pstat Serial Number
CTRLMODE	IQUANT	0	Control Mode
ELECTROMETER	IQUANT	1	RE=0 or CS=1
IESTAB	IQUANT	0	I/E Stability
CASPEED	IQUANT	4	Control Amp Speed
CONVENTION	IQUANT	1	Current Convention
ICHRANGE	IQUANT	2	Ich Range
ICHRANGEMODE	TOGGLE	T	Ich Auto Range
ICHOFFSETENABLE	TOGGLE	F	Ich Offset Enable
ICHOFFSET	QUANT	0	Ich Offset (V)
ICHFILTER	IQUANT	1	Ich Filter
VCHRANGE	IQUANT	2	Vch Range
VCHRANGEMODE	TOGGLE	T	Vch Auto Range
VCHOFFSETENABLE	TOGGLE	F	Vch Offset Enable
VCHOFFSET	QUANT	0	Vch Offset (V)
VCHFILTER	IQUANT	1	Vch Filter
IERANGELOWERLIMIT	IQUANT	9	I/E Range Lower Limit
IERANGEMODE	TOGGLE	F	I/E AutoRange
IERANGE	IQUANT	10	I/E Range
ACHSELECT	IQUANT	1	Ach Select
ACHRANGE	IQUANT	2	Ach Range
ACHOFFSETENABLE	TOGGLE	F	Ach Offset Enable
ACHOFFSET	QUANT	0	Ach Offset (V)
ACHFILTER	IQUANT	1	Ach Filter
CABLEID	IQUANT	14	Cable ID
DCCALDATE	LABEL	20-10-2016	DC Calibration Date
ACCALDATE	LABEL	12/3/2015	AC Calibration Date
FRAMEWORKVERSION	QUANT	7.01	Framework Version
INSTRUMENTVERSION	LABEL	4.00	Instrument Version
CURVE	TABLE	67
	Pt	T	Vf	Im	Vu	Pwr	Sig	Ach	Temp	IERange	Over
	#	s	V	A	V	W	V	V	deg C	#	bits
	0	0.013333	6.00535E-001	5.99355E-003	0.00000E+000	3.59934E-003	3.59960E-001	-1.08781E+000	3.57780E+000	10	...........
	1	0.026667	6.08942E-001	5.99991E-003	0.00000E+000	3.65360E-003	3.59960E-001	-1.07908E+000	3.57780E+000	10	...........
	2	0.04	6.16719E-001	5.99929E-003	0.00000E+000	3.69987E-003	3.59960E-001	-1.08456E+000	3.57780E+000	10	...........
	3	0.053333	6.24024E-001	5.99298E-003	0.00000E+000	3.73976E-003	3.59960E-001	-1.08765E+000	3.57745E+000	10	...........
	4	0.066667	6.31031E-001	5.99159E-003	0.00000E+000	3.78088E-003	3.59960E-001	-1.07904E+000	3.57740E+000	10	...........
	5	0.08	6.37881E-001	5.99572E-003	0.00000E+000	3.82456E-003	3.59960E-001	-1.08469E+000	3.57740E+000	10	...........
	6	0.093333	6.44594E-001	5.99604E-003	0.00000E+000	3.86501E-003	3.59960E-001	-1.08766E+000	3.57740E+000	10	...........
	7	0.106667	6.51173E-001	5.99562E-003	0.00000E+000	3.90418E-003	3.59960E-001	-1.07882E+000	3.57740E+000	10	...........
	8	0.12	6.57714E-001	5.99309E-003	0.00000E+000	3.94174E-003	3.59960E-001	-1.08462E+000	3.57740E+000	10	...........
	9	0.133333	6.64122E-001	5.99270E-003	0.00000E+000	3.97988E-003	3.59960E-001	-1.08760E+000	3.57740E+000	10	...........
	10	0.146667	6.70540E-001	5.99520E-003	0.00000E+000	4.02002E-003	3.59960E-001	-1.07899E+000	3.57740E+000	10	...........
	11	0.16	6.76848E-001	5.99632E-003	0.00000E+000	4.05860E-003	3.59960E-001	-1.08495E+000	3.57740E+000	10	...........
	12	0.173333	6.83132E-001	5.99418E-003	0.00000E+000	4.09481E-003	3.59960E-001	-1.08788E+000	3.57740E+000	10	...........
	13	0.186667	6.89393E-001	5.99100E-003	0.00000E+000	4.13015E-003	3.59960E-001	-1.07914E+000	3.57740E+000	10	...........
	14	0.2	6.95583E-001	5.99066E-003	0.00000E+000	4.16700E-003	3.59960E-001	-1.08491E+000	3.57740E+000	10	...........
	15	0.213333	7.01769E-001	5.99543E-003	0.00000E+000	4.20740E-003	3.59960E-001	-1.08794E+000	3.57740E+000	10	...........
	16	0.226667	7.07950E-001	5.99288E-003	0.00000E+000	4.24266E-003	3.59960E-001	-1.07914E+000	3.57740E+000	10	...........
	17	0.24	7.14092E-001	5.99226E-003	0.00000E+000	4.27902E-003	3.59960E-001	-1.08472E+000	3.57740E+000	10	...........
	18	0.253333	7.20283E-001	5.99279E-003	0.00000E+000	4.31651E-003	3.59960E-001	-1.08738E+000	3.57740E+000	10	...........
	19	0.266667	7.26410E-001	5.99279E-003	0.00000E+000	4.35322E-003	3.59960E-001	-1.07852E+000	3.57740E+000	10	...........
	20	0.28	7.32480E-001	5.99536E-003	0.00000E+000	4.39148E-003	3.59960E-001	-1.08453E+000	3.57740E+000	10	...........
	21	0.293333	7.38619E-001	5.99495E-003	0.00000E+000	4.42798E-003	3.59960E-001	-1.08744E+000	3.57740E+000	10	...........
	22	0.306667	7.44728E-001	5.99335E-003	0.00000E+000	4.46342E-003	3.59960E-001	-1.07850E+000	3.57740E+000	10	...........
	23	0.32	7.50832E-001	5.99774E-003	0.00000E+000	4.50330E-003	3.59960E-001	-1.08439E+000	3.57740E+000	10	...........
	24	0.333333	7.56908E-001	5.98889E-003	0.00000E+000	4.53304E-003	3.59960E-001	-1.08721E+000	3.57740E+000	10	...........
	25	0.346667	7.62938E-001	5.99536E-003	0.00000E+000	4.57408E-003	3.59960E-001	-1.07871E+000	3.57740E+000	10	...........
	26	0.36	7.69027E-001	5.99562E-003	0.00000E+000	4.61079E-003	3.59960E-001	-1.08426E+000	3.57740E+000	10	...........
	27	0.373333	7.75107E-001	5.99652E-003	0.00000E+000	4.64795E-003	3.59960E-001	-1.08739E+000	3.57740E+000	10	...........
	28	0.386667	7.81148E-001	5.99623E-003	0.00000E+000	4.68395E-003	3.59960E-001	-1.07832E+000	3.57740E+000	10	...........
	29	0.4	7.87189E-001	5.99861E-003	0.00000E+000	4.72204E-003	3.59960E-001	-1.08412E+000	3.57740E+000	10	...........
	30	0.413333	7.93246E-001	5.99861E-003	0.00000E+000	4.75838E-003	3.59960E-001	-1.08740E+000	3.57740E+000	10	...........
	31	0.426667	7.99280E-001	5.99792E-003	0.00000E+000	4.79402E-003	3.59960E-001	-1.07846E+000	3.57740E+000	10	...........
	32	0.44	8.05264E-001	5.99507E-003	0.00000E+000	4.82762E-003	3.59960E-001	-1.08384E+000	3.57740E+000	10	...........
	33	0.453333	8.11293E-001	5.99528E-003	0.00000E+000	4.86393E-003	3.59960E-001	-1.08677E+000	3.57740E+000	10	...........
	34	0.466667	8.17283E-001	5.98966E-003	0.00000E+000	4.89525E-003	3.59960E-001	-1.07844E+000	3.57740E+000	10	...........
	35	0.48	8.23287E-001	5.99287E-003	0.00000E+000	4.93386E-003	3.59960E-001	-1.08422E+000	3.57740E+000	10	...........
	36	0.493333	8.29291E-001	5.99479E-003	0.00000E+000	4.97143E-003	3.59960E-001	-1.08718E+000	3.57740E+000	10	...........
	37	0.506667	8.35266E-001	5.99544E-003	0.00000E+000	5.00778E-003	3.59960E-001	-1.07832E+000	3.57740E+000	10	...........
	38	0.52	8.41212E-001	5.99270E-003	0.00000E+000	5.04113E-003	3.59960E-001	-1.08368E+000	3.57740E+000	10	...........
	39	0.533333	8.47250E-001	5.99430E-003	0.00000E+000	5.07867E-003	3.59960E-001	-1.08706E+000	3.57740E+000	10	...........
	40	0.546667	8.53206E-001	5.99207E-003	0.00000E+000	5.11247E-003	3.59960E-001	-1.07825E+000	3.57740E+000	10	...........
	41	0.56	8.59131E-001	5.99843E-003	0.00000E+000	5.15344E-003	3.59960E-001	-1.08396E+000	3.57740E+000	10	...........
	42	0.573333	8.65058E-001	5.99250E-003	0.00000E+000	5.18386E-003	3.59960E-001	-1.08675E+000	3.57740E+000	10	...........
	43	0.586667	8.71031E-001	5.99274E-003	0.00000E+000	5.21986E-003	3.59960E-001	-1.07753E+000	3.57740E+000	10	...........
	44	0.6	8.76941E-001	5.99442E-003	0.00000E+000	5.25675E-003	3.59960E-001	-1.08333E+000	3.57740E+000	10	...........
	45	0.613333	8.82838E-001	5.99261E-003	0.00000E+000	5.29051E-003	3.59960E-001	-1.08669E+000	3.57740E+000	10	...........
	46	0.626667	8.88722E-001	5.99440E-003	0.00000E+000	5.32735E-003	3.59960E-001	-1.07787E+000	3.57740E+000	10	...........
	47	0.64	8.94550E-001	6.00015E-003	0.00000E+000	5.36744E-003	3.59960E-001	-1.08324E+000	3.57740E+000	10	...........
	48	0.653333	9.00436E-001	5.99559E-003	0.00000E+000	5.39864E-003	3.59960E-001	-1.08643E+000	3.57740E+000	10	...........
	49	0.666667	9.06277E-001	5.99809E-003	0.00000E+000	5.43593E-003	3.59960E-001	-1.07744E+000	3.57740E+000	10	...........
	50	0.68	9.12123E-001	5.99095E-003	0.00000E+000	5.46449E-003	3.59960E-001	-1.08311E+000	3.57740E+000	10	...........
	51	0.693333	9.17879E-001	5.99101E-003	0.00000E+000	5.49902E-003	3.59960E-001	-1.08655E+000	3.57740E+000	10	...........
	52	0.706667	9.23721E-001	5.98911E-003	0.00000E+000	5.53226E-003	3.59960E-001	-1.07733E+000	3.57740E+000	10	...........
	53	0.72	9.29478E-001	5.99232E-003	0.00000E+000	5.56973E-003	3.59960E-001	-1.08296E+000	3.57740E+000	10	...........
	54	0.733333	9.35216E-001	5.99868E-003	0.00000E+000	5.61007E-003	3.59960E-001	-1.08651E+000	3.57740E+000	10	...........
	55	0.746667	9.40922E-001	5.99215E-003	0.00000E+000	5.63815E-003	3.59960E-001	-1.07784E+000	3.57740E+000	10	...........
	56	0.76	9.46625E-001	5.99224E-003	0.00000E+000	5.67240E-003	3.59960E-001	-1.08316E+000	3.57740E+000	10	...........
	57	0.773333	9.52269E-001	5.99225E-003	0.00000E+000	5.70623E-003	3.59960E-001	-1.08642E+000	3.57740E+000	10	...........
	58	0.786667	9.57847E-001	5.99599E-003	0.00000E+000	5.74324E-003	3.59960E-001	-1.07752E+000	3.57740E+000	10	...........
	59	0.8	9.63415E-001	5.99545E-003	0.00000E+000	5.77611E-003	3.59960E-001	-1.08310E+000	3.57740E+000	10	...........
	60	0.813333	9.68937E-001	5.99335E-003	0.00000E+000	5.80718E-003	3.59960E-001	-1.08660E+000	3.57740E+000	10	...........
	61	0.826667	9.74528E-001	5.99372E-003	0.00000E+000	5.84105E-003	3.59960E-001	-1.07786E+000	3.57740E+000	10	...........
	62	0.84	9.80013E-001	5.99370E-003	0.00000E+000	5.87390E-003	3.59960E-001	-1.08337E+000	3.57740E+000	10	...........
	63	0.853333	9.85431E-001	5.99153E-003	0.00000E+000	5.90424E-003	3.59960E-001	-1.08642E+000	3.57740E+000	10	...........
	64	0.866667	9.90838E-001	5.99625E-003	0.00000E+000	5.94132E-003	3.59960E-001	-1.07766E+000	3.57740E+000	10	...........
	65	0.88	9.96201E-001	5.99348E-003	0.00000E+000	5.97071E-003	3.59960E-001	-1.08346E+000	3.57740E+000	10	...........
	66	0.885	9.99914E-001	5.99468E-003	0.00000E+000	5.99417E-003	3.59960E-001	-1.07770E+000	3.57740E+000	10	...........
STARTTIMEOFFSET	QUANT	310.3434	Start Time Offset (s)