File: Data/CV_CRGO300517_1/PWRCCD_CRGO300517_1/CHARGE_DISCHARGE/CHARGE_#157.DTA
EXPLAIN
TAG	PWR800_CHARGE
TITLE	LABEL	PWR Cyclic Charge Discharge (Cell) - Charge Step	Test &Identifier
DATE	LABEL	22-6-2017	Date
TIME	LABEL	15:41:59	Time
NOTES	NOTES	3	&Notes...
	supercap test cell
	0.6mg
	6M KOH
PSTAT	PSTAT	IFC5000-01520	Potentiostat
CAPACITY	QUANT	1.00000E-003	Capacity (A-hr)
CELLTYPE	SELECTOR	1	&Cell Type
WORKINGCONNECTION	SELECTOR	0	&Working Lead
MAXCHARGETIME	VARIABLEANDUNITS	1.00000E+002	s	1.00000E+002	second(s)	Max &Charge Time
CHARGECURRENT	QUANT	6.00000E-003	&Charge Current (A)
VOLTAGEFINISH	TWOPARAM	F	1.00000E-003	3.60000E+003	&Voltage Finish	 I (A) < 	Max Time(s)
SAMPLETIME	QUANT	1.00000E-002	Sa&mple Period (s)
CHARGESTOPAT1	MULTIPARAM	4	1.00000E+000	Charge Stop At &1	Voltage > Limit	V
CHARGESTOPAT2	MULTIPARAM	0	0.00000E+000	Charge Stop At &2	None	N/A
AESBHCSELECTOR	TOGGLE	F	Save Both Half Cells
IRCOMP	TOGGLE	F	IR &Measure
EOC	QUANT	0	Open Circuit (V)
SEQUENCER	TOGGLE	TRUE	Run as Sequence
PSTATMODEL	IQUANT	53	Pstat Model
PSTATSECTION	LABEL	IFC5000-01520	Pstat Section
PSTATSERIALNO	LABEL	01520	Pstat Serial Number
CTRLMODE	IQUANT	0	Control Mode
ELECTROMETER	IQUANT	1	RE=0 or CS=1
IESTAB	IQUANT	0	I/E Stability
CASPEED	IQUANT	4	Control Amp Speed
CONVENTION	IQUANT	1	Current Convention
ICHRANGE	IQUANT	2	Ich Range
ICHRANGEMODE	TOGGLE	T	Ich Auto Range
ICHOFFSETENABLE	TOGGLE	F	Ich Offset Enable
ICHOFFSET	QUANT	0	Ich Offset (V)
ICHFILTER	IQUANT	1	Ich Filter
VCHRANGE	IQUANT	2	Vch Range
VCHRANGEMODE	TOGGLE	T	Vch Auto Range
VCHOFFSETENABLE	TOGGLE	F	Vch Offset Enable
VCHOFFSET	QUANT	0	Vch Offset (V)
VCHFILTER	IQUANT	1	Vch Filter
IERANGELOWERLIMIT	IQUANT	9	I/E Range Lower Limit
IERANGEMODE	TOGGLE	F	I/E AutoRange
IERANGE	IQUANT	10	I/E Range
ACHSELECT	IQUANT	1	Ach Select
ACHRANGE	IQUANT	2	Ach Range
ACHOFFSETENABLE	TOGGLE	F	Ach Offset Enable
ACHOFFSET	QUANT	0	Ach Offset (V)
ACHFILTER	IQUANT	1	Ach Filter
CABLEID	IQUANT	14	Cable ID
DCCALDATE	LABEL	20-10-2016	DC Calibration Date
ACCALDATE	LABEL	12/3/2015	AC Calibration Date
FRAMEWORKVERSION	QUANT	7.01	Framework Version
INSTRUMENTVERSION	LABEL	4.00	Instrument Version
CURVE	TABLE	67
	Pt	T	Vf	Im	Vu	Pwr	Sig	Ach	Temp	IERange	Over
	#	s	V	A	V	W	V	V	deg C	#	bits
	0	0.013333	5.99864E-001	5.99779E-003	0.00000E+000	3.59785E-003	3.59960E-001	-1.07324E+000	3.57710E+000	10	...........
	1	0.026667	6.08214E-001	5.99670E-003	0.00000E+000	3.64728E-003	3.59960E-001	-1.07282E+000	3.57710E+000	10	...........
	2	0.04	6.15947E-001	5.99010E-003	0.00000E+000	3.68958E-003	3.59960E-001	-1.08384E+000	3.57710E+000	10	...........
	3	0.053333	6.23221E-001	5.99633E-003	0.00000E+000	3.73704E-003	3.59960E-001	-1.07342E+000	3.57710E+000	10	...........
	4	0.066667	6.30190E-001	5.99395E-003	0.00000E+000	3.77732E-003	3.59960E-001	-1.07273E+000	3.57710E+000	10	...........
	5	0.08	6.37055E-001	5.99358E-003	0.00000E+000	3.81824E-003	3.59960E-001	-1.08382E+000	3.57710E+000	10	...........
	6	0.093333	6.43734E-001	5.99570E-003	0.00000E+000	3.85963E-003	3.59960E-001	-1.07312E+000	3.57710E+000	10	...........
	7	0.106667	6.50315E-001	5.99011E-003	0.00000E+000	3.89546E-003	3.59960E-001	-1.07250E+000	3.57710E+000	10	...........
	8	0.12	6.56782E-001	5.99334E-003	0.00000E+000	3.93632E-003	3.59960E-001	-1.08383E+000	3.57710E+000	10	...........
	9	0.133333	6.63202E-001	5.99345E-003	0.00000E+000	3.97487E-003	3.59960E-001	-1.07290E+000	3.57710E+000	10	...........
	10	0.146667	6.69561E-001	5.99520E-003	0.00000E+000	4.01415E-003	3.59960E-001	-1.07213E+000	3.57710E+000	10	...........
	11	0.16	6.75910E-001	5.99233E-003	0.00000E+000	4.05028E-003	3.59960E-001	-1.08355E+000	3.57710E+000	10	...........
	12	0.173333	6.82183E-001	5.99607E-003	0.00000E+000	4.09041E-003	3.59960E-001	-1.07315E+000	3.57710E+000	10	...........
	13	0.186667	6.88418E-001	5.99388E-003	0.00000E+000	4.12630E-003	3.59960E-001	-1.07216E+000	3.57710E+000	10	...........
	14	0.2	6.94629E-001	5.99440E-003	0.00000E+000	4.16388E-003	3.59960E-001	-1.08337E+000	3.57710E+000	10	...........
	15	0.213333	7.00838E-001	5.99778E-003	0.00000E+000	4.20347E-003	3.59960E-001	-1.07299E+000	3.57710E+000	10	...........
	16	0.226667	7.06987E-001	5.99961E-003	0.00000E+000	4.24165E-003	3.59960E-001	-1.07212E+000	3.57710E+000	10	...........
	17	0.24	7.13079E-001	5.99458E-003	0.00000E+000	4.27461E-003	3.59960E-001	-1.08346E+000	3.57710E+000	10	...........
	18	0.253333	7.19253E-001	5.99214E-003	0.00000E+000	4.30987E-003	3.59960E-001	-1.07305E+000	3.57710E+000	10	...........
	19	0.266667	7.25379E-001	5.99281E-003	0.00000E+000	4.34706E-003	3.59960E-001	-1.07195E+000	3.57710E+000	10	...........
	20	0.28	7.31458E-001	5.99225E-003	0.00000E+000	4.38308E-003	3.59960E-001	-1.08308E+000	3.57710E+000	10	...........
	21	0.293333	7.37527E-001	5.99316E-003	0.00000E+000	4.42011E-003	3.59960E-001	-1.07305E+000	3.57710E+000	10	...........
	22	0.306667	7.43602E-001	5.99220E-003	0.00000E+000	4.45581E-003	3.59960E-001	-1.07182E+000	3.57710E+000	10	...........
	23	0.32	7.49660E-001	5.99798E-003	0.00000E+000	4.49645E-003	3.59960E-001	-1.08325E+000	3.57710E+000	10	...........
	24	0.333333	7.55760E-001	5.99817E-003	0.00000E+000	4.53318E-003	3.59960E-001	-1.07289E+000	3.57710E+000	10	...........
	25	0.346667	7.61831E-001	5.99687E-003	0.00000E+000	4.56860E-003	3.59960E-001	-1.07175E+000	3.57710E+000	10	...........
	26	0.36	7.67877E-001	5.99652E-003	0.00000E+000	4.60459E-003	3.59960E-001	-1.08326E+000	3.57710E+000	10	...........
	27	0.373333	7.73920E-001	5.99670E-003	0.00000E+000	4.64097E-003	3.59960E-001	-1.07321E+000	3.57710E+000	10	...........
	28	0.386667	7.79929E-001	5.99132E-003	0.00000E+000	4.67280E-003	3.59960E-001	-1.07175E+000	3.57710E+000	10	...........
	29	0.4	7.85957E-001	5.99113E-003	0.00000E+000	4.70877E-003	3.59960E-001	-1.08311E+000	3.57710E+000	10	...........
	30	0.413333	7.91981E-001	5.99623E-003	0.00000E+000	4.74890E-003	3.59960E-001	-1.07317E+000	3.57710E+000	10	...........
	31	0.426667	7.98023E-001	5.99501E-003	0.00000E+000	4.78416E-003	3.59960E-001	-1.07180E+000	3.57710E+000	10	...........
	32	0.44	8.04065E-001	5.99160E-003	0.00000E+000	4.81764E-003	3.59960E-001	-1.08342E+000	3.57710E+000	10	...........
	33	0.453333	8.10044E-001	5.99079E-003	0.00000E+000	4.85280E-003	3.59960E-001	-1.07287E+000	3.57710E+000	10	...........
	34	0.466667	8.16060E-001	5.99687E-003	0.00000E+000	4.89380E-003	3.59960E-001	-1.07123E+000	3.57710E+000	10	...........
	35	0.48	8.22071E-001	5.99447E-003	0.00000E+000	4.92788E-003	3.59960E-001	-1.08275E+000	3.57710E+000	10	...........
	36	0.493333	8.28044E-001	5.99239E-003	0.00000E+000	4.96197E-003	3.59960E-001	-1.07305E+000	3.57710E+000	10	...........
	37	0.506667	8.34006E-001	5.99091E-003	0.00000E+000	4.99646E-003	3.59960E-001	-1.07124E+000	3.57710E+000	10	...........
	38	0.52	8.39952E-001	5.99014E-003	0.00000E+000	5.03143E-003	3.59960E-001	-1.08262E+000	3.57710E+000	10	...........
	39	0.533333	8.45936E-001	5.99046E-003	0.00000E+000	5.06755E-003	3.59960E-001	-1.07292E+000	3.57710E+000	10	...........
	40	0.546667	8.51909E-001	5.99096E-003	0.00000E+000	5.10376E-003	3.59960E-001	-1.07101E+000	3.57710E+000	10	...........
	41	0.56	8.57836E-001	5.99278E-003	0.00000E+000	5.14082E-003	3.59960E-001	-1.08269E+000	3.57710E+000	10	...........
	42	0.573333	8.63764E-001	5.99483E-003	0.00000E+000	5.17812E-003	3.59960E-001	-1.07319E+000	3.57710E+000	10	...........
	43	0.586667	8.69687E-001	5.99786E-003	0.00000E+000	5.21626E-003	3.59960E-001	-1.07122E+000	3.57710E+000	10	...........
	44	0.6	8.75608E-001	5.99586E-003	0.00000E+000	5.25002E-003	3.59960E-001	-1.08250E+000	3.57710E+000	10	...........
	45	0.613333	8.81533E-001	5.99645E-003	0.00000E+000	5.28607E-003	3.59960E-001	-1.07294E+000	3.57710E+000	10	...........
	46	0.626667	8.87432E-001	5.99602E-003	0.00000E+000	5.32107E-003	3.59960E-001	-1.07101E+000	3.57710E+000	10	...........
	47	0.64	8.93273E-001	5.99487E-003	0.00000E+000	5.35505E-003	3.59960E-001	-1.08260E+000	3.57710E+000	10	...........
	48	0.653333	8.99155E-001	5.99596E-003	0.00000E+000	5.39130E-003	3.59960E-001	-1.07303E+000	3.57710E+000	10	...........
	49	0.666667	9.05000E-001	5.99482E-003	0.00000E+000	5.42532E-003	3.59960E-001	-1.07086E+000	3.57710E+000	10	...........
	50	0.68	9.10819E-001	5.99425E-003	0.00000E+000	5.45967E-003	3.59960E-001	-1.08252E+000	3.57710E+000	10	...........
	51	0.693333	9.16608E-001	5.99602E-003	0.00000E+000	5.49600E-003	3.59960E-001	-1.07331E+000	3.57710E+000	10	...........
	52	0.706667	9.22483E-001	5.99772E-003	0.00000E+000	5.53280E-003	3.59960E-001	-1.07125E+000	3.57710E+000	10	...........
	53	0.72	9.28241E-001	5.99304E-003	0.00000E+000	5.56299E-003	3.59960E-001	-1.08252E+000	3.57710E+000	10	...........
	54	0.733333	9.33935E-001	5.99204E-003	0.00000E+000	5.59617E-003	3.59960E-001	-1.07323E+000	3.57710E+000	10	...........
	55	0.746667	9.39623E-001	5.99323E-003	0.00000E+000	5.63137E-003	3.59960E-001	-1.07104E+000	3.57710E+000	10	...........
	56	0.76	9.45328E-001	5.99425E-003	0.00000E+000	5.66653E-003	3.59960E-001	-1.08257E+000	3.57710E+000	10	...........
	57	0.773333	9.50987E-001	5.99132E-003	0.00000E+000	5.69767E-003	3.59960E-001	-1.07332E+000	3.57710E+000	10	...........
	58	0.786667	9.56602E-001	5.99189E-003	0.00000E+000	5.73185E-003	3.59960E-001	-1.07079E+000	3.57710E+000	10	...........
	59	0.8	9.62178E-001	5.99310E-003	0.00000E+000	5.76643E-003	3.59960E-001	-1.08220E+000	3.57710E+000	10	...........
	60	0.813333	9.67743E-001	5.98950E-003	0.00000E+000	5.79630E-003	3.59960E-001	-1.07310E+000	3.57710E+000	10	...........
	61	0.826667	9.73295E-001	5.99589E-003	0.00000E+000	5.83577E-003	3.59960E-001	-1.07070E+000	3.57710E+000	10	...........
	62	0.84	9.78802E-001	5.99285E-003	0.00000E+000	5.86582E-003	3.59960E-001	-1.08235E+000	3.57710E+000	10	...........
	63	0.853333	9.84214E-001	5.99445E-003	0.00000E+000	5.89982E-003	3.59960E-001	-1.07332E+000	3.57710E+000	10	...........
	64	0.866667	9.89634E-001	5.99698E-003	0.00000E+000	5.93482E-003	3.59960E-001	-1.07053E+000	3.57710E+000	10	...........
	65	0.88	9.94977E-001	5.99278E-003	0.00000E+000	5.96268E-003	3.59960E-001	-1.08188E+000	3.57770E+000	10	...........
	66	0.886667	9.99056E-001	5.99131E-003	0.00000E+000	5.98565E-003	3.59960E-001	-1.06171E+000	3.57830E+000	10	...........
STARTTIMEOFFSET	QUANT	298.0034	Start Time Offset (s)