File: Data/CV_CRGO300517_1/PWRCCD_CRGO300517_1/CHARGE_DISCHARGE/CHARGE_#983.DTA
EXPLAIN
TAG	PWR800_CHARGE
TITLE	LABEL	PWR Cyclic Charge Discharge (Cell) - Charge Step	Test &Identifier
DATE	LABEL	22-6-2017	Date
TIME	LABEL	16:14:01	Time
NOTES	NOTES	3	&Notes...
	supercap test cell
	0.6mg
	6M KOH
PSTAT	PSTAT	IFC5000-01520	Potentiostat
CAPACITY	QUANT	1.00000E-003	Capacity (A-hr)
CELLTYPE	SELECTOR	1	&Cell Type
WORKINGCONNECTION	SELECTOR	0	&Working Lead
MAXCHARGETIME	VARIABLEANDUNITS	1.00000E+002	s	1.00000E+002	second(s)	Max &Charge Time
CHARGECURRENT	QUANT	6.00000E-003	&Charge Current (A)
VOLTAGEFINISH	TWOPARAM	F	1.00000E-003	3.60000E+003	&Voltage Finish	 I (A) < 	Max Time(s)
SAMPLETIME	QUANT	1.00000E-002	Sa&mple Period (s)
CHARGESTOPAT1	MULTIPARAM	4	1.00000E+000	Charge Stop At &1	Voltage > Limit	V
CHARGESTOPAT2	MULTIPARAM	0	0.00000E+000	Charge Stop At &2	None	N/A
AESBHCSELECTOR	TOGGLE	F	Save Both Half Cells
IRCOMP	TOGGLE	F	IR &Measure
EOC	QUANT	0	Open Circuit (V)
SEQUENCER	TOGGLE	TRUE	Run as Sequence
PSTATMODEL	IQUANT	53	Pstat Model
PSTATSECTION	LABEL	IFC5000-01520	Pstat Section
PSTATSERIALNO	LABEL	01520	Pstat Serial Number
CTRLMODE	IQUANT	0	Control Mode
ELECTROMETER	IQUANT	1	RE=0 or CS=1
IESTAB	IQUANT	0	I/E Stability
CASPEED	IQUANT	4	Control Amp Speed
CONVENTION	IQUANT	1	Current Convention
ICHRANGE	IQUANT	2	Ich Range
ICHRANGEMODE	TOGGLE	T	Ich Auto Range
ICHOFFSETENABLE	TOGGLE	F	Ich Offset Enable
ICHOFFSET	QUANT	0	Ich Offset (V)
ICHFILTER	IQUANT	1	Ich Filter
VCHRANGE	IQUANT	2	Vch Range
VCHRANGEMODE	TOGGLE	T	Vch Auto Range
VCHOFFSETENABLE	TOGGLE	F	Vch Offset Enable
VCHOFFSET	QUANT	0	Vch Offset (V)
VCHFILTER	IQUANT	1	Vch Filter
IERANGELOWERLIMIT	IQUANT	9	I/E Range Lower Limit
IERANGEMODE	TOGGLE	F	I/E AutoRange
IERANGE	IQUANT	10	I/E Range
ACHSELECT	IQUANT	1	Ach Select
ACHRANGE	IQUANT	2	Ach Range
ACHOFFSETENABLE	TOGGLE	F	Ach Offset Enable
ACHOFFSET	QUANT	0	Ach Offset (V)
ACHFILTER	IQUANT	1	Ach Filter
CABLEID	IQUANT	14	Cable ID
DCCALDATE	LABEL	20-10-2016	DC Calibration Date
ACCALDATE	LABEL	12/3/2015	AC Calibration Date
FRAMEWORKVERSION	QUANT	7.01	Framework Version
INSTRUMENTVERSION	LABEL	4.00	Instrument Version
CURVE	TABLE	52
	Pt	T	Vf	Im	Vu	Pwr	Sig	Ach	Temp	IERange	Over
	#	s	V	A	V	W	V	V	deg C	#	bits
	0	0.013333	6.56836E-001	5.99171E-003	0.00000E+000	3.93557E-003	3.59960E-001	-1.17431E+000	3.57780E+000	10	...........
	1	0.026667	6.66183E-001	5.99426E-003	0.00000E+000	3.99328E-003	3.59960E-001	-1.18195E+000	3.57780E+000	10	...........
	2	0.04	6.74801E-001	5.99559E-003	0.00000E+000	4.04583E-003	3.59960E-001	-1.18060E+000	3.57780E+000	10	...........
	3	0.053333	6.82948E-001	5.99717E-003	0.00000E+000	4.09576E-003	3.59960E-001	-1.17393E+000	3.57780E+000	10	...........
	4	0.066667	6.90812E-001	5.99186E-003	0.00000E+000	4.13925E-003	3.59960E-001	-1.18192E+000	3.57780E+000	10	...........
	5	0.08	6.98501E-001	5.99515E-003	0.00000E+000	4.18762E-003	3.59960E-001	-1.18072E+000	3.57780E+000	10	...........
	6	0.093333	7.05989E-001	5.98980E-003	0.00000E+000	4.22873E-003	3.59960E-001	-1.17393E+000	3.57780E+000	10	...........
	7	0.106667	7.13384E-001	5.99367E-003	0.00000E+000	4.27579E-003	3.59960E-001	-1.18196E+000	3.57780E+000	10	...........
	8	0.12	7.20751E-001	5.99332E-003	0.00000E+000	4.31969E-003	3.59960E-001	-1.18040E+000	3.57780E+000	10	...........
	9	0.133333	7.27918E-001	5.99206E-003	0.00000E+000	4.36173E-003	3.59960E-001	-1.17397E+000	3.57780E+000	10	...........
	10	0.146667	7.35049E-001	5.99453E-003	0.00000E+000	4.40627E-003	3.59960E-001	-1.18198E+000	3.57780E+000	10	...........
	11	0.16	7.42134E-001	5.99392E-003	0.00000E+000	4.44829E-003	3.59960E-001	-1.18051E+000	3.57780E+000	10	...........
	12	0.173333	7.49185E-001	5.99060E-003	0.00000E+000	4.48807E-003	3.59960E-001	-1.17404E+000	3.57780E+000	10	...........
	13	0.186667	7.56186E-001	5.99362E-003	0.00000E+000	4.53230E-003	3.59960E-001	-1.18181E+000	3.57780E+000	10	...........
	14	0.2	7.63124E-001	5.99135E-003	0.00000E+000	4.57214E-003	3.59960E-001	-1.18037E+000	3.57780E+000	10	...........
	15	0.213333	7.70084E-001	5.99642E-003	0.00000E+000	4.61775E-003	3.59960E-001	-1.17395E+000	3.57780E+000	10	...........
	16	0.226667	7.76956E-001	5.99656E-003	0.00000E+000	4.65906E-003	3.59960E-001	-1.18202E+000	3.57780E+000	10	...........
	17	0.24	7.83860E-001	5.99424E-003	0.00000E+000	4.69865E-003	3.59960E-001	-1.18001E+000	3.57780E+000	10	...........
	18	0.253333	7.90677E-001	5.98978E-003	0.00000E+000	4.73598E-003	3.59960E-001	-1.17368E+000	3.57780E+000	10	...........
	19	0.266667	7.97512E-001	5.99537E-003	0.00000E+000	4.78137E-003	3.59960E-001	-1.18181E+000	3.57780E+000	10	...........
	20	0.28	8.04265E-001	5.99119E-003	0.00000E+000	4.81851E-003	3.59960E-001	-1.17980E+000	3.57780E+000	10	...........
	21	0.293333	8.10995E-001	5.99382E-003	0.00000E+000	4.86096E-003	3.59960E-001	-1.17365E+000	3.57780E+000	10	...........
	22	0.306667	8.17744E-001	5.99251E-003	0.00000E+000	4.90034E-003	3.59960E-001	-1.18190E+000	3.57780E+000	10	...........
	23	0.32	8.24440E-001	5.99515E-003	0.00000E+000	4.94264E-003	3.59960E-001	-1.17967E+000	3.57780E+000	10	...........
	24	0.333333	8.31115E-001	5.99670E-003	0.00000E+000	4.98395E-003	3.59960E-001	-1.17359E+000	3.57780E+000	10	...........
	25	0.346667	8.37717E-001	5.99498E-003	0.00000E+000	5.02209E-003	3.59960E-001	-1.18194E+000	3.57780E+000	10	...........
	26	0.36	8.44364E-001	5.99168E-003	0.00000E+000	5.05916E-003	3.59960E-001	-1.17964E+000	3.57780E+000	10	...........
	27	0.373333	8.50976E-001	5.99709E-003	0.00000E+000	5.10338E-003	3.59960E-001	-1.17356E+000	3.57780E+000	10	...........
	28	0.386667	8.57500E-001	5.99140E-003	0.00000E+000	5.13763E-003	3.59960E-001	-1.18191E+000	3.57780E+000	10	...........
	29	0.4	8.64042E-001	5.99245E-003	0.00000E+000	5.17773E-003	3.59960E-001	-1.17933E+000	3.57780E+000	10	...........
	30	0.413333	8.70524E-001	5.99428E-003	0.00000E+000	5.21816E-003	3.59960E-001	-1.17363E+000	3.57780E+000	10	...........
	31	0.426667	8.76990E-001	5.99516E-003	0.00000E+000	5.25769E-003	3.59960E-001	-1.18222E+000	3.57780E+000	10	...........
	32	0.44	8.83418E-001	5.99161E-003	0.00000E+000	5.29310E-003	3.59960E-001	-1.17920E+000	3.57780E+000	10	...........
	33	0.453333	8.89833E-001	5.99481E-003	0.00000E+000	5.33438E-003	3.59960E-001	-1.17340E+000	3.57780E+000	10	...........
	34	0.466667	8.96206E-001	5.99444E-003	0.00000E+000	5.37225E-003	3.59960E-001	-1.18225E+000	3.57780E+000	10	...........
	35	0.48	9.02507E-001	5.99398E-003	0.00000E+000	5.40961E-003	3.59960E-001	-1.17953E+000	3.57780E+000	10	...........
	36	0.493333	9.08805E-001	5.98820E-003	0.00000E+000	5.44211E-003	3.59960E-001	-1.17372E+000	3.57780E+000	10	...........
	37	0.506667	9.15040E-001	5.99136E-003	0.00000E+000	5.48234E-003	3.59960E-001	-1.18247E+000	3.57780E+000	10	...........
	38	0.52	9.21312E-001	5.99503E-003	0.00000E+000	5.52330E-003	3.59960E-001	-1.17907E+000	3.57780E+000	10	...........
	39	0.533333	9.27460E-001	5.99238E-003	0.00000E+000	5.55769E-003	3.59960E-001	-1.17366E+000	3.57780E+000	10	...........
	40	0.546667	9.33548E-001	5.99507E-003	0.00000E+000	5.59669E-003	3.59960E-001	-1.18251E+000	3.57780E+000	10	...........
	41	0.56	9.39622E-001	5.99207E-003	0.00000E+000	5.63028E-003	3.59960E-001	-1.17909E+000	3.57780E+000	10	...........
	42	0.573333	9.45623E-001	5.99217E-003	0.00000E+000	5.66634E-003	3.59960E-001	-1.17327E+000	3.57780E+000	10	...........
	43	0.586667	9.51592E-001	5.99058E-003	0.00000E+000	5.70059E-003	3.59960E-001	-1.18191E+000	3.57780E+000	10	...........
	44	0.6	9.57550E-001	5.99763E-003	0.00000E+000	5.74303E-003	3.59960E-001	-1.17860E+000	3.57780E+000	10	...........
	45	0.613333	9.63424E-001	5.99477E-003	0.00000E+000	5.77551E-003	3.59960E-001	-1.17312E+000	3.57780E+000	10	...........
	46	0.626667	9.69170E-001	5.99214E-003	0.00000E+000	5.80741E-003	3.59960E-001	-1.18198E+000	3.57780E+000	10	...........
	47	0.64	9.75046E-001	5.98884E-003	0.00000E+000	5.83939E-003	3.59960E-001	-1.17852E+000	3.57780E+000	10	...........
	48	0.653333	9.80792E-001	5.99479E-003	0.00000E+000	5.87964E-003	3.59960E-001	-1.17293E+000	3.57780E+000	10	...........
	49	0.666667	9.86450E-001	5.99893E-003	0.00000E+000	5.91765E-003	3.59960E-001	-1.18220E+000	3.57780E+000	10	...........
	50	0.68	9.92031E-001	5.98646E-003	0.00000E+000	5.93875E-003	3.59960E-001	-1.17856E+000	3.57780E+000	10	...........
	51	0.693333	9.97629E-001	5.99205E-003	0.00000E+000	5.97784E-003	3.59960E-001	-1.17314E+000	3.57780E+000	10	...........
STARTTIMEOFFSET	QUANT	1561.777	Start Time Offset (s)