File: Data/CV_CRGO300517_1/PWRCCD_CRGO300517_1/CHARGE_DISCHARGE/CHARGE_#918.DTA
EXPLAIN
TAG	PWR800_CHARGE
TITLE	LABEL	PWR Cyclic Charge Discharge (Cell) - Charge Step	Test &Identifier
DATE	LABEL	22-6-2017	Date
TIME	LABEL	16:11:38	Time
NOTES	NOTES	3	&Notes...
	supercap test cell
	0.6mg
	6M KOH
PSTAT	PSTAT	IFC5000-01520	Potentiostat
CAPACITY	QUANT	1.00000E-003	Capacity (A-hr)
CELLTYPE	SELECTOR	1	&Cell Type
WORKINGCONNECTION	SELECTOR	0	&Working Lead
MAXCHARGETIME	VARIABLEANDUNITS	1.00000E+002	s	1.00000E+002	second(s)	Max &Charge Time
CHARGECURRENT	QUANT	6.00000E-003	&Charge Current (A)
VOLTAGEFINISH	TWOPARAM	F	1.00000E-003	3.60000E+003	&Voltage Finish	 I (A) < 	Max Time(s)
SAMPLETIME	QUANT	1.00000E-002	Sa&mple Period (s)
CHARGESTOPAT1	MULTIPARAM	4	1.00000E+000	Charge Stop At &1	Voltage > Limit	V
CHARGESTOPAT2	MULTIPARAM	0	0.00000E+000	Charge Stop At &2	None	N/A
AESBHCSELECTOR	TOGGLE	F	Save Both Half Cells
IRCOMP	TOGGLE	F	IR &Measure
EOC	QUANT	0	Open Circuit (V)
SEQUENCER	TOGGLE	TRUE	Run as Sequence
PSTATMODEL	IQUANT	53	Pstat Model
PSTATSECTION	LABEL	IFC5000-01520	Pstat Section
PSTATSERIALNO	LABEL	01520	Pstat Serial Number
CTRLMODE	IQUANT	0	Control Mode
ELECTROMETER	IQUANT	1	RE=0 or CS=1
IESTAB	IQUANT	0	I/E Stability
CASPEED	IQUANT	4	Control Amp Speed
CONVENTION	IQUANT	1	Current Convention
ICHRANGE	IQUANT	2	Ich Range
ICHRANGEMODE	TOGGLE	T	Ich Auto Range
ICHOFFSETENABLE	TOGGLE	F	Ich Offset Enable
ICHOFFSET	QUANT	0	Ich Offset (V)
ICHFILTER	IQUANT	1	Ich Filter
VCHRANGE	IQUANT	2	Vch Range
VCHRANGEMODE	TOGGLE	T	Vch Auto Range
VCHOFFSETENABLE	TOGGLE	F	Vch Offset Enable
VCHOFFSET	QUANT	0	Vch Offset (V)
VCHFILTER	IQUANT	1	Vch Filter
IERANGELOWERLIMIT	IQUANT	9	I/E Range Lower Limit
IERANGEMODE	TOGGLE	F	I/E AutoRange
IERANGE	IQUANT	10	I/E Range
ACHSELECT	IQUANT	1	Ach Select
ACHRANGE	IQUANT	2	Ach Range
ACHOFFSETENABLE	TOGGLE	F	Ach Offset Enable
ACHOFFSET	QUANT	0	Ach Offset (V)
ACHFILTER	IQUANT	1	Ach Filter
CABLEID	IQUANT	14	Cable ID
DCCALDATE	LABEL	20-10-2016	DC Calibration Date
ACCALDATE	LABEL	12/3/2015	AC Calibration Date
FRAMEWORKVERSION	QUANT	7.01	Framework Version
INSTRUMENTVERSION	LABEL	4.00	Instrument Version
CURVE	TABLE	53
	Pt	T	Vf	Im	Vu	Pwr	Sig	Ach	Temp	IERange	Over
	#	s	V	A	V	W	V	V	deg C	#	bits
	0	0.013333	6.53994E-001	5.99257E-003	0.00000E+000	3.91910E-003	3.59960E-001	-1.18137E+000	3.57630E+000	10	...........
	1	0.026667	6.63288E-001	5.99279E-003	0.00000E+000	3.97495E-003	3.59960E-001	-1.17052E+000	3.57630E+000	10	...........
	2	0.04	6.71825E-001	5.99317E-003	0.00000E+000	4.02636E-003	3.59960E-001	-1.17281E+000	3.57630E+000	10	...........
	3	0.053333	6.79893E-001	5.99602E-003	0.00000E+000	4.07666E-003	3.59960E-001	-1.18074E+000	3.57630E+000	10	...........
	4	0.066667	6.87710E-001	5.99521E-003	0.00000E+000	4.12296E-003	3.59960E-001	-1.17039E+000	3.57630E+000	10	...........
	5	0.08	6.95314E-001	5.99743E-003	0.00000E+000	4.17010E-003	3.59960E-001	-1.17262E+000	3.57630E+000	10	...........
	6	0.093333	7.02753E-001	5.99187E-003	0.00000E+000	4.21081E-003	3.59960E-001	-1.18064E+000	3.57630E+000	10	...........
	7	0.106667	7.10114E-001	5.99341E-003	0.00000E+000	4.25600E-003	3.59960E-001	-1.17007E+000	3.57630E+000	10	...........
	8	0.12	7.17359E-001	5.99195E-003	0.00000E+000	4.29838E-003	3.59960E-001	-1.17265E+000	3.57630E+000	10	...........
	9	0.133333	7.24566E-001	5.99248E-003	0.00000E+000	4.34195E-003	3.59960E-001	-1.18103E+000	3.57630E+000	10	...........
	10	0.146667	7.31612E-001	5.99310E-003	0.00000E+000	4.38463E-003	3.59960E-001	-1.17026E+000	3.57630E+000	10	...........
	11	0.16	7.38666E-001	5.99195E-003	0.00000E+000	4.42605E-003	3.59960E-001	-1.17231E+000	3.57630E+000	10	...........
	12	0.173333	7.45667E-001	5.99102E-003	0.00000E+000	4.46731E-003	3.59960E-001	-1.18105E+000	3.57630E+000	10	...........
	13	0.186667	7.52629E-001	6.00346E-003	0.00000E+000	4.51838E-003	3.59960E-001	-1.17021E+000	3.57630E+000	10	...........
	14	0.2	7.59580E-001	5.99869E-003	0.00000E+000	4.55649E-003	3.59960E-001	-1.17245E+000	3.57630E+000	10	...........
	15	0.213333	7.66440E-001	5.99390E-003	0.00000E+000	4.59396E-003	3.59960E-001	-1.18100E+000	3.57630E+000	10	...........
	16	0.226667	7.73286E-001	5.99172E-003	0.00000E+000	4.63331E-003	3.59960E-001	-1.17013E+000	3.57630E+000	10	...........
	17	0.24	7.80111E-001	5.99669E-003	0.00000E+000	4.67809E-003	3.59960E-001	-1.17233E+000	3.57630E+000	10	...........
	18	0.253333	7.86896E-001	5.99368E-003	0.00000E+000	4.71640E-003	3.59960E-001	-1.18131E+000	3.57630E+000	10	...........
	19	0.266667	7.93683E-001	5.99234E-003	0.00000E+000	4.75602E-003	3.59960E-001	-1.17056E+000	3.57652E+000	10	...........
	20	0.28	8.00449E-001	5.99622E-003	0.00000E+000	4.79967E-003	3.59960E-001	-1.17234E+000	3.57660E+000	10	...........
	21	0.293333	8.07156E-001	5.99285E-003	0.00000E+000	4.83717E-003	3.59960E-001	-1.18111E+000	3.57660E+000	10	...........
	22	0.306667	8.13856E-001	5.99296E-003	0.00000E+000	4.87741E-003	3.59960E-001	-1.17027E+000	3.57660E+000	10	...........
	23	0.32	8.20536E-001	5.99465E-003	0.00000E+000	4.91883E-003	3.59960E-001	-1.17235E+000	3.57660E+000	10	...........
	24	0.333333	8.27179E-001	5.99376E-003	0.00000E+000	4.95791E-003	3.59960E-001	-1.18112E+000	3.57660E+000	10	...........
	25	0.346667	8.33745E-001	5.99674E-003	0.00000E+000	4.99975E-003	3.59960E-001	-1.17025E+000	3.57660E+000	10	...........
	26	0.36	8.40337E-001	5.99092E-003	0.00000E+000	5.03440E-003	3.59960E-001	-1.17189E+000	3.57660E+000	10	...........
	27	0.373333	8.46929E-001	5.99667E-003	0.00000E+000	5.07875E-003	3.59960E-001	-1.18077E+000	3.57660E+000	10	...........
	28	0.386667	8.53457E-001	5.99321E-003	0.00000E+000	5.11495E-003	3.59960E-001	-1.17011E+000	3.57660E+000	10	...........
	29	0.4	8.59966E-001	5.99410E-003	0.00000E+000	5.15473E-003	3.59960E-001	-1.17164E+000	3.57660E+000	10	...........
	30	0.413333	8.66452E-001	5.98946E-003	0.00000E+000	5.18958E-003	3.59960E-001	-1.18065E+000	3.57660E+000	10	...........
	31	0.426667	8.72941E-001	5.99084E-003	0.00000E+000	5.22965E-003	3.59960E-001	-1.16982E+000	3.57660E+000	10	...........
	32	0.44	8.79386E-001	5.99454E-003	0.00000E+000	5.27151E-003	3.59960E-001	-1.17145E+000	3.57660E+000	10	...........
	33	0.453333	8.85784E-001	5.99559E-003	0.00000E+000	5.31080E-003	3.59960E-001	-1.18077E+000	3.57660E+000	10	...........
	34	0.466667	8.92142E-001	5.99286E-003	0.00000E+000	5.34648E-003	3.59960E-001	-1.17003E+000	3.57660E+000	10	...........
	35	0.48	8.98493E-001	5.98973E-003	0.00000E+000	5.38173E-003	3.59960E-001	-1.17135E+000	3.57660E+000	10	...........
	36	0.493333	9.04768E-001	5.99151E-003	0.00000E+000	5.42092E-003	3.59960E-001	-1.18067E+000	3.57660E+000	10	...........
	37	0.506667	9.11056E-001	5.99404E-003	0.00000E+000	5.46091E-003	3.59960E-001	-1.16958E+000	3.57660E+000	10	...........
	38	0.52	9.17240E-001	5.99349E-003	0.00000E+000	5.49747E-003	3.59960E-001	-1.17122E+000	3.57660E+000	10	...........
	39	0.533333	9.23486E-001	5.99351E-003	0.00000E+000	5.53492E-003	3.59960E-001	-1.18047E+000	3.57660E+000	10	...........
	40	0.546667	9.29594E-001	5.99473E-003	0.00000E+000	5.57267E-003	3.59960E-001	-1.16962E+000	3.57660E+000	10	...........
	41	0.56	9.35671E-001	5.99321E-003	0.00000E+000	5.60767E-003	3.59960E-001	-1.17079E+000	3.57660E+000	10	...........
	42	0.573333	9.41694E-001	5.99950E-003	0.00000E+000	5.64969E-003	3.59960E-001	-1.18054E+000	3.57660E+000	10	...........
	43	0.586667	9.47686E-001	6.00031E-003	0.00000E+000	5.68641E-003	3.59960E-001	-1.16974E+000	3.57660E+000	10	...........
	44	0.6	9.53591E-001	5.99459E-003	0.00000E+000	5.71639E-003	3.59960E-001	-1.17096E+000	3.57660E+000	10	...........
	45	0.613333	9.59440E-001	5.99044E-003	0.00000E+000	5.74747E-003	3.59960E-001	-1.18065E+000	3.57660E+000	10	...........
	46	0.626667	9.65284E-001	5.99296E-003	0.00000E+000	5.78490E-003	3.59960E-001	-1.16971E+000	3.57660E+000	10	...........
	47	0.64	9.71097E-001	5.99439E-003	0.00000E+000	5.82113E-003	3.59960E-001	-1.17111E+000	3.57660E+000	10	...........
	48	0.653333	9.76893E-001	5.99608E-003	0.00000E+000	5.85752E-003	3.59960E-001	-1.18097E+000	3.57660E+000	10	...........
	49	0.666667	9.82565E-001	5.99771E-003	0.00000E+000	5.89314E-003	3.59960E-001	-1.17020E+000	3.57660E+000	10	...........
	50	0.68	9.88183E-001	5.99206E-003	0.00000E+000	5.92125E-003	3.59960E-001	-1.17110E+000	3.57660E+000	10	...........
	51	0.693333	9.93762E-001	5.99328E-003	0.00000E+000	5.95589E-003	3.59960E-001	-1.18042E+000	3.57660E+000	10	...........
	52	0.703333	9.98627E-001	5.99664E-003	0.00000E+000	5.98841E-003	3.59960E-001	-1.16490E+000	3.57660E+000	10	...........
STARTTIMEOFFSET	QUANT	1471.302	Start Time Offset (s)