File: Data/CV_CRGO300517_1/PWRCCD_CRGO300517_1/CHARGE_DISCHARGE/CHARGE_#997.DTA
EXPLAIN
TAG	PWR800_CHARGE
TITLE	LABEL	PWR Cyclic Charge Discharge (Cell) - Charge Step	Test &Identifier
DATE	LABEL	22-6-2017	Date
TIME	LABEL	16:14:31	Time
NOTES	NOTES	3	&Notes...
	supercap test cell
	0.6mg
	6M KOH
PSTAT	PSTAT	IFC5000-01520	Potentiostat
CAPACITY	QUANT	1.00000E-003	Capacity (A-hr)
CELLTYPE	SELECTOR	1	&Cell Type
WORKINGCONNECTION	SELECTOR	0	&Working Lead
MAXCHARGETIME	VARIABLEANDUNITS	1.00000E+002	s	1.00000E+002	second(s)	Max &Charge Time
CHARGECURRENT	QUANT	6.00000E-003	&Charge Current (A)
VOLTAGEFINISH	TWOPARAM	F	1.00000E-003	3.60000E+003	&Voltage Finish	 I (A) < 	Max Time(s)
SAMPLETIME	QUANT	1.00000E-002	Sa&mple Period (s)
CHARGESTOPAT1	MULTIPARAM	4	1.00000E+000	Charge Stop At &1	Voltage > Limit	V
CHARGESTOPAT2	MULTIPARAM	0	0.00000E+000	Charge Stop At &2	None	N/A
AESBHCSELECTOR	TOGGLE	F	Save Both Half Cells
IRCOMP	TOGGLE	F	IR &Measure
EOC	QUANT	0	Open Circuit (V)
SEQUENCER	TOGGLE	TRUE	Run as Sequence
PSTATMODEL	IQUANT	53	Pstat Model
PSTATSECTION	LABEL	IFC5000-01520	Pstat Section
PSTATSERIALNO	LABEL	01520	Pstat Serial Number
CTRLMODE	IQUANT	0	Control Mode
ELECTROMETER	IQUANT	1	RE=0 or CS=1
IESTAB	IQUANT	0	I/E Stability
CASPEED	IQUANT	4	Control Amp Speed
CONVENTION	IQUANT	1	Current Convention
ICHRANGE	IQUANT	2	Ich Range
ICHRANGEMODE	TOGGLE	T	Ich Auto Range
ICHOFFSETENABLE	TOGGLE	F	Ich Offset Enable
ICHOFFSET	QUANT	0	Ich Offset (V)
ICHFILTER	IQUANT	1	Ich Filter
VCHRANGE	IQUANT	2	Vch Range
VCHRANGEMODE	TOGGLE	T	Vch Auto Range
VCHOFFSETENABLE	TOGGLE	F	Vch Offset Enable
VCHOFFSET	QUANT	0	Vch Offset (V)
VCHFILTER	IQUANT	1	Vch Filter
IERANGELOWERLIMIT	IQUANT	9	I/E Range Lower Limit
IERANGEMODE	TOGGLE	F	I/E AutoRange
IERANGE	IQUANT	10	I/E Range
ACHSELECT	IQUANT	1	Ach Select
ACHRANGE	IQUANT	2	Ach Range
ACHOFFSETENABLE	TOGGLE	F	Ach Offset Enable
ACHOFFSET	QUANT	0	Ach Offset (V)
ACHFILTER	IQUANT	1	Ach Filter
CABLEID	IQUANT	14	Cable ID
DCCALDATE	LABEL	20-10-2016	DC Calibration Date
ACCALDATE	LABEL	12/3/2015	AC Calibration Date
FRAMEWORKVERSION	QUANT	7.01	Framework Version
INSTRUMENTVERSION	LABEL	4.00	Instrument Version
CURVE	TABLE	52
	Pt	T	Vf	Im	Vu	Pwr	Sig	Ach	Temp	IERange	Over
	#	s	V	A	V	W	V	V	deg C	#	bits
	0	0.013333	6.57742E-001	5.99061E-003	0.00000E+000	3.94028E-003	3.59960E-001	-1.18451E+000	3.57630E+000	10	...........
	1	0.026667	6.67122E-001	5.99569E-003	0.00000E+000	3.99986E-003	3.59960E-001	-1.17489E+000	3.57630E+000	10	...........
	2	0.04	6.75754E-001	5.99451E-003	0.00000E+000	4.05082E-003	3.59960E-001	-1.17870E+000	3.57630E+000	10	...........
	3	0.053333	6.83900E-001	5.99400E-003	0.00000E+000	4.09929E-003	3.59960E-001	-1.18418E+000	3.57630E+000	10	...........
	4	0.066667	6.91778E-001	5.99561E-003	0.00000E+000	4.14763E-003	3.59960E-001	-1.17464E+000	3.57630E+000	10	...........
	5	0.08	6.99408E-001	5.99548E-003	0.00000E+000	4.19329E-003	3.59960E-001	-1.17873E+000	3.57630E+000	10	...........
	6	0.093333	7.06899E-001	5.99487E-003	0.00000E+000	4.23777E-003	3.59960E-001	-1.18437E+000	3.57630E+000	10	...........
	7	0.106667	7.14300E-001	5.99236E-003	0.00000E+000	4.28034E-003	3.59960E-001	-1.17467E+000	3.57630E+000	10	...........
	8	0.12	7.21647E-001	5.98981E-003	0.00000E+000	4.32253E-003	3.59960E-001	-1.17866E+000	3.57630E+000	10	...........
	9	0.133333	7.28879E-001	5.99841E-003	0.00000E+000	4.37212E-003	3.59960E-001	-1.18427E+000	3.57630E+000	10	...........
	10	0.146667	7.36004E-001	5.99370E-003	0.00000E+000	4.41138E-003	3.59960E-001	-1.17476E+000	3.57630E+000	10	...........
	11	0.16	7.43098E-001	5.99077E-003	0.00000E+000	4.45173E-003	3.59960E-001	-1.17889E+000	3.57630E+000	10	...........
	12	0.173333	7.50144E-001	5.99393E-003	0.00000E+000	4.49631E-003	3.59960E-001	-1.18424E+000	3.57630E+000	10	...........
	13	0.186667	7.57128E-001	5.99593E-003	0.00000E+000	4.53969E-003	3.59960E-001	-1.17476E+000	3.57630E+000	10	...........
	14	0.2	7.64128E-001	5.99561E-003	0.00000E+000	4.58141E-003	3.59960E-001	-1.17873E+000	3.57630E+000	10	...........
	15	0.213333	7.71084E-001	5.99052E-003	0.00000E+000	4.61919E-003	3.59960E-001	-1.18387E+000	3.57630E+000	10	...........
	16	0.226667	7.77977E-001	5.99804E-003	0.00000E+000	4.66633E-003	3.59960E-001	-1.17474E+000	3.57630E+000	10	...........
	17	0.24	7.84837E-001	5.99185E-003	0.00000E+000	4.70263E-003	3.59960E-001	-1.17854E+000	3.57630E+000	10	...........
	18	0.253333	7.91647E-001	5.99769E-003	0.00000E+000	4.74805E-003	3.59960E-001	-1.18335E+000	3.57630E+000	10	...........
	19	0.266667	7.98457E-001	5.98702E-003	0.00000E+000	4.78038E-003	3.59960E-001	-1.17421E+000	3.57630E+000	10	...........
	20	0.28	8.05253E-001	5.98723E-003	0.00000E+000	4.82124E-003	3.59960E-001	-1.17846E+000	3.57630E+000	10	...........
	21	0.293333	8.12005E-001	5.99250E-003	0.00000E+000	4.86594E-003	3.59960E-001	-1.18314E+000	3.57632E+000	10	...........
	22	0.306667	8.18752E-001	5.99079E-003	0.00000E+000	4.90497E-003	3.59960E-001	-1.17415E+000	3.57660E+000	10	...........
	23	0.32	8.25449E-001	5.99368E-003	0.00000E+000	4.94748E-003	3.59960E-001	-1.17853E+000	3.57660E+000	10	...........
	24	0.333333	8.32114E-001	5.99441E-003	0.00000E+000	4.98803E-003	3.59960E-001	-1.18290E+000	3.57660E+000	10	...........
	25	0.346667	8.38739E-001	5.99808E-003	0.00000E+000	5.03082E-003	3.59960E-001	-1.17420E+000	3.57660E+000	10	...........
	26	0.36	8.45349E-001	5.98812E-003	0.00000E+000	5.06205E-003	3.59960E-001	-1.17862E+000	3.57660E+000	10	...........
	27	0.373333	8.51968E-001	5.99445E-003	0.00000E+000	5.10708E-003	3.59960E-001	-1.18308E+000	3.57660E+000	10	...........
	28	0.386667	8.58533E-001	5.99337E-003	0.00000E+000	5.14551E-003	3.59960E-001	-1.17392E+000	3.57660E+000	10	...........
	29	0.4	8.65053E-001	5.99584E-003	0.00000E+000	5.18671E-003	3.59960E-001	-1.17836E+000	3.57660E+000	10	...........
	30	0.413333	8.71575E-001	5.99255E-003	0.00000E+000	5.22296E-003	3.59960E-001	-1.18280E+000	3.57660E+000	10	...........
	31	0.426667	8.78013E-001	5.98542E-003	0.00000E+000	5.25527E-003	3.59960E-001	-1.17389E+000	3.57660E+000	10	...........
	32	0.44	8.84475E-001	5.99269E-003	0.00000E+000	5.30038E-003	3.59960E-001	-1.17867E+000	3.57660E+000	10	...........
	33	0.453333	8.90856E-001	5.99356E-003	0.00000E+000	5.33940E-003	3.59960E-001	-1.18279E+000	3.57660E+000	10	...........
	34	0.466667	8.97206E-001	5.99433E-003	0.00000E+000	5.37815E-003	3.59960E-001	-1.17381E+000	3.57660E+000	10	...........
	35	0.48	9.03521E-001	5.99444E-003	0.00000E+000	5.41610E-003	3.59960E-001	-1.17871E+000	3.57660E+000	10	...........
	36	0.493333	9.09823E-001	5.99274E-003	0.00000E+000	5.45233E-003	3.59960E-001	-1.18265E+000	3.57660E+000	10	...........
	37	0.506667	9.16023E-001	5.99637E-003	0.00000E+000	5.49281E-003	3.59960E-001	-1.17396E+000	3.57660E+000	10	...........
	38	0.52	9.22294E-001	5.99293E-003	0.00000E+000	5.52724E-003	3.59960E-001	-1.17868E+000	3.57660E+000	10	...........
	39	0.533333	9.28421E-001	5.99060E-003	0.00000E+000	5.56180E-003	3.59960E-001	-1.18237E+000	3.57660E+000	10	...........
	40	0.546667	9.34503E-001	5.99086E-003	0.00000E+000	5.59848E-003	3.59960E-001	-1.17370E+000	3.57660E+000	10	...........
	41	0.56	9.40570E-001	5.99175E-003	0.00000E+000	5.63565E-003	3.59960E-001	-1.17848E+000	3.57660E+000	10	...........
	42	0.573333	9.46598E-001	5.99345E-003	0.00000E+000	5.67339E-003	3.59960E-001	-1.18194E+000	3.57660E+000	10	...........
	43	0.586667	9.52588E-001	5.99414E-003	0.00000E+000	5.70994E-003	3.59960E-001	-1.17315E+000	3.57660E+000	10	...........
	44	0.6	9.58509E-001	5.99284E-003	0.00000E+000	5.74419E-003	3.59960E-001	-1.17829E+000	3.57660E+000	10	...........
	45	0.613333	9.64376E-001	5.99427E-003	0.00000E+000	5.78073E-003	3.59960E-001	-1.18205E+000	3.57660E+000	10	...........
	46	0.626667	9.70170E-001	5.98947E-003	0.00000E+000	5.81081E-003	3.59960E-001	-1.17334E+000	3.57660E+000	10	...........
	47	0.64	9.75979E-001	5.99603E-003	0.00000E+000	5.85200E-003	3.59960E-001	-1.17836E+000	3.57660E+000	10	...........
	48	0.653333	9.81651E-001	5.98967E-003	0.00000E+000	5.87977E-003	3.59960E-001	-1.18168E+000	3.57660E+000	10	...........
	49	0.666667	9.87314E-001	5.99240E-003	0.00000E+000	5.91639E-003	3.59960E-001	-1.17294E+000	3.57660E+000	10	...........
	50	0.68	9.92873E-001	5.99843E-003	0.00000E+000	5.95568E-003	3.59960E-001	-1.17845E+000	3.57660E+000	10	...........
	51	0.691667	9.98133E-001	5.99041E-003	0.00000E+000	5.97922E-003	3.59960E-001	-1.18131E+000	3.57660E+000	10	...........
STARTTIMEOFFSET	QUANT	1581.119	Start Time Offset (s)