File: Data/CV_CRGO300517_1/PWRCCD_CRGO300517_1/CHARGE_DISCHARGE/CHARGE_#31.DTA
EXPLAIN
TAG	PWR800_CHARGE
TITLE	LABEL	PWR Cyclic Charge Discharge (Cell) - Charge Step	Test &Identifier
DATE	LABEL	22-6-2017	Date
TIME	LABEL	15:36:23	Time
NOTES	NOTES	3	&Notes...
	supercap test cell
	0.6mg
	6M KOH
PSTAT	PSTAT	IFC5000-01520	Potentiostat
CAPACITY	QUANT	1.00000E-003	Capacity (A-hr)
CELLTYPE	SELECTOR	1	&Cell Type
WORKINGCONNECTION	SELECTOR	0	&Working Lead
MAXCHARGETIME	VARIABLEANDUNITS	1.00000E+002	s	1.00000E+002	second(s)	Max &Charge Time
CHARGECURRENT	QUANT	6.00000E-003	&Charge Current (A)
VOLTAGEFINISH	TWOPARAM	F	1.00000E-003	3.60000E+003	&Voltage Finish	 I (A) < 	Max Time(s)
SAMPLETIME	QUANT	1.00000E-002	Sa&mple Period (s)
CHARGESTOPAT1	MULTIPARAM	4	1.00000E+000	Charge Stop At &1	Voltage > Limit	V
CHARGESTOPAT2	MULTIPARAM	0	0.00000E+000	Charge Stop At &2	None	N/A
AESBHCSELECTOR	TOGGLE	F	Save Both Half Cells
IRCOMP	TOGGLE	F	IR &Measure
EOC	QUANT	0	Open Circuit (V)
SEQUENCER	TOGGLE	TRUE	Run as Sequence
PSTATMODEL	IQUANT	53	Pstat Model
PSTATSECTION	LABEL	IFC5000-01520	Pstat Section
PSTATSERIALNO	LABEL	01520	Pstat Serial Number
CTRLMODE	IQUANT	0	Control Mode
ELECTROMETER	IQUANT	1	RE=0 or CS=1
IESTAB	IQUANT	0	I/E Stability
CASPEED	IQUANT	4	Control Amp Speed
CONVENTION	IQUANT	1	Current Convention
ICHRANGE	IQUANT	2	Ich Range
ICHRANGEMODE	TOGGLE	T	Ich Auto Range
ICHOFFSETENABLE	TOGGLE	F	Ich Offset Enable
ICHOFFSET	QUANT	0	Ich Offset (V)
ICHFILTER	IQUANT	1	Ich Filter
VCHRANGE	IQUANT	2	Vch Range
VCHRANGEMODE	TOGGLE	T	Vch Auto Range
VCHOFFSETENABLE	TOGGLE	F	Vch Offset Enable
VCHOFFSET	QUANT	0	Vch Offset (V)
VCHFILTER	IQUANT	1	Vch Filter
IERANGELOWERLIMIT	IQUANT	9	I/E Range Lower Limit
IERANGEMODE	TOGGLE	F	I/E AutoRange
IERANGE	IQUANT	10	I/E Range
ACHSELECT	IQUANT	1	Ach Select
ACHRANGE	IQUANT	2	Ach Range
ACHOFFSETENABLE	TOGGLE	F	Ach Offset Enable
ACHOFFSET	QUANT	0	Ach Offset (V)
ACHFILTER	IQUANT	1	Ach Filter
CABLEID	IQUANT	14	Cable ID
DCCALDATE	LABEL	20-10-2016	DC Calibration Date
ACCALDATE	LABEL	12/3/2015	AC Calibration Date
FRAMEWORKVERSION	QUANT	7.01	Framework Version
INSTRUMENTVERSION	LABEL	4.00	Instrument Version
CURVE	TABLE	76
	Pt	T	Vf	Im	Vu	Pwr	Sig	Ach	Temp	IERange	Over
	#	s	V	A	V	W	V	V	deg C	#	bits
	0	0.013333	5.66633E-001	5.99303E-003	0.00000E+000	3.39585E-003	3.59960E-001	-1.02883E+000	3.57860E+000	10	...........
	1	0.026667	5.74681E-001	5.98929E-003	0.00000E+000	3.44193E-003	3.59960E-001	-1.02183E+000	3.57860E+000	10	...........
	2	0.04	5.82058E-001	5.99526E-003	0.00000E+000	3.48959E-003	3.59960E-001	-1.03081E+000	3.57860E+000	10	...........
	3	0.053333	5.89065E-001	5.99563E-003	0.00000E+000	3.53181E-003	3.59960E-001	-1.02860E+000	3.57860E+000	10	...........
	4	0.066667	5.95772E-001	5.99469E-003	0.00000E+000	3.57147E-003	3.59960E-001	-1.02173E+000	3.57860E+000	10	...........
	5	0.08	6.02214E-001	5.99179E-003	0.00000E+000	3.60834E-003	3.59960E-001	-1.03060E+000	3.57860E+000	10	...........
	6	0.093333	6.08567E-001	5.99375E-003	0.00000E+000	3.64760E-003	3.59960E-001	-1.02860E+000	3.57860E+000	10	...........
	7	0.106667	6.14837E-001	5.99139E-003	0.00000E+000	3.68373E-003	3.59960E-001	-1.02144E+000	3.57860E+000	10	...........
	8	0.12	6.21046E-001	5.99377E-003	0.00000E+000	3.72241E-003	3.59960E-001	-1.03044E+000	3.57860E+000	10	...........
	9	0.133333	6.27084E-001	5.99324E-003	0.00000E+000	3.75826E-003	3.59960E-001	-1.02863E+000	3.57860E+000	10	...........
	10	0.146667	6.33106E-001	5.99621E-003	0.00000E+000	3.79624E-003	3.59960E-001	-1.02165E+000	3.57860E+000	10	...........
	11	0.16	6.39077E-001	5.99381E-003	0.00000E+000	3.83051E-003	3.59960E-001	-1.03056E+000	3.57860E+000	10	...........
	12	0.173333	6.45006E-001	5.99646E-003	0.00000E+000	3.86776E-003	3.59960E-001	-1.02892E+000	3.57860E+000	10	...........
	13	0.186667	6.50864E-001	5.98932E-003	0.00000E+000	3.89823E-003	3.59960E-001	-1.02145E+000	3.57860E+000	10	...........
	14	0.2	6.56721E-001	5.99299E-003	0.00000E+000	3.93572E-003	3.59960E-001	-1.03038E+000	3.57860E+000	10	...........
	15	0.213333	6.62538E-001	5.99641E-003	0.00000E+000	3.97285E-003	3.59960E-001	-1.02899E+000	3.57860E+000	10	...........
	16	0.226667	6.68370E-001	5.99472E-003	0.00000E+000	4.00669E-003	3.59960E-001	-1.02148E+000	3.57860E+000	10	...........
	17	0.24	6.74143E-001	5.99699E-003	0.00000E+000	4.04283E-003	3.59960E-001	-1.03007E+000	3.57860E+000	10	...........
	18	0.253333	6.79883E-001	5.99054E-003	0.00000E+000	4.07287E-003	3.59960E-001	-1.02887E+000	3.57860E+000	10	...........
	19	0.266667	6.85637E-001	5.99728E-003	0.00000E+000	4.11195E-003	3.59960E-001	-1.02105E+000	3.57860E+000	10	...........
	20	0.28	6.91374E-001	5.99362E-003	0.00000E+000	4.14383E-003	3.59960E-001	-1.02967E+000	3.57860E+000	10	...........
	21	0.293333	6.97066E-001	5.99551E-003	0.00000E+000	4.17927E-003	3.59960E-001	-1.02859E+000	3.57860E+000	10	...........
	22	0.306667	7.02759E-001	5.99363E-003	0.00000E+000	4.21208E-003	3.59960E-001	-1.02088E+000	3.57860E+000	10	...........
	23	0.32	7.08421E-001	5.99491E-003	0.00000E+000	4.24692E-003	3.59960E-001	-1.02955E+000	3.57860E+000	10	...........
	24	0.333333	7.14078E-001	5.99272E-003	0.00000E+000	4.27927E-003	3.59960E-001	-1.02863E+000	3.57860E+000	10	...........
	25	0.346667	7.19805E-001	5.99394E-003	0.00000E+000	4.31447E-003	3.59960E-001	-1.02087E+000	3.57860E+000	10	...........
	26	0.36	7.25437E-001	5.99618E-003	0.00000E+000	4.34985E-003	3.59960E-001	-1.02946E+000	3.57860E+000	10	...........
	27	0.373333	7.31077E-001	5.99457E-003	0.00000E+000	4.38250E-003	3.59960E-001	-1.02859E+000	3.57860E+000	10	...........
	28	0.386667	7.36734E-001	5.99495E-003	0.00000E+000	4.41668E-003	3.59960E-001	-1.02073E+000	3.57860E+000	10	...........
	29	0.4	7.42399E-001	5.99659E-003	0.00000E+000	4.45186E-003	3.59960E-001	-1.02926E+000	3.57860E+000	10	...........
	30	0.413333	7.48043E-001	5.99476E-003	0.00000E+000	4.48434E-003	3.59960E-001	-1.02889E+000	3.57860E+000	10	...........
	31	0.426667	7.53684E-001	5.99125E-003	0.00000E+000	4.51551E-003	3.59960E-001	-1.02094E+000	3.57740E+000	10	...........
	32	0.44	7.59336E-001	5.99579E-003	0.00000E+000	4.55282E-003	3.59960E-001	-1.02930E+000	3.57740E+000	10	...........
	33	0.453333	7.64927E-001	5.98905E-003	0.00000E+000	4.58118E-003	3.59960E-001	-1.02855E+000	3.57740E+000	10	...........
	34	0.466667	7.70599E-001	5.99595E-003	0.00000E+000	4.62047E-003	3.59960E-001	-1.02076E+000	3.57740E+000	10	...........
	35	0.48	7.76248E-001	5.99454E-003	0.00000E+000	4.65325E-003	3.59960E-001	-1.02935E+000	3.57740E+000	10	...........
	36	0.493333	7.81907E-001	5.99127E-003	0.00000E+000	4.68461E-003	3.59960E-001	-1.02873E+000	3.57740E+000	10	...........
	37	0.506667	7.87543E-001	5.99578E-003	0.00000E+000	4.72194E-003	3.59960E-001	-1.02072E+000	3.57740E+000	10	...........
	38	0.52	7.93195E-001	5.99447E-003	0.00000E+000	4.75478E-003	3.59960E-001	-1.02894E+000	3.57740E+000	10	...........
	39	0.533333	7.98835E-001	5.99188E-003	0.00000E+000	4.78652E-003	3.59960E-001	-1.02899E+000	3.57740E+000	10	...........
	40	0.546667	8.04467E-001	5.99405E-003	0.00000E+000	4.82202E-003	3.59960E-001	-1.02087E+000	3.57740E+000	10	...........
	41	0.56	8.10100E-001	5.99225E-003	0.00000E+000	4.85432E-003	3.59960E-001	-1.02900E+000	3.57740E+000	10	...........
	42	0.573333	8.15710E-001	5.99398E-003	0.00000E+000	4.88935E-003	3.59960E-001	-1.02896E+000	3.57740E+000	10	...........
	43	0.586667	8.21364E-001	5.99329E-003	0.00000E+000	4.92267E-003	3.59960E-001	-1.02038E+000	3.57740E+000	10	...........
	44	0.6	8.27023E-001	5.99292E-003	0.00000E+000	4.95628E-003	3.59960E-001	-1.02842E+000	3.57740E+000	10	...........
	45	0.613333	8.32652E-001	5.99209E-003	0.00000E+000	4.98933E-003	3.59960E-001	-1.02877E+000	3.57740E+000	10	...........
	46	0.626667	8.38292E-001	5.99143E-003	0.00000E+000	5.02257E-003	3.59960E-001	-1.02037E+000	3.57740E+000	10	...........
	47	0.64	8.43916E-001	5.99167E-003	0.00000E+000	5.05647E-003	3.59960E-001	-1.02811E+000	3.57740E+000	10	...........
	48	0.653333	8.49561E-001	5.99372E-003	0.00000E+000	5.09203E-003	3.59960E-001	-1.02856E+000	3.57740E+000	10	...........
	49	0.666667	8.55162E-001	5.99346E-003	0.00000E+000	5.12537E-003	3.59960E-001	-1.02028E+000	3.57740E+000	10	...........
	50	0.68	8.60799E-001	5.99505E-003	0.00000E+000	5.16053E-003	3.59960E-001	-1.02840E+000	3.57740E+000	10	...........
	51	0.693333	8.66448E-001	5.99637E-003	0.00000E+000	5.19554E-003	3.59960E-001	-1.02881E+000	3.57740E+000	10	...........
	52	0.706667	8.72117E-001	5.99962E-003	0.00000E+000	5.23237E-003	3.59960E-001	-1.02031E+000	3.57740E+000	10	...........
	53	0.72	8.77711E-001	5.99413E-003	0.00000E+000	5.26111E-003	3.59960E-001	-1.02811E+000	3.57740E+000	10	...........
	54	0.733333	8.83305E-001	5.99771E-003	0.00000E+000	5.29781E-003	3.59960E-001	-1.02880E+000	3.57740E+000	10	...........
	55	0.746667	8.88908E-001	5.99591E-003	0.00000E+000	5.32981E-003	3.59960E-001	-1.02025E+000	3.57740E+000	10	...........
	56	0.76	8.94512E-001	5.99274E-003	0.00000E+000	5.36058E-003	3.59960E-001	-1.02809E+000	3.57740E+000	10	...........
	57	0.773333	9.00100E-001	5.99595E-003	0.00000E+000	5.39695E-003	3.59960E-001	-1.02850E+000	3.57740E+000	10	...........
	58	0.786667	9.05693E-001	5.99531E-003	0.00000E+000	5.42991E-003	3.59960E-001	-1.02017E+000	3.57740E+000	10	...........
	59	0.8	9.11257E-001	5.99421E-003	0.00000E+000	5.46227E-003	3.59960E-001	-1.02803E+000	3.57740E+000	10	...........
	60	0.813333	9.16772E-001	5.99507E-003	0.00000E+000	5.49612E-003	3.59960E-001	-1.02922E+000	3.57740E+000	10	...........
	61	0.826667	9.22358E-001	5.99544E-003	0.00000E+000	5.52994E-003	3.59960E-001	-1.02057E+000	3.57740E+000	10	...........
	62	0.84	9.27900E-001	5.99329E-003	0.00000E+000	5.56117E-003	3.59960E-001	-1.02810E+000	3.57740E+000	10	...........
	63	0.853333	9.33431E-001	5.99522E-003	0.00000E+000	5.59612E-003	3.59960E-001	-1.02893E+000	3.57740E+000	10	...........
	64	0.866667	9.38889E-001	5.99497E-003	0.00000E+000	5.62861E-003	3.59960E-001	-1.02050E+000	3.57740E+000	10	...........
	65	0.88	9.44402E-001	5.99176E-003	0.00000E+000	5.65863E-003	3.59960E-001	-1.02820E+000	3.57740E+000	10	...........
	66	0.893333	9.49912E-001	5.99193E-003	0.00000E+000	5.69181E-003	3.59960E-001	-1.02899E+000	3.57740E+000	10	...........
	67	0.906667	9.55340E-001	5.99502E-003	0.00000E+000	5.72728E-003	3.59960E-001	-1.02007E+000	3.57740E+000	10	...........
	68	0.92	9.60726E-001	5.99340E-003	0.00000E+000	5.75801E-003	3.59960E-001	-1.02734E+000	3.57740E+000	10	...........
	69	0.933333	9.66163E-001	5.99360E-003	0.00000E+000	5.79080E-003	3.59960E-001	-1.02889E+000	3.57740E+000	10	...........
	70	0.946667	9.71575E-001	5.99037E-003	0.00000E+000	5.82009E-003	3.59960E-001	-1.02009E+000	3.57740E+000	10	...........
	71	0.96	9.76978E-001	5.99305E-003	0.00000E+000	5.85508E-003	3.59960E-001	-1.02730E+000	3.57740E+000	10	...........
	72	0.97333	9.82291E-001	5.99505E-003	0.00000E+000	5.88889E-003	3.59960E-001	-1.02880E+000	3.57740E+000	10	...........
	73	0.98667	9.87616E-001	5.99358E-003	0.00000E+000	5.91936E-003	3.59960E-001	-1.02008E+000	3.57740E+000	10	...........
	74	1	9.92840E-001	5.99127E-003	0.00000E+000	5.94837E-003	3.59960E-001	-1.02726E+000	3.57740E+000	10	...........
	75	1.01333	9.98053E-001	5.99081E-003	0.00000E+000	5.97915E-003	3.59960E-001	-1.02904E+000	3.57740E+000	10	...........
STARTTIMEOFFSET	QUANT	62.90667	Start Time Offset (s)