File: Data/CV_CRGO300517_1/PWRCCD_CRGO300517_1/CHARGE_DISCHARGE/CHARGE_#713.DTA
EXPLAIN
TAG	PWR800_CHARGE
TITLE	LABEL	PWR Cyclic Charge Discharge (Cell) - Charge Step	Test &Identifier
DATE	LABEL	22-6-2017	Date
TIME	LABEL	16:04:02	Time
NOTES	NOTES	3	&Notes...
	supercap test cell
	0.6mg
	6M KOH
PSTAT	PSTAT	IFC5000-01520	Potentiostat
CAPACITY	QUANT	1.00000E-003	Capacity (A-hr)
CELLTYPE	SELECTOR	1	&Cell Type
WORKINGCONNECTION	SELECTOR	0	&Working Lead
MAXCHARGETIME	VARIABLEANDUNITS	1.00000E+002	s	1.00000E+002	second(s)	Max &Charge Time
CHARGECURRENT	QUANT	6.00000E-003	&Charge Current (A)
VOLTAGEFINISH	TWOPARAM	F	1.00000E-003	3.60000E+003	&Voltage Finish	 I (A) < 	Max Time(s)
SAMPLETIME	QUANT	1.00000E-002	Sa&mple Period (s)
CHARGESTOPAT1	MULTIPARAM	4	1.00000E+000	Charge Stop At &1	Voltage > Limit	V
CHARGESTOPAT2	MULTIPARAM	0	0.00000E+000	Charge Stop At &2	None	N/A
AESBHCSELECTOR	TOGGLE	F	Save Both Half Cells
IRCOMP	TOGGLE	F	IR &Measure
EOC	QUANT	0	Open Circuit (V)
SEQUENCER	TOGGLE	TRUE	Run as Sequence
PSTATMODEL	IQUANT	53	Pstat Model
PSTATSECTION	LABEL	IFC5000-01520	Pstat Section
PSTATSERIALNO	LABEL	01520	Pstat Serial Number
CTRLMODE	IQUANT	0	Control Mode
ELECTROMETER	IQUANT	1	RE=0 or CS=1
IESTAB	IQUANT	0	I/E Stability
CASPEED	IQUANT	4	Control Amp Speed
CONVENTION	IQUANT	1	Current Convention
ICHRANGE	IQUANT	2	Ich Range
ICHRANGEMODE	TOGGLE	T	Ich Auto Range
ICHOFFSETENABLE	TOGGLE	F	Ich Offset Enable
ICHOFFSET	QUANT	0	Ich Offset (V)
ICHFILTER	IQUANT	1	Ich Filter
VCHRANGE	IQUANT	2	Vch Range
VCHRANGEMODE	TOGGLE	T	Vch Auto Range
VCHOFFSETENABLE	TOGGLE	F	Vch Offset Enable
VCHOFFSET	QUANT	0	Vch Offset (V)
VCHFILTER	IQUANT	1	Vch Filter
IERANGELOWERLIMIT	IQUANT	9	I/E Range Lower Limit
IERANGEMODE	TOGGLE	F	I/E AutoRange
IERANGE	IQUANT	10	I/E Range
ACHSELECT	IQUANT	1	Ach Select
ACHRANGE	IQUANT	2	Ach Range
ACHOFFSETENABLE	TOGGLE	F	Ach Offset Enable
ACHOFFSET	QUANT	0	Ach Offset (V)
ACHFILTER	IQUANT	1	Ach Filter
CABLEID	IQUANT	14	Cable ID
DCCALDATE	LABEL	20-10-2016	DC Calibration Date
ACCALDATE	LABEL	12/3/2015	AC Calibration Date
FRAMEWORKVERSION	QUANT	7.01	Framework Version
INSTRUMENTVERSION	LABEL	4.00	Instrument Version
CURVE	TABLE	55
	Pt	T	Vf	Im	Vu	Pwr	Sig	Ach	Temp	IERange	Over
	#	s	V	A	V	W	V	V	deg C	#	bits
	0	0.013333	6.44042E-001	5.99397E-003	0.00000E+000	3.86037E-003	3.59960E-001	-1.15160E+000	3.57640E+000	10	...........
	1	0.026667	6.53140E-001	5.99075E-003	0.00000E+000	3.91279E-003	3.59960E-001	-1.15958E+000	3.57640E+000	10	...........
	2	0.04	6.61494E-001	5.98967E-003	0.00000E+000	3.96213E-003	3.59960E-001	-1.14903E+000	3.57640E+000	10	...........
	3	0.053333	6.69452E-001	5.99378E-003	0.00000E+000	4.01255E-003	3.59960E-001	-1.15134E+000	3.57640E+000	10	...........
	4	0.066667	6.77095E-001	5.99402E-003	0.00000E+000	4.05852E-003	3.59960E-001	-1.15900E+000	3.57640E+000	10	...........
	5	0.08	6.84520E-001	5.99074E-003	0.00000E+000	4.10078E-003	3.59960E-001	-1.14852E+000	3.57640E+000	10	...........
	6	0.093333	6.91874E-001	5.99918E-003	0.00000E+000	4.15068E-003	3.59960E-001	-1.15128E+000	3.57640E+000	10	...........
	7	0.106667	6.99055E-001	5.99611E-003	0.00000E+000	4.19161E-003	3.59960E-001	-1.15885E+000	3.57640E+000	10	...........
	8	0.12	7.06125E-001	5.99119E-003	0.00000E+000	4.23053E-003	3.59960E-001	-1.14833E+000	3.57640E+000	10	...........
	9	0.133333	7.13150E-001	5.99470E-003	0.00000E+000	4.27512E-003	3.59960E-001	-1.15154E+000	3.57640E+000	10	...........
	10	0.146667	7.20179E-001	5.99044E-003	0.00000E+000	4.31419E-003	3.59960E-001	-1.15871E+000	3.57640E+000	10	...........
	11	0.16	7.27072E-001	6.00036E-003	0.00000E+000	4.36269E-003	3.59960E-001	-1.14833E+000	3.57640E+000	10	...........
	12	0.173333	7.33912E-001	5.99505E-003	0.00000E+000	4.39984E-003	3.59960E-001	-1.15127E+000	3.57640E+000	10	...........
	13	0.186667	7.40748E-001	5.99365E-003	0.00000E+000	4.43978E-003	3.59960E-001	-1.15850E+000	3.57640E+000	10	...........
	14	0.2	7.47576E-001	5.99222E-003	0.00000E+000	4.47964E-003	3.59960E-001	-1.14819E+000	3.57640E+000	10	...........
	15	0.213333	7.54347E-001	5.99524E-003	0.00000E+000	4.52249E-003	3.59960E-001	-1.15154E+000	3.57640E+000	10	...........
	16	0.226667	7.61101E-001	5.99448E-003	0.00000E+000	4.56240E-003	3.59960E-001	-1.15808E+000	3.57640E+000	10	...........
	17	0.24	7.67832E-001	5.99298E-003	0.00000E+000	4.60160E-003	3.59960E-001	-1.14812E+000	3.57649E+000	10	...........
	18	0.253333	7.74536E-001	5.99779E-003	0.00000E+000	4.64550E-003	3.59960E-001	-1.15169E+000	3.57660E+000	10	...........
	19	0.266667	7.81183E-001	5.99634E-003	0.00000E+000	4.68424E-003	3.59960E-001	-1.15822E+000	3.57660E+000	10	...........
	20	0.28	7.87839E-001	5.99268E-003	0.00000E+000	4.72126E-003	3.59960E-001	-1.14825E+000	3.57660E+000	10	...........
	21	0.293333	7.94482E-001	5.99529E-003	0.00000E+000	4.76315E-003	3.59960E-001	-1.15185E+000	3.57660E+000	10	...........
	22	0.306667	8.01073E-001	5.99371E-003	0.00000E+000	4.80140E-003	3.59960E-001	-1.15797E+000	3.57660E+000	10	...........
	23	0.32	8.07628E-001	5.99276E-003	0.00000E+000	4.83992E-003	3.59960E-001	-1.14813E+000	3.57660E+000	10	...........
	24	0.333333	8.14171E-001	5.98865E-003	0.00000E+000	4.87579E-003	3.59960E-001	-1.15205E+000	3.57660E+000	10	...........
	25	0.346667	8.20750E-001	5.99451E-003	0.00000E+000	4.92000E-003	3.59960E-001	-1.15785E+000	3.57660E+000	10	...........
	26	0.36	8.27251E-001	5.99166E-003	0.00000E+000	4.95661E-003	3.59960E-001	-1.14798E+000	3.57660E+000	10	...........
	27	0.373333	8.33722E-001	5.99278E-003	0.00000E+000	4.99632E-003	3.59960E-001	-1.15182E+000	3.57660E+000	10	...........
	28	0.386667	8.40215E-001	5.99819E-003	0.00000E+000	5.03977E-003	3.59960E-001	-1.15725E+000	3.57660E+000	10	...........
	29	0.4	8.46695E-001	5.99476E-003	0.00000E+000	5.07573E-003	3.59960E-001	-1.14775E+000	3.57660E+000	10	...........
	30	0.413333	8.53156E-001	5.99427E-003	0.00000E+000	5.11405E-003	3.59960E-001	-1.15184E+000	3.57660E+000	10	...........
	31	0.426667	8.59551E-001	5.99582E-003	0.00000E+000	5.15371E-003	3.59960E-001	-1.15713E+000	3.57660E+000	10	...........
	32	0.44	8.65902E-001	5.99585E-003	0.00000E+000	5.19181E-003	3.59960E-001	-1.14769E+000	3.57660E+000	10	...........
	33	0.453333	8.72348E-001	5.99393E-003	0.00000E+000	5.22879E-003	3.59960E-001	-1.15210E+000	3.57660E+000	10	...........
	34	0.466667	8.78660E-001	5.99391E-003	0.00000E+000	5.26661E-003	3.59960E-001	-1.15722E+000	3.57660E+000	10	...........
	35	0.48	8.84970E-001	5.99468E-003	0.00000E+000	5.30511E-003	3.59960E-001	-1.14790E+000	3.57660E+000	10	...........
	36	0.493333	8.91249E-001	5.99493E-003	0.00000E+000	5.34297E-003	3.59960E-001	-1.15207E+000	3.57660E+000	10	...........
	37	0.506667	8.97497E-001	5.99443E-003	0.00000E+000	5.37998E-003	3.59960E-001	-1.15682E+000	3.57660E+000	10	...........
	38	0.52	9.03700E-001	5.99397E-003	0.00000E+000	5.41675E-003	3.59960E-001	-1.14768E+000	3.57660E+000	10	...........
	39	0.533333	9.09888E-001	5.99575E-003	0.00000E+000	5.45546E-003	3.59960E-001	-1.15231E+000	3.57660E+000	10	...........
	40	0.546667	9.16027E-001	5.99450E-003	0.00000E+000	5.49112E-003	3.59960E-001	-1.15664E+000	3.57660E+000	10	...........
	41	0.56	9.22169E-001	5.99065E-003	0.00000E+000	5.52439E-003	3.59960E-001	-1.14751E+000	3.57660E+000	10	...........
	42	0.573333	9.28240E-001	5.99478E-003	0.00000E+000	5.56460E-003	3.59960E-001	-1.15223E+000	3.57660E+000	10	...........
	43	0.586667	9.34251E-001	5.99306E-003	0.00000E+000	5.59902E-003	3.59960E-001	-1.15656E+000	3.57660E+000	10	...........
	44	0.6	9.40228E-001	5.99511E-003	0.00000E+000	5.63677E-003	3.59960E-001	-1.14785E+000	3.57660E+000	10	...........
	45	0.613333	9.46183E-001	5.99247E-003	0.00000E+000	5.66997E-003	3.59960E-001	-1.15259E+000	3.57660E+000	10	...........
	46	0.626667	9.52096E-001	5.99257E-003	0.00000E+000	5.70551E-003	3.59960E-001	-1.15666E+000	3.57660E+000	10	...........
	47	0.64	9.57978E-001	5.99256E-003	0.00000E+000	5.74074E-003	3.59960E-001	-1.14769E+000	3.57660E+000	10	...........
	48	0.653333	9.63792E-001	5.99638E-003	0.00000E+000	5.77926E-003	3.59960E-001	-1.15280E+000	3.57660E+000	10	...........
	49	0.666667	9.69526E-001	5.99459E-003	0.00000E+000	5.81192E-003	3.59960E-001	-1.15659E+000	3.57660E+000	10	...........
	50	0.68	9.75314E-001	5.99393E-003	0.00000E+000	5.84596E-003	3.59960E-001	-1.14778E+000	3.57660E+000	10	...........
	51	0.693333	9.81003E-001	5.99820E-003	0.00000E+000	5.88426E-003	3.59960E-001	-1.15292E+000	3.57660E+000	10	...........
	52	0.706667	9.86652E-001	5.99394E-003	0.00000E+000	5.91393E-003	3.59960E-001	-1.15598E+000	3.57660E+000	10	...........
	53	0.72	9.92216E-001	5.99352E-003	0.00000E+000	5.94687E-003	3.59960E-001	-1.14731E+000	3.57660E+000	10	...........
	54	0.733333	9.97767E-001	5.99186E-003	0.00000E+000	5.97848E-003	3.59960E-001	-1.15285E+000	3.57660E+000	10	...........
STARTTIMEOFFSET	QUANT	1178.257	Start Time Offset (s)