File: Data/CV_CRGO300517_1/PWRCCD_CRGO300517_1/CHARGE_DISCHARGE/CHARGE_#554.DTA
EXPLAIN
TAG	PWR800_CHARGE
TITLE	LABEL	PWR Cyclic Charge Discharge (Cell) - Charge Step	Test &Identifier
DATE	LABEL	22-6-2017	Date
TIME	LABEL	15:58:00	Time
NOTES	NOTES	3	&Notes...
	supercap test cell
	0.6mg
	6M KOH
PSTAT	PSTAT	IFC5000-01520	Potentiostat
CAPACITY	QUANT	1.00000E-003	Capacity (A-hr)
CELLTYPE	SELECTOR	1	&Cell Type
WORKINGCONNECTION	SELECTOR	0	&Working Lead
MAXCHARGETIME	VARIABLEANDUNITS	1.00000E+002	s	1.00000E+002	second(s)	Max &Charge Time
CHARGECURRENT	QUANT	6.00000E-003	&Charge Current (A)
VOLTAGEFINISH	TWOPARAM	F	1.00000E-003	3.60000E+003	&Voltage Finish	 I (A) < 	Max Time(s)
SAMPLETIME	QUANT	1.00000E-002	Sa&mple Period (s)
CHARGESTOPAT1	MULTIPARAM	4	1.00000E+000	Charge Stop At &1	Voltage > Limit	V
CHARGESTOPAT2	MULTIPARAM	0	0.00000E+000	Charge Stop At &2	None	N/A
AESBHCSELECTOR	TOGGLE	F	Save Both Half Cells
IRCOMP	TOGGLE	F	IR &Measure
EOC	QUANT	0	Open Circuit (V)
SEQUENCER	TOGGLE	TRUE	Run as Sequence
PSTATMODEL	IQUANT	53	Pstat Model
PSTATSECTION	LABEL	IFC5000-01520	Pstat Section
PSTATSERIALNO	LABEL	01520	Pstat Serial Number
CTRLMODE	IQUANT	0	Control Mode
ELECTROMETER	IQUANT	1	RE=0 or CS=1
IESTAB	IQUANT	0	I/E Stability
CASPEED	IQUANT	4	Control Amp Speed
CONVENTION	IQUANT	1	Current Convention
ICHRANGE	IQUANT	2	Ich Range
ICHRANGEMODE	TOGGLE	T	Ich Auto Range
ICHOFFSETENABLE	TOGGLE	F	Ich Offset Enable
ICHOFFSET	QUANT	0	Ich Offset (V)
ICHFILTER	IQUANT	1	Ich Filter
VCHRANGE	IQUANT	2	Vch Range
VCHRANGEMODE	TOGGLE	T	Vch Auto Range
VCHOFFSETENABLE	TOGGLE	F	Vch Offset Enable
VCHOFFSET	QUANT	0	Vch Offset (V)
VCHFILTER	IQUANT	1	Vch Filter
IERANGELOWERLIMIT	IQUANT	9	I/E Range Lower Limit
IERANGEMODE	TOGGLE	F	I/E AutoRange
IERANGE	IQUANT	10	I/E Range
ACHSELECT	IQUANT	1	Ach Select
ACHRANGE	IQUANT	2	Ach Range
ACHOFFSETENABLE	TOGGLE	F	Ach Offset Enable
ACHOFFSET	QUANT	0	Ach Offset (V)
ACHFILTER	IQUANT	1	Ach Filter
CABLEID	IQUANT	14	Cable ID
DCCALDATE	LABEL	20-10-2016	DC Calibration Date
ACCALDATE	LABEL	12/3/2015	AC Calibration Date
FRAMEWORKVERSION	QUANT	7.01	Framework Version
INSTRUMENTVERSION	LABEL	4.00	Instrument Version
CURVE	TABLE	58
	Pt	T	Vf	Im	Vu	Pwr	Sig	Ach	Temp	IERange	Over
	#	s	V	A	V	W	V	V	deg C	#	bits
	0	0.013333	6.35939E-001	5.99531E-003	0.00000E+000	3.81266E-003	3.59960E-001	-1.13992E+000	3.57790E+000	10	...........
	1	0.026667	6.44913E-001	5.99415E-003	0.00000E+000	3.86570E-003	3.59960E-001	-1.13567E+000	3.57790E+000	10	...........
	2	0.04	6.53116E-001	5.99160E-003	0.00000E+000	3.91321E-003	3.59960E-001	-1.14593E+000	3.57790E+000	10	...........
	3	0.053333	6.60897E-001	5.99244E-003	0.00000E+000	3.96038E-003	3.59960E-001	-1.13981E+000	3.57790E+000	10	...........
	4	0.066667	6.68461E-001	5.99366E-003	0.00000E+000	4.00653E-003	3.59960E-001	-1.13564E+000	3.57790E+000	10	...........
	5	0.08	6.75765E-001	5.98915E-003	0.00000E+000	4.04726E-003	3.59960E-001	-1.14593E+000	3.57790E+000	10	...........
	6	0.093333	6.82929E-001	5.99330E-003	0.00000E+000	4.09300E-003	3.59960E-001	-1.13987E+000	3.57790E+000	10	...........
	7	0.106667	6.89947E-001	5.99480E-003	0.00000E+000	4.13610E-003	3.59960E-001	-1.13562E+000	3.57790E+000	10	...........
	8	0.12	6.96918E-001	5.99246E-003	0.00000E+000	4.17625E-003	3.59960E-001	-1.14594E+000	3.57790E+000	10	...........
	9	0.133333	7.03860E-001	5.99443E-003	0.00000E+000	4.21923E-003	3.59960E-001	-1.14007E+000	3.57790E+000	10	...........
	10	0.146667	7.10648E-001	5.99410E-003	0.00000E+000	4.25970E-003	3.59960E-001	-1.13592E+000	3.57790E+000	10	...........
	11	0.16	7.17480E-001	5.99292E-003	0.00000E+000	4.29979E-003	3.59960E-001	-1.14605E+000	3.57790E+000	10	...........
	12	0.173333	7.24231E-001	5.99145E-003	0.00000E+000	4.33920E-003	3.59960E-001	-1.13965E+000	3.57790E+000	10	...........
	13	0.186667	7.30950E-001	5.98940E-003	0.00000E+000	4.37795E-003	3.59960E-001	-1.13528E+000	3.57790E+000	10	...........
	14	0.2	7.37624E-001	5.99020E-003	0.00000E+000	4.41852E-003	3.59960E-001	-1.14563E+000	3.57790E+000	10	...........
	15	0.213333	7.44254E-001	5.99489E-003	0.00000E+000	4.46172E-003	3.59960E-001	-1.13950E+000	3.57790E+000	10	...........
	16	0.226667	7.50937E-001	5.99870E-003	0.00000E+000	4.50465E-003	3.59960E-001	-1.13546E+000	3.57790E+000	10	...........
	17	0.24	7.57534E-001	5.99292E-003	0.00000E+000	4.53984E-003	3.59960E-001	-1.14587E+000	3.57790E+000	10	...........
	18	0.253333	7.64093E-001	5.99320E-003	0.00000E+000	4.57936E-003	3.59960E-001	-1.13938E+000	3.57790E+000	10	...........
	19	0.266667	7.70618E-001	5.99539E-003	0.00000E+000	4.62015E-003	3.59960E-001	-1.13527E+000	3.57790E+000	10	...........
	20	0.28	7.77184E-001	5.99992E-003	0.00000E+000	4.66305E-003	3.59960E-001	-1.14579E+000	3.57790E+000	10	...........
	21	0.293333	7.83704E-001	5.99367E-003	0.00000E+000	4.69726E-003	3.59960E-001	-1.13962E+000	3.57790E+000	10	...........
	22	0.306667	7.90210E-001	5.98930E-003	0.00000E+000	4.73280E-003	3.59960E-001	-1.13530E+000	3.57790E+000	10	...........
	23	0.32	7.96735E-001	5.98962E-003	0.00000E+000	4.77214E-003	3.59960E-001	-1.14533E+000	3.57790E+000	10	...........
	24	0.333333	8.03225E-001	5.98830E-003	0.00000E+000	4.80996E-003	3.59960E-001	-1.13918E+000	3.57790E+000	10	...........
	25	0.346667	8.09634E-001	5.99469E-003	0.00000E+000	4.85350E-003	3.59960E-001	-1.13533E+000	3.57790E+000	10	...........
	26	0.36	8.16046E-001	5.99357E-003	0.00000E+000	4.89103E-003	3.59960E-001	-1.14560E+000	3.57790E+000	10	...........
	27	0.373333	8.22505E-001	5.99530E-003	0.00000E+000	4.93117E-003	3.59960E-001	-1.13922E+000	3.57790E+000	10	...........
	28	0.386667	8.28901E-001	5.99378E-003	0.00000E+000	4.96825E-003	3.59960E-001	-1.13507E+000	3.57790E+000	10	...........
	29	0.4	8.35329E-001	5.99312E-003	0.00000E+000	5.00623E-003	3.59960E-001	-1.14545E+000	3.57790E+000	10	...........
	30	0.413333	8.41694E-001	5.98890E-003	0.00000E+000	5.04082E-003	3.59960E-001	-1.13943E+000	3.57790E+000	10	...........
	31	0.426667	8.48073E-001	5.98966E-003	0.00000E+000	5.07967E-003	3.59960E-001	-1.13522E+000	3.57790E+000	10	...........
	32	0.44	8.54370E-001	5.99664E-003	0.00000E+000	5.12335E-003	3.59960E-001	-1.14545E+000	3.57790E+000	10	...........
	33	0.453333	8.60665E-001	5.99481E-003	0.00000E+000	5.15953E-003	3.59960E-001	-1.13914E+000	3.57790E+000	10	...........
	34	0.466667	8.66931E-001	5.99348E-003	0.00000E+000	5.19593E-003	3.59960E-001	-1.13494E+000	3.57790E+000	10	...........
	35	0.48	8.73227E-001	5.99459E-003	0.00000E+000	5.23464E-003	3.59960E-001	-1.14538E+000	3.57790E+000	10	...........
	36	0.493333	8.79532E-001	5.99562E-003	0.00000E+000	5.27334E-003	3.59960E-001	-1.13897E+000	3.57790E+000	10	...........
	37	0.506667	8.85810E-001	5.99806E-003	0.00000E+000	5.31314E-003	3.59960E-001	-1.13457E+000	3.57790E+000	10	...........
	38	0.52	8.92004E-001	5.99401E-003	0.00000E+000	5.34668E-003	3.59960E-001	-1.14472E+000	3.57790E+000	10	...........
	39	0.533333	8.98159E-001	5.99409E-003	0.00000E+000	5.38365E-003	3.59960E-001	-1.13884E+000	3.57790E+000	10	...........
	40	0.546667	9.04261E-001	5.99510E-003	0.00000E+000	5.42113E-003	3.59960E-001	-1.13470E+000	3.57790E+000	10	...........
	41	0.56	9.10383E-001	5.99288E-003	0.00000E+000	5.45582E-003	3.59960E-001	-1.14513E+000	3.57790E+000	10	...........
	42	0.573333	9.16446E-001	5.99762E-003	0.00000E+000	5.49649E-003	3.59960E-001	-1.13873E+000	3.57790E+000	10	...........
	43	0.586667	9.22534E-001	5.99318E-003	0.00000E+000	5.52891E-003	3.59960E-001	-1.13441E+000	3.57790E+000	10	...........
	44	0.6	9.28558E-001	5.99793E-003	0.00000E+000	5.56943E-003	3.59960E-001	-1.14486E+000	3.57790E+000	10	...........
	45	0.613333	9.34546E-001	5.99357E-003	0.00000E+000	5.60127E-003	3.59960E-001	-1.13869E+000	3.57790E+000	10	...........
	46	0.626667	9.40473E-001	5.99041E-003	0.00000E+000	5.63382E-003	3.59960E-001	-1.13438E+000	3.57790E+000	10	...........
	47	0.64	9.46379E-001	5.99505E-003	0.00000E+000	5.67359E-003	3.59960E-001	-1.14482E+000	3.57790E+000	10	...........
	48	0.653333	9.52199E-001	5.99166E-003	0.00000E+000	5.70526E-003	3.59960E-001	-1.13854E+000	3.57790E+000	10	...........
	49	0.666667	9.58031E-001	5.99450E-003	0.00000E+000	5.74292E-003	3.59960E-001	-1.13438E+000	3.57790E+000	10	...........
	50	0.68	9.63764E-001	5.99393E-003	0.00000E+000	5.77673E-003	3.59960E-001	-1.14471E+000	3.57790E+000	10	...........
	51	0.693333	9.69491E-001	5.99105E-003	0.00000E+000	5.80827E-003	3.59960E-001	-1.13863E+000	3.57790E+000	10	...........
	52	0.706667	9.75211E-001	5.99307E-003	0.00000E+000	5.84451E-003	3.59960E-001	-1.13442E+000	3.57790E+000	10	...........
	53	0.72	9.80829E-001	5.99764E-003	0.00000E+000	5.88266E-003	3.59960E-001	-1.14467E+000	3.57790E+000	10	...........
	54	0.733333	9.86443E-001	5.99804E-003	0.00000E+000	5.91672E-003	3.59960E-001	-1.13880E+000	3.57790E+000	10	...........
	55	0.746667	9.91970E-001	5.99474E-003	0.00000E+000	5.94660E-003	3.59960E-001	-1.13466E+000	3.57790E+000	10	...........
	56	0.76	9.97488E-001	5.99263E-003	0.00000E+000	5.97758E-003	3.59960E-001	-1.14500E+000	3.57790E+000	10	...........
	57	0.761667	1.00057E+000	5.99930E-003	0.00000E+000	6.00274E-003	3.59960E-001	-1.12215E+000	3.57790E+000	10	...........
STARTTIMEOFFSET	QUANT	941.5718	Start Time Offset (s)