File: Data/CV_CRGO300517_1/PWRCCD_CRGO300517_1/CHARGE_DISCHARGE/CHARGE_#627.DTA
EXPLAIN
TAG	PWR800_CHARGE
TITLE	LABEL	PWR Cyclic Charge Discharge (Cell) - Charge Step	Test &Identifier
DATE	LABEL	22-6-2017	Date
TIME	LABEL	16:00:48	Time
NOTES	NOTES	3	&Notes...
	supercap test cell
	0.6mg
	6M KOH
PSTAT	PSTAT	IFC5000-01520	Potentiostat
CAPACITY	QUANT	1.00000E-003	Capacity (A-hr)
CELLTYPE	SELECTOR	1	&Cell Type
WORKINGCONNECTION	SELECTOR	0	&Working Lead
MAXCHARGETIME	VARIABLEANDUNITS	1.00000E+002	s	1.00000E+002	second(s)	Max &Charge Time
CHARGECURRENT	QUANT	6.00000E-003	&Charge Current (A)
VOLTAGEFINISH	TWOPARAM	F	1.00000E-003	3.60000E+003	&Voltage Finish	 I (A) < 	Max Time(s)
SAMPLETIME	QUANT	1.00000E-002	Sa&mple Period (s)
CHARGESTOPAT1	MULTIPARAM	4	1.00000E+000	Charge Stop At &1	Voltage > Limit	V
CHARGESTOPAT2	MULTIPARAM	0	0.00000E+000	Charge Stop At &2	None	N/A
AESBHCSELECTOR	TOGGLE	F	Save Both Half Cells
IRCOMP	TOGGLE	F	IR &Measure
EOC	QUANT	0	Open Circuit (V)
SEQUENCER	TOGGLE	TRUE	Run as Sequence
PSTATMODEL	IQUANT	53	Pstat Model
PSTATSECTION	LABEL	IFC5000-01520	Pstat Section
PSTATSERIALNO	LABEL	01520	Pstat Serial Number
CTRLMODE	IQUANT	0	Control Mode
ELECTROMETER	IQUANT	1	RE=0 or CS=1
IESTAB	IQUANT	0	I/E Stability
CASPEED	IQUANT	4	Control Amp Speed
CONVENTION	IQUANT	1	Current Convention
ICHRANGE	IQUANT	2	Ich Range
ICHRANGEMODE	TOGGLE	T	Ich Auto Range
ICHOFFSETENABLE	TOGGLE	F	Ich Offset Enable
ICHOFFSET	QUANT	0	Ich Offset (V)
ICHFILTER	IQUANT	1	Ich Filter
VCHRANGE	IQUANT	2	Vch Range
VCHRANGEMODE	TOGGLE	T	Vch Auto Range
VCHOFFSETENABLE	TOGGLE	F	Vch Offset Enable
VCHOFFSET	QUANT	0	Vch Offset (V)
VCHFILTER	IQUANT	1	Vch Filter
IERANGELOWERLIMIT	IQUANT	9	I/E Range Lower Limit
IERANGEMODE	TOGGLE	F	I/E AutoRange
IERANGE	IQUANT	10	I/E Range
ACHSELECT	IQUANT	1	Ach Select
ACHRANGE	IQUANT	2	Ach Range
ACHOFFSETENABLE	TOGGLE	F	Ach Offset Enable
ACHOFFSET	QUANT	0	Ach Offset (V)
ACHFILTER	IQUANT	1	Ach Filter
CABLEID	IQUANT	14	Cable ID
DCCALDATE	LABEL	20-10-2016	DC Calibration Date
ACCALDATE	LABEL	12/3/2015	AC Calibration Date
FRAMEWORKVERSION	QUANT	7.01	Framework Version
INSTRUMENTVERSION	LABEL	4.00	Instrument Version
CURVE	TABLE	55
	Pt	T	Vf	Im	Vu	Pwr	Sig	Ach	Temp	IERange	Over
	#	s	V	A	V	W	V	V	deg C	#	bits
	0	0.013333	6.50999E-001	5.99109E-003	0.00000E+000	3.90019E-003	3.59960E-001	-1.14370E+000	3.57690E+000	10	...........
	1	0.026667	6.59170E-001	5.99292E-003	0.00000E+000	3.95035E-003	3.59960E-001	-1.14654E+000	3.57690E+000	10	...........
	2	0.04	6.66930E-001	5.99248E-003	0.00000E+000	3.99656E-003	3.59960E-001	-1.15304E+000	3.57690E+000	10	...........
	3	0.053333	6.74419E-001	5.99686E-003	0.00000E+000	4.04439E-003	3.59960E-001	-1.14313E+000	3.57690E+000	10	...........
	4	0.066667	6.81735E-001	5.99992E-003	0.00000E+000	4.09036E-003	3.59960E-001	-1.14645E+000	3.57690E+000	10	...........
	5	0.08	6.88938E-001	5.98889E-003	0.00000E+000	4.12597E-003	3.59960E-001	-1.15297E+000	3.57690E+000	10	...........
	6	0.093333	6.96035E-001	5.99535E-003	0.00000E+000	4.17297E-003	3.59960E-001	-1.14324E+000	3.57690E+000	10	...........
	7	0.106667	7.02998E-001	5.99462E-003	0.00000E+000	4.21420E-003	3.59960E-001	-1.14650E+000	3.57690E+000	10	...........
	8	0.12	7.09893E-001	5.99269E-003	0.00000E+000	4.25417E-003	3.59960E-001	-1.15284E+000	3.57690E+000	10	...........
	9	0.133333	7.16794E-001	5.99410E-003	0.00000E+000	4.29654E-003	3.59960E-001	-1.14303E+000	3.57690E+000	10	...........
	10	0.146667	7.23639E-001	5.99274E-003	0.00000E+000	4.33658E-003	3.59960E-001	-1.14650E+000	3.57696E+000	10	...........
	11	0.16	7.30431E-001	5.99040E-003	0.00000E+000	4.37557E-003	3.59960E-001	-1.15293E+000	3.57740E+000	10	...........
	12	0.173333	7.37189E-001	5.99287E-003	0.00000E+000	4.41788E-003	3.59960E-001	-1.14290E+000	3.57740E+000	10	...........
	13	0.186667	7.43928E-001	5.99754E-003	0.00000E+000	4.46174E-003	3.59960E-001	-1.14632E+000	3.57740E+000	10	...........
	14	0.2	7.50619E-001	5.99367E-003	0.00000E+000	4.49896E-003	3.59960E-001	-1.15247E+000	3.57740E+000	10	...........
	15	0.213333	7.57303E-001	5.99216E-003	0.00000E+000	4.53788E-003	3.59960E-001	-1.14283E+000	3.57740E+000	10	...........
	16	0.226667	7.63932E-001	5.99608E-003	0.00000E+000	4.58059E-003	3.59960E-001	-1.14661E+000	3.57740E+000	10	...........
	17	0.24	7.70542E-001	5.99787E-003	0.00000E+000	4.62161E-003	3.59960E-001	-1.15262E+000	3.57740E+000	10	...........
	18	0.253333	7.77165E-001	5.99615E-003	0.00000E+000	4.66000E-003	3.59960E-001	-1.14280E+000	3.57740E+000	10	...........
	19	0.266667	7.83732E-001	5.99385E-003	0.00000E+000	4.69757E-003	3.59960E-001	-1.14656E+000	3.57740E+000	10	...........
	20	0.28	7.90294E-001	5.99782E-003	0.00000E+000	4.74004E-003	3.59960E-001	-1.15222E+000	3.57740E+000	10	...........
	21	0.293333	7.96884E-001	5.99571E-003	0.00000E+000	4.77789E-003	3.59960E-001	-1.14293E+000	3.57740E+000	10	...........
	22	0.306667	8.03426E-001	5.99631E-003	0.00000E+000	4.81759E-003	3.59960E-001	-1.14652E+000	3.57740E+000	10	...........
	23	0.32	8.09910E-001	5.99511E-003	0.00000E+000	4.85550E-003	3.59960E-001	-1.15190E+000	3.57740E+000	10	...........
	24	0.333333	8.16439E-001	5.99135E-003	0.00000E+000	4.89157E-003	3.59960E-001	-1.14245E+000	3.57740E+000	10	...........
	25	0.346667	8.22955E-001	5.99376E-003	0.00000E+000	4.93259E-003	3.59960E-001	-1.14653E+000	3.57740E+000	10	...........
	26	0.36	8.29363E-001	5.99671E-003	0.00000E+000	4.97345E-003	3.59960E-001	-1.15168E+000	3.57740E+000	10	...........
	27	0.373333	8.35784E-001	5.99831E-003	0.00000E+000	5.01329E-003	3.59960E-001	-1.14214E+000	3.57740E+000	10	...........
	28	0.386667	8.42189E-001	5.99667E-003	0.00000E+000	5.05033E-003	3.59960E-001	-1.14620E+000	3.57740E+000	10	...........
	29	0.4	8.48606E-001	5.99489E-003	0.00000E+000	5.08729E-003	3.59960E-001	-1.15151E+000	3.57740E+000	10	...........
	30	0.413333	8.54982E-001	5.99341E-003	0.00000E+000	5.12425E-003	3.59960E-001	-1.14235E+000	3.57740E+000	10	...........
	31	0.426667	8.61335E-001	5.99475E-003	0.00000E+000	5.16349E-003	3.59960E-001	-1.14650E+000	3.57740E+000	10	...........
	32	0.44	8.67668E-001	5.99437E-003	0.00000E+000	5.20112E-003	3.59960E-001	-1.15152E+000	3.57740E+000	10	...........
	33	0.453333	8.73974E-001	5.99003E-003	0.00000E+000	5.23512E-003	3.59960E-001	-1.14214E+000	3.57740E+000	10	...........
	34	0.466667	8.80243E-001	5.99434E-003	0.00000E+000	5.27648E-003	3.59960E-001	-1.14650E+000	3.57740E+000	10	...........
	35	0.48	8.86501E-001	5.99593E-003	0.00000E+000	5.31540E-003	3.59960E-001	-1.15135E+000	3.57740E+000	10	...........
	36	0.493333	8.92744E-001	5.99442E-003	0.00000E+000	5.35148E-003	3.59960E-001	-1.14204E+000	3.57740E+000	10	...........
	37	0.506667	8.98929E-001	5.99609E-003	0.00000E+000	5.39006E-003	3.59960E-001	-1.14609E+000	3.57740E+000	10	...........
	38	0.52	9.05079E-001	5.99199E-003	0.00000E+000	5.42322E-003	3.59960E-001	-1.15096E+000	3.57740E+000	10	...........
	39	0.533333	9.11237E-001	5.99002E-003	0.00000E+000	5.45833E-003	3.59960E-001	-1.14172E+000	3.57740E+000	10	...........
	40	0.546667	9.17340E-001	5.99141E-003	0.00000E+000	5.49616E-003	3.59960E-001	-1.14643E+000	3.57740E+000	10	...........
	41	0.56	9.23452E-001	5.99595E-003	0.00000E+000	5.53697E-003	3.59960E-001	-1.15123E+000	3.57740E+000	10	...........
	42	0.573333	9.29468E-001	5.99183E-003	0.00000E+000	5.56921E-003	3.59960E-001	-1.14194E+000	3.57740E+000	10	...........
	43	0.586667	9.35470E-001	5.99948E-003	0.00000E+000	5.61233E-003	3.59960E-001	-1.14640E+000	3.57740E+000	10	...........
	44	0.6	9.41387E-001	5.99337E-003	0.00000E+000	5.64209E-003	3.59960E-001	-1.15083E+000	3.57740E+000	10	...........
	45	0.613333	9.47327E-001	5.99465E-003	0.00000E+000	5.67889E-003	3.59960E-001	-1.14211E+000	3.57740E+000	10	...........
	46	0.626667	9.53180E-001	5.99408E-003	0.00000E+000	5.71344E-003	3.59960E-001	-1.14682E+000	3.57740E+000	10	...........
	47	0.64	9.59001E-001	5.99347E-003	0.00000E+000	5.74774E-003	3.59960E-001	-1.15077E+000	3.57740E+000	10	...........
	48	0.653333	9.64767E-001	5.99432E-003	0.00000E+000	5.78313E-003	3.59960E-001	-1.14168E+000	3.57740E+000	10	...........
	49	0.666667	9.70502E-001	5.99193E-003	0.00000E+000	5.81518E-003	3.59960E-001	-1.14626E+000	3.57740E+000	10	...........
	50	0.68	9.76228E-001	5.99308E-003	0.00000E+000	5.85061E-003	3.59960E-001	-1.15026E+000	3.57740E+000	10	...........
	51	0.693333	9.81858E-001	5.99304E-003	0.00000E+000	5.88432E-003	3.59960E-001	-1.14166E+000	3.57740E+000	10	...........
	52	0.706667	9.87447E-001	5.99563E-003	0.00000E+000	5.92036E-003	3.59960E-001	-1.14618E+000	3.57740E+000	10	...........
	53	0.72	9.92936E-001	5.99624E-003	0.00000E+000	5.95389E-003	3.59960E-001	-1.15004E+000	3.57740E+000	10	...........
	54	0.731667	9.98116E-001	5.99377E-003	0.00000E+000	5.98248E-003	3.59960E-001	-1.13933E+000	3.57740E+000	10	...........
STARTTIMEOFFSET	QUANT	1051.3	Start Time Offset (s)