File: Data/CV_CRGO300517_1/PWRCCD_CRGO300517_1/CHARGE_DISCHARGE/CHARGE_#468.DTA
EXPLAIN
TAG	PWR800_CHARGE
TITLE	LABEL	PWR Cyclic Charge Discharge (Cell) - Charge Step	Test &Identifier
DATE	LABEL	22-6-2017	Date
TIME	LABEL	15:54:40	Time
NOTES	NOTES	3	&Notes...
	supercap test cell
	0.6mg
	6M KOH
PSTAT	PSTAT	IFC5000-01520	Potentiostat
CAPACITY	QUANT	1.00000E-003	Capacity (A-hr)
CELLTYPE	SELECTOR	1	&Cell Type
WORKINGCONNECTION	SELECTOR	0	&Working Lead
MAXCHARGETIME	VARIABLEANDUNITS	1.00000E+002	s	1.00000E+002	second(s)	Max &Charge Time
CHARGECURRENT	QUANT	6.00000E-003	&Charge Current (A)
VOLTAGEFINISH	TWOPARAM	F	1.00000E-003	3.60000E+003	&Voltage Finish	 I (A) < 	Max Time(s)
SAMPLETIME	QUANT	1.00000E-002	Sa&mple Period (s)
CHARGESTOPAT1	MULTIPARAM	4	1.00000E+000	Charge Stop At &1	Voltage > Limit	V
CHARGESTOPAT2	MULTIPARAM	0	0.00000E+000	Charge Stop At &2	None	N/A
AESBHCSELECTOR	TOGGLE	F	Save Both Half Cells
IRCOMP	TOGGLE	F	IR &Measure
EOC	QUANT	0	Open Circuit (V)
SEQUENCER	TOGGLE	TRUE	Run as Sequence
PSTATMODEL	IQUANT	53	Pstat Model
PSTATSECTION	LABEL	IFC5000-01520	Pstat Section
PSTATSERIALNO	LABEL	01520	Pstat Serial Number
CTRLMODE	IQUANT	0	Control Mode
ELECTROMETER	IQUANT	1	RE=0 or CS=1
IESTAB	IQUANT	0	I/E Stability
CASPEED	IQUANT	4	Control Amp Speed
CONVENTION	IQUANT	1	Current Convention
ICHRANGE	IQUANT	2	Ich Range
ICHRANGEMODE	TOGGLE	T	Ich Auto Range
ICHOFFSETENABLE	TOGGLE	F	Ich Offset Enable
ICHOFFSET	QUANT	0	Ich Offset (V)
ICHFILTER	IQUANT	1	Ich Filter
VCHRANGE	IQUANT	2	Vch Range
VCHRANGEMODE	TOGGLE	T	Vch Auto Range
VCHOFFSETENABLE	TOGGLE	F	Vch Offset Enable
VCHOFFSET	QUANT	0	Vch Offset (V)
VCHFILTER	IQUANT	1	Vch Filter
IERANGELOWERLIMIT	IQUANT	9	I/E Range Lower Limit
IERANGEMODE	TOGGLE	F	I/E AutoRange
IERANGE	IQUANT	10	I/E Range
ACHSELECT	IQUANT	1	Ach Select
ACHRANGE	IQUANT	2	Ach Range
ACHOFFSETENABLE	TOGGLE	F	Ach Offset Enable
ACHOFFSET	QUANT	0	Ach Offset (V)
ACHFILTER	IQUANT	1	Ach Filter
CABLEID	IQUANT	14	Cable ID
DCCALDATE	LABEL	20-10-2016	DC Calibration Date
ACCALDATE	LABEL	12/3/2015	AC Calibration Date
FRAMEWORKVERSION	QUANT	7.01	Framework Version
INSTRUMENTVERSION	LABEL	4.00	Instrument Version
CURVE	TABLE	59
	Pt	T	Vf	Im	Vu	Pwr	Sig	Ach	Temp	IERange	Over
	#	s	V	A	V	W	V	V	deg C	#	bits
	0	0.013333	6.30087E-001	5.99207E-003	0.00000E+000	3.77553E-003	3.59960E-001	-1.14946E+000	3.57670E+000	10	...........
	1	0.026667	6.38919E-001	5.98864E-003	0.00000E+000	3.82626E-003	3.59960E-001	-1.13941E+000	3.57670E+000	10	...........
	2	0.04	6.47010E-001	5.99568E-003	0.00000E+000	3.87926E-003	3.59960E-001	-1.14113E+000	3.57670E+000	10	...........
	3	0.053333	6.54720E-001	5.99754E-003	0.00000E+000	3.92671E-003	3.59960E-001	-1.14948E+000	3.57670E+000	10	...........
	4	0.066667	6.62113E-001	5.99243E-003	0.00000E+000	3.96766E-003	3.59960E-001	-1.13899E+000	3.57670E+000	10	...........
	5	0.08	6.69406E-001	5.99287E-003	0.00000E+000	4.01166E-003	3.59960E-001	-1.14124E+000	3.57714E+000	10	...........
	6	0.093333	6.76504E-001	5.99231E-003	0.00000E+000	4.05382E-003	3.59960E-001	-1.14912E+000	3.57740E+000	10	...........
	7	0.106667	6.83448E-001	5.99147E-003	0.00000E+000	4.09486E-003	3.59960E-001	-1.13898E+000	3.57740E+000	10	...........
	8	0.12	6.90331E-001	5.99634E-003	0.00000E+000	4.13946E-003	3.59960E-001	-1.14114E+000	3.57740E+000	10	...........
	9	0.133333	6.97153E-001	5.99087E-003	0.00000E+000	4.17656E-003	3.59960E-001	-1.14883E+000	3.57740E+000	10	...........
	10	0.146667	7.03903E-001	5.99336E-003	0.00000E+000	4.21875E-003	3.59960E-001	-1.13840E+000	3.57740E+000	10	...........
	11	0.16	7.10598E-001	5.99730E-003	0.00000E+000	4.26167E-003	3.59960E-001	-1.14103E+000	3.57740E+000	10	...........
	12	0.173333	7.17321E-001	5.98998E-003	0.00000E+000	4.29674E-003	3.59960E-001	-1.14870E+000	3.57740E+000	10	...........
	13	0.186667	7.23936E-001	5.99045E-003	0.00000E+000	4.33670E-003	3.59960E-001	-1.13857E+000	3.57740E+000	10	...........
	14	0.2	7.30528E-001	5.99469E-003	0.00000E+000	4.37929E-003	3.59960E-001	-1.14095E+000	3.57740E+000	10	...........
	15	0.213333	7.37123E-001	5.99472E-003	0.00000E+000	4.41885E-003	3.59960E-001	-1.14836E+000	3.57740E+000	10	...........
	16	0.226667	7.43670E-001	5.98854E-003	0.00000E+000	4.45350E-003	3.59960E-001	-1.13828E+000	3.57740E+000	10	...........
	17	0.24	7.50197E-001	5.99256E-003	0.00000E+000	4.49560E-003	3.59960E-001	-1.14068E+000	3.57740E+000	10	...........
	18	0.253333	7.56698E-001	5.99476E-003	0.00000E+000	4.53622E-003	3.59960E-001	-1.14801E+000	3.57740E+000	10	...........
	19	0.266667	7.63163E-001	5.99633E-003	0.00000E+000	4.57617E-003	3.59960E-001	-1.13787E+000	3.57740E+000	10	...........
	20	0.28	7.69695E-001	5.99627E-003	0.00000E+000	4.61530E-003	3.59960E-001	-1.14057E+000	3.57740E+000	10	...........
	21	0.293333	7.76156E-001	5.99197E-003	0.00000E+000	4.65070E-003	3.59960E-001	-1.14753E+000	3.57740E+000	10	...........
	22	0.306667	7.82636E-001	5.99285E-003	0.00000E+000	4.69022E-003	3.59960E-001	-1.13800E+000	3.57740E+000	10	...........
	23	0.32	7.89062E-001	5.99103E-003	0.00000E+000	4.72729E-003	3.59960E-001	-1.14079E+000	3.57740E+000	10	...........
	24	0.333333	7.95518E-001	5.99332E-003	0.00000E+000	4.76780E-003	3.59960E-001	-1.14766E+000	3.57740E+000	10	...........
	25	0.346667	8.01874E-001	5.99446E-003	0.00000E+000	4.80680E-003	3.59960E-001	-1.13770E+000	3.57740E+000	10	...........
	26	0.36	8.08267E-001	5.99202E-003	0.00000E+000	4.84315E-003	3.59960E-001	-1.14089E+000	3.57740E+000	10	...........
	27	0.373333	8.14649E-001	5.99271E-003	0.00000E+000	4.88195E-003	3.59960E-001	-1.14756E+000	3.57740E+000	10	...........
	28	0.386667	8.21070E-001	5.99010E-003	0.00000E+000	4.91829E-003	3.59960E-001	-1.13780E+000	3.57740E+000	10	...........
	29	0.4	8.27389E-001	5.99658E-003	0.00000E+000	4.96150E-003	3.59960E-001	-1.14119E+000	3.57740E+000	10	...........
	30	0.413333	8.33679E-001	5.99502E-003	0.00000E+000	4.99792E-003	3.59960E-001	-1.14746E+000	3.57740E+000	10	...........
	31	0.426667	8.39971E-001	5.99745E-003	0.00000E+000	5.03769E-003	3.59960E-001	-1.13777E+000	3.57740E+000	10	...........
	32	0.44	8.46313E-001	5.99556E-003	0.00000E+000	5.07413E-003	3.59960E-001	-1.14124E+000	3.57740E+000	10	...........
	33	0.453333	8.52579E-001	5.99271E-003	0.00000E+000	5.10926E-003	3.59960E-001	-1.14726E+000	3.57740E+000	10	...........
	34	0.466667	8.58852E-001	5.99475E-003	0.00000E+000	5.14860E-003	3.59960E-001	-1.13764E+000	3.57740E+000	10	...........
	35	0.48	8.65073E-001	5.99452E-003	0.00000E+000	5.18570E-003	3.59960E-001	-1.14102E+000	3.57740E+000	10	...........
	36	0.493333	8.71284E-001	5.99418E-003	0.00000E+000	5.22263E-003	3.59960E-001	-1.14687E+000	3.57740E+000	10	...........
	37	0.506667	8.77482E-001	5.99638E-003	0.00000E+000	5.26172E-003	3.59960E-001	-1.13759E+000	3.57740E+000	10	...........
	38	0.52	8.83694E-001	5.99390E-003	0.00000E+000	5.29677E-003	3.59960E-001	-1.14097E+000	3.57740E+000	10	...........
	39	0.533333	8.89872E-001	5.99822E-003	0.00000E+000	5.33765E-003	3.59960E-001	-1.14668E+000	3.57740E+000	10	...........
	40	0.546667	8.96004E-001	5.99501E-003	0.00000E+000	5.37156E-003	3.59960E-001	-1.13713E+000	3.57740E+000	10	...........
	41	0.56	9.02077E-001	5.99151E-003	0.00000E+000	5.40480E-003	3.59960E-001	-1.14106E+000	3.57740E+000	10	...........
	42	0.573333	9.08181E-001	5.99568E-003	0.00000E+000	5.44516E-003	3.59960E-001	-1.14649E+000	3.57740E+000	10	...........
	43	0.586667	9.14218E-001	5.99403E-003	0.00000E+000	5.47985E-003	3.59960E-001	-1.13720E+000	3.57740E+000	10	...........
	44	0.6	9.20269E-001	5.99074E-003	0.00000E+000	5.51309E-003	3.59960E-001	-1.14118E+000	3.57740E+000	10	...........
	45	0.613333	9.26293E-001	5.99232E-003	0.00000E+000	5.55064E-003	3.59960E-001	-1.14624E+000	3.57740E+000	10	...........
	46	0.626667	9.32224E-001	5.99135E-003	0.00000E+000	5.58528E-003	3.59960E-001	-1.13670E+000	3.57740E+000	10	...........
	47	0.64	9.38111E-001	5.99182E-003	0.00000E+000	5.62099E-003	3.59960E-001	-1.14074E+000	3.57740E+000	10	...........
	48	0.653333	9.44001E-001	5.99134E-003	0.00000E+000	5.65583E-003	3.59960E-001	-1.14603E+000	3.57740E+000	10	...........
	49	0.666667	9.49862E-001	5.99256E-003	0.00000E+000	5.69210E-003	3.59960E-001	-1.13688E+000	3.57740E+000	10	...........
	50	0.68	9.55654E-001	5.99340E-003	0.00000E+000	5.72761E-003	3.59960E-001	-1.14103E+000	3.57740E+000	10	...........
	51	0.693333	9.61383E-001	5.98978E-003	0.00000E+000	5.75847E-003	3.59960E-001	-1.14598E+000	3.57740E+000	10	...........
	52	0.706667	9.67121E-001	5.99256E-003	0.00000E+000	5.79553E-003	3.59960E-001	-1.13680E+000	3.57740E+000	10	...........
	53	0.72	9.72790E-001	5.99513E-003	0.00000E+000	5.83200E-003	3.59960E-001	-1.14150E+000	3.57740E+000	10	...........
	54	0.733333	9.78441E-001	5.99466E-003	0.00000E+000	5.86542E-003	3.59960E-001	-1.14586E+000	3.57740E+000	10	...........
	55	0.746667	9.83963E-001	5.99276E-003	0.00000E+000	5.89665E-003	3.59960E-001	-1.13700E+000	3.57740E+000	10	...........
	56	0.76	9.89559E-001	5.99696E-003	0.00000E+000	5.93435E-003	3.59960E-001	-1.14166E+000	3.57740E+000	10	...........
	57	0.773333	9.95007E-001	5.99816E-003	0.00000E+000	5.96821E-003	3.59960E-001	-1.14545E+000	3.57740E+000	10	...........
	58	0.78	9.99169E-001	5.99529E-003	0.00000E+000	5.99031E-003	3.59960E-001	-1.13309E+000	3.57740E+000	10	...........
STARTTIMEOFFSET	QUANT	809.5134	Start Time Offset (s)