File: Data/CV_CRGO300517_1/PWRCCD_CRGO300517_1/CHARGE_DISCHARGE/CHARGE_#923.DTA
EXPLAIN
TAG	PWR800_CHARGE
TITLE	LABEL	PWR Cyclic Charge Discharge (Cell) - Charge Step	Test &Identifier
DATE	LABEL	22-6-2017	Date
TIME	LABEL	16:11:49	Time
NOTES	NOTES	3	&Notes...
	supercap test cell
	0.6mg
	6M KOH
PSTAT	PSTAT	IFC5000-01520	Potentiostat
CAPACITY	QUANT	1.00000E-003	Capacity (A-hr)
CELLTYPE	SELECTOR	1	&Cell Type
WORKINGCONNECTION	SELECTOR	0	&Working Lead
MAXCHARGETIME	VARIABLEANDUNITS	1.00000E+002	s	1.00000E+002	second(s)	Max &Charge Time
CHARGECURRENT	QUANT	6.00000E-003	&Charge Current (A)
VOLTAGEFINISH	TWOPARAM	F	1.00000E-003	3.60000E+003	&Voltage Finish	 I (A) < 	Max Time(s)
SAMPLETIME	QUANT	1.00000E-002	Sa&mple Period (s)
CHARGESTOPAT1	MULTIPARAM	4	1.00000E+000	Charge Stop At &1	Voltage > Limit	V
CHARGESTOPAT2	MULTIPARAM	0	0.00000E+000	Charge Stop At &2	None	N/A
AESBHCSELECTOR	TOGGLE	F	Save Both Half Cells
IRCOMP	TOGGLE	F	IR &Measure
EOC	QUANT	0	Open Circuit (V)
SEQUENCER	TOGGLE	TRUE	Run as Sequence
PSTATMODEL	IQUANT	53	Pstat Model
PSTATSECTION	LABEL	IFC5000-01520	Pstat Section
PSTATSERIALNO	LABEL	01520	Pstat Serial Number
CTRLMODE	IQUANT	0	Control Mode
ELECTROMETER	IQUANT	1	RE=0 or CS=1
IESTAB	IQUANT	0	I/E Stability
CASPEED	IQUANT	4	Control Amp Speed
CONVENTION	IQUANT	1	Current Convention
ICHRANGE	IQUANT	2	Ich Range
ICHRANGEMODE	TOGGLE	T	Ich Auto Range
ICHOFFSETENABLE	TOGGLE	F	Ich Offset Enable
ICHOFFSET	QUANT	0	Ich Offset (V)
ICHFILTER	IQUANT	1	Ich Filter
VCHRANGE	IQUANT	2	Vch Range
VCHRANGEMODE	TOGGLE	T	Vch Auto Range
VCHOFFSETENABLE	TOGGLE	F	Vch Offset Enable
VCHOFFSET	QUANT	0	Vch Offset (V)
VCHFILTER	IQUANT	1	Vch Filter
IERANGELOWERLIMIT	IQUANT	9	I/E Range Lower Limit
IERANGEMODE	TOGGLE	F	I/E AutoRange
IERANGE	IQUANT	10	I/E Range
ACHSELECT	IQUANT	1	Ach Select
ACHRANGE	IQUANT	2	Ach Range
ACHOFFSETENABLE	TOGGLE	F	Ach Offset Enable
ACHOFFSET	QUANT	0	Ach Offset (V)
ACHFILTER	IQUANT	1	Ach Filter
CABLEID	IQUANT	14	Cable ID
DCCALDATE	LABEL	20-10-2016	DC Calibration Date
ACCALDATE	LABEL	12/3/2015	AC Calibration Date
FRAMEWORKVERSION	QUANT	7.01	Framework Version
INSTRUMENTVERSION	LABEL	4.00	Instrument Version
CURVE	TABLE	53
	Pt	T	Vf	Im	Vu	Pwr	Sig	Ach	Temp	IERange	Over
	#	s	V	A	V	W	V	V	deg C	#	bits
	0	0.013333	6.53598E-001	5.99791E-003	0.00000E+000	3.92023E-003	3.59960E-001	-1.18346E+000	3.57700E+000	10	...........
	1	0.026667	6.62901E-001	5.99271E-003	0.00000E+000	3.97257E-003	3.59960E-001	-1.17229E+000	3.57700E+000	10	...........
	2	0.04	6.71476E-001	5.99621E-003	0.00000E+000	4.02631E-003	3.59960E-001	-1.17362E+000	3.57700E+000	10	...........
	3	0.053333	6.79577E-001	5.99715E-003	0.00000E+000	4.07552E-003	3.59960E-001	-1.18317E+000	3.57700E+000	10	...........
	4	0.066667	6.87358E-001	5.99819E-003	0.00000E+000	4.12291E-003	3.59960E-001	-1.17242E+000	3.57700E+000	10	...........
	5	0.08	6.94977E-001	5.99025E-003	0.00000E+000	4.16309E-003	3.59960E-001	-1.17379E+000	3.57700E+000	10	...........
	6	0.093333	7.02453E-001	5.99649E-003	0.00000E+000	4.21225E-003	3.59960E-001	-1.18295E+000	3.57700E+000	10	...........
	7	0.106667	7.09788E-001	5.99523E-003	0.00000E+000	4.25534E-003	3.59960E-001	-1.17205E+000	3.57700E+000	10	...........
	8	0.12	7.17092E-001	5.99511E-003	0.00000E+000	4.29904E-003	3.59960E-001	-1.17366E+000	3.57700E+000	10	...........
	9	0.133333	7.24281E-001	5.99061E-003	0.00000E+000	4.33888E-003	3.59960E-001	-1.18306E+000	3.57700E+000	10	...........
	10	0.146667	7.31382E-001	5.99380E-003	0.00000E+000	4.38376E-003	3.59960E-001	-1.17229E+000	3.57700E+000	10	...........
	11	0.16	7.38405E-001	5.99404E-003	0.00000E+000	4.42603E-003	3.59960E-001	-1.17361E+000	3.57700E+000	10	...........
	12	0.173333	7.45446E-001	5.99699E-003	0.00000E+000	4.47043E-003	3.59960E-001	-1.18281E+000	3.57700E+000	10	...........
	13	0.186667	7.52419E-001	5.99611E-003	0.00000E+000	4.51158E-003	3.59960E-001	-1.17191E+000	3.57700E+000	10	...........
	14	0.2	7.59331E-001	5.98944E-003	0.00000E+000	4.54797E-003	3.59960E-001	-1.17346E+000	3.57700E+000	10	...........
	15	0.213333	7.66250E-001	5.99234E-003	0.00000E+000	4.59163E-003	3.59960E-001	-1.18264E+000	3.57700E+000	10	...........
	16	0.226667	7.73113E-001	5.99276E-003	0.00000E+000	4.63308E-003	3.59960E-001	-1.17195E+000	3.57700E+000	10	...........
	17	0.24	7.80013E-001	5.99250E-003	0.00000E+000	4.67422E-003	3.59960E-001	-1.17349E+000	3.57700E+000	10	...........
	18	0.253333	7.86806E-001	5.99506E-003	0.00000E+000	4.71695E-003	3.59960E-001	-1.18267E+000	3.57700E+000	10	...........
	19	0.266667	7.93609E-001	5.99828E-003	0.00000E+000	4.76029E-003	3.59960E-001	-1.17223E+000	3.57700E+000	10	...........
	20	0.28	8.00311E-001	6.00013E-003	0.00000E+000	4.80198E-003	3.59960E-001	-1.17359E+000	3.57700E+000	10	...........
	21	0.293333	8.07015E-001	5.98839E-003	0.00000E+000	4.83272E-003	3.59960E-001	-1.18268E+000	3.57700E+000	10	...........
	22	0.306667	8.13760E-001	5.99409E-003	0.00000E+000	4.87775E-003	3.59960E-001	-1.17171E+000	3.57700E+000	10	...........
	23	0.32	8.20448E-001	5.99429E-003	0.00000E+000	4.91800E-003	3.59960E-001	-1.17332E+000	3.57700E+000	10	...........
	24	0.333333	8.27083E-001	5.99649E-003	0.00000E+000	4.95959E-003	3.59960E-001	-1.18263E+000	3.57709E+000	10	...........
	25	0.346667	8.33713E-001	5.99156E-003	0.00000E+000	4.99524E-003	3.59960E-001	-1.17174E+000	3.57710E+000	10	...........
	26	0.36	8.40286E-001	5.99491E-003	0.00000E+000	5.03744E-003	3.59960E-001	-1.17304E+000	3.57710E+000	10	...........
	27	0.373333	8.46907E-001	5.99095E-003	0.00000E+000	5.07378E-003	3.59960E-001	-1.18209E+000	3.57710E+000	10	...........
	28	0.386667	8.53484E-001	5.98829E-003	0.00000E+000	5.11091E-003	3.59960E-001	-1.17159E+000	3.57710E+000	10	...........
	29	0.4	8.59992E-001	5.99314E-003	0.00000E+000	5.15406E-003	3.59960E-001	-1.17320E+000	3.57710E+000	10	...........
	30	0.413333	8.66472E-001	5.99283E-003	0.00000E+000	5.19262E-003	3.59960E-001	-1.18236E+000	3.57710E+000	10	...........
	31	0.426667	8.72949E-001	5.99028E-003	0.00000E+000	5.22921E-003	3.59960E-001	-1.17144E+000	3.57710E+000	10	...........
	32	0.44	8.79349E-001	5.99308E-003	0.00000E+000	5.27001E-003	3.59960E-001	-1.17300E+000	3.57710E+000	10	...........
	33	0.453333	8.85779E-001	5.99471E-003	0.00000E+000	5.30999E-003	3.59960E-001	-1.18204E+000	3.57710E+000	10	...........
	34	0.466667	8.92143E-001	5.99020E-003	0.00000E+000	5.34412E-003	3.59960E-001	-1.17178E+000	3.57710E+000	10	...........
	35	0.48	8.98451E-001	5.99216E-003	0.00000E+000	5.38367E-003	3.59960E-001	-1.17295E+000	3.57710E+000	10	...........
	36	0.493333	9.04731E-001	5.99124E-003	0.00000E+000	5.42046E-003	3.59960E-001	-1.18231E+000	3.57710E+000	10	...........
	37	0.506667	9.11005E-001	5.99358E-003	0.00000E+000	5.46018E-003	3.59960E-001	-1.17122E+000	3.57710E+000	10	...........
	38	0.52	9.17180E-001	5.98996E-003	0.00000E+000	5.49387E-003	3.59960E-001	-1.17268E+000	3.57710E+000	10	...........
	39	0.533333	9.23429E-001	5.98745E-003	0.00000E+000	5.52899E-003	3.59960E-001	-1.18210E+000	3.57710E+000	10	...........
	40	0.546667	9.29560E-001	5.99667E-003	0.00000E+000	5.57427E-003	3.59960E-001	-1.17144E+000	3.57710E+000	10	...........
	41	0.56	9.35608E-001	5.99395E-003	0.00000E+000	5.60798E-003	3.59960E-001	-1.17281E+000	3.57710E+000	10	...........
	42	0.573333	9.41622E-001	5.99087E-003	0.00000E+000	5.64114E-003	3.59960E-001	-1.18197E+000	3.57710E+000	10	...........
	43	0.586667	9.47663E-001	5.99262E-003	0.00000E+000	5.67899E-003	3.59960E-001	-1.17127E+000	3.57710E+000	10	...........
	44	0.6	9.53616E-001	5.99401E-003	0.00000E+000	5.71598E-003	3.59960E-001	-1.17299E+000	3.57710E+000	10	...........
	45	0.613333	9.59524E-001	5.99516E-003	0.00000E+000	5.75250E-003	3.59960E-001	-1.18203E+000	3.57710E+000	10	...........
	46	0.626667	9.65356E-001	5.99648E-003	0.00000E+000	5.78874E-003	3.59960E-001	-1.17119E+000	3.57710E+000	10	...........
	47	0.64	9.71213E-001	5.99166E-003	0.00000E+000	5.81918E-003	3.59960E-001	-1.17275E+000	3.57710E+000	10	...........
	48	0.653333	9.77009E-001	5.99349E-003	0.00000E+000	5.85569E-003	3.59960E-001	-1.18168E+000	3.57710E+000	10	...........
	49	0.666667	9.82688E-001	5.99746E-003	0.00000E+000	5.89363E-003	3.59960E-001	-1.17102E+000	3.57710E+000	10	...........
	50	0.68	9.88325E-001	5.99780E-003	0.00000E+000	5.92777E-003	3.59960E-001	-1.17259E+000	3.57710E+000	10	...........
	51	0.693333	9.93920E-001	5.99195E-003	0.00000E+000	5.95552E-003	3.59960E-001	-1.18163E+000	3.57710E+000	10	...........
	52	0.703333	9.98785E-001	5.99411E-003	0.00000E+000	5.98683E-003	3.59960E-001	-1.16625E+000	3.57710E+000	10	...........
STARTTIMEOFFSET	QUANT	1478.296	Start Time Offset (s)