File: Data/CV_CRGO300517_1/PWRCCD_CRGO300517_1/CHARGE_DISCHARGE/CHARGE_#661.DTA
EXPLAIN
TAG	PWR800_CHARGE
TITLE	LABEL	PWR Cyclic Charge Discharge (Cell) - Charge Step	Test &Identifier
DATE	LABEL	22-6-2017	Date
TIME	LABEL	16:02:05	Time
NOTES	NOTES	3	&Notes...
	supercap test cell
	0.6mg
	6M KOH
PSTAT	PSTAT	IFC5000-01520	Potentiostat
CAPACITY	QUANT	1.00000E-003	Capacity (A-hr)
CELLTYPE	SELECTOR	1	&Cell Type
WORKINGCONNECTION	SELECTOR	0	&Working Lead
MAXCHARGETIME	VARIABLEANDUNITS	1.00000E+002	s	1.00000E+002	second(s)	Max &Charge Time
CHARGECURRENT	QUANT	6.00000E-003	&Charge Current (A)
VOLTAGEFINISH	TWOPARAM	F	1.00000E-003	3.60000E+003	&Voltage Finish	 I (A) < 	Max Time(s)
SAMPLETIME	QUANT	1.00000E-002	Sa&mple Period (s)
CHARGESTOPAT1	MULTIPARAM	4	1.00000E+000	Charge Stop At &1	Voltage > Limit	V
CHARGESTOPAT2	MULTIPARAM	0	0.00000E+000	Charge Stop At &2	None	N/A
AESBHCSELECTOR	TOGGLE	F	Save Both Half Cells
IRCOMP	TOGGLE	F	IR &Measure
EOC	QUANT	0	Open Circuit (V)
SEQUENCER	TOGGLE	TRUE	Run as Sequence
PSTATMODEL	IQUANT	53	Pstat Model
PSTATSECTION	LABEL	IFC5000-01520	Pstat Section
PSTATSERIALNO	LABEL	01520	Pstat Serial Number
CTRLMODE	IQUANT	0	Control Mode
ELECTROMETER	IQUANT	1	RE=0 or CS=1
IESTAB	IQUANT	0	I/E Stability
CASPEED	IQUANT	4	Control Amp Speed
CONVENTION	IQUANT	1	Current Convention
ICHRANGE	IQUANT	2	Ich Range
ICHRANGEMODE	TOGGLE	T	Ich Auto Range
ICHOFFSETENABLE	TOGGLE	F	Ich Offset Enable
ICHOFFSET	QUANT	0	Ich Offset (V)
ICHFILTER	IQUANT	1	Ich Filter
VCHRANGE	IQUANT	2	Vch Range
VCHRANGEMODE	TOGGLE	T	Vch Auto Range
VCHOFFSETENABLE	TOGGLE	F	Vch Offset Enable
VCHOFFSET	QUANT	0	Vch Offset (V)
VCHFILTER	IQUANT	1	Vch Filter
IERANGELOWERLIMIT	IQUANT	9	I/E Range Lower Limit
IERANGEMODE	TOGGLE	F	I/E AutoRange
IERANGE	IQUANT	10	I/E Range
ACHSELECT	IQUANT	1	Ach Select
ACHRANGE	IQUANT	2	Ach Range
ACHOFFSETENABLE	TOGGLE	F	Ach Offset Enable
ACHOFFSET	QUANT	0	Ach Offset (V)
ACHFILTER	IQUANT	1	Ach Filter
CABLEID	IQUANT	14	Cable ID
DCCALDATE	LABEL	20-10-2016	DC Calibration Date
ACCALDATE	LABEL	12/3/2015	AC Calibration Date
FRAMEWORKVERSION	QUANT	7.01	Framework Version
INSTRUMENTVERSION	LABEL	4.00	Instrument Version
CURVE	TABLE	56
	Pt	T	Vf	Im	Vu	Pwr	Sig	Ach	Temp	IERange	Over
	#	s	V	A	V	W	V	V	deg C	#	bits
	0	0.013333	6.41937E-001	5.99624E-003	0.00000E+000	3.84921E-003	3.59960E-001	-1.15662E+000	3.57780E+000	10	...........
	1	0.026667	6.50962E-001	5.99068E-003	0.00000E+000	3.89971E-003	3.59960E-001	-1.14620E+000	3.57780E+000	10	...........
	2	0.04	6.59282E-001	5.99374E-003	0.00000E+000	3.95156E-003	3.59960E-001	-1.14554E+000	3.57780E+000	10	...........
	3	0.053333	6.67166E-001	5.99419E-003	0.00000E+000	3.99912E-003	3.59960E-001	-1.15640E+000	3.57780E+000	10	...........
	4	0.066667	6.74785E-001	5.99300E-003	0.00000E+000	4.04399E-003	3.59960E-001	-1.14592E+000	3.57780E+000	10	...........
	5	0.08	6.82204E-001	5.99417E-003	0.00000E+000	4.08925E-003	3.59960E-001	-1.14549E+000	3.57780E+000	10	...........
	6	0.093333	6.89469E-001	5.99651E-003	0.00000E+000	4.13441E-003	3.59960E-001	-1.15612E+000	3.57780E+000	10	...........
	7	0.106667	6.96659E-001	5.99113E-003	0.00000E+000	4.17378E-003	3.59960E-001	-1.14546E+000	3.57780E+000	10	...........
	8	0.12	7.03692E-001	5.99447E-003	0.00000E+000	4.21826E-003	3.59960E-001	-1.14552E+000	3.57780E+000	10	...........
	9	0.133333	7.10640E-001	5.99553E-003	0.00000E+000	4.26066E-003	3.59960E-001	-1.15587E+000	3.57780E+000	10	...........
	10	0.146667	7.17585E-001	5.99434E-003	0.00000E+000	4.30145E-003	3.59960E-001	-1.14519E+000	3.57780E+000	10	...........
	11	0.16	7.24480E-001	5.99358E-003	0.00000E+000	4.34223E-003	3.59960E-001	-1.14532E+000	3.57780E+000	10	...........
	12	0.173333	7.31292E-001	5.99713E-003	0.00000E+000	4.38565E-003	3.59960E-001	-1.15570E+000	3.57780E+000	10	...........
	13	0.186667	7.38037E-001	5.98902E-003	0.00000E+000	4.42012E-003	3.59960E-001	-1.14537E+000	3.57780E+000	10	...........
	14	0.2	7.44787E-001	5.99247E-003	0.00000E+000	4.46311E-003	3.59960E-001	-1.14550E+000	3.57780E+000	10	...........
	15	0.213333	7.51492E-001	5.99471E-003	0.00000E+000	4.50498E-003	3.59960E-001	-1.15592E+000	3.57780E+000	10	...........
	16	0.226667	7.58212E-001	5.99686E-003	0.00000E+000	4.54689E-003	3.59960E-001	-1.14519E+000	3.57780E+000	10	...........
	17	0.24	7.64895E-001	5.99137E-003	0.00000E+000	4.58277E-003	3.59960E-001	-1.14549E+000	3.57780E+000	10	...........
	18	0.253333	7.71591E-001	5.99595E-003	0.00000E+000	4.62642E-003	3.59960E-001	-1.15590E+000	3.57780E+000	10	...........
	19	0.266667	7.78242E-001	5.99911E-003	0.00000E+000	4.66876E-003	3.59960E-001	-1.14526E+000	3.57780E+000	10	...........
	20	0.28	7.84867E-001	5.99180E-003	0.00000E+000	4.70277E-003	3.59960E-001	-1.14587E+000	3.57780E+000	10	...........
	21	0.293333	7.91467E-001	5.99429E-003	0.00000E+000	4.74428E-003	3.59960E-001	-1.15589E+000	3.57780E+000	10	...........
	22	0.306667	7.98037E-001	5.99490E-003	0.00000E+000	4.78415E-003	3.59960E-001	-1.14504E+000	3.57780E+000	10	...........
	23	0.32	8.04575E-001	5.99393E-003	0.00000E+000	4.82257E-003	3.59960E-001	-1.14592E+000	3.57780E+000	10	...........
	24	0.333333	8.11139E-001	5.99441E-003	0.00000E+000	4.86230E-003	3.59960E-001	-1.15577E+000	3.57780E+000	10	...........
	25	0.346667	8.17657E-001	5.99518E-003	0.00000E+000	4.90200E-003	3.59960E-001	-1.14505E+000	3.57780E+000	10	...........
	26	0.36	8.24153E-001	5.99635E-003	0.00000E+000	4.94191E-003	3.59960E-001	-1.14620E+000	3.57780E+000	10	...........
	27	0.373333	8.30625E-001	5.99168E-003	0.00000E+000	4.97684E-003	3.59960E-001	-1.15609E+000	3.57780E+000	10	...........
	28	0.386667	8.37056E-001	5.99807E-003	0.00000E+000	5.02072E-003	3.59960E-001	-1.14504E+000	3.57780E+000	10	...........
	29	0.4	8.43507E-001	5.99130E-003	0.00000E+000	5.05371E-003	3.59960E-001	-1.14616E+000	3.57780E+000	10	...........
	30	0.413333	8.49928E-001	5.99568E-003	0.00000E+000	5.09590E-003	3.59960E-001	-1.15593E+000	3.57780E+000	10	...........
	31	0.426667	8.56301E-001	5.99725E-003	0.00000E+000	5.13545E-003	3.59960E-001	-1.14515E+000	3.57780E+000	10	...........
	32	0.44	8.62692E-001	5.99349E-003	0.00000E+000	5.17053E-003	3.59960E-001	-1.14643E+000	3.57780E+000	10	...........
	33	0.453333	8.69023E-001	5.99362E-003	0.00000E+000	5.20860E-003	3.59960E-001	-1.15578E+000	3.57780E+000	10	...........
	34	0.466667	8.75373E-001	5.99045E-003	0.00000E+000	5.24388E-003	3.59960E-001	-1.14474E+000	3.57780E+000	10	...........
	35	0.48	8.81664E-001	5.98895E-003	0.00000E+000	5.28024E-003	3.59960E-001	-1.14638E+000	3.57780E+000	10	...........
	36	0.493333	8.87930E-001	5.99251E-003	0.00000E+000	5.32093E-003	3.59960E-001	-1.15562E+000	3.57780E+000	10	...........
	37	0.506667	8.94161E-001	5.99559E-003	0.00000E+000	5.36102E-003	3.59960E-001	-1.14484E+000	3.57780E+000	10	...........
	38	0.52	9.00390E-001	5.99271E-003	0.00000E+000	5.39577E-003	3.59960E-001	-1.14609E+000	3.57780E+000	10	...........
	39	0.533333	9.06574E-001	6.00024E-003	0.00000E+000	5.43966E-003	3.59960E-001	-1.15549E+000	3.57780E+000	10	...........
	40	0.546667	9.12708E-001	5.99180E-003	0.00000E+000	5.46876E-003	3.59960E-001	-1.14475E+000	3.57780E+000	10	...........
	41	0.56	9.18819E-001	5.99318E-003	0.00000E+000	5.50664E-003	3.59960E-001	-1.14644E+000	3.57780E+000	10	...........
	42	0.573333	9.24946E-001	5.99612E-003	0.00000E+000	5.54609E-003	3.59960E-001	-1.15533E+000	3.57780E+000	10	...........
	43	0.586667	9.30977E-001	5.99451E-003	0.00000E+000	5.58075E-003	3.59960E-001	-1.14452E+000	3.57780E+000	10	...........
	44	0.6	9.36922E-001	5.99403E-003	0.00000E+000	5.61594E-003	3.59960E-001	-1.14623E+000	3.57780E+000	10	...........
	45	0.613333	9.42865E-001	5.99372E-003	0.00000E+000	5.65127E-003	3.59960E-001	-1.15526E+000	3.57780E+000	10	...........
	46	0.626667	9.48835E-001	5.99404E-003	0.00000E+000	5.68736E-003	3.59960E-001	-1.14450E+000	3.57780E+000	10	...........
	47	0.64	9.54700E-001	5.99296E-003	0.00000E+000	5.72147E-003	3.59960E-001	-1.14637E+000	3.57780E+000	10	...........
	48	0.653333	9.60524E-001	5.99448E-003	0.00000E+000	5.75784E-003	3.59960E-001	-1.15482E+000	3.57780E+000	10	...........
	49	0.666667	9.66307E-001	5.99012E-003	0.00000E+000	5.78829E-003	3.59960E-001	-1.14459E+000	3.57780E+000	10	...........
	50	0.68	9.72064E-001	5.99017E-003	0.00000E+000	5.82283E-003	3.59960E-001	-1.14687E+000	3.57780E+000	10	...........
	51	0.693333	9.77786E-001	5.99941E-003	0.00000E+000	5.86614E-003	3.59960E-001	-1.15484E+000	3.57780E+000	10	...........
	52	0.706667	9.83394E-001	5.99438E-003	0.00000E+000	5.89483E-003	3.59960E-001	-1.14415E+000	3.57780E+000	10	...........
	53	0.72	9.89027E-001	5.99248E-003	0.00000E+000	5.92672E-003	3.59960E-001	-1.14675E+000	3.57780E+000	10	...........
	54	0.733333	9.94506E-001	5.99182E-003	0.00000E+000	5.95890E-003	3.59960E-001	-1.15502E+000	3.57780E+000	10	...........
	55	0.741667	9.99008E-001	5.99122E-003	0.00000E+000	5.98528E-003	3.59960E-001	-1.13727E+000	3.57780E+000	10	...........
STARTTIMEOFFSET	QUANT	1101.771	Start Time Offset (s)