File: Data/CV_CRGO300517_1/PWRCCD_CRGO300517_1/CHARGE_DISCHARGE/CHARGE_#858.DTA
EXPLAIN
TAG	PWR800_CHARGE
TITLE	LABEL	PWR Cyclic Charge Discharge (Cell) - Charge Step	Test &Identifier
DATE	LABEL	22-6-2017	Date
TIME	LABEL	16:09:26	Time
NOTES	NOTES	3	&Notes...
	supercap test cell
	0.6mg
	6M KOH
PSTAT	PSTAT	IFC5000-01520	Potentiostat
CAPACITY	QUANT	1.00000E-003	Capacity (A-hr)
CELLTYPE	SELECTOR	1	&Cell Type
WORKINGCONNECTION	SELECTOR	0	&Working Lead
MAXCHARGETIME	VARIABLEANDUNITS	1.00000E+002	s	1.00000E+002	second(s)	Max &Charge Time
CHARGECURRENT	QUANT	6.00000E-003	&Charge Current (A)
VOLTAGEFINISH	TWOPARAM	F	1.00000E-003	3.60000E+003	&Voltage Finish	 I (A) < 	Max Time(s)
SAMPLETIME	QUANT	1.00000E-002	Sa&mple Period (s)
CHARGESTOPAT1	MULTIPARAM	4	1.00000E+000	Charge Stop At &1	Voltage > Limit	V
CHARGESTOPAT2	MULTIPARAM	0	0.00000E+000	Charge Stop At &2	None	N/A
AESBHCSELECTOR	TOGGLE	F	Save Both Half Cells
IRCOMP	TOGGLE	F	IR &Measure
EOC	QUANT	0	Open Circuit (V)
SEQUENCER	TOGGLE	TRUE	Run as Sequence
PSTATMODEL	IQUANT	53	Pstat Model
PSTATSECTION	LABEL	IFC5000-01520	Pstat Section
PSTATSERIALNO	LABEL	01520	Pstat Serial Number
CTRLMODE	IQUANT	0	Control Mode
ELECTROMETER	IQUANT	1	RE=0 or CS=1
IESTAB	IQUANT	0	I/E Stability
CASPEED	IQUANT	4	Control Amp Speed
CONVENTION	IQUANT	1	Current Convention
ICHRANGE	IQUANT	2	Ich Range
ICHRANGEMODE	TOGGLE	T	Ich Auto Range
ICHOFFSETENABLE	TOGGLE	F	Ich Offset Enable
ICHOFFSET	QUANT	0	Ich Offset (V)
ICHFILTER	IQUANT	1	Ich Filter
VCHRANGE	IQUANT	2	Vch Range
VCHRANGEMODE	TOGGLE	T	Vch Auto Range
VCHOFFSETENABLE	TOGGLE	F	Vch Offset Enable
VCHOFFSET	QUANT	0	Vch Offset (V)
VCHFILTER	IQUANT	1	Vch Filter
IERANGELOWERLIMIT	IQUANT	9	I/E Range Lower Limit
IERANGEMODE	TOGGLE	F	I/E AutoRange
IERANGE	IQUANT	10	I/E Range
ACHSELECT	IQUANT	1	Ach Select
ACHRANGE	IQUANT	2	Ach Range
ACHOFFSETENABLE	TOGGLE	F	Ach Offset Enable
ACHOFFSET	QUANT	0	Ach Offset (V)
ACHFILTER	IQUANT	1	Ach Filter
CABLEID	IQUANT	14	Cable ID
DCCALDATE	LABEL	20-10-2016	DC Calibration Date
ACCALDATE	LABEL	12/3/2015	AC Calibration Date
FRAMEWORKVERSION	QUANT	7.01	Framework Version
INSTRUMENTVERSION	LABEL	4.00	Instrument Version
CURVE	TABLE	54
	Pt	T	Vf	Im	Vu	Pwr	Sig	Ach	Temp	IERange	Over
	#	s	V	A	V	W	V	V	deg C	#	bits
	0	0.013333	6.51056E-001	5.99444E-003	0.00000E+000	3.90272E-003	3.59960E-001	-1.16958E+000	3.57630E+000	10	...........
	1	0.026667	6.60322E-001	5.99426E-003	0.00000E+000	3.95814E-003	3.59960E-001	-1.16381E+000	3.57630E+000	10	...........
	2	0.04	6.68823E-001	5.99522E-003	0.00000E+000	4.00974E-003	3.59960E-001	-1.17201E+000	3.57630E+000	10	...........
	3	0.053333	6.76895E-001	5.99125E-003	0.00000E+000	4.05544E-003	3.59960E-001	-1.16965E+000	3.57630E+000	10	...........
	4	0.066667	6.84655E-001	5.99427E-003	0.00000E+000	4.10401E-003	3.59960E-001	-1.16379E+000	3.57630E+000	10	...........
	5	0.08	6.92221E-001	5.99599E-003	0.00000E+000	4.15055E-003	3.59960E-001	-1.17214E+000	3.57630E+000	10	...........
	6	0.093333	6.99659E-001	5.99502E-003	0.00000E+000	4.19447E-003	3.59960E-001	-1.16964E+000	3.57630E+000	10	...........
	7	0.106667	7.06917E-001	5.99128E-003	0.00000E+000	4.23534E-003	3.59960E-001	-1.16390E+000	3.57630E+000	10	...........
	8	0.12	7.14121E-001	5.99133E-003	0.00000E+000	4.27853E-003	3.59960E-001	-1.17099E+000	3.57656E+000	10	...........
	9	0.133333	7.21286E-001	5.99518E-003	0.00000E+000	4.32424E-003	3.59960E-001	-1.16762E+000	3.57660E+000	10	...........
	10	0.146667	7.28345E-001	5.99217E-003	0.00000E+000	4.36437E-003	3.59960E-001	-1.16111E+000	3.57660E+000	10	...........
	11	0.16	7.35312E-001	5.99619E-003	0.00000E+000	4.40907E-003	3.59960E-001	-1.16925E+000	3.57660E+000	10	...........
	12	0.173333	7.42256E-001	5.99277E-003	0.00000E+000	4.44817E-003	3.59960E-001	-1.16597E+000	3.57660E+000	10	...........
	13	0.186667	7.49170E-001	5.99398E-003	0.00000E+000	4.49051E-003	3.59960E-001	-1.15971E+000	3.57660E+000	10	...........
	14	0.2	7.56039E-001	5.99256E-003	0.00000E+000	4.53061E-003	3.59960E-001	-1.16742E+000	3.57660E+000	10	...........
	15	0.213333	7.62896E-001	5.98939E-003	0.00000E+000	4.56928E-003	3.59960E-001	-1.16376E+000	3.57660E+000	10	...........
	16	0.226667	7.69715E-001	6.00007E-003	0.00000E+000	4.61834E-003	3.59960E-001	-1.15834E+000	3.57660E+000	10	...........
	17	0.24	7.76530E-001	5.99274E-003	0.00000E+000	4.65354E-003	3.59960E-001	-1.16749E+000	3.57660E+000	10	...........
	18	0.253333	7.83306E-001	5.98839E-003	0.00000E+000	4.69074E-003	3.59960E-001	-1.16371E+000	3.57660E+000	10	...........
	19	0.266667	7.90060E-001	5.99356E-003	0.00000E+000	4.73527E-003	3.59960E-001	-1.15719E+000	3.57660E+000	10	...........
	20	0.28	7.96779E-001	5.98995E-003	0.00000E+000	4.77267E-003	3.59960E-001	-1.16524E+000	3.57660E+000	10	...........
	21	0.293333	8.03460E-001	5.99505E-003	0.00000E+000	4.81679E-003	3.59960E-001	-1.16193E+000	3.57660E+000	10	...........
	22	0.306667	8.10120E-001	5.99009E-003	0.00000E+000	4.85269E-003	3.59960E-001	-1.15629E+000	3.57660E+000	10	...........
	23	0.32	8.16755E-001	5.99076E-003	0.00000E+000	4.89298E-003	3.59960E-001	-1.16484E+000	3.57660E+000	10	...........
	24	0.333333	8.23334E-001	5.99023E-003	0.00000E+000	4.93196E-003	3.59960E-001	-1.16091E+000	3.57660E+000	10	...........
	25	0.346667	8.29890E-001	5.99234E-003	0.00000E+000	4.97298E-003	3.59960E-001	-1.15506E+000	3.57660E+000	10	...........
	26	0.36	8.36450E-001	5.99819E-003	0.00000E+000	5.01719E-003	3.59960E-001	-1.16372E+000	3.57660E+000	10	...........
	27	0.373333	8.43007E-001	5.99530E-003	0.00000E+000	5.05408E-003	3.59960E-001	-1.16051E+000	3.57660E+000	10	...........
	28	0.386667	8.49552E-001	5.98859E-003	0.00000E+000	5.08762E-003	3.59960E-001	-1.15521E+000	3.57660E+000	10	...........
	29	0.4	8.56046E-001	5.99196E-003	0.00000E+000	5.12939E-003	3.59960E-001	-1.16385E+000	3.57660E+000	10	...........
	30	0.413333	8.62547E-001	5.99540E-003	0.00000E+000	5.17131E-003	3.59960E-001	-1.15971E+000	3.57660E+000	10	...........
	31	0.426667	8.69014E-001	5.99818E-003	0.00000E+000	5.21251E-003	3.59960E-001	-1.15450E+000	3.57660E+000	10	...........
	32	0.44	8.75432E-001	5.99439E-003	0.00000E+000	5.24768E-003	3.59960E-001	-1.16392E+000	3.57660E+000	10	...........
	33	0.453333	8.81803E-001	5.99184E-003	0.00000E+000	5.28362E-003	3.59960E-001	-1.15963E+000	3.57660E+000	10	...........
	34	0.466667	8.88181E-001	5.99106E-003	0.00000E+000	5.32115E-003	3.59960E-001	-1.15403E+000	3.57660E+000	10	...........
	35	0.48	8.94467E-001	5.98739E-003	0.00000E+000	5.35552E-003	3.59960E-001	-1.16263E+000	3.57660E+000	10	...........
	36	0.493333	9.00751E-001	5.99258E-003	0.00000E+000	5.39782E-003	3.59960E-001	-1.15858E+000	3.57660E+000	10	...........
	37	0.506667	9.07017E-001	5.99723E-003	0.00000E+000	5.43959E-003	3.59960E-001	-1.15367E+000	3.57660E+000	10	...........
	38	0.52	9.13248E-001	5.99716E-003	0.00000E+000	5.47690E-003	3.59960E-001	-1.16315E+000	3.57660E+000	10	...........
	39	0.533333	9.19443E-001	5.99249E-003	0.00000E+000	5.50975E-003	3.59960E-001	-1.15857E+000	3.57660E+000	10	...........
	40	0.546667	9.25571E-001	5.99453E-003	0.00000E+000	5.54837E-003	3.59960E-001	-1.15305E+000	3.57660E+000	10	...........
	41	0.56	9.31699E-001	5.99617E-003	0.00000E+000	5.58662E-003	3.59960E-001	-1.16240E+000	3.57660E+000	10	...........
	42	0.573333	9.37721E-001	5.99504E-003	0.00000E+000	5.62168E-003	3.59960E-001	-1.15856E+000	3.57660E+000	10	...........
	43	0.586667	9.43728E-001	5.99661E-003	0.00000E+000	5.65917E-003	3.59960E-001	-1.15368E+000	3.57660E+000	10	...........
	44	0.6	9.49697E-001	5.99395E-003	0.00000E+000	5.69243E-003	3.59960E-001	-1.16280E+000	3.57660E+000	10	...........
	45	0.613333	9.55639E-001	5.99231E-003	0.00000E+000	5.72648E-003	3.59960E-001	-1.15808E+000	3.57660E+000	10	...........
	46	0.626667	9.61518E-001	5.99638E-003	0.00000E+000	5.76563E-003	3.59960E-001	-1.15319E+000	3.57660E+000	10	...........
	47	0.64	9.67297E-001	5.99192E-003	0.00000E+000	5.79597E-003	3.59960E-001	-1.16290E+000	3.57660E+000	10	...........
	48	0.653333	9.73098E-001	5.99037E-003	0.00000E+000	5.82922E-003	3.59960E-001	-1.15853E+000	3.57660E+000	10	...........
	49	0.666667	9.78836E-001	5.99508E-003	0.00000E+000	5.86821E-003	3.59960E-001	-1.15326E+000	3.57660E+000	10	...........
	50	0.68	9.84438E-001	5.99342E-003	0.00000E+000	5.90015E-003	3.59960E-001	-1.16286E+000	3.57660E+000	10	...........
	51	0.693333	9.90052E-001	5.99173E-003	0.00000E+000	5.93212E-003	3.59960E-001	-1.15834E+000	3.57660E+000	10	...........
	52	0.706667	9.95625E-001	5.99409E-003	0.00000E+000	5.96787E-003	3.59960E-001	-1.15381E+000	3.57660E+000	10	...........
	53	0.711667	9.99407E-001	5.99596E-003	0.00000E+000	5.99241E-003	3.59960E-001	-1.16879E+000	3.57660E+000	10	...........
STARTTIMEOFFSET	QUANT	1386.793	Start Time Offset (s)