File: Data/CV_CRGO300517_1/PWRCCD_CRGO300517_1/CHARGE_DISCHARGE/CHARGE_#751.DTA
EXPLAIN
TAG	PWR800_CHARGE
TITLE	LABEL	PWR Cyclic Charge Discharge (Cell) - Charge Step	Test &Identifier
DATE	LABEL	22-6-2017	Date
TIME	LABEL	16:05:28	Time
NOTES	NOTES	3	&Notes...
	supercap test cell
	0.6mg
	6M KOH
PSTAT	PSTAT	IFC5000-01520	Potentiostat
CAPACITY	QUANT	1.00000E-003	Capacity (A-hr)
CELLTYPE	SELECTOR	1	&Cell Type
WORKINGCONNECTION	SELECTOR	0	&Working Lead
MAXCHARGETIME	VARIABLEANDUNITS	1.00000E+002	s	1.00000E+002	second(s)	Max &Charge Time
CHARGECURRENT	QUANT	6.00000E-003	&Charge Current (A)
VOLTAGEFINISH	TWOPARAM	F	1.00000E-003	3.60000E+003	&Voltage Finish	 I (A) < 	Max Time(s)
SAMPLETIME	QUANT	1.00000E-002	Sa&mple Period (s)
CHARGESTOPAT1	MULTIPARAM	4	1.00000E+000	Charge Stop At &1	Voltage > Limit	V
CHARGESTOPAT2	MULTIPARAM	0	0.00000E+000	Charge Stop At &2	None	N/A
AESBHCSELECTOR	TOGGLE	F	Save Both Half Cells
IRCOMP	TOGGLE	F	IR &Measure
EOC	QUANT	0	Open Circuit (V)
SEQUENCER	TOGGLE	TRUE	Run as Sequence
PSTATMODEL	IQUANT	53	Pstat Model
PSTATSECTION	LABEL	IFC5000-01520	Pstat Section
PSTATSERIALNO	LABEL	01520	Pstat Serial Number
CTRLMODE	IQUANT	0	Control Mode
ELECTROMETER	IQUANT	1	RE=0 or CS=1
IESTAB	IQUANT	0	I/E Stability
CASPEED	IQUANT	4	Control Amp Speed
CONVENTION	IQUANT	1	Current Convention
ICHRANGE	IQUANT	2	Ich Range
ICHRANGEMODE	TOGGLE	T	Ich Auto Range
ICHOFFSETENABLE	TOGGLE	F	Ich Offset Enable
ICHOFFSET	QUANT	0	Ich Offset (V)
ICHFILTER	IQUANT	1	Ich Filter
VCHRANGE	IQUANT	2	Vch Range
VCHRANGEMODE	TOGGLE	T	Vch Auto Range
VCHOFFSETENABLE	TOGGLE	F	Vch Offset Enable
VCHOFFSET	QUANT	0	Vch Offset (V)
VCHFILTER	IQUANT	1	Vch Filter
IERANGELOWERLIMIT	IQUANT	9	I/E Range Lower Limit
IERANGEMODE	TOGGLE	F	I/E AutoRange
IERANGE	IQUANT	10	I/E Range
ACHSELECT	IQUANT	1	Ach Select
ACHRANGE	IQUANT	2	Ach Range
ACHOFFSETENABLE	TOGGLE	F	Ach Offset Enable
ACHOFFSET	QUANT	0	Ach Offset (V)
ACHFILTER	IQUANT	1	Ach Filter
CABLEID	IQUANT	14	Cable ID
DCCALDATE	LABEL	20-10-2016	DC Calibration Date
ACCALDATE	LABEL	12/3/2015	AC Calibration Date
FRAMEWORKVERSION	QUANT	7.01	Framework Version
INSTRUMENTVERSION	LABEL	4.00	Instrument Version
CURVE	TABLE	55
	Pt	T	Vf	Im	Vu	Pwr	Sig	Ach	Temp	IERange	Over
	#	s	V	A	V	W	V	V	deg C	#	bits
	0	0.013333	6.46118E-001	5.99445E-003	0.00000E+000	3.87312E-003	3.59960E-001	-1.15802E+000	3.57740E+000	10	...........
	1	0.026667	6.55275E-001	5.99280E-003	0.00000E+000	3.92693E-003	3.59960E-001	-1.16096E+000	3.57740E+000	10	...........
	2	0.04	6.63651E-001	5.99347E-003	0.00000E+000	3.97757E-003	3.59960E-001	-1.16828E+000	3.57740E+000	10	...........
	3	0.053333	6.71670E-001	5.99468E-003	0.00000E+000	4.02645E-003	3.59960E-001	-1.15806E+000	3.57740E+000	10	...........
	4	0.066667	6.79402E-001	5.99346E-003	0.00000E+000	4.07197E-003	3.59960E-001	-1.16149E+000	3.57740E+000	10	...........
	5	0.08	6.86864E-001	5.99274E-003	0.00000E+000	4.11620E-003	3.59960E-001	-1.16801E+000	3.57740E+000	10	...........
	6	0.093333	6.94218E-001	5.99769E-003	0.00000E+000	4.16371E-003	3.59960E-001	-1.15769E+000	3.57740E+000	10	...........
	7	0.106667	7.01429E-001	5.99439E-003	0.00000E+000	4.20463E-003	3.59960E-001	-1.16119E+000	3.57740E+000	10	...........
	8	0.12	7.08557E-001	5.99085E-003	0.00000E+000	4.24486E-003	3.59960E-001	-1.16787E+000	3.57740E+000	10	...........
	9	0.133333	7.15604E-001	5.99351E-003	0.00000E+000	4.28898E-003	3.59960E-001	-1.15775E+000	3.57740E+000	10	...........
	10	0.146667	7.22650E-001	5.99261E-003	0.00000E+000	4.33056E-003	3.59960E-001	-1.16137E+000	3.57740E+000	10	...........
	11	0.16	7.29573E-001	5.99363E-003	0.00000E+000	4.37279E-003	3.59960E-001	-1.16758E+000	3.57738E+000	10	...........
	12	0.173333	7.36449E-001	5.99466E-003	0.00000E+000	4.41476E-003	3.59960E-001	-1.15785E+000	3.57680E+000	10	...........
	13	0.186667	7.43327E-001	5.99083E-003	0.00000E+000	4.45314E-003	3.59960E-001	-1.16142E+000	3.57680E+000	10	...........
	14	0.2	7.50119E-001	5.99055E-003	0.00000E+000	4.49362E-003	3.59960E-001	-1.16766E+000	3.57680E+000	10	...........
	15	0.213333	7.56958E-001	5.99490E-003	0.00000E+000	4.53788E-003	3.59960E-001	-1.15758E+000	3.57680E+000	10	...........
	16	0.226667	7.63693E-001	5.99189E-003	0.00000E+000	4.57597E-003	3.59960E-001	-1.16123E+000	3.57680E+000	10	...........
	17	0.24	7.70450E-001	5.99398E-003	0.00000E+000	4.61806E-003	3.59960E-001	-1.16754E+000	3.57680E+000	10	...........
	18	0.253333	7.77152E-001	5.99814E-003	0.00000E+000	4.66146E-003	3.59960E-001	-1.15749E+000	3.57680E+000	10	...........
	19	0.266667	7.83835E-001	5.99357E-003	0.00000E+000	4.69797E-003	3.59960E-001	-1.16147E+000	3.57680E+000	10	...........
	20	0.28	7.90473E-001	5.99369E-003	0.00000E+000	4.73785E-003	3.59960E-001	-1.16664E+000	3.57680E+000	10	...........
	21	0.293333	7.97138E-001	5.99239E-003	0.00000E+000	4.77676E-003	3.59960E-001	-1.15701E+000	3.57680E+000	10	...........
	22	0.306667	8.03738E-001	5.99193E-003	0.00000E+000	4.81594E-003	3.59960E-001	-1.16099E+000	3.57680E+000	10	...........
	23	0.32	8.10341E-001	5.99386E-003	0.00000E+000	4.85708E-003	3.59960E-001	-1.16693E+000	3.57680E+000	10	...........
	24	0.333333	8.16936E-001	5.99118E-003	0.00000E+000	4.89442E-003	3.59960E-001	-1.15701E+000	3.57680E+000	10	...........
	25	0.346667	8.23541E-001	5.99392E-003	0.00000E+000	4.93624E-003	3.59960E-001	-1.16122E+000	3.57680E+000	10	...........
	26	0.36	8.30067E-001	5.98977E-003	0.00000E+000	4.97191E-003	3.59960E-001	-1.16639E+000	3.57680E+000	10	...........
	27	0.373333	8.36550E-001	5.99686E-003	0.00000E+000	5.01667E-003	3.59960E-001	-1.15710E+000	3.57680E+000	10	...........
	28	0.386667	8.43025E-001	5.99238E-003	0.00000E+000	5.05173E-003	3.59960E-001	-1.16144E+000	3.57680E+000	10	...........
	29	0.4	8.49511E-001	5.99875E-003	0.00000E+000	5.09600E-003	3.59960E-001	-1.16672E+000	3.57680E+000	10	...........
	30	0.413333	8.55979E-001	5.99398E-003	0.00000E+000	5.13072E-003	3.59960E-001	-1.15691E+000	3.57680E+000	10	...........
	31	0.426667	8.62417E-001	5.99796E-003	0.00000E+000	5.17274E-003	3.59960E-001	-1.16140E+000	3.57680E+000	10	...........
	32	0.44	8.68843E-001	5.99382E-003	0.00000E+000	5.20769E-003	3.59960E-001	-1.16635E+000	3.57680E+000	10	...........
	33	0.453333	8.75169E-001	5.99328E-003	0.00000E+000	5.24513E-003	3.59960E-001	-1.15718E+000	3.57680E+000	10	...........
	34	0.466667	8.81535E-001	5.99048E-003	0.00000E+000	5.28082E-003	3.59960E-001	-1.16165E+000	3.57680E+000	10	...........
	35	0.48	8.87806E-001	5.99613E-003	0.00000E+000	5.32340E-003	3.59960E-001	-1.16640E+000	3.57680E+000	10	...........
	36	0.493333	8.94074E-001	5.98998E-003	0.00000E+000	5.35549E-003	3.59960E-001	-1.15695E+000	3.57680E+000	10	...........
	37	0.506667	9.00357E-001	5.99358E-003	0.00000E+000	5.39637E-003	3.59960E-001	-1.16193E+000	3.57680E+000	10	...........
	38	0.52	9.06571E-001	5.99283E-003	0.00000E+000	5.43293E-003	3.59960E-001	-1.16639E+000	3.57680E+000	10	...........
	39	0.533333	9.12744E-001	5.99145E-003	0.00000E+000	5.46867E-003	3.59960E-001	-1.15714E+000	3.57680E+000	10	...........
	40	0.546667	9.18900E-001	5.99006E-003	0.00000E+000	5.50426E-003	3.59960E-001	-1.16172E+000	3.57680E+000	10	...........
	41	0.56	9.25055E-001	5.99586E-003	0.00000E+000	5.54650E-003	3.59960E-001	-1.16603E+000	3.57680E+000	10	...........
	42	0.573333	9.31111E-001	5.99190E-003	0.00000E+000	5.57913E-003	3.59960E-001	-1.15713E+000	3.57680E+000	10	...........
	43	0.586667	9.37133E-001	5.99254E-003	0.00000E+000	5.61581E-003	3.59960E-001	-1.16228E+000	3.57680E+000	10	...........
	44	0.6	9.43114E-001	5.98784E-003	0.00000E+000	5.64721E-003	3.59960E-001	-1.16588E+000	3.57680E+000	10	...........
	45	0.613333	9.49114E-001	5.99389E-003	0.00000E+000	5.68888E-003	3.59960E-001	-1.15697E+000	3.57680E+000	10	...........
	46	0.626667	9.54991E-001	5.99514E-003	0.00000E+000	5.72530E-003	3.59960E-001	-1.16185E+000	3.57680E+000	10	...........
	47	0.64	9.60821E-001	5.99505E-003	0.00000E+000	5.76017E-003	3.59960E-001	-1.16568E+000	3.57680E+000	10	...........
	48	0.653333	9.66650E-001	5.99492E-003	0.00000E+000	5.79499E-003	3.59960E-001	-1.15697E+000	3.57680E+000	10	...........
	49	0.666667	9.72429E-001	5.99514E-003	0.00000E+000	5.82984E-003	3.59960E-001	-1.16206E+000	3.57680E+000	10	...........
	50	0.68	9.78123E-001	5.99538E-003	0.00000E+000	5.86422E-003	3.59960E-001	-1.16536E+000	3.57680E+000	10	...........
	51	0.693333	9.83753E-001	5.98956E-003	0.00000E+000	5.89224E-003	3.59960E-001	-1.15668E+000	3.57680E+000	10	...........
	52	0.706667	9.89348E-001	5.99323E-003	0.00000E+000	5.92939E-003	3.59960E-001	-1.16201E+000	3.57680E+000	10	...........
	53	0.72	9.94870E-001	5.99569E-003	0.00000E+000	5.96493E-003	3.59960E-001	-1.16535E+000	3.57680E+000	10	...........
	54	0.726667	9.99024E-001	5.99456E-003	0.00000E+000	5.98871E-003	3.59960E-001	-1.15346E+000	3.57680E+000	10	...........
STARTTIMEOFFSET	QUANT	1233.531	Start Time Offset (s)