File: Data/CV_CRGO300517_1/PWRCCD_CRGO300517_1/CHARGE_DISCHARGE/CHARGE_#458.DTA
EXPLAIN
TAG	PWR800_CHARGE
TITLE	LABEL	PWR Cyclic Charge Discharge (Cell) - Charge Step	Test &Identifier
DATE	LABEL	22-6-2017	Date
TIME	LABEL	15:54:16	Time
NOTES	NOTES	3	&Notes...
	supercap test cell
	0.6mg
	6M KOH
PSTAT	PSTAT	IFC5000-01520	Potentiostat
CAPACITY	QUANT	1.00000E-003	Capacity (A-hr)
CELLTYPE	SELECTOR	1	&Cell Type
WORKINGCONNECTION	SELECTOR	0	&Working Lead
MAXCHARGETIME	VARIABLEANDUNITS	1.00000E+002	s	1.00000E+002	second(s)	Max &Charge Time
CHARGECURRENT	QUANT	6.00000E-003	&Charge Current (A)
VOLTAGEFINISH	TWOPARAM	F	1.00000E-003	3.60000E+003	&Voltage Finish	 I (A) < 	Max Time(s)
SAMPLETIME	QUANT	1.00000E-002	Sa&mple Period (s)
CHARGESTOPAT1	MULTIPARAM	4	1.00000E+000	Charge Stop At &1	Voltage > Limit	V
CHARGESTOPAT2	MULTIPARAM	0	0.00000E+000	Charge Stop At &2	None	N/A
AESBHCSELECTOR	TOGGLE	F	Save Both Half Cells
IRCOMP	TOGGLE	F	IR &Measure
EOC	QUANT	0	Open Circuit (V)
SEQUENCER	TOGGLE	TRUE	Run as Sequence
PSTATMODEL	IQUANT	53	Pstat Model
PSTATSECTION	LABEL	IFC5000-01520	Pstat Section
PSTATSERIALNO	LABEL	01520	Pstat Serial Number
CTRLMODE	IQUANT	0	Control Mode
ELECTROMETER	IQUANT	1	RE=0 or CS=1
IESTAB	IQUANT	0	I/E Stability
CASPEED	IQUANT	4	Control Amp Speed
CONVENTION	IQUANT	1	Current Convention
ICHRANGE	IQUANT	2	Ich Range
ICHRANGEMODE	TOGGLE	T	Ich Auto Range
ICHOFFSETENABLE	TOGGLE	F	Ich Offset Enable
ICHOFFSET	QUANT	0	Ich Offset (V)
ICHFILTER	IQUANT	1	Ich Filter
VCHRANGE	IQUANT	2	Vch Range
VCHRANGEMODE	TOGGLE	T	Vch Auto Range
VCHOFFSETENABLE	TOGGLE	F	Vch Offset Enable
VCHOFFSET	QUANT	0	Vch Offset (V)
VCHFILTER	IQUANT	1	Vch Filter
IERANGELOWERLIMIT	IQUANT	9	I/E Range Lower Limit
IERANGEMODE	TOGGLE	F	I/E AutoRange
IERANGE	IQUANT	10	I/E Range
ACHSELECT	IQUANT	1	Ach Select
ACHRANGE	IQUANT	2	Ach Range
ACHOFFSETENABLE	TOGGLE	F	Ach Offset Enable
ACHOFFSET	QUANT	0	Ach Offset (V)
ACHFILTER	IQUANT	1	Ach Filter
CABLEID	IQUANT	14	Cable ID
DCCALDATE	LABEL	20-10-2016	DC Calibration Date
ACCALDATE	LABEL	12/3/2015	AC Calibration Date
FRAMEWORKVERSION	QUANT	7.01	Framework Version
INSTRUMENTVERSION	LABEL	4.00	Instrument Version
CURVE	TABLE	59
	Pt	T	Vf	Im	Vu	Pwr	Sig	Ach	Temp	IERange	Over
	#	s	V	A	V	W	V	V	deg C	#	bits
	0	0.013333	6.29364E-001	5.99139E-003	0.00000E+000	3.77077E-003	3.59960E-001	-1.13996E+000	3.57790E+000	10	...........
	1	0.026667	6.38195E-001	5.99838E-003	0.00000E+000	3.82814E-003	3.59960E-001	-1.12954E+000	3.57790E+000	10	...........
	2	0.04	6.46320E-001	5.99395E-003	0.00000E+000	3.87401E-003	3.59960E-001	-1.13045E+000	3.57790E+000	10	...........
	3	0.053333	6.53991E-001	5.99479E-003	0.00000E+000	3.92054E-003	3.59960E-001	-1.14023E+000	3.57790E+000	10	...........
	4	0.066667	6.61391E-001	5.99712E-003	0.00000E+000	3.96644E-003	3.59960E-001	-1.12962E+000	3.57790E+000	10	...........
	5	0.08	6.68615E-001	5.99188E-003	0.00000E+000	4.00626E-003	3.59960E-001	-1.13016E+000	3.57790E+000	10	...........
	6	0.093333	6.75702E-001	5.99161E-003	0.00000E+000	4.04854E-003	3.59960E-001	-1.14007E+000	3.57790E+000	10	...........
	7	0.106667	6.82670E-001	5.99470E-003	0.00000E+000	4.09240E-003	3.59960E-001	-1.12963E+000	3.57790E+000	10	...........
	8	0.12	6.89554E-001	5.99367E-003	0.00000E+000	4.13296E-003	3.59960E-001	-1.13063E+000	3.57790E+000	10	...........
	9	0.133333	6.96397E-001	5.99500E-003	0.00000E+000	4.17490E-003	3.59960E-001	-1.14020E+000	3.57790E+000	10	...........
	10	0.146667	7.03113E-001	5.98984E-003	0.00000E+000	4.21153E-003	3.59960E-001	-1.12974E+000	3.57790E+000	10	...........
	11	0.16	7.09793E-001	5.99151E-003	0.00000E+000	4.25273E-003	3.59960E-001	-1.13038E+000	3.57790E+000	10	...........
	12	0.173333	7.16465E-001	5.99408E-003	0.00000E+000	4.29455E-003	3.59960E-001	-1.14025E+000	3.57790E+000	10	...........
	13	0.186667	7.23105E-001	5.99511E-003	0.00000E+000	4.33509E-003	3.59960E-001	-1.12985E+000	3.57790E+000	10	...........
	14	0.2	7.29708E-001	5.99465E-003	0.00000E+000	4.37434E-003	3.59960E-001	-1.13053E+000	3.57790E+000	10	...........
	15	0.213333	7.36253E-001	5.99680E-003	0.00000E+000	4.41516E-003	3.59960E-001	-1.14025E+000	3.57790E+000	10	...........
	16	0.226667	7.42836E-001	5.99460E-003	0.00000E+000	4.45301E-003	3.59960E-001	-1.13014E+000	3.57790E+000	10	...........
	17	0.24	7.49320E-001	5.99525E-003	0.00000E+000	4.49236E-003	3.59960E-001	-1.13047E+000	3.57790E+000	10	...........
	18	0.253333	7.55824E-001	5.99301E-003	0.00000E+000	4.52966E-003	3.59960E-001	-1.14039E+000	3.57790E+000	10	...........
	19	0.266667	7.62327E-001	5.98630E-003	0.00000E+000	4.56352E-003	3.59960E-001	-1.12989E+000	3.57790E+000	10	...........
	20	0.28	7.68772E-001	5.99732E-003	0.00000E+000	4.61057E-003	3.59960E-001	-1.13040E+000	3.57790E+000	10	...........
	21	0.293333	7.75263E-001	5.99294E-003	0.00000E+000	4.64610E-003	3.59960E-001	-1.14030E+000	3.57790E+000	10	...........
	22	0.306667	7.81731E-001	5.99351E-003	0.00000E+000	4.68531E-003	3.59960E-001	-1.12969E+000	3.57790E+000	10	...........
	23	0.32	7.88113E-001	5.99162E-003	0.00000E+000	4.72208E-003	3.59960E-001	-1.13029E+000	3.57790E+000	10	...........
	24	0.333333	7.94507E-001	5.98959E-003	0.00000E+000	4.75877E-003	3.59960E-001	-1.14007E+000	3.57790E+000	10	...........
	25	0.346667	8.00903E-001	5.99611E-003	0.00000E+000	4.80230E-003	3.59960E-001	-1.12938E+000	3.57790E+000	10	...........
	26	0.36	8.07245E-001	5.99490E-003	0.00000E+000	4.83935E-003	3.59960E-001	-1.13014E+000	3.57790E+000	10	...........
	27	0.373333	8.13578E-001	5.99334E-003	0.00000E+000	4.87605E-003	3.59960E-001	-1.14008E+000	3.57790E+000	10	...........
	28	0.386667	8.19947E-001	5.99334E-003	0.00000E+000	4.91423E-003	3.59960E-001	-1.12974E+000	3.57790E+000	10	...........
	29	0.4	8.26304E-001	5.99358E-003	0.00000E+000	4.95252E-003	3.59960E-001	-1.13032E+000	3.57790E+000	10	...........
	30	0.413333	8.32592E-001	5.99844E-003	0.00000E+000	4.99426E-003	3.59960E-001	-1.13997E+000	3.57790E+000	10	...........
	31	0.426667	8.38913E-001	5.99609E-003	0.00000E+000	5.03020E-003	3.59960E-001	-1.12947E+000	3.57790E+000	10	...........
	32	0.44	8.45233E-001	5.99112E-003	0.00000E+000	5.06389E-003	3.59960E-001	-1.13006E+000	3.57790E+000	10	...........
	33	0.453333	8.51502E-001	5.99176E-003	0.00000E+000	5.10199E-003	3.59960E-001	-1.14008E+000	3.57790E+000	10	...........
	34	0.466667	8.57701E-001	5.99403E-003	0.00000E+000	5.14109E-003	3.59960E-001	-1.12966E+000	3.57790E+000	10	...........
	35	0.48	8.63942E-001	5.99787E-003	0.00000E+000	5.18181E-003	3.59960E-001	-1.13025E+000	3.57790E+000	10	...........
	36	0.493333	8.70162E-001	5.99351E-003	0.00000E+000	5.21533E-003	3.59960E-001	-1.13993E+000	3.57790E+000	10	...........
	37	0.506667	8.76370E-001	5.99490E-003	0.00000E+000	5.25374E-003	3.59960E-001	-1.12969E+000	3.57790E+000	10	...........
	38	0.52	8.82519E-001	5.99497E-003	0.00000E+000	5.29068E-003	3.59960E-001	-1.13038E+000	3.57790E+000	10	...........
	39	0.533333	8.88693E-001	5.99521E-003	0.00000E+000	5.32790E-003	3.59960E-001	-1.14018E+000	3.57790E+000	10	...........
	40	0.546667	8.94804E-001	5.98960E-003	0.00000E+000	5.35952E-003	3.59960E-001	-1.12967E+000	3.57790E+000	10	...........
	41	0.56	9.00875E-001	5.99473E-003	0.00000E+000	5.40050E-003	3.59960E-001	-1.13020E+000	3.57790E+000	10	...........
	42	0.573333	9.06968E-001	5.99866E-003	0.00000E+000	5.44060E-003	3.59960E-001	-1.14029E+000	3.57790E+000	10	...........
	43	0.586667	9.13008E-001	5.99525E-003	0.00000E+000	5.47371E-003	3.59960E-001	-1.12997E+000	3.57790E+000	10	...........
	44	0.6	9.19048E-001	5.99273E-003	0.00000E+000	5.50760E-003	3.59960E-001	-1.13044E+000	3.57813E+000	10	...........
	45	0.613333	9.25079E-001	5.99741E-003	0.00000E+000	5.54808E-003	3.59960E-001	-1.14021E+000	3.57850E+000	10	...........
	46	0.626667	9.31020E-001	5.99652E-003	0.00000E+000	5.58288E-003	3.59960E-001	-1.12945E+000	3.57850E+000	10	...........
	47	0.64	9.36907E-001	5.99897E-003	0.00000E+000	5.62047E-003	3.59960E-001	-1.13006E+000	3.57850E+000	10	...........
	48	0.653333	9.42772E-001	5.99549E-003	0.00000E+000	5.65238E-003	3.59960E-001	-1.14014E+000	3.57850E+000	10	...........
	49	0.666667	9.48642E-001	5.99199E-003	0.00000E+000	5.68425E-003	3.59960E-001	-1.12957E+000	3.57850E+000	10	...........
	50	0.68	9.54486E-001	5.99831E-003	0.00000E+000	5.72530E-003	3.59960E-001	-1.13026E+000	3.57850E+000	10	...........
	51	0.693333	9.60232E-001	5.99416E-003	0.00000E+000	5.75578E-003	3.59960E-001	-1.13992E+000	3.57850E+000	10	...........
	52	0.706667	9.65936E-001	5.99595E-003	0.00000E+000	5.79171E-003	3.59960E-001	-1.12955E+000	3.57850E+000	10	...........
	53	0.72	9.71668E-001	5.99659E-003	0.00000E+000	5.82669E-003	3.59960E-001	-1.13028E+000	3.57850E+000	10	...........
	54	0.733333	9.77306E-001	5.99020E-003	0.00000E+000	5.85426E-003	3.59960E-001	-1.14023E+000	3.57850E+000	10	...........
	55	0.746667	9.82841E-001	5.99491E-003	0.00000E+000	5.89204E-003	3.59960E-001	-1.12967E+000	3.57850E+000	10	...........
	56	0.76	9.88383E-001	5.98961E-003	0.00000E+000	5.92003E-003	3.59960E-001	-1.13008E+000	3.57850E+000	10	...........
	57	0.773333	9.93848E-001	5.99371E-003	0.00000E+000	5.95683E-003	3.59960E-001	-1.14008E+000	3.57850E+000	10	...........
	58	0.783333	9.98617E-001	5.99356E-003	0.00000E+000	5.98526E-003	3.59960E-001	-1.12527E+000	3.57850E+000	10	...........
STARTTIMEOFFSET	QUANT	793.9384	Start Time Offset (s)