File: Data/CV_CRGO300517_1/PWRCCD_CRGO300517_1/CHARGE_DISCHARGE/CHARGE_#429.DTA
EXPLAIN
TAG	PWR800_CHARGE
TITLE	LABEL	PWR Cyclic Charge Discharge (Cell) - Charge Step	Test &Identifier
DATE	LABEL	22-6-2017	Date
TIME	LABEL	15:53:07	Time
NOTES	NOTES	3	&Notes...
	supercap test cell
	0.6mg
	6M KOH
PSTAT	PSTAT	IFC5000-01520	Potentiostat
CAPACITY	QUANT	1.00000E-003	Capacity (A-hr)
CELLTYPE	SELECTOR	1	&Cell Type
WORKINGCONNECTION	SELECTOR	0	&Working Lead
MAXCHARGETIME	VARIABLEANDUNITS	1.00000E+002	s	1.00000E+002	second(s)	Max &Charge Time
CHARGECURRENT	QUANT	6.00000E-003	&Charge Current (A)
VOLTAGEFINISH	TWOPARAM	F	1.00000E-003	3.60000E+003	&Voltage Finish	 I (A) < 	Max Time(s)
SAMPLETIME	QUANT	1.00000E-002	Sa&mple Period (s)
CHARGESTOPAT1	MULTIPARAM	4	1.00000E+000	Charge Stop At &1	Voltage > Limit	V
CHARGESTOPAT2	MULTIPARAM	0	0.00000E+000	Charge Stop At &2	None	N/A
AESBHCSELECTOR	TOGGLE	F	Save Both Half Cells
IRCOMP	TOGGLE	F	IR &Measure
EOC	QUANT	0	Open Circuit (V)
SEQUENCER	TOGGLE	TRUE	Run as Sequence
PSTATMODEL	IQUANT	53	Pstat Model
PSTATSECTION	LABEL	IFC5000-01520	Pstat Section
PSTATSERIALNO	LABEL	01520	Pstat Serial Number
CTRLMODE	IQUANT	0	Control Mode
ELECTROMETER	IQUANT	1	RE=0 or CS=1
IESTAB	IQUANT	0	I/E Stability
CASPEED	IQUANT	4	Control Amp Speed
CONVENTION	IQUANT	1	Current Convention
ICHRANGE	IQUANT	2	Ich Range
ICHRANGEMODE	TOGGLE	T	Ich Auto Range
ICHOFFSETENABLE	TOGGLE	F	Ich Offset Enable
ICHOFFSET	QUANT	0	Ich Offset (V)
ICHFILTER	IQUANT	1	Ich Filter
VCHRANGE	IQUANT	2	Vch Range
VCHRANGEMODE	TOGGLE	T	Vch Auto Range
VCHOFFSETENABLE	TOGGLE	F	Vch Offset Enable
VCHOFFSET	QUANT	0	Vch Offset (V)
VCHFILTER	IQUANT	1	Vch Filter
IERANGELOWERLIMIT	IQUANT	9	I/E Range Lower Limit
IERANGEMODE	TOGGLE	F	I/E AutoRange
IERANGE	IQUANT	10	I/E Range
ACHSELECT	IQUANT	1	Ach Select
ACHRANGE	IQUANT	2	Ach Range
ACHOFFSETENABLE	TOGGLE	F	Ach Offset Enable
ACHOFFSET	QUANT	0	Ach Offset (V)
ACHFILTER	IQUANT	1	Ach Filter
CABLEID	IQUANT	14	Cable ID
DCCALDATE	LABEL	20-10-2016	DC Calibration Date
ACCALDATE	LABEL	12/3/2015	AC Calibration Date
FRAMEWORKVERSION	QUANT	7.01	Framework Version
INSTRUMENTVERSION	LABEL	4.00	Instrument Version
CURVE	TABLE	60
	Pt	T	Vf	Im	Vu	Pwr	Sig	Ach	Temp	IERange	Over
	#	s	V	A	V	W	V	V	deg C	#	bits
	0	0.013333	6.27112E-001	5.99294E-003	0.00000E+000	3.75824E-003	3.59960E-001	-1.13146E+000	3.57660E+000	10	...........
	1	0.026667	6.35836E-001	5.99520E-003	0.00000E+000	3.81196E-003	3.59960E-001	-1.13573E+000	3.57660E+000	10	...........
	2	0.04	6.43969E-001	5.99627E-003	0.00000E+000	3.86141E-003	3.59960E-001	-1.14014E+000	3.57660E+000	10	...........
	3	0.053333	6.51599E-001	5.99571E-003	0.00000E+000	3.90680E-003	3.59960E-001	-1.13115E+000	3.57660E+000	10	...........
	4	0.066667	6.58999E-001	5.99410E-003	0.00000E+000	3.95011E-003	3.59960E-001	-1.13599E+000	3.57660E+000	10	...........
	5	0.08	6.66172E-001	5.99126E-003	0.00000E+000	3.99121E-003	3.59960E-001	-1.14008E+000	3.57660E+000	10	...........
	6	0.093333	6.73227E-001	5.99554E-003	0.00000E+000	4.03636E-003	3.59960E-001	-1.13092E+000	3.57660E+000	10	...........
	7	0.106667	6.80192E-001	5.99752E-003	0.00000E+000	4.07946E-003	3.59960E-001	-1.13583E+000	3.57660E+000	10	...........
	8	0.12	6.87002E-001	5.99540E-003	0.00000E+000	4.11885E-003	3.59960E-001	-1.13981E+000	3.57660E+000	10	...........
	9	0.133333	6.93803E-001	5.99444E-003	0.00000E+000	4.15896E-003	3.59960E-001	-1.13103E+000	3.57660E+000	10	...........
	10	0.146667	7.00560E-001	5.99543E-003	0.00000E+000	4.20016E-003	3.59960E-001	-1.13610E+000	3.57660E+000	10	...........
	11	0.16	7.07226E-001	5.99229E-003	0.00000E+000	4.23790E-003	3.59960E-001	-1.13961E+000	3.57660E+000	10	...........
	12	0.173333	7.13846E-001	5.99550E-003	0.00000E+000	4.27986E-003	3.59960E-001	-1.13096E+000	3.57660E+000	10	...........
	13	0.186667	7.20488E-001	5.99294E-003	0.00000E+000	4.31784E-003	3.59960E-001	-1.13606E+000	3.57660E+000	10	...........
	14	0.2	7.27053E-001	5.99603E-003	0.00000E+000	4.35943E-003	3.59960E-001	-1.13967E+000	3.57660E+000	10	...........
	15	0.213333	7.33592E-001	5.99046E-003	0.00000E+000	4.39455E-003	3.59960E-001	-1.13102E+000	3.57660E+000	10	...........
	16	0.226667	7.40104E-001	5.99453E-003	0.00000E+000	4.43658E-003	3.59960E-001	-1.13582E+000	3.57660E+000	10	...........
	17	0.24	7.46613E-001	5.99361E-003	0.00000E+000	4.47491E-003	3.59960E-001	-1.13882E+000	3.57660E+000	10	...........
	18	0.253333	7.53099E-001	5.99514E-003	0.00000E+000	4.51493E-003	3.59960E-001	-1.13048E+000	3.57660E+000	10	...........
	19	0.266667	7.59573E-001	6.00187E-003	0.00000E+000	4.55886E-003	3.59960E-001	-1.13588E+000	3.57660E+000	10	...........
	20	0.28	7.66017E-001	5.99370E-003	0.00000E+000	4.59128E-003	3.59960E-001	-1.13901E+000	3.57660E+000	10	...........
	21	0.293333	7.72446E-001	5.99597E-003	0.00000E+000	4.63156E-003	3.59960E-001	-1.13038E+000	3.57660E+000	10	...........
	22	0.306667	7.78848E-001	5.99541E-003	0.00000E+000	4.66951E-003	3.59960E-001	-1.13575E+000	3.57660E+000	10	...........
	23	0.32	7.85228E-001	5.99009E-003	0.00000E+000	4.70359E-003	3.59960E-001	-1.13850E+000	3.57660E+000	10	...........
	24	0.333333	7.91612E-001	5.98924E-003	0.00000E+000	4.74116E-003	3.59960E-001	-1.13033E+000	3.57660E+000	10	...........
	25	0.346667	7.98038E-001	5.99475E-003	0.00000E+000	4.78404E-003	3.59960E-001	-1.13601E+000	3.57660E+000	10	...........
	26	0.36	8.04350E-001	5.99404E-003	0.00000E+000	4.82131E-003	3.59960E-001	-1.13841E+000	3.57660E+000	10	...........
	27	0.373333	8.10684E-001	5.99167E-003	0.00000E+000	4.85735E-003	3.59960E-001	-1.13011E+000	3.57660E+000	10	...........
	28	0.386667	8.17050E-001	5.99440E-003	0.00000E+000	4.89772E-003	3.59960E-001	-1.13604E+000	3.57660E+000	10	...........
	29	0.4	8.23369E-001	5.99360E-003	0.00000E+000	4.93495E-003	3.59960E-001	-1.13833E+000	3.57660E+000	10	...........
	30	0.413333	8.29648E-001	5.99452E-003	0.00000E+000	4.97335E-003	3.59960E-001	-1.13016E+000	3.57660E+000	10	...........
	31	0.426667	8.35950E-001	5.99138E-003	0.00000E+000	5.00849E-003	3.59960E-001	-1.13596E+000	3.57660E+000	10	...........
	32	0.44	8.42239E-001	5.99380E-003	0.00000E+000	5.04822E-003	3.59960E-001	-1.13777E+000	3.57660E+000	10	...........
	33	0.453333	8.48468E-001	5.99258E-003	0.00000E+000	5.08451E-003	3.59960E-001	-1.12978E+000	3.57660E+000	10	...........
	34	0.466667	8.54724E-001	5.99252E-003	0.00000E+000	5.12195E-003	3.59960E-001	-1.13626E+000	3.57660E+000	10	...........
	35	0.48	8.60984E-001	5.99230E-003	0.00000E+000	5.15927E-003	3.59960E-001	-1.13797E+000	3.57660E+000	10	...........
	36	0.493333	8.67189E-001	5.99266E-003	0.00000E+000	5.19677E-003	3.59960E-001	-1.12995E+000	3.57660E+000	10	...........
	37	0.506667	8.73400E-001	5.99692E-003	0.00000E+000	5.23771E-003	3.59960E-001	-1.13620E+000	3.57660E+000	10	...........
	38	0.52	8.79563E-001	5.99290E-003	0.00000E+000	5.27114E-003	3.59960E-001	-1.13742E+000	3.57660E+000	10	...........
	39	0.533333	8.85722E-001	5.99936E-003	0.00000E+000	5.31376E-003	3.59960E-001	-1.12968E+000	3.57660E+000	10	...........
	40	0.546667	8.91800E-001	5.99243E-003	0.00000E+000	5.34405E-003	3.59960E-001	-1.13608E+000	3.57660E+000	10	...........
	41	0.56	8.97960E-001	5.99174E-003	0.00000E+000	5.38034E-003	3.59960E-001	-1.13678E+000	3.57660E+000	10	...........
	42	0.573333	9.04011E-001	5.99611E-003	0.00000E+000	5.42055E-003	3.59960E-001	-1.12895E+000	3.57660E+000	10	...........
	43	0.586667	9.10043E-001	5.98906E-003	0.00000E+000	5.45030E-003	3.59960E-001	-1.13579E+000	3.57660E+000	10	...........
	44	0.6	9.16060E-001	5.99605E-003	0.00000E+000	5.49275E-003	3.59960E-001	-1.13695E+000	3.57660E+000	10	...........
	45	0.613333	9.22104E-001	5.99381E-003	0.00000E+000	5.52692E-003	3.59960E-001	-1.12939E+000	3.57660E+000	10	...........
	46	0.626667	9.28062E-001	5.99573E-003	0.00000E+000	5.56441E-003	3.59960E-001	-1.13592E+000	3.57660E+000	10	...........
	47	0.64	9.33983E-001	5.99264E-003	0.00000E+000	5.59703E-003	3.59960E-001	-1.13647E+000	3.57660E+000	10	...........
	48	0.653333	9.39867E-001	5.99426E-003	0.00000E+000	5.63381E-003	3.59960E-001	-1.12899E+000	3.57660E+000	10	...........
	49	0.666667	9.45678E-001	5.99656E-003	0.00000E+000	5.67081E-003	3.59960E-001	-1.13613E+000	3.57660E+000	10	...........
	50	0.68	9.51476E-001	5.99396E-003	0.00000E+000	5.70311E-003	3.59960E-001	-1.13675E+000	3.57660E+000	10	...........
	51	0.693333	9.57264E-001	5.99209E-003	0.00000E+000	5.73602E-003	3.59960E-001	-1.12898E+000	3.57660E+000	10	...........
	52	0.706667	9.62970E-001	5.99437E-003	0.00000E+000	5.77240E-003	3.59960E-001	-1.13579E+000	3.57660E+000	10	...........
	53	0.72	9.68669E-001	5.99681E-003	0.00000E+000	5.80892E-003	3.59960E-001	-1.13645E+000	3.57660E+000	10	...........
	54	0.733333	9.74357E-001	5.99701E-003	0.00000E+000	5.84323E-003	3.59960E-001	-1.12909E+000	3.57660E+000	10	...........
	55	0.746667	9.79940E-001	5.99586E-003	0.00000E+000	5.87558E-003	3.59960E-001	-1.13621E+000	3.57660E+000	10	...........
	56	0.76	9.85484E-001	5.99607E-003	0.00000E+000	5.90902E-003	3.59960E-001	-1.13614E+000	3.57660E+000	10	...........
	57	0.773333	9.90997E-001	5.99373E-003	0.00000E+000	5.93977E-003	3.59960E-001	-1.12883E+000	3.57660E+000	10	...........
	58	0.786667	9.96469E-001	5.98964E-003	0.00000E+000	5.96849E-003	3.59960E-001	-1.13619E+000	3.57741E+000	10	...........
	59	0.79	9.99854E-001	5.99646E-003	0.00000E+000	5.99559E-003	3.59960E-001	-1.11980E+000	3.57790E+000	10	...........
STARTTIMEOFFSET	QUANT	748.5134	Start Time Offset (s)