File: Data/CV_CRGO300517_1/PWRCCD_CRGO300517_1/CHARGE_DISCHARGE/CHARGE_#862.DTA
EXPLAIN
TAG	PWR800_CHARGE
TITLE	LABEL	PWR Cyclic Charge Discharge (Cell) - Charge Step	Test &Identifier
DATE	LABEL	22-6-2017	Date
TIME	LABEL	16:09:34	Time
NOTES	NOTES	3	&Notes...
	supercap test cell
	0.6mg
	6M KOH
PSTAT	PSTAT	IFC5000-01520	Potentiostat
CAPACITY	QUANT	1.00000E-003	Capacity (A-hr)
CELLTYPE	SELECTOR	1	&Cell Type
WORKINGCONNECTION	SELECTOR	0	&Working Lead
MAXCHARGETIME	VARIABLEANDUNITS	1.00000E+002	s	1.00000E+002	second(s)	Max &Charge Time
CHARGECURRENT	QUANT	6.00000E-003	&Charge Current (A)
VOLTAGEFINISH	TWOPARAM	F	1.00000E-003	3.60000E+003	&Voltage Finish	 I (A) < 	Max Time(s)
SAMPLETIME	QUANT	1.00000E-002	Sa&mple Period (s)
CHARGESTOPAT1	MULTIPARAM	4	1.00000E+000	Charge Stop At &1	Voltage > Limit	V
CHARGESTOPAT2	MULTIPARAM	0	0.00000E+000	Charge Stop At &2	None	N/A
AESBHCSELECTOR	TOGGLE	F	Save Both Half Cells
IRCOMP	TOGGLE	F	IR &Measure
EOC	QUANT	0	Open Circuit (V)
SEQUENCER	TOGGLE	TRUE	Run as Sequence
PSTATMODEL	IQUANT	53	Pstat Model
PSTATSECTION	LABEL	IFC5000-01520	Pstat Section
PSTATSERIALNO	LABEL	01520	Pstat Serial Number
CTRLMODE	IQUANT	0	Control Mode
ELECTROMETER	IQUANT	1	RE=0 or CS=1
IESTAB	IQUANT	0	I/E Stability
CASPEED	IQUANT	4	Control Amp Speed
CONVENTION	IQUANT	1	Current Convention
ICHRANGE	IQUANT	2	Ich Range
ICHRANGEMODE	TOGGLE	T	Ich Auto Range
ICHOFFSETENABLE	TOGGLE	F	Ich Offset Enable
ICHOFFSET	QUANT	0	Ich Offset (V)
ICHFILTER	IQUANT	1	Ich Filter
VCHRANGE	IQUANT	2	Vch Range
VCHRANGEMODE	TOGGLE	T	Vch Auto Range
VCHOFFSETENABLE	TOGGLE	F	Vch Offset Enable
VCHOFFSET	QUANT	0	Vch Offset (V)
VCHFILTER	IQUANT	1	Vch Filter
IERANGELOWERLIMIT	IQUANT	9	I/E Range Lower Limit
IERANGEMODE	TOGGLE	F	I/E AutoRange
IERANGE	IQUANT	10	I/E Range
ACHSELECT	IQUANT	1	Ach Select
ACHRANGE	IQUANT	2	Ach Range
ACHOFFSETENABLE	TOGGLE	F	Ach Offset Enable
ACHOFFSET	QUANT	0	Ach Offset (V)
ACHFILTER	IQUANT	1	Ach Filter
CABLEID	IQUANT	14	Cable ID
DCCALDATE	LABEL	20-10-2016	DC Calibration Date
ACCALDATE	LABEL	12/3/2015	AC Calibration Date
FRAMEWORKVERSION	QUANT	7.01	Framework Version
INSTRUMENTVERSION	LABEL	4.00	Instrument Version
CURVE	TABLE	54
	Pt	T	Vf	Im	Vu	Pwr	Sig	Ach	Temp	IERange	Over
	#	s	V	A	V	W	V	V	deg C	#	bits
	0	0.013333	6.51753E-001	5.99307E-003	0.00000E+000	3.90600E-003	3.59960E-001	-1.17278E+000	3.57640E+000	10	...........
	1	0.026667	6.61001E-001	5.99549E-003	0.00000E+000	3.96303E-003	3.59960E-001	-1.16372E+000	3.57640E+000	10	...........
	2	0.04	6.69499E-001	5.99292E-003	0.00000E+000	4.01225E-003	3.59960E-001	-1.16790E+000	3.57640E+000	10	...........
	3	0.053333	6.77591E-001	5.99063E-003	0.00000E+000	4.05920E-003	3.59960E-001	-1.17208E+000	3.57640E+000	10	...........
	4	0.066667	6.85329E-001	5.99426E-003	0.00000E+000	4.10804E-003	3.59960E-001	-1.16320E+000	3.57640E+000	10	...........
	5	0.08	6.92914E-001	5.99402E-003	0.00000E+000	4.15334E-003	3.59960E-001	-1.16801E+000	3.57640E+000	10	...........
	6	0.093333	7.00312E-001	5.99403E-003	0.00000E+000	4.19769E-003	3.59960E-001	-1.17223E+000	3.57640E+000	10	...........
	7	0.106667	7.07603E-001	5.99169E-003	0.00000E+000	4.23974E-003	3.59960E-001	-1.16337E+000	3.57640E+000	10	...........
	8	0.12	7.14830E-001	5.99522E-003	0.00000E+000	4.28556E-003	3.59960E-001	-1.16788E+000	3.57640E+000	10	...........
	9	0.133333	7.21985E-001	5.99055E-003	0.00000E+000	4.32509E-003	3.59960E-001	-1.17174E+000	3.57640E+000	10	...........
	10	0.146667	7.29051E-001	5.99234E-003	0.00000E+000	4.36872E-003	3.59960E-001	-1.16330E+000	3.57640E+000	10	...........
	11	0.16	7.36036E-001	5.99390E-003	0.00000E+000	4.41173E-003	3.59960E-001	-1.16800E+000	3.57640E+000	10	...........
	12	0.173333	7.43059E-001	5.99782E-003	0.00000E+000	4.45673E-003	3.59960E-001	-1.17219E+000	3.57640E+000	10	...........
	13	0.186667	7.50007E-001	5.99443E-003	0.00000E+000	4.49586E-003	3.59960E-001	-1.16284E+000	3.57640E+000	10	...........
	14	0.2	7.56885E-001	5.99486E-003	0.00000E+000	4.53742E-003	3.59960E-001	-1.16763E+000	3.57640E+000	10	...........
	15	0.213333	7.63715E-001	5.99497E-003	0.00000E+000	4.57845E-003	3.59960E-001	-1.17195E+000	3.57640E+000	10	...........
	16	0.226667	7.70555E-001	5.99308E-003	0.00000E+000	4.61800E-003	3.59960E-001	-1.16323E+000	3.57640E+000	10	...........
	17	0.24	7.77370E-001	5.99098E-003	0.00000E+000	4.65721E-003	3.59960E-001	-1.16772E+000	3.57640E+000	10	...........
	18	0.253333	7.84162E-001	5.99239E-003	0.00000E+000	4.69901E-003	3.59960E-001	-1.17138E+000	3.57640E+000	10	...........
	19	0.266667	7.90907E-001	5.99894E-003	0.00000E+000	4.74460E-003	3.59960E-001	-1.16289E+000	3.57685E+000	10	...........
	20	0.28	7.97665E-001	5.99250E-003	0.00000E+000	4.78001E-003	3.59960E-001	-1.16736E+000	3.57730E+000	10	...........
	21	0.293333	8.04344E-001	5.99212E-003	0.00000E+000	4.81973E-003	3.59960E-001	-1.17126E+000	3.57730E+000	10	...........
	22	0.306667	8.10960E-001	5.99323E-003	0.00000E+000	4.86027E-003	3.59960E-001	-1.16232E+000	3.57730E+000	10	...........
	23	0.32	8.17635E-001	5.99539E-003	0.00000E+000	4.90204E-003	3.59960E-001	-1.16707E+000	3.57730E+000	10	...........
	24	0.333333	8.24235E-001	5.99159E-003	0.00000E+000	4.93848E-003	3.59960E-001	-1.17060E+000	3.57730E+000	10	...........
	25	0.346667	8.30818E-001	5.99635E-003	0.00000E+000	4.98187E-003	3.59960E-001	-1.16228E+000	3.57730E+000	10	...........
	26	0.36	8.37374E-001	5.99148E-003	0.00000E+000	5.01711E-003	3.59960E-001	-1.16727E+000	3.57730E+000	10	...........
	27	0.373333	8.43963E-001	5.99359E-003	0.00000E+000	5.05837E-003	3.59960E-001	-1.17084E+000	3.57730E+000	10	...........
	28	0.386667	8.50467E-001	5.99019E-003	0.00000E+000	5.09446E-003	3.59960E-001	-1.16201E+000	3.57730E+000	10	...........
	29	0.4	8.56976E-001	5.99346E-003	0.00000E+000	5.13625E-003	3.59960E-001	-1.16685E+000	3.57730E+000	10	...........
	30	0.413333	8.63430E-001	5.99473E-003	0.00000E+000	5.17603E-003	3.59960E-001	-1.17080E+000	3.57730E+000	10	...........
	31	0.426667	8.69906E-001	5.99447E-003	0.00000E+000	5.21462E-003	3.59960E-001	-1.16208E+000	3.57730E+000	10	...........
	32	0.44	8.76346E-001	5.99275E-003	0.00000E+000	5.25172E-003	3.59960E-001	-1.16702E+000	3.57730E+000	10	...........
	33	0.453333	8.82756E-001	5.99397E-003	0.00000E+000	5.29121E-003	3.59960E-001	-1.17051E+000	3.57730E+000	10	...........
	34	0.466667	8.89134E-001	5.99301E-003	0.00000E+000	5.32859E-003	3.59960E-001	-1.16192E+000	3.57730E+000	10	...........
	35	0.48	8.95417E-001	5.99021E-003	0.00000E+000	5.36374E-003	3.59960E-001	-1.16696E+000	3.57730E+000	10	...........
	36	0.493333	9.01690E-001	5.98828E-003	0.00000E+000	5.39958E-003	3.59960E-001	-1.17076E+000	3.57730E+000	10	...........
	37	0.506667	9.07937E-001	5.98916E-003	0.00000E+000	5.43778E-003	3.59960E-001	-1.16204E+000	3.57730E+000	10	...........
	38	0.52	9.14111E-001	5.99161E-003	0.00000E+000	5.47700E-003	3.59960E-001	-1.16686E+000	3.57730E+000	10	...........
	39	0.533333	9.20343E-001	5.99900E-003	0.00000E+000	5.52114E-003	3.59960E-001	-1.17061E+000	3.57730E+000	10	...........
	40	0.546667	9.26477E-001	5.99229E-003	0.00000E+000	5.55172E-003	3.59960E-001	-1.16197E+000	3.57730E+000	10	...........
	41	0.56	9.32579E-001	5.99680E-003	0.00000E+000	5.59249E-003	3.59960E-001	-1.16722E+000	3.57730E+000	10	...........
	42	0.573333	9.38558E-001	5.99232E-003	0.00000E+000	5.62414E-003	3.59960E-001	-1.17055E+000	3.57730E+000	10	...........
	43	0.586667	9.44562E-001	5.99310E-003	0.00000E+000	5.66086E-003	3.59960E-001	-1.16175E+000	3.57730E+000	10	...........
	44	0.6	9.50538E-001	5.99526E-003	0.00000E+000	5.69873E-003	3.59960E-001	-1.16665E+000	3.57730E+000	10	...........
	45	0.613333	9.56425E-001	5.99656E-003	0.00000E+000	5.73526E-003	3.59960E-001	-1.17012E+000	3.57730E+000	10	...........
	46	0.626667	9.62299E-001	5.99243E-003	0.00000E+000	5.76650E-003	3.59960E-001	-1.16170E+000	3.57730E+000	10	...........
	47	0.64	9.68093E-001	5.99601E-003	0.00000E+000	5.80470E-003	3.59960E-001	-1.16667E+000	3.57730E+000	10	...........
	48	0.653333	9.73916E-001	6.00001E-003	0.00000E+000	5.84350E-003	3.59960E-001	-1.16985E+000	3.57730E+000	10	...........
	49	0.666667	9.79599E-001	5.99372E-003	0.00000E+000	5.87144E-003	3.59960E-001	-1.16143E+000	3.57730E+000	10	...........
	50	0.68	9.85247E-001	5.99317E-003	0.00000E+000	5.90475E-003	3.59960E-001	-1.16667E+000	3.57730E+000	10	...........
	51	0.693333	9.90867E-001	5.99067E-003	0.00000E+000	5.93596E-003	3.59960E-001	-1.16994E+000	3.57730E+000	10	...........
	52	0.706667	9.96420E-001	5.99535E-003	0.00000E+000	5.97388E-003	3.59960E-001	-1.16136E+000	3.57730E+000	10	...........
	53	0.71	9.99874E-001	5.98966E-003	0.00000E+000	5.98891E-003	3.59960E-001	-1.17647E+000	3.57730E+000	10	...........
STARTTIMEOFFSET	QUANT	1392.456	Start Time Offset (s)