File: Data/CV_CRGO300517_1/PWRCCD_CRGO300517_1/CHARGE_DISCHARGE/CHARGE_#607.DTA
EXPLAIN
TAG	PWR800_CHARGE
TITLE	LABEL	PWR Cyclic Charge Discharge (Cell) - Charge Step	Test &Identifier
DATE	LABEL	22-6-2017	Date
TIME	LABEL	16:00:02	Time
NOTES	NOTES	3	&Notes...
	supercap test cell
	0.6mg
	6M KOH
PSTAT	PSTAT	IFC5000-01520	Potentiostat
CAPACITY	QUANT	1.00000E-003	Capacity (A-hr)
CELLTYPE	SELECTOR	1	&Cell Type
WORKINGCONNECTION	SELECTOR	0	&Working Lead
MAXCHARGETIME	VARIABLEANDUNITS	1.00000E+002	s	1.00000E+002	second(s)	Max &Charge Time
CHARGECURRENT	QUANT	6.00000E-003	&Charge Current (A)
VOLTAGEFINISH	TWOPARAM	F	1.00000E-003	3.60000E+003	&Voltage Finish	 I (A) < 	Max Time(s)
SAMPLETIME	QUANT	1.00000E-002	Sa&mple Period (s)
CHARGESTOPAT1	MULTIPARAM	4	1.00000E+000	Charge Stop At &1	Voltage > Limit	V
CHARGESTOPAT2	MULTIPARAM	0	0.00000E+000	Charge Stop At &2	None	N/A
AESBHCSELECTOR	TOGGLE	F	Save Both Half Cells
IRCOMP	TOGGLE	F	IR &Measure
EOC	QUANT	0	Open Circuit (V)
SEQUENCER	TOGGLE	TRUE	Run as Sequence
PSTATMODEL	IQUANT	53	Pstat Model
PSTATSECTION	LABEL	IFC5000-01520	Pstat Section
PSTATSERIALNO	LABEL	01520	Pstat Serial Number
CTRLMODE	IQUANT	0	Control Mode
ELECTROMETER	IQUANT	1	RE=0 or CS=1
IESTAB	IQUANT	0	I/E Stability
CASPEED	IQUANT	4	Control Amp Speed
CONVENTION	IQUANT	1	Current Convention
ICHRANGE	IQUANT	2	Ich Range
ICHRANGEMODE	TOGGLE	T	Ich Auto Range
ICHOFFSETENABLE	TOGGLE	F	Ich Offset Enable
ICHOFFSET	QUANT	0	Ich Offset (V)
ICHFILTER	IQUANT	1	Ich Filter
VCHRANGE	IQUANT	2	Vch Range
VCHRANGEMODE	TOGGLE	T	Vch Auto Range
VCHOFFSETENABLE	TOGGLE	F	Vch Offset Enable
VCHOFFSET	QUANT	0	Vch Offset (V)
VCHFILTER	IQUANT	1	Vch Filter
IERANGELOWERLIMIT	IQUANT	9	I/E Range Lower Limit
IERANGEMODE	TOGGLE	F	I/E AutoRange
IERANGE	IQUANT	10	I/E Range
ACHSELECT	IQUANT	1	Ach Select
ACHRANGE	IQUANT	2	Ach Range
ACHOFFSETENABLE	TOGGLE	F	Ach Offset Enable
ACHOFFSET	QUANT	0	Ach Offset (V)
ACHFILTER	IQUANT	1	Ach Filter
CABLEID	IQUANT	14	Cable ID
DCCALDATE	LABEL	20-10-2016	DC Calibration Date
ACCALDATE	LABEL	12/3/2015	AC Calibration Date
FRAMEWORKVERSION	QUANT	7.01	Framework Version
INSTRUMENTVERSION	LABEL	4.00	Instrument Version
CURVE	TABLE	57
	Pt	T	Vf	Im	Vu	Pwr	Sig	Ach	Temp	IERange	Over
	#	s	V	A	V	W	V	V	deg C	#	bits
	0	0.013333	6.38538E-001	5.99660E-003	0.00000E+000	3.82905E-003	3.59960E-001	-1.14600E+000	3.57680E+000	10	...........
	1	0.026667	6.47564E-001	5.99020E-003	0.00000E+000	3.87904E-003	3.59960E-001	-1.15168E+000	3.57680E+000	10	...........
	2	0.04	6.55844E-001	5.99028E-003	0.00000E+000	3.92869E-003	3.59960E-001	-1.15398E+000	3.57680E+000	10	...........
	3	0.053333	6.63685E-001	5.99909E-003	0.00000E+000	3.98150E-003	3.59960E-001	-1.14618E+000	3.57680E+000	10	...........
	4	0.066667	6.71279E-001	5.99796E-003	0.00000E+000	4.02631E-003	3.59960E-001	-1.15171E+000	3.57680E+000	10	...........
	5	0.08	6.78625E-001	5.99403E-003	0.00000E+000	4.06770E-003	3.59960E-001	-1.15421E+000	3.57680E+000	10	...........
	6	0.093333	6.85832E-001	5.98714E-003	0.00000E+000	4.10617E-003	3.59960E-001	-1.14589E+000	3.57680E+000	10	...........
	7	0.106667	6.92957E-001	5.99184E-003	0.00000E+000	4.15209E-003	3.59960E-001	-1.15131E+000	3.57680E+000	10	...........
	8	0.12	6.99967E-001	5.99549E-003	0.00000E+000	4.19664E-003	3.59960E-001	-1.15441E+000	3.57680E+000	10	...........
	9	0.133333	7.06928E-001	5.98995E-003	0.00000E+000	4.23447E-003	3.59960E-001	-1.14616E+000	3.57680E+000	10	...........
	10	0.146667	7.13781E-001	5.99033E-003	0.00000E+000	4.27578E-003	3.59960E-001	-1.15124E+000	3.57680E+000	10	...........
	11	0.16	7.20697E-001	5.99099E-003	0.00000E+000	4.31769E-003	3.59960E-001	-1.15441E+000	3.57680E+000	10	...........
	12	0.173333	7.27477E-001	5.98897E-003	0.00000E+000	4.35684E-003	3.59960E-001	-1.14578E+000	3.57680E+000	10	...........
	13	0.186667	7.34218E-001	5.99608E-003	0.00000E+000	4.40243E-003	3.59960E-001	-1.15104E+000	3.57680E+000	10	...........
	14	0.2	7.40969E-001	5.99161E-003	0.00000E+000	4.43960E-003	3.59960E-001	-1.15476E+000	3.57680E+000	10	...........
	15	0.213333	7.47662E-001	5.99613E-003	0.00000E+000	4.48308E-003	3.59960E-001	-1.14563E+000	3.57680E+000	10	...........
	16	0.226667	7.54338E-001	5.98872E-003	0.00000E+000	4.51752E-003	3.59960E-001	-1.15034E+000	3.57680E+000	10	...........
	17	0.24	7.60994E-001	5.99207E-003	0.00000E+000	4.55993E-003	3.59960E-001	-1.15424E+000	3.57680E+000	10	...........
	18	0.253333	7.67587E-001	5.99575E-003	0.00000E+000	4.60226E-003	3.59960E-001	-1.14574E+000	3.57680E+000	10	...........
	19	0.266667	7.74217E-001	5.99206E-003	0.00000E+000	4.63915E-003	3.59960E-001	-1.15049E+000	3.57680E+000	10	...........
	20	0.28	7.80797E-001	5.99357E-003	0.00000E+000	4.67976E-003	3.59960E-001	-1.15429E+000	3.57680E+000	10	...........
	21	0.293333	7.87353E-001	5.99811E-003	0.00000E+000	4.72263E-003	3.59960E-001	-1.14548E+000	3.57680E+000	10	...........
	22	0.306667	7.93919E-001	5.99476E-003	0.00000E+000	4.75935E-003	3.59960E-001	-1.15013E+000	3.57680E+000	10	...........
	23	0.32	8.00463E-001	5.99517E-003	0.00000E+000	4.79891E-003	3.59960E-001	-1.15446E+000	3.57680E+000	10	...........
	24	0.333333	8.06965E-001	5.99598E-003	0.00000E+000	4.83855E-003	3.59960E-001	-1.14569E+000	3.57680E+000	10	...........
	25	0.346667	8.13431E-001	5.99237E-003	0.00000E+000	4.87438E-003	3.59960E-001	-1.14990E+000	3.57680E+000	10	...........
	26	0.36	8.19949E-001	5.99385E-003	0.00000E+000	4.91465E-003	3.59960E-001	-1.15437E+000	3.57680E+000	10	...........
	27	0.373333	8.26424E-001	5.99463E-003	0.00000E+000	4.95410E-003	3.59960E-001	-1.14540E+000	3.57680E+000	10	...........
	28	0.386667	8.32811E-001	5.99583E-003	0.00000E+000	4.99339E-003	3.59960E-001	-1.14970E+000	3.57680E+000	10	...........
	29	0.4	8.39226E-001	5.98812E-003	0.00000E+000	5.02538E-003	3.59960E-001	-1.15461E+000	3.57680E+000	10	...........
	30	0.413333	8.45636E-001	5.99222E-003	0.00000E+000	5.06723E-003	3.59960E-001	-1.14527E+000	3.57680E+000	10	...........
	31	0.426667	8.52044E-001	5.99696E-003	0.00000E+000	5.10968E-003	3.59960E-001	-1.14933E+000	3.57680E+000	10	...........
	32	0.44	8.58419E-001	5.99350E-003	0.00000E+000	5.14493E-003	3.59960E-001	-1.15477E+000	3.57680E+000	10	...........
	33	0.453333	8.64726E-001	5.99086E-003	0.00000E+000	5.18046E-003	3.59960E-001	-1.14547E+000	3.57680E+000	10	...........
	34	0.466667	8.71068E-001	5.99350E-003	0.00000E+000	5.22074E-003	3.59960E-001	-1.14942E+000	3.57680E+000	10	...........
	35	0.48	8.77360E-001	5.99547E-003	0.00000E+000	5.26019E-003	3.59960E-001	-1.15484E+000	3.57680E+000	10	...........
	36	0.493333	8.83613E-001	5.99294E-003	0.00000E+000	5.29544E-003	3.59960E-001	-1.14535E+000	3.57680E+000	10	...........
	37	0.506667	8.89827E-001	5.99161E-003	0.00000E+000	5.33150E-003	3.59960E-001	-1.14920E+000	3.57680E+000	10	...........
	38	0.52	8.96036E-001	5.99152E-003	0.00000E+000	5.36861E-003	3.59960E-001	-1.15509E+000	3.57680E+000	10	...........
	39	0.533333	9.02204E-001	5.99454E-003	0.00000E+000	5.40830E-003	3.59960E-001	-1.14516E+000	3.57680E+000	10	...........
	40	0.546667	9.08329E-001	5.99288E-003	0.00000E+000	5.44351E-003	3.59960E-001	-1.14874E+000	3.57680E+000	10	...........
	41	0.56	9.14430E-001	6.00081E-003	0.00000E+000	5.48732E-003	3.59960E-001	-1.15456E+000	3.57680E+000	10	...........
	42	0.573333	9.20566E-001	5.99438E-003	0.00000E+000	5.51822E-003	3.59960E-001	-1.14491E+000	3.57680E+000	10	...........
	43	0.586667	9.26667E-001	5.99338E-003	0.00000E+000	5.55387E-003	3.59960E-001	-1.14859E+000	3.57680E+000	10	...........
	44	0.6	9.32597E-001	5.99846E-003	0.00000E+000	5.59415E-003	3.59960E-001	-1.15496E+000	3.57680E+000	10	...........
	45	0.613333	9.38618E-001	5.99374E-003	0.00000E+000	5.62583E-003	3.59960E-001	-1.14516E+000	3.57680E+000	10	...........
	46	0.626667	9.44532E-001	5.99134E-003	0.00000E+000	5.65901E-003	3.59960E-001	-1.14849E+000	3.57680E+000	10	...........
	47	0.64	9.50438E-001	5.99219E-003	0.00000E+000	5.69520E-003	3.59960E-001	-1.15497E+000	3.57680E+000	10	...........
	48	0.653333	9.56273E-001	5.99491E-003	0.00000E+000	5.73277E-003	3.59960E-001	-1.14516E+000	3.57680E+000	10	...........
	49	0.666667	9.62069E-001	5.99188E-003	0.00000E+000	5.76460E-003	3.59960E-001	-1.14839E+000	3.57680E+000	10	...........
	50	0.68	9.67811E-001	5.99980E-003	0.00000E+000	5.80667E-003	3.59960E-001	-1.15513E+000	3.57680E+000	10	...........
	51	0.693333	9.73558E-001	5.99319E-003	0.00000E+000	5.83471E-003	3.59960E-001	-1.14477E+000	3.57680E+000	10	...........
	52	0.706667	9.79204E-001	5.99511E-003	0.00000E+000	5.87043E-003	3.59960E-001	-1.14791E+000	3.57680E+000	10	...........
	53	0.72	9.84842E-001	5.99605E-003	0.00000E+000	5.90517E-003	3.59960E-001	-1.15496E+000	3.57680E+000	10	...........
	54	0.733333	9.90407E-001	5.99762E-003	0.00000E+000	5.94008E-003	3.59960E-001	-1.14503E+000	3.57680E+000	10	...........
	55	0.746667	9.95910E-001	5.99248E-003	0.00000E+000	5.96797E-003	3.59960E-001	-1.14799E+000	3.57680E+000	10	...........
	56	0.751667	9.99711E-001	5.98904E-003	0.00000E+000	5.98730E-003	3.59960E-001	-1.14991E+000	3.57680E+000	10	...........
STARTTIMEOFFSET	QUANT	1021.425	Start Time Offset (s)