File: Data/CV_CRGO300517_1/PWRCCD_CRGO300517_1/CHARGE_DISCHARGE/CHARGE_#776.DTA
EXPLAIN
TAG	PWR800_CHARGE
TITLE	LABEL	PWR Cyclic Charge Discharge (Cell) - Charge Step	Test &Identifier
DATE	LABEL	22-6-2017	Date
TIME	LABEL	16:06:23	Time
NOTES	NOTES	3	&Notes...
	supercap test cell
	0.6mg
	6M KOH
PSTAT	PSTAT	IFC5000-01520	Potentiostat
CAPACITY	QUANT	1.00000E-003	Capacity (A-hr)
CELLTYPE	SELECTOR	1	&Cell Type
WORKINGCONNECTION	SELECTOR	0	&Working Lead
MAXCHARGETIME	VARIABLEANDUNITS	1.00000E+002	s	1.00000E+002	second(s)	Max &Charge Time
CHARGECURRENT	QUANT	6.00000E-003	&Charge Current (A)
VOLTAGEFINISH	TWOPARAM	F	1.00000E-003	3.60000E+003	&Voltage Finish	 I (A) < 	Max Time(s)
SAMPLETIME	QUANT	1.00000E-002	Sa&mple Period (s)
CHARGESTOPAT1	MULTIPARAM	4	1.00000E+000	Charge Stop At &1	Voltage > Limit	V
CHARGESTOPAT2	MULTIPARAM	0	0.00000E+000	Charge Stop At &2	None	N/A
AESBHCSELECTOR	TOGGLE	F	Save Both Half Cells
IRCOMP	TOGGLE	F	IR &Measure
EOC	QUANT	0	Open Circuit (V)
SEQUENCER	TOGGLE	TRUE	Run as Sequence
PSTATMODEL	IQUANT	53	Pstat Model
PSTATSECTION	LABEL	IFC5000-01520	Pstat Section
PSTATSERIALNO	LABEL	01520	Pstat Serial Number
CTRLMODE	IQUANT	0	Control Mode
ELECTROMETER	IQUANT	1	RE=0 or CS=1
IESTAB	IQUANT	0	I/E Stability
CASPEED	IQUANT	4	Control Amp Speed
CONVENTION	IQUANT	1	Current Convention
ICHRANGE	IQUANT	2	Ich Range
ICHRANGEMODE	TOGGLE	T	Ich Auto Range
ICHOFFSETENABLE	TOGGLE	F	Ich Offset Enable
ICHOFFSET	QUANT	0	Ich Offset (V)
ICHFILTER	IQUANT	1	Ich Filter
VCHRANGE	IQUANT	2	Vch Range
VCHRANGEMODE	TOGGLE	T	Vch Auto Range
VCHOFFSETENABLE	TOGGLE	F	Vch Offset Enable
VCHOFFSET	QUANT	0	Vch Offset (V)
VCHFILTER	IQUANT	1	Vch Filter
IERANGELOWERLIMIT	IQUANT	9	I/E Range Lower Limit
IERANGEMODE	TOGGLE	F	I/E AutoRange
IERANGE	IQUANT	10	I/E Range
ACHSELECT	IQUANT	1	Ach Select
ACHRANGE	IQUANT	2	Ach Range
ACHOFFSETENABLE	TOGGLE	F	Ach Offset Enable
ACHOFFSET	QUANT	0	Ach Offset (V)
ACHFILTER	IQUANT	1	Ach Filter
CABLEID	IQUANT	14	Cable ID
DCCALDATE	LABEL	20-10-2016	DC Calibration Date
ACCALDATE	LABEL	12/3/2015	AC Calibration Date
FRAMEWORKVERSION	QUANT	7.01	Framework Version
INSTRUMENTVERSION	LABEL	4.00	Instrument Version
CURVE	TABLE	55
	Pt	T	Vf	Im	Vu	Pwr	Sig	Ach	Temp	IERange	Over
	#	s	V	A	V	W	V	V	deg C	#	bits
	0	0.013333	6.46810E-001	5.99351E-003	0.00000E+000	3.87666E-003	3.59960E-001	-1.16563E+000	3.57780E+000	10	...........
	1	0.026667	6.55994E-001	5.99132E-003	0.00000E+000	3.93027E-003	3.59960E-001	-1.17097E+000	3.57780E+000	10	...........
	2	0.04	6.64471E-001	5.99257E-003	0.00000E+000	3.98189E-003	3.59960E-001	-1.16126E+000	3.57780E+000	10	...........
	3	0.053333	6.72469E-001	5.99535E-003	0.00000E+000	4.03168E-003	3.59960E-001	-1.16538E+000	3.57780E+000	10	...........
	4	0.066667	6.80170E-001	5.99098E-003	0.00000E+000	4.07488E-003	3.59960E-001	-1.17095E+000	3.57780E+000	10	...........
	5	0.08	6.87694E-001	5.99352E-003	0.00000E+000	4.12171E-003	3.59960E-001	-1.16141E+000	3.57780E+000	10	...........
	6	0.093333	6.95049E-001	5.99128E-003	0.00000E+000	4.16423E-003	3.59960E-001	-1.16522E+000	3.57780E+000	10	...........
	7	0.106667	7.02339E-001	5.99591E-003	0.00000E+000	4.21116E-003	3.59960E-001	-1.17065E+000	3.57780E+000	10	...........
	8	0.12	7.09495E-001	5.99706E-003	0.00000E+000	4.25488E-003	3.59960E-001	-1.16120E+000	3.57780E+000	10	...........
	9	0.133333	7.16605E-001	5.99592E-003	0.00000E+000	4.29671E-003	3.59960E-001	-1.16563E+000	3.57780E+000	10	...........
	10	0.146667	7.23684E-001	5.99239E-003	0.00000E+000	4.33660E-003	3.59960E-001	-1.17107E+000	3.57780E+000	10	...........
	11	0.16	7.30622E-001	5.99486E-003	0.00000E+000	4.37997E-003	3.59960E-001	-1.16120E+000	3.57780E+000	10	...........
	12	0.173333	7.37549E-001	5.99684E-003	0.00000E+000	4.42296E-003	3.59960E-001	-1.16538E+000	3.57780E+000	10	...........
	13	0.186667	7.44407E-001	5.99427E-003	0.00000E+000	4.46218E-003	3.59960E-001	-1.17065E+000	3.57780E+000	10	...........
	14	0.2	7.51218E-001	5.99677E-003	0.00000E+000	4.50489E-003	3.59960E-001	-1.16116E+000	3.57780E+000	10	...........
	15	0.213333	7.58056E-001	5.99611E-003	0.00000E+000	4.54538E-003	3.59960E-001	-1.16524E+000	3.57780E+000	10	...........
	16	0.226667	7.64818E-001	5.99363E-003	0.00000E+000	4.58404E-003	3.59960E-001	-1.16997E+000	3.57780E+000	10	...........
	17	0.24	7.71602E-001	5.99402E-003	0.00000E+000	4.62500E-003	3.59960E-001	-1.16067E+000	3.57780E+000	10	...........
	18	0.253333	7.78317E-001	5.99782E-003	0.00000E+000	4.66820E-003	3.59960E-001	-1.16521E+000	3.57780E+000	10	...........
	19	0.266667	7.85017E-001	5.98707E-003	0.00000E+000	4.69996E-003	3.59960E-001	-1.17039E+000	3.57780E+000	10	...........
	20	0.28	7.91741E-001	5.99328E-003	0.00000E+000	4.74512E-003	3.59960E-001	-1.16076E+000	3.57780E+000	10	...........
	21	0.293333	7.98418E-001	5.99483E-003	0.00000E+000	4.78639E-003	3.59960E-001	-1.16503E+000	3.57780E+000	10	...........
	22	0.306667	8.05006E-001	5.99577E-003	0.00000E+000	4.82663E-003	3.59960E-001	-1.16984E+000	3.57780E+000	10	...........
	23	0.32	8.11621E-001	5.98894E-003	0.00000E+000	4.86075E-003	3.59960E-001	-1.16064E+000	3.57780E+000	10	...........
	24	0.333333	8.18241E-001	5.99312E-003	0.00000E+000	4.90382E-003	3.59960E-001	-1.16524E+000	3.57780E+000	10	...........
	25	0.346667	8.24830E-001	5.99479E-003	0.00000E+000	4.94469E-003	3.59960E-001	-1.17002E+000	3.57780E+000	10	...........
	26	0.36	8.31352E-001	5.98947E-003	0.00000E+000	4.97936E-003	3.59960E-001	-1.16043E+000	3.57780E+000	10	...........
	27	0.373333	8.37864E-001	5.99642E-003	0.00000E+000	5.02418E-003	3.59960E-001	-1.16502E+000	3.57780E+000	10	...........
	28	0.386667	8.44438E-001	5.99570E-003	0.00000E+000	5.06300E-003	3.59960E-001	-1.16991E+000	3.57780E+000	10	...........
	29	0.4	8.50903E-001	5.99476E-003	0.00000E+000	5.10096E-003	3.59960E-001	-1.16063E+000	3.57780E+000	10	...........
	30	0.413333	8.57370E-001	5.99327E-003	0.00000E+000	5.13845E-003	3.59960E-001	-1.16518E+000	3.57780E+000	10	...........
	31	0.426667	8.63765E-001	5.99090E-003	0.00000E+000	5.17473E-003	3.59960E-001	-1.16968E+000	3.57780E+000	10	...........
	32	0.44	8.70236E-001	5.99449E-003	0.00000E+000	5.21662E-003	3.59960E-001	-1.16060E+000	3.57780E+000	10	...........
	33	0.453333	8.76562E-001	5.99758E-003	0.00000E+000	5.25725E-003	3.59960E-001	-1.16519E+000	3.57780E+000	10	...........
	34	0.466667	8.82909E-001	5.99104E-003	0.00000E+000	5.28954E-003	3.59960E-001	-1.16992E+000	3.57780E+000	10	...........
	35	0.48	8.89219E-001	5.99104E-003	0.00000E+000	5.32735E-003	3.59960E-001	-1.16054E+000	3.57780E+000	10	...........
	36	0.493333	8.95508E-001	5.99269E-003	0.00000E+000	5.36650E-003	3.59960E-001	-1.16507E+000	3.57780E+000	10	...........
	37	0.506667	9.01754E-001	5.99369E-003	0.00000E+000	5.40483E-003	3.59960E-001	-1.16938E+000	3.57780E+000	10	...........
	38	0.52	9.07992E-001	5.99421E-003	0.00000E+000	5.44270E-003	3.59960E-001	-1.16052E+000	3.57780E+000	10	...........
	39	0.533333	9.14173E-001	5.99175E-003	0.00000E+000	5.47750E-003	3.59960E-001	-1.16518E+000	3.57780E+000	10	...........
	40	0.546667	9.20336E-001	5.99314E-003	0.00000E+000	5.51571E-003	3.59960E-001	-1.16919E+000	3.57780E+000	10	...........
	41	0.56	9.26489E-001	5.99140E-003	0.00000E+000	5.55097E-003	3.59960E-001	-1.15981E+000	3.57780E+000	10	...........
	42	0.573333	9.32579E-001	5.99720E-003	0.00000E+000	5.59287E-003	3.59960E-001	-1.16467E+000	3.57780E+000	10	...........
	43	0.586667	9.38566E-001	5.99080E-003	0.00000E+000	5.62276E-003	3.59960E-001	-1.16911E+000	3.57780E+000	10	...........
	44	0.6	9.44561E-001	5.99598E-003	0.00000E+000	5.66357E-003	3.59960E-001	-1.16015E+000	3.57780E+000	10	...........
	45	0.613333	9.50472E-001	5.99864E-003	0.00000E+000	5.70154E-003	3.59960E-001	-1.16498E+000	3.57780E+000	10	...........
	46	0.626667	9.56345E-001	5.99231E-003	0.00000E+000	5.73072E-003	3.59960E-001	-1.16905E+000	3.57795E+000	10	...........
	47	0.64	9.62161E-001	5.99577E-003	0.00000E+000	5.76890E-003	3.59960E-001	-1.16021E+000	3.57840E+000	10	...........
	48	0.653333	9.67948E-001	5.99569E-003	0.00000E+000	5.80352E-003	3.59960E-001	-1.16502E+000	3.57840E+000	10	...........
	49	0.666667	9.73760E-001	5.99525E-003	0.00000E+000	5.83794E-003	3.59960E-001	-1.16909E+000	3.57840E+000	10	...........
	50	0.68	9.79443E-001	5.99104E-003	0.00000E+000	5.86788E-003	3.59960E-001	-1.16012E+000	3.57840E+000	10	...........
	51	0.693333	9.85057E-001	5.99113E-003	0.00000E+000	5.90161E-003	3.59960E-001	-1.16496E+000	3.57840E+000	10	...........
	52	0.706667	9.90676E-001	5.99592E-003	0.00000E+000	5.94001E-003	3.59960E-001	-1.16887E+000	3.57840E+000	10	...........
	53	0.72	9.96221E-001	5.99048E-003	0.00000E+000	5.96785E-003	3.59960E-001	-1.16004E+000	3.57840E+000	10	...........
	54	0.725	9.99987E-001	5.99329E-003	0.00000E+000	5.99321E-003	3.59960E-001	-1.17462E+000	3.57840E+000	10	...........
STARTTIMEOFFSET	QUANT	1269.628	Start Time Offset (s)