File: Data/CV_CRGO300517_1/PWRCCD_CRGO300517_1/CHARGE_DISCHARGE/CHARGE_#785.DTA
EXPLAIN
TAG	PWR800_CHARGE
TITLE	LABEL	PWR Cyclic Charge Discharge (Cell) - Charge Step	Test &Identifier
DATE	LABEL	22-6-2017	Date
TIME	LABEL	16:06:43	Time
NOTES	NOTES	3	&Notes...
	supercap test cell
	0.6mg
	6M KOH
PSTAT	PSTAT	IFC5000-01520	Potentiostat
CAPACITY	QUANT	1.00000E-003	Capacity (A-hr)
CELLTYPE	SELECTOR	1	&Cell Type
WORKINGCONNECTION	SELECTOR	0	&Working Lead
MAXCHARGETIME	VARIABLEANDUNITS	1.00000E+002	s	1.00000E+002	second(s)	Max &Charge Time
CHARGECURRENT	QUANT	6.00000E-003	&Charge Current (A)
VOLTAGEFINISH	TWOPARAM	F	1.00000E-003	3.60000E+003	&Voltage Finish	 I (A) < 	Max Time(s)
SAMPLETIME	QUANT	1.00000E-002	Sa&mple Period (s)
CHARGESTOPAT1	MULTIPARAM	4	1.00000E+000	Charge Stop At &1	Voltage > Limit	V
CHARGESTOPAT2	MULTIPARAM	0	0.00000E+000	Charge Stop At &2	None	N/A
AESBHCSELECTOR	TOGGLE	F	Save Both Half Cells
IRCOMP	TOGGLE	F	IR &Measure
EOC	QUANT	0	Open Circuit (V)
SEQUENCER	TOGGLE	TRUE	Run as Sequence
PSTATMODEL	IQUANT	53	Pstat Model
PSTATSECTION	LABEL	IFC5000-01520	Pstat Section
PSTATSERIALNO	LABEL	01520	Pstat Serial Number
CTRLMODE	IQUANT	0	Control Mode
ELECTROMETER	IQUANT	1	RE=0 or CS=1
IESTAB	IQUANT	0	I/E Stability
CASPEED	IQUANT	4	Control Amp Speed
CONVENTION	IQUANT	1	Current Convention
ICHRANGE	IQUANT	2	Ich Range
ICHRANGEMODE	TOGGLE	T	Ich Auto Range
ICHOFFSETENABLE	TOGGLE	F	Ich Offset Enable
ICHOFFSET	QUANT	0	Ich Offset (V)
ICHFILTER	IQUANT	1	Ich Filter
VCHRANGE	IQUANT	2	Vch Range
VCHRANGEMODE	TOGGLE	T	Vch Auto Range
VCHOFFSETENABLE	TOGGLE	F	Vch Offset Enable
VCHOFFSET	QUANT	0	Vch Offset (V)
VCHFILTER	IQUANT	1	Vch Filter
IERANGELOWERLIMIT	IQUANT	9	I/E Range Lower Limit
IERANGEMODE	TOGGLE	F	I/E AutoRange
IERANGE	IQUANT	10	I/E Range
ACHSELECT	IQUANT	1	Ach Select
ACHRANGE	IQUANT	2	Ach Range
ACHOFFSETENABLE	TOGGLE	F	Ach Offset Enable
ACHOFFSET	QUANT	0	Ach Offset (V)
ACHFILTER	IQUANT	1	Ach Filter
CABLEID	IQUANT	14	Cable ID
DCCALDATE	LABEL	20-10-2016	DC Calibration Date
ACCALDATE	LABEL	12/3/2015	AC Calibration Date
FRAMEWORKVERSION	QUANT	7.01	Framework Version
INSTRUMENTVERSION	LABEL	4.00	Instrument Version
CURVE	TABLE	55
	Pt	T	Vf	Im	Vu	Pwr	Sig	Ach	Temp	IERange	Over
	#	s	V	A	V	W	V	V	deg C	#	bits
	0	0.013333	6.47820E-001	5.99056E-003	0.00000E+000	3.88080E-003	3.59960E-001	-1.16301E+000	3.57780E+000	10	...........
	1	0.026667	6.57041E-001	5.99438E-003	0.00000E+000	3.93855E-003	3.59960E-001	-1.17147E+000	3.57780E+000	10	...........
	2	0.04	6.65495E-001	5.99299E-003	0.00000E+000	3.98831E-003	3.59960E-001	-1.16884E+000	3.57780E+000	10	...........
	3	0.053333	6.73501E-001	5.99004E-003	0.00000E+000	4.03429E-003	3.59960E-001	-1.16299E+000	3.57780E+000	10	...........
	4	0.066667	6.81202E-001	5.98982E-003	0.00000E+000	4.08028E-003	3.59960E-001	-1.17151E+000	3.57780E+000	10	...........
	5	0.08	6.88709E-001	5.98982E-003	0.00000E+000	4.12524E-003	3.59960E-001	-1.16863E+000	3.57780E+000	10	...........
	6	0.093333	6.96090E-001	6.00084E-003	0.00000E+000	4.17713E-003	3.59960E-001	-1.16255E+000	3.57780E+000	10	...........
	7	0.106667	7.03307E-001	5.99142E-003	0.00000E+000	4.21381E-003	3.59960E-001	-1.17138E+000	3.57780E+000	10	...........
	8	0.12	7.10447E-001	5.99328E-003	0.00000E+000	4.25791E-003	3.59960E-001	-1.16815E+000	3.57780E+000	10	...........
	9	0.133333	7.17580E-001	5.99690E-003	0.00000E+000	4.30325E-003	3.59960E-001	-1.16225E+000	3.57780E+000	10	...........
	10	0.146667	7.24582E-001	5.99076E-003	0.00000E+000	4.34080E-003	3.59960E-001	-1.17109E+000	3.57780E+000	10	...........
	11	0.16	7.31535E-001	5.99138E-003	0.00000E+000	4.38290E-003	3.59960E-001	-1.16776E+000	3.57780E+000	10	...........
	12	0.173333	7.38442E-001	5.99759E-003	0.00000E+000	4.42887E-003	3.59960E-001	-1.16211E+000	3.57780E+000	10	...........
	13	0.186667	7.45365E-001	5.98676E-003	0.00000E+000	4.46232E-003	3.59960E-001	-1.17142E+000	3.57780E+000	10	...........
	14	0.2	7.52180E-001	5.99487E-003	0.00000E+000	4.50922E-003	3.59960E-001	-1.16775E+000	3.57780E+000	10	...........
	15	0.213333	7.59032E-001	5.99453E-003	0.00000E+000	4.55004E-003	3.59960E-001	-1.16209E+000	3.57780E+000	10	...........
	16	0.226667	7.65787E-001	5.99205E-003	0.00000E+000	4.58864E-003	3.59960E-001	-1.17113E+000	3.57780E+000	10	...........
	17	0.24	7.72569E-001	5.99574E-003	0.00000E+000	4.63212E-003	3.59960E-001	-1.16749E+000	3.57780E+000	10	...........
	18	0.253333	7.79345E-001	5.99867E-003	0.00000E+000	4.67504E-003	3.59960E-001	-1.16224E+000	3.57780E+000	10	...........
	19	0.266667	7.86025E-001	5.98793E-003	0.00000E+000	4.70666E-003	3.59960E-001	-1.17135E+000	3.57780E+000	10	...........
	20	0.28	7.92739E-001	5.99434E-003	0.00000E+000	4.75195E-003	3.59960E-001	-1.16736E+000	3.57780E+000	10	...........
	21	0.293333	7.99391E-001	5.99597E-003	0.00000E+000	4.79313E-003	3.59960E-001	-1.16209E+000	3.57780E+000	10	...........
	22	0.306667	8.06038E-001	5.99075E-003	0.00000E+000	4.82877E-003	3.59960E-001	-1.17137E+000	3.57780E+000	10	...........
	23	0.32	8.12660E-001	5.99665E-003	0.00000E+000	4.87324E-003	3.59960E-001	-1.16717E+000	3.57780E+000	10	...........
	24	0.333333	8.19240E-001	5.98963E-003	0.00000E+000	4.90694E-003	3.59960E-001	-1.16199E+000	3.57780E+000	10	...........
	25	0.346667	8.25820E-001	5.98859E-003	0.00000E+000	4.94549E-003	3.59960E-001	-1.17163E+000	3.57780E+000	10	...........
	26	0.36	8.32367E-001	5.98887E-003	0.00000E+000	4.98494E-003	3.59960E-001	-1.16689E+000	3.57780E+000	10	...........
	27	0.373333	8.38876E-001	5.99222E-003	0.00000E+000	5.02672E-003	3.59960E-001	-1.16150E+000	3.57780E+000	10	...........
	28	0.386667	8.45409E-001	5.98803E-003	0.00000E+000	5.06234E-003	3.59960E-001	-1.17149E+000	3.57780E+000	10	...........
	29	0.4	8.51900E-001	5.99150E-003	0.00000E+000	5.10416E-003	3.59960E-001	-1.16695E+000	3.57780E+000	10	...........
	30	0.413333	8.58378E-001	5.99674E-003	0.00000E+000	5.14747E-003	3.59960E-001	-1.16185E+000	3.57780E+000	10	...........
	31	0.426667	8.64799E-001	5.99157E-003	0.00000E+000	5.18150E-003	3.59960E-001	-1.17137E+000	3.57780E+000	10	...........
	32	0.44	8.71205E-001	5.99013E-003	0.00000E+000	5.21863E-003	3.59960E-001	-1.16615E+000	3.57780E+000	10	...........
	33	0.453333	8.77569E-001	5.99094E-003	0.00000E+000	5.25746E-003	3.59960E-001	-1.16150E+000	3.57780E+000	10	...........
	34	0.466667	8.83907E-001	5.99332E-003	0.00000E+000	5.29754E-003	3.59960E-001	-1.17142E+000	3.57780E+000	10	...........
	35	0.48	8.90228E-001	5.99367E-003	0.00000E+000	5.33573E-003	3.59960E-001	-1.16605E+000	3.57780E+000	10	...........
	36	0.493333	8.96499E-001	5.99377E-003	0.00000E+000	5.37341E-003	3.59960E-001	-1.16113E+000	3.57780E+000	10	...........
	37	0.506667	9.02732E-001	5.99333E-003	0.00000E+000	5.41037E-003	3.59960E-001	-1.17106E+000	3.57780E+000	10	...........
	38	0.52	9.09003E-001	5.99451E-003	0.00000E+000	5.44903E-003	3.59960E-001	-1.16582E+000	3.57780E+000	10	...........
	39	0.533333	9.15168E-001	5.99499E-003	0.00000E+000	5.48642E-003	3.59960E-001	-1.16124E+000	3.57780E+000	10	...........
	40	0.546667	9.21340E-001	5.99385E-003	0.00000E+000	5.52238E-003	3.59960E-001	-1.17149E+000	3.57780E+000	10	...........
	41	0.56	9.27446E-001	5.99081E-003	0.00000E+000	5.55615E-003	3.59960E-001	-1.16562E+000	3.57780E+000	10	...........
	42	0.573333	9.33476E-001	5.99434E-003	0.00000E+000	5.59557E-003	3.59960E-001	-1.16107E+000	3.57780E+000	10	...........
	43	0.586667	9.39477E-001	5.99119E-003	0.00000E+000	5.62859E-003	3.59960E-001	-1.17159E+000	3.57780E+000	10	...........
	44	0.6	9.45448E-001	5.99397E-003	0.00000E+000	5.66698E-003	3.59960E-001	-1.16570E+000	3.57780E+000	10	...........
	45	0.613333	9.51367E-001	5.99386E-003	0.00000E+000	5.70237E-003	3.59960E-001	-1.16100E+000	3.57780E+000	10	...........
	46	0.626667	9.57261E-001	5.99888E-003	0.00000E+000	5.74249E-003	3.59960E-001	-1.17146E+000	3.57780E+000	10	...........
	47	0.64	9.63080E-001	5.99265E-003	0.00000E+000	5.77141E-003	3.59960E-001	-1.16530E+000	3.57780E+000	10	...........
	48	0.653333	9.68875E-001	5.99551E-003	0.00000E+000	5.80890E-003	3.59960E-001	-1.16120E+000	3.57815E+000	10	...........
	49	0.666667	9.74643E-001	5.99287E-003	0.00000E+000	5.84091E-003	3.59960E-001	-1.17168E+000	3.57820E+000	10	...........
	50	0.68	9.80308E-001	5.98958E-003	0.00000E+000	5.87163E-003	3.59960E-001	-1.16538E+000	3.57820E+000	10	...........
	51	0.693333	9.85961E-001	5.99134E-003	0.00000E+000	5.90723E-003	3.59960E-001	-1.16095E+000	3.57820E+000	10	...........
	52	0.706667	9.91545E-001	5.99145E-003	0.00000E+000	5.94079E-003	3.59960E-001	-1.17166E+000	3.57820E+000	10	...........
	53	0.72	9.97118E-001	5.99130E-003	0.00000E+000	5.97403E-003	3.59960E-001	-1.16505E+000	3.57820E+000	10	...........
	54	0.721667	1.00020E+000	5.98753E-003	0.00000E+000	5.98876E-003	3.59960E-001	-1.17463E+000	3.57820E+000	10	...........
STARTTIMEOFFSET	QUANT	1282.583	Start Time Offset (s)