File: Data/CV_CRGO300517_1/PWRCCD_CRGO300517_1/CHARGE_DISCHARGE/CHARGE_#407.DTA
EXPLAIN
TAG	PWR800_CHARGE
TITLE	LABEL	PWR Cyclic Charge Discharge (Cell) - Charge Step	Test &Identifier
DATE	LABEL	22-6-2017	Date
TIME	LABEL	15:52:15	Time
NOTES	NOTES	3	&Notes...
	supercap test cell
	0.6mg
	6M KOH
PSTAT	PSTAT	IFC5000-01520	Potentiostat
CAPACITY	QUANT	1.00000E-003	Capacity (A-hr)
CELLTYPE	SELECTOR	1	&Cell Type
WORKINGCONNECTION	SELECTOR	0	&Working Lead
MAXCHARGETIME	VARIABLEANDUNITS	1.00000E+002	s	1.00000E+002	second(s)	Max &Charge Time
CHARGECURRENT	QUANT	6.00000E-003	&Charge Current (A)
VOLTAGEFINISH	TWOPARAM	F	1.00000E-003	3.60000E+003	&Voltage Finish	 I (A) < 	Max Time(s)
SAMPLETIME	QUANT	1.00000E-002	Sa&mple Period (s)
CHARGESTOPAT1	MULTIPARAM	4	1.00000E+000	Charge Stop At &1	Voltage > Limit	V
CHARGESTOPAT2	MULTIPARAM	0	0.00000E+000	Charge Stop At &2	None	N/A
AESBHCSELECTOR	TOGGLE	F	Save Both Half Cells
IRCOMP	TOGGLE	F	IR &Measure
EOC	QUANT	0	Open Circuit (V)
SEQUENCER	TOGGLE	TRUE	Run as Sequence
PSTATMODEL	IQUANT	53	Pstat Model
PSTATSECTION	LABEL	IFC5000-01520	Pstat Section
PSTATSERIALNO	LABEL	01520	Pstat Serial Number
CTRLMODE	IQUANT	0	Control Mode
ELECTROMETER	IQUANT	1	RE=0 or CS=1
IESTAB	IQUANT	0	I/E Stability
CASPEED	IQUANT	4	Control Amp Speed
CONVENTION	IQUANT	1	Current Convention
ICHRANGE	IQUANT	2	Ich Range
ICHRANGEMODE	TOGGLE	T	Ich Auto Range
ICHOFFSETENABLE	TOGGLE	F	Ich Offset Enable
ICHOFFSET	QUANT	0	Ich Offset (V)
ICHFILTER	IQUANT	1	Ich Filter
VCHRANGE	IQUANT	2	Vch Range
VCHRANGEMODE	TOGGLE	T	Vch Auto Range
VCHOFFSETENABLE	TOGGLE	F	Vch Offset Enable
VCHOFFSET	QUANT	0	Vch Offset (V)
VCHFILTER	IQUANT	1	Vch Filter
IERANGELOWERLIMIT	IQUANT	9	I/E Range Lower Limit
IERANGEMODE	TOGGLE	F	I/E AutoRange
IERANGE	IQUANT	10	I/E Range
ACHSELECT	IQUANT	1	Ach Select
ACHRANGE	IQUANT	2	Ach Range
ACHOFFSETENABLE	TOGGLE	F	Ach Offset Enable
ACHOFFSET	QUANT	0	Ach Offset (V)
ACHFILTER	IQUANT	1	Ach Filter
CABLEID	IQUANT	14	Cable ID
DCCALDATE	LABEL	20-10-2016	DC Calibration Date
ACCALDATE	LABEL	12/3/2015	AC Calibration Date
FRAMEWORKVERSION	QUANT	7.01	Framework Version
INSTRUMENTVERSION	LABEL	4.00	Instrument Version
CURVE	TABLE	60
	Pt	T	Vf	Im	Vu	Pwr	Sig	Ach	Temp	IERange	Over
	#	s	V	A	V	W	V	V	deg C	#	bits
	0	0.013333	6.25249E-001	5.99387E-003	0.00000E+000	3.74767E-003	3.59960E-001	-1.09593E+000	3.57680E+000	10	...........
	1	0.026667	6.33979E-001	5.99631E-003	0.00000E+000	3.80153E-003	3.59960E-001	-1.10890E+000	3.57680E+000	10	...........
	2	0.04	6.42045E-001	5.99881E-003	0.00000E+000	3.85151E-003	3.59960E-001	-1.09892E+000	3.57680E+000	10	...........
	3	0.053333	6.49669E-001	5.99183E-003	0.00000E+000	3.89271E-003	3.59960E-001	-1.09237E+000	3.57680E+000	10	...........
	4	0.066667	6.57051E-001	5.99458E-003	0.00000E+000	3.93875E-003	3.59960E-001	-1.10227E+000	3.57680E+000	10	...........
	5	0.08	6.64214E-001	5.99279E-003	0.00000E+000	3.98049E-003	3.59960E-001	-1.09156E+000	3.57680E+000	10	...........
	6	0.093333	6.71254E-001	5.99214E-003	0.00000E+000	4.02225E-003	3.59960E-001	-1.08903E+000	3.57680E+000	10	...........
	7	0.106667	6.78141E-001	5.99494E-003	0.00000E+000	4.06542E-003	3.59960E-001	-1.09772E+000	3.57680E+000	10	...........
	8	0.12	6.84986E-001	5.99512E-003	0.00000E+000	4.10657E-003	3.59960E-001	-1.08634E+000	3.57680E+000	10	...........
	9	0.133333	6.91724E-001	5.99901E-003	0.00000E+000	4.14966E-003	3.59960E-001	-1.08478E+000	3.57680E+000	10	...........
	10	0.146667	6.98356E-001	5.98799E-003	0.00000E+000	4.18175E-003	3.59960E-001	-1.09419E+000	3.57680E+000	10	...........
	11	0.16	7.05037E-001	5.99117E-003	0.00000E+000	4.22400E-003	3.59960E-001	-1.08387E+000	3.57680E+000	10	...........
	12	0.173333	7.11645E-001	5.99711E-003	0.00000E+000	4.26781E-003	3.59960E-001	-1.08425E+000	3.57680E+000	10	...........
	13	0.186667	7.18301E-001	5.99563E-003	0.00000E+000	4.30667E-003	3.59960E-001	-1.09342E+000	3.57680E+000	10	...........
	14	0.2	7.24851E-001	5.99214E-003	0.00000E+000	4.34341E-003	3.59960E-001	-1.08159E+000	3.57680E+000	10	...........
	15	0.213333	7.31360E-001	5.99760E-003	0.00000E+000	4.38640E-003	3.59960E-001	-1.08020E+000	3.57680E+000	10	...........
	16	0.226667	7.37810E-001	5.99586E-003	0.00000E+000	4.42380E-003	3.59960E-001	-1.09058E+000	3.57680E+000	10	...........
	17	0.24	7.44329E-001	5.99458E-003	0.00000E+000	4.46195E-003	3.59960E-001	-1.07997E+000	3.57680E+000	10	...........
	18	0.253333	7.50798E-001	5.99494E-003	0.00000E+000	4.50099E-003	3.59960E-001	-1.07842E+000	3.57680E+000	10	...........
	19	0.266667	7.57263E-001	5.99731E-003	0.00000E+000	4.54154E-003	3.59960E-001	-1.08848E+000	3.57680E+000	10	...........
	20	0.28	7.63672E-001	5.98877E-003	0.00000E+000	4.57346E-003	3.59960E-001	-1.07766E+000	3.57680E+000	10	...........
	21	0.293333	7.70106E-001	5.99424E-003	0.00000E+000	4.61620E-003	3.59960E-001	-1.07707E+000	3.57680E+000	10	...........
	22	0.306667	7.76524E-001	5.99209E-003	0.00000E+000	4.65300E-003	3.59960E-001	-1.08872E+000	3.57680E+000	10	...........
	23	0.32	7.82894E-001	5.99727E-003	0.00000E+000	4.69522E-003	3.59960E-001	-1.07834E+000	3.57680E+000	10	...........
	24	0.333333	7.89252E-001	5.99403E-003	0.00000E+000	4.73080E-003	3.59960E-001	-1.07657E+000	3.57680E+000	10	...........
	25	0.346667	7.95680E-001	5.99391E-003	0.00000E+000	4.76923E-003	3.59960E-001	-1.08705E+000	3.57680E+000	10	...........
	26	0.36	8.01991E-001	5.99374E-003	0.00000E+000	4.80692E-003	3.59960E-001	-1.07724E+000	3.57680E+000	10	...........
	27	0.373333	8.08318E-001	5.99177E-003	0.00000E+000	4.84326E-003	3.59960E-001	-1.07640E+000	3.57680E+000	10	...........
	28	0.386667	8.14614E-001	5.99391E-003	0.00000E+000	4.88272E-003	3.59960E-001	-1.08650E+000	3.57680E+000	10	...........
	29	0.4	8.20965E-001	5.99387E-003	0.00000E+000	4.92076E-003	3.59960E-001	-1.07652E+000	3.57680E+000	10	...........
	30	0.413333	8.27265E-001	5.99952E-003	0.00000E+000	4.96319E-003	3.59960E-001	-1.07526E+000	3.57680E+000	10	...........
	31	0.426667	8.33484E-001	5.99536E-003	0.00000E+000	4.99703E-003	3.59960E-001	-1.08613E+000	3.57680E+000	10	...........
	32	0.44	8.39721E-001	5.99188E-003	0.00000E+000	5.03151E-003	3.59960E-001	-1.07670E+000	3.57680E+000	10	...........
	33	0.453333	8.46063E-001	5.99779E-003	0.00000E+000	5.07451E-003	3.59960E-001	-1.07663E+000	3.57680E+000	10	...........
	34	0.466667	8.52264E-001	5.99570E-003	0.00000E+000	5.10992E-003	3.59960E-001	-1.08716E+000	3.57680E+000	10	...........
	35	0.48	8.58412E-001	5.99600E-003	0.00000E+000	5.14704E-003	3.59960E-001	-1.07731E+000	3.57680E+000	10	...........
	36	0.493333	8.64580E-001	5.99512E-003	0.00000E+000	5.18326E-003	3.59960E-001	-1.07741E+000	3.57680E+000	10	...........
	37	0.506667	8.70819E-001	5.99486E-003	0.00000E+000	5.22043E-003	3.59960E-001	-1.08858E+000	3.57680E+000	10	...........
	38	0.52	8.76965E-001	5.99473E-003	0.00000E+000	5.25717E-003	3.59960E-001	-1.07843E+000	3.57680E+000	10	...........
	39	0.533333	8.83101E-001	5.99179E-003	0.00000E+000	5.29135E-003	3.59960E-001	-1.07867E+000	3.57680E+000	10	...........
	40	0.546667	8.89228E-001	5.99180E-003	0.00000E+000	5.32808E-003	3.59960E-001	-1.08934E+000	3.57680E+000	10	...........
	41	0.56	8.95292E-001	5.99357E-003	0.00000E+000	5.36599E-003	3.59960E-001	-1.07975E+000	3.57680E+000	10	...........
	42	0.573333	9.01367E-001	5.99663E-003	0.00000E+000	5.40517E-003	3.59960E-001	-1.08000E+000	3.57680E+000	10	...........
	43	0.586667	9.07451E-001	5.99079E-003	0.00000E+000	5.43635E-003	3.59960E-001	-1.09077E+000	3.57680E+000	10	...........
	44	0.6	9.13447E-001	5.99204E-003	0.00000E+000	5.47341E-003	3.59960E-001	-1.08086E+000	3.57680E+000	10	...........
	45	0.613333	9.19444E-001	5.99783E-003	0.00000E+000	5.51467E-003	3.59960E-001	-1.08103E+000	3.57680E+000	10	...........
	46	0.626667	9.25459E-001	5.99244E-003	0.00000E+000	5.54575E-003	3.59960E-001	-1.09220E+000	3.57680E+000	10	...........
	47	0.64	9.31376E-001	5.99536E-003	0.00000E+000	5.58393E-003	3.59960E-001	-1.08303E+000	3.57680E+000	10	...........
	48	0.653333	9.37251E-001	5.99289E-003	0.00000E+000	5.61685E-003	3.59960E-001	-1.08301E+000	3.57680E+000	10	...........
	49	0.666667	9.43090E-001	5.99541E-003	0.00000E+000	5.65421E-003	3.59960E-001	-1.09365E+000	3.57680E+000	10	...........
	50	0.68	9.48944E-001	5.99544E-003	0.00000E+000	5.68934E-003	3.59960E-001	-1.08398E+000	3.57680E+000	10	...........
	51	0.693333	9.54727E-001	5.99489E-003	0.00000E+000	5.72348E-003	3.59960E-001	-1.08488E+000	3.57680E+000	10	...........
	52	0.706667	9.60438E-001	5.99260E-003	0.00000E+000	5.75552E-003	3.59960E-001	-1.09561E+000	3.57680E+000	10	...........
	53	0.72	9.66136E-001	5.99226E-003	0.00000E+000	5.78934E-003	3.59960E-001	-1.08586E+000	3.57680E+000	10	...........
	54	0.733333	9.71837E-001	5.99400E-003	0.00000E+000	5.82519E-003	3.59960E-001	-1.08584E+000	3.57680E+000	10	...........
	55	0.746667	9.77433E-001	5.99328E-003	0.00000E+000	5.85803E-003	3.59960E-001	-1.09626E+000	3.57680E+000	10	...........
	56	0.76	9.83003E-001	5.99565E-003	0.00000E+000	5.89374E-003	3.59960E-001	-1.08681E+000	3.57680E+000	10	...........
	57	0.773333	9.88510E-001	5.99325E-003	0.00000E+000	5.92438E-003	3.59960E-001	-1.08726E+000	3.57680E+000	10	...........
	58	0.786667	9.93988E-001	5.99309E-003	0.00000E+000	5.95706E-003	3.59960E-001	-1.09783E+000	3.57680E+000	10	...........
	59	0.796667	9.98790E-001	5.99061E-003	0.00000E+000	5.98336E-003	3.59960E-001	-1.08327E+000	3.57680E+000	10	...........
STARTTIMEOFFSET	QUANT	713.7701	Start Time Offset (s)