File: Data/CV_CRGO300517_1/PWRCCD_CRGO300517_1/CHARGE_DISCHARGE/CHARGE_#314.DTA
EXPLAIN
TAG	PWR800_CHARGE
TITLE	LABEL	PWR Cyclic Charge Discharge (Cell) - Charge Step	Test &Identifier
DATE	LABEL	22-6-2017	Date
TIME	LABEL	15:48:30	Time
NOTES	NOTES	3	&Notes...
	supercap test cell
	0.6mg
	6M KOH
PSTAT	PSTAT	IFC5000-01520	Potentiostat
CAPACITY	QUANT	1.00000E-003	Capacity (A-hr)
CELLTYPE	SELECTOR	1	&Cell Type
WORKINGCONNECTION	SELECTOR	0	&Working Lead
MAXCHARGETIME	VARIABLEANDUNITS	1.00000E+002	s	1.00000E+002	second(s)	Max &Charge Time
CHARGECURRENT	QUANT	6.00000E-003	&Charge Current (A)
VOLTAGEFINISH	TWOPARAM	F	1.00000E-003	3.60000E+003	&Voltage Finish	 I (A) < 	Max Time(s)
SAMPLETIME	QUANT	1.00000E-002	Sa&mple Period (s)
CHARGESTOPAT1	MULTIPARAM	4	1.00000E+000	Charge Stop At &1	Voltage > Limit	V
CHARGESTOPAT2	MULTIPARAM	0	0.00000E+000	Charge Stop At &2	None	N/A
AESBHCSELECTOR	TOGGLE	F	Save Both Half Cells
IRCOMP	TOGGLE	F	IR &Measure
EOC	QUANT	0	Open Circuit (V)
SEQUENCER	TOGGLE	TRUE	Run as Sequence
PSTATMODEL	IQUANT	53	Pstat Model
PSTATSECTION	LABEL	IFC5000-01520	Pstat Section
PSTATSERIALNO	LABEL	01520	Pstat Serial Number
CTRLMODE	IQUANT	0	Control Mode
ELECTROMETER	IQUANT	1	RE=0 or CS=1
IESTAB	IQUANT	0	I/E Stability
CASPEED	IQUANT	4	Control Amp Speed
CONVENTION	IQUANT	1	Current Convention
ICHRANGE	IQUANT	2	Ich Range
ICHRANGEMODE	TOGGLE	T	Ich Auto Range
ICHOFFSETENABLE	TOGGLE	F	Ich Offset Enable
ICHOFFSET	QUANT	0	Ich Offset (V)
ICHFILTER	IQUANT	1	Ich Filter
VCHRANGE	IQUANT	2	Vch Range
VCHRANGEMODE	TOGGLE	T	Vch Auto Range
VCHOFFSETENABLE	TOGGLE	F	Vch Offset Enable
VCHOFFSET	QUANT	0	Vch Offset (V)
VCHFILTER	IQUANT	1	Vch Filter
IERANGELOWERLIMIT	IQUANT	9	I/E Range Lower Limit
IERANGEMODE	TOGGLE	F	I/E AutoRange
IERANGE	IQUANT	10	I/E Range
ACHSELECT	IQUANT	1	Ach Select
ACHRANGE	IQUANT	2	Ach Range
ACHOFFSETENABLE	TOGGLE	F	Ach Offset Enable
ACHOFFSET	QUANT	0	Ach Offset (V)
ACHFILTER	IQUANT	1	Ach Filter
CABLEID	IQUANT	14	Cable ID
DCCALDATE	LABEL	20-10-2016	DC Calibration Date
ACCALDATE	LABEL	12/3/2015	AC Calibration Date
FRAMEWORKVERSION	QUANT	7.01	Framework Version
INSTRUMENTVERSION	LABEL	4.00	Instrument Version
CURVE	TABLE	62
	Pt	T	Vf	Im	Vu	Pwr	Sig	Ach	Temp	IERange	Over
	#	s	V	A	V	W	V	V	deg C	#	bits
	0	0.013333	6.17793E-001	5.99745E-003	0.00000E+000	3.70518E-003	3.59960E-001	-1.10890E+000	3.57710E+000	10	...........
	1	0.026667	6.26410E-001	5.99089E-003	0.00000E+000	3.75275E-003	3.59960E-001	-1.11832E+000	3.57710E+000	10	...........
	2	0.04	6.34303E-001	5.99100E-003	0.00000E+000	3.80010E-003	3.59960E-001	-1.11269E+000	3.57710E+000	10	...........
	3	0.053333	6.41858E-001	5.99459E-003	0.00000E+000	3.84768E-003	3.59960E-001	-1.10860E+000	3.57710E+000	10	...........
	4	0.066667	6.49098E-001	5.99489E-003	0.00000E+000	3.89127E-003	3.59960E-001	-1.11798E+000	3.57710E+000	10	...........
	5	0.08	6.56169E-001	5.99601E-003	0.00000E+000	3.93440E-003	3.59960E-001	-1.11264E+000	3.57710E+000	10	...........
	6	0.093333	6.63083E-001	5.99269E-003	0.00000E+000	3.97365E-003	3.59960E-001	-1.10833E+000	3.57710E+000	10	...........
	7	0.106667	6.69944E-001	5.99304E-003	0.00000E+000	4.01500E-003	3.59960E-001	-1.11794E+000	3.57710E+000	10	...........
	8	0.12	6.76658E-001	5.99372E-003	0.00000E+000	4.05570E-003	3.59960E-001	-1.11295E+000	3.57710E+000	10	...........
	9	0.133333	6.83301E-001	5.99244E-003	0.00000E+000	4.09463E-003	3.59960E-001	-1.10843E+000	3.57710E+000	10	...........
	10	0.146667	6.89906E-001	5.99266E-003	0.00000E+000	4.13437E-003	3.59960E-001	-1.11776E+000	3.57710E+000	10	...........
	11	0.16	6.96464E-001	5.99366E-003	0.00000E+000	4.17437E-003	3.59960E-001	-1.11264E+000	3.57710E+000	10	...........
	12	0.173333	7.02965E-001	5.99726E-003	0.00000E+000	4.21587E-003	3.59960E-001	-1.10857E+000	3.57710E+000	10	...........
	13	0.186667	7.09404E-001	5.99102E-003	0.00000E+000	4.25005E-003	3.59960E-001	-1.11792E+000	3.57710E+000	10	...........
	14	0.2	7.15889E-001	5.99420E-003	0.00000E+000	4.29118E-003	3.59960E-001	-1.11257E+000	3.57710E+000	10	...........
	15	0.213333	7.22340E-001	5.99086E-003	0.00000E+000	4.32744E-003	3.59960E-001	-1.10819E+000	3.57710E+000	10	...........
	16	0.226667	7.28722E-001	5.99355E-003	0.00000E+000	4.36764E-003	3.59960E-001	-1.11761E+000	3.57710E+000	10	...........
	17	0.24	7.35077E-001	5.98857E-003	0.00000E+000	4.40206E-003	3.59960E-001	-1.11267E+000	3.57710E+000	10	...........
	18	0.253333	7.41401E-001	5.99233E-003	0.00000E+000	4.44272E-003	3.59960E-001	-1.10847E+000	3.57710E+000	10	...........
	19	0.266667	7.47757E-001	5.99078E-003	0.00000E+000	4.47965E-003	3.59960E-001	-1.11736E+000	3.57710E+000	10	...........
	20	0.28	7.54097E-001	5.99481E-003	0.00000E+000	4.52067E-003	3.59960E-001	-1.11250E+000	3.57710E+000	10	...........
	21	0.293333	7.60400E-001	5.99471E-003	0.00000E+000	4.55838E-003	3.59960E-001	-1.10813E+000	3.57710E+000	10	...........
	22	0.306667	7.66699E-001	5.99246E-003	0.00000E+000	4.59441E-003	3.59960E-001	-1.11760E+000	3.57710E+000	10	...........
	23	0.32	7.72995E-001	5.99310E-003	0.00000E+000	4.63264E-003	3.59960E-001	-1.11271E+000	3.57710E+000	10	...........
	24	0.333333	7.79264E-001	5.99522E-003	0.00000E+000	4.67186E-003	3.59960E-001	-1.10792E+000	3.57710E+000	10	...........
	25	0.346667	7.85560E-001	5.99571E-003	0.00000E+000	4.70999E-003	3.59960E-001	-1.11715E+000	3.57710E+000	10	...........
	26	0.36	7.91797E-001	5.99043E-003	0.00000E+000	4.74321E-003	3.59960E-001	-1.11209E+000	3.57710E+000	10	...........
	27	0.373333	7.98036E-001	5.98890E-003	0.00000E+000	4.77935E-003	3.59960E-001	-1.10775E+000	3.57710E+000	10	...........
	28	0.386667	8.04280E-001	5.99662E-003	0.00000E+000	4.82296E-003	3.59960E-001	-1.11696E+000	3.57710E+000	10	...........
	29	0.4	8.10468E-001	5.99728E-003	0.00000E+000	4.86060E-003	3.59960E-001	-1.11223E+000	3.57710E+000	10	...........
	30	0.413333	8.16694E-001	5.99265E-003	0.00000E+000	4.89416E-003	3.59960E-001	-1.10732E+000	3.57710E+000	10	...........
	31	0.426667	8.22907E-001	5.99258E-003	0.00000E+000	4.93134E-003	3.59960E-001	-1.11636E+000	3.57710E+000	10	...........
	32	0.44	8.29068E-001	5.99268E-003	0.00000E+000	4.96834E-003	3.59960E-001	-1.11231E+000	3.57710E+000	10	...........
	33	0.453333	8.35254E-001	5.99508E-003	0.00000E+000	5.00742E-003	3.59960E-001	-1.10743E+000	3.57710E+000	10	...........
	34	0.466667	8.41437E-001	5.99106E-003	0.00000E+000	5.04110E-003	3.59960E-001	-1.11616E+000	3.57710E+000	10	...........
	35	0.48	8.47625E-001	5.99562E-003	0.00000E+000	5.08204E-003	3.59960E-001	-1.11190E+000	3.57710E+000	10	...........
	36	0.493333	8.53776E-001	5.99572E-003	0.00000E+000	5.11900E-003	3.59960E-001	-1.10746E+000	3.57710E+000	10	...........
	37	0.506667	8.59903E-001	5.99236E-003	0.00000E+000	5.15285E-003	3.59960E-001	-1.11655E+000	3.57710E+000	10	...........
	38	0.52	8.66006E-001	5.99377E-003	0.00000E+000	5.19064E-003	3.59960E-001	-1.11216E+000	3.57710E+000	10	...........
	39	0.533333	8.72129E-001	5.99588E-003	0.00000E+000	5.22918E-003	3.59960E-001	-1.10720E+000	3.57710E+000	10	...........
	40	0.546667	8.78164E-001	5.99296E-003	0.00000E+000	5.26280E-003	3.59960E-001	-1.11587E+000	3.57710E+000	10	...........
	41	0.56	8.84271E-001	5.99225E-003	0.00000E+000	5.29877E-003	3.59960E-001	-1.11222E+000	3.57710E+000	10	...........
	42	0.573333	8.90275E-001	5.99508E-003	0.00000E+000	5.33727E-003	3.59960E-001	-1.10764E+000	3.57710E+000	10	...........
	43	0.586667	8.96309E-001	5.99078E-003	0.00000E+000	5.36959E-003	3.59960E-001	-1.11614E+000	3.57710E+000	10	...........
	44	0.6	9.02284E-001	5.99431E-003	0.00000E+000	5.40857E-003	3.59960E-001	-1.11209E+000	3.57710E+000	10	...........
	45	0.613333	9.08305E-001	5.99399E-003	0.00000E+000	5.44437E-003	3.59960E-001	-1.10712E+000	3.57710E+000	10	...........
	46	0.626667	9.14262E-001	5.99720E-003	0.00000E+000	5.48302E-003	3.59960E-001	-1.11602E+000	3.57710E+000	10	...........
	47	0.64	9.20248E-001	5.99456E-003	0.00000E+000	5.51649E-003	3.59960E-001	-1.11240E+000	3.57710E+000	10	...........
	48	0.653333	9.26162E-001	5.99688E-003	0.00000E+000	5.55408E-003	3.59960E-001	-1.10730E+000	3.57710E+000	10	...........
	49	0.666667	9.31986E-001	5.99149E-003	0.00000E+000	5.58398E-003	3.59960E-001	-1.11579E+000	3.57710E+000	10	...........
	50	0.68	9.37761E-001	5.99119E-003	0.00000E+000	5.61831E-003	3.59960E-001	-1.11221E+000	3.57710E+000	10	...........
	51	0.693333	9.43574E-001	5.99566E-003	0.00000E+000	5.65735E-003	3.59960E-001	-1.10713E+000	3.57710E+000	10	...........
	52	0.706667	9.49366E-001	5.99140E-003	0.00000E+000	5.68804E-003	3.59960E-001	-1.11585E+000	3.57710E+000	10	...........
	53	0.72	9.55085E-001	5.99356E-003	0.00000E+000	5.72436E-003	3.59960E-001	-1.11227E+000	3.57710E+000	10	...........
	54	0.733333	9.60769E-001	5.99319E-003	0.00000E+000	5.75807E-003	3.59960E-001	-1.10697E+000	3.57710E+000	10	...........
	55	0.746667	9.66407E-001	5.99546E-003	0.00000E+000	5.79405E-003	3.59960E-001	-1.11551E+000	3.57710E+000	10	...........
	56	0.76	9.72010E-001	5.99375E-003	0.00000E+000	5.82598E-003	3.59960E-001	-1.11222E+000	3.57710E+000	10	...........
	57	0.773333	9.77669E-001	5.99659E-003	0.00000E+000	5.86268E-003	3.59960E-001	-1.10717E+000	3.57710E+000	10	...........
	58	0.786667	9.83179E-001	5.99481E-003	0.00000E+000	5.89397E-003	3.59960E-001	-1.11559E+000	3.57710E+000	10	...........
	59	0.8	9.88670E-001	5.99692E-003	0.00000E+000	5.92897E-003	3.59960E-001	-1.11209E+000	3.57710E+000	10	...........
	60	0.813333	9.94121E-001	5.99288E-003	0.00000E+000	5.95765E-003	3.59960E-001	-1.10680E+000	3.57710E+000	10	...........
	61	0.823333	9.98882E-001	5.99699E-003	0.00000E+000	5.99028E-003	3.59960E-001	-1.11975E+000	3.57710E+000	10	...........
STARTTIMEOFFSET	QUANT	564.1249	Start Time Offset (s)