File: Data/CV_CRGO300517_1/PWRCCD_CRGO300517_1/CHARGE_DISCHARGE/CHARGE_#107.DTA
EXPLAIN
TAG	PWR800_CHARGE
TITLE	LABEL	PWR Cyclic Charge Discharge (Cell) - Charge Step	Test &Identifier
DATE	LABEL	22-6-2017	Date
TIME	LABEL	15:39:48	Time
NOTES	NOTES	3	&Notes...
	supercap test cell
	0.6mg
	6M KOH
PSTAT	PSTAT	IFC5000-01520	Potentiostat
CAPACITY	QUANT	1.00000E-003	Capacity (A-hr)
CELLTYPE	SELECTOR	1	&Cell Type
WORKINGCONNECTION	SELECTOR	0	&Working Lead
MAXCHARGETIME	VARIABLEANDUNITS	1.00000E+002	s	1.00000E+002	second(s)	Max &Charge Time
CHARGECURRENT	QUANT	6.00000E-003	&Charge Current (A)
VOLTAGEFINISH	TWOPARAM	F	1.00000E-003	3.60000E+003	&Voltage Finish	 I (A) < 	Max Time(s)
SAMPLETIME	QUANT	1.00000E-002	Sa&mple Period (s)
CHARGESTOPAT1	MULTIPARAM	4	1.00000E+000	Charge Stop At &1	Voltage > Limit	V
CHARGESTOPAT2	MULTIPARAM	0	0.00000E+000	Charge Stop At &2	None	N/A
AESBHCSELECTOR	TOGGLE	F	Save Both Half Cells
IRCOMP	TOGGLE	F	IR &Measure
EOC	QUANT	0	Open Circuit (V)
SEQUENCER	TOGGLE	TRUE	Run as Sequence
PSTATMODEL	IQUANT	53	Pstat Model
PSTATSECTION	LABEL	IFC5000-01520	Pstat Section
PSTATSERIALNO	LABEL	01520	Pstat Serial Number
CTRLMODE	IQUANT	0	Control Mode
ELECTROMETER	IQUANT	1	RE=0 or CS=1
IESTAB	IQUANT	0	I/E Stability
CASPEED	IQUANT	4	Control Amp Speed
CONVENTION	IQUANT	1	Current Convention
ICHRANGE	IQUANT	2	Ich Range
ICHRANGEMODE	TOGGLE	T	Ich Auto Range
ICHOFFSETENABLE	TOGGLE	F	Ich Offset Enable
ICHOFFSET	QUANT	0	Ich Offset (V)
ICHFILTER	IQUANT	1	Ich Filter
VCHRANGE	IQUANT	2	Vch Range
VCHRANGEMODE	TOGGLE	T	Vch Auto Range
VCHOFFSETENABLE	TOGGLE	F	Vch Offset Enable
VCHOFFSET	QUANT	0	Vch Offset (V)
VCHFILTER	IQUANT	1	Vch Filter
IERANGELOWERLIMIT	IQUANT	9	I/E Range Lower Limit
IERANGEMODE	TOGGLE	F	I/E AutoRange
IERANGE	IQUANT	10	I/E Range
ACHSELECT	IQUANT	1	Ach Select
ACHRANGE	IQUANT	2	Ach Range
ACHOFFSETENABLE	TOGGLE	F	Ach Offset Enable
ACHOFFSET	QUANT	0	Ach Offset (V)
ACHFILTER	IQUANT	1	Ach Filter
CABLEID	IQUANT	14	Cable ID
DCCALDATE	LABEL	20-10-2016	DC Calibration Date
ACCALDATE	LABEL	12/3/2015	AC Calibration Date
FRAMEWORKVERSION	QUANT	7.01	Framework Version
INSTRUMENTVERSION	LABEL	4.00	Instrument Version
CURVE	TABLE	70
	Pt	T	Vf	Im	Vu	Pwr	Sig	Ach	Temp	IERange	Over
	#	s	V	A	V	W	V	V	deg C	#	bits
	0	0.013333	5.90005E-001	5.99338E-003	0.00000E+000	3.53613E-003	3.59960E-001	-1.06331E+000	3.57930E+000	10	...........
	1	0.026667	5.98282E-001	5.99164E-003	0.00000E+000	3.58469E-003	3.59960E-001	-1.06686E+000	3.57930E+000	10	...........
	2	0.04	6.05867E-001	5.99065E-003	0.00000E+000	3.62954E-003	3.59960E-001	-1.07179E+000	3.57930E+000	10	...........
	3	0.053333	6.13101E-001	5.99472E-003	0.00000E+000	3.67537E-003	3.59960E-001	-1.06423E+000	3.57930E+000	10	...........
	4	0.066667	6.20060E-001	5.99608E-003	0.00000E+000	3.71793E-003	3.59960E-001	-1.06770E+000	3.57930E+000	10	...........
	5	0.08	6.26755E-001	5.99059E-003	0.00000E+000	3.75463E-003	3.59960E-001	-1.07252E+000	3.57930E+000	10	...........
	6	0.093333	6.33375E-001	5.99431E-003	0.00000E+000	3.79665E-003	3.59960E-001	-1.06438E+000	3.57930E+000	10	...........
	7	0.106667	6.39843E-001	5.99851E-003	0.00000E+000	3.83810E-003	3.59960E-001	-1.06800E+000	3.57930E+000	10	...........
	8	0.12	6.46244E-001	5.99376E-003	0.00000E+000	3.87343E-003	3.59960E-001	-1.07341E+000	3.57930E+000	10	...........
	9	0.133333	6.52573E-001	5.99401E-003	0.00000E+000	3.91153E-003	3.59960E-001	-1.06555E+000	3.57930E+000	10	...........
	10	0.146667	6.58830E-001	5.99739E-003	0.00000E+000	3.95126E-003	3.59960E-001	-1.06890E+000	3.57930E+000	10	...........
	11	0.16	6.65049E-001	5.99662E-003	0.00000E+000	3.98804E-003	3.59960E-001	-1.07418E+000	3.57930E+000	10	...........
	12	0.173333	6.71245E-001	5.99285E-003	0.00000E+000	4.02267E-003	3.59960E-001	-1.06628E+000	3.57930E+000	10	...........
	13	0.186667	6.77396E-001	5.99357E-003	0.00000E+000	4.06002E-003	3.59960E-001	-1.06983E+000	3.57930E+000	10	...........
	14	0.2	6.83486E-001	5.99446E-003	0.00000E+000	4.09713E-003	3.59960E-001	-1.07529E+000	3.57930E+000	10	...........
	15	0.213333	6.89545E-001	5.99179E-003	0.00000E+000	4.13161E-003	3.59960E-001	-1.06742E+000	3.57930E+000	10	...........
	16	0.226667	6.95564E-001	5.99545E-003	0.00000E+000	4.17022E-003	3.59960E-001	-1.07066E+000	3.57930E+000	10	...........
	17	0.24	7.01621E-001	5.99332E-003	0.00000E+000	4.20504E-003	3.59960E-001	-1.07619E+000	3.57930E+000	10	...........
	18	0.253333	7.07600E-001	5.99699E-003	0.00000E+000	4.24347E-003	3.59960E-001	-1.06870E+000	3.57930E+000	10	...........
	19	0.266667	7.13634E-001	5.99233E-003	0.00000E+000	4.27633E-003	3.59960E-001	-1.07208E+000	3.57930E+000	10	...........
	20	0.28	7.19649E-001	5.99425E-003	0.00000E+000	4.31376E-003	3.59960E-001	-1.07744E+000	3.57930E+000	10	...........
	21	0.293333	7.25630E-001	5.99378E-003	0.00000E+000	4.34927E-003	3.59960E-001	-1.06918E+000	3.57930E+000	10	...........
	22	0.306667	7.31590E-001	5.99552E-003	0.00000E+000	4.38626E-003	3.59960E-001	-1.07307E+000	3.57930E+000	10	...........
	23	0.32	7.37534E-001	5.99394E-003	0.00000E+000	4.42074E-003	3.59960E-001	-1.07873E+000	3.57904E+000	10	...........
	24	0.333333	7.43509E-001	5.99443E-003	0.00000E+000	4.45691E-003	3.59960E-001	-1.07082E+000	3.57720E+000	10	...........
	25	0.346667	7.49466E-001	5.99220E-003	0.00000E+000	4.49095E-003	3.59960E-001	-1.07428E+000	3.57720E+000	10	...........
	26	0.36	7.55384E-001	5.98862E-003	0.00000E+000	4.52370E-003	3.59960E-001	-1.07948E+000	3.57720E+000	10	...........
	27	0.373333	7.61306E-001	5.99372E-003	0.00000E+000	4.56305E-003	3.59960E-001	-1.07139E+000	3.57720E+000	10	...........
	28	0.386667	7.67254E-001	5.99329E-003	0.00000E+000	4.59838E-003	3.59960E-001	-1.07479E+000	3.57720E+000	10	...........
	29	0.4	7.73199E-001	5.99665E-003	0.00000E+000	4.63660E-003	3.59960E-001	-1.08061E+000	3.57720E+000	10	...........
	30	0.413333	7.79135E-001	5.99503E-003	0.00000E+000	4.67094E-003	3.59960E-001	-1.07184E+000	3.57720E+000	10	...........
	31	0.426667	7.85047E-001	5.99208E-003	0.00000E+000	4.70407E-003	3.59960E-001	-1.07520E+000	3.57720E+000	10	...........
	32	0.44	7.90955E-001	5.99341E-003	0.00000E+000	4.74052E-003	3.59960E-001	-1.08112E+000	3.57720E+000	10	...........
	33	0.453333	7.96891E-001	5.99621E-003	0.00000E+000	4.77833E-003	3.59960E-001	-1.07274E+000	3.57720E+000	10	...........
	34	0.466667	8.02745E-001	5.98868E-003	0.00000E+000	4.80738E-003	3.59960E-001	-1.07615E+000	3.57720E+000	10	...........
	35	0.48	8.08636E-001	5.99423E-003	0.00000E+000	4.84715E-003	3.59960E-001	-1.08182E+000	3.57720E+000	10	...........
	36	0.493333	8.14517E-001	5.99567E-003	0.00000E+000	4.88357E-003	3.59960E-001	-1.07323E+000	3.57720E+000	10	...........
	37	0.506667	8.20439E-001	5.99317E-003	0.00000E+000	4.91703E-003	3.59960E-001	-1.07656E+000	3.57720E+000	10	...........
	38	0.52	8.26320E-001	5.99296E-003	0.00000E+000	4.95210E-003	3.59960E-001	-1.08251E+000	3.57720E+000	10	...........
	39	0.533333	8.32211E-001	5.99222E-003	0.00000E+000	4.98679E-003	3.59960E-001	-1.07389E+000	3.57720E+000	10	...........
	40	0.546667	8.38082E-001	5.99499E-003	0.00000E+000	5.02429E-003	3.59960E-001	-1.07735E+000	3.57720E+000	10	...........
	41	0.56	8.43988E-001	5.99421E-003	0.00000E+000	5.05904E-003	3.59960E-001	-1.08313E+000	3.57720E+000	10	...........
	42	0.573333	8.49896E-001	5.99421E-003	0.00000E+000	5.09445E-003	3.59960E-001	-1.07430E+000	3.57720E+000	10	...........
	43	0.586667	8.55714E-001	5.99691E-003	0.00000E+000	5.13164E-003	3.59960E-001	-1.07764E+000	3.57720E+000	10	...........
	44	0.6	8.61559E-001	5.99085E-003	0.00000E+000	5.16147E-003	3.59960E-001	-1.08382E+000	3.57720E+000	10	...........
	45	0.613333	8.67376E-001	5.99511E-003	0.00000E+000	5.20001E-003	3.59960E-001	-1.07471E+000	3.57720E+000	10	...........
	46	0.626667	8.73276E-001	5.99435E-003	0.00000E+000	5.23473E-003	3.59960E-001	-1.07812E+000	3.57720E+000	10	...........
	47	0.64	8.79113E-001	5.99446E-003	0.00000E+000	5.26981E-003	3.59960E-001	-1.08408E+000	3.57720E+000	10	...........
	48	0.653333	8.84908E-001	5.99246E-003	0.00000E+000	5.30277E-003	3.59960E-001	-1.07501E+000	3.57720E+000	10	...........
	49	0.666667	8.90676E-001	5.99506E-003	0.00000E+000	5.33966E-003	3.59960E-001	-1.07816E+000	3.57720E+000	10	...........
	50	0.68	8.96482E-001	5.99438E-003	0.00000E+000	5.37385E-003	3.59960E-001	-1.08426E+000	3.57720E+000	10	...........
	51	0.693333	9.02265E-001	5.99786E-003	0.00000E+000	5.41166E-003	3.59960E-001	-1.07475E+000	3.57720E+000	10	...........
	52	0.706667	9.08015E-001	5.99351E-003	0.00000E+000	5.44220E-003	3.59960E-001	-1.07771E+000	3.57720E+000	10	...........
	53	0.72	9.13770E-001	5.99318E-003	0.00000E+000	5.47638E-003	3.59960E-001	-1.08383E+000	3.57720E+000	10	...........
	54	0.733333	9.19479E-001	5.99215E-003	0.00000E+000	5.50966E-003	3.59960E-001	-1.07417E+000	3.57720E+000	10	...........
	55	0.746667	9.25211E-001	5.99379E-003	0.00000E+000	5.54552E-003	3.59960E-001	-1.07723E+000	3.57720E+000	10	...........
	56	0.76	9.30915E-001	5.99603E-003	0.00000E+000	5.58180E-003	3.59960E-001	-1.08351E+000	3.57720E+000	10	...........
	57	0.773333	9.36542E-001	5.99132E-003	0.00000E+000	5.61112E-003	3.59960E-001	-1.07365E+000	3.57720E+000	10	...........
	58	0.786667	9.42159E-001	5.99144E-003	0.00000E+000	5.64489E-003	3.59960E-001	-1.07687E+000	3.57720E+000	10	...........
	59	0.8	9.47806E-001	5.99106E-003	0.00000E+000	5.67836E-003	3.59960E-001	-1.08345E+000	3.57720E+000	10	...........
	60	0.813333	9.53393E-001	5.99333E-003	0.00000E+000	5.71400E-003	3.59960E-001	-1.07362E+000	3.57720E+000	10	...........
	61	0.826667	9.58915E-001	5.99455E-003	0.00000E+000	5.74827E-003	3.59960E-001	-1.07654E+000	3.57720E+000	10	...........
	62	0.84	9.64415E-001	5.99844E-003	0.00000E+000	5.78499E-003	3.59960E-001	-1.08296E+000	3.57720E+000	10	...........
	63	0.853333	9.69893E-001	5.99482E-003	0.00000E+000	5.81434E-003	3.59960E-001	-1.07317E+000	3.57720E+000	10	...........
	64	0.866667	9.75464E-001	5.99610E-003	0.00000E+000	5.84897E-003	3.59960E-001	-1.07651E+000	3.57720E+000	10	...........
	65	0.88	9.80863E-001	5.99005E-003	0.00000E+000	5.87542E-003	3.59960E-001	-1.08289E+000	3.57720E+000	10	...........
	66	0.893333	9.86274E-001	5.98997E-003	0.00000E+000	5.90775E-003	3.59960E-001	-1.07286E+000	3.57720E+000	10	...........
	67	0.906667	9.91593E-001	5.99501E-003	0.00000E+000	5.94461E-003	3.59960E-001	-1.07584E+000	3.57720E+000	10	...........
	68	0.92	9.96977E-001	5.99377E-003	0.00000E+000	5.97565E-003	3.59960E-001	-1.08283E+000	3.57720E+000	10	...........
	69	0.923333	1.00032E+000	5.99354E-003	0.00000E+000	5.99545E-003	3.59960E-001	-1.07200E+000	3.57720E+000	10	...........
STARTTIMEOFFSET	QUANT	208.095	Start Time Offset (s)