File: Data/CV_CRGO300517_1/PWRCCD_CRGO300517_1/CHARGE_DISCHARGE/CHARGE_#83.DTA
EXPLAIN
TAG	PWR800_CHARGE
TITLE	LABEL	PWR Cyclic Charge Discharge (Cell) - Charge Step	Test &Identifier
DATE	LABEL	22-6-2017	Date
TIME	LABEL	15:38:45	Time
NOTES	NOTES	3	&Notes...
	supercap test cell
	0.6mg
	6M KOH
PSTAT	PSTAT	IFC5000-01520	Potentiostat
CAPACITY	QUANT	1.00000E-003	Capacity (A-hr)
CELLTYPE	SELECTOR	1	&Cell Type
WORKINGCONNECTION	SELECTOR	0	&Working Lead
MAXCHARGETIME	VARIABLEANDUNITS	1.00000E+002	s	1.00000E+002	second(s)	Max &Charge Time
CHARGECURRENT	QUANT	6.00000E-003	&Charge Current (A)
VOLTAGEFINISH	TWOPARAM	F	1.00000E-003	3.60000E+003	&Voltage Finish	 I (A) < 	Max Time(s)
SAMPLETIME	QUANT	1.00000E-002	Sa&mple Period (s)
CHARGESTOPAT1	MULTIPARAM	4	1.00000E+000	Charge Stop At &1	Voltage > Limit	V
CHARGESTOPAT2	MULTIPARAM	0	0.00000E+000	Charge Stop At &2	None	N/A
AESBHCSELECTOR	TOGGLE	F	Save Both Half Cells
IRCOMP	TOGGLE	F	IR &Measure
EOC	QUANT	0	Open Circuit (V)
SEQUENCER	TOGGLE	TRUE	Run as Sequence
PSTATMODEL	IQUANT	53	Pstat Model
PSTATSECTION	LABEL	IFC5000-01520	Pstat Section
PSTATSERIALNO	LABEL	01520	Pstat Serial Number
CTRLMODE	IQUANT	0	Control Mode
ELECTROMETER	IQUANT	1	RE=0 or CS=1
IESTAB	IQUANT	0	I/E Stability
CASPEED	IQUANT	4	Control Amp Speed
CONVENTION	IQUANT	1	Current Convention
ICHRANGE	IQUANT	2	Ich Range
ICHRANGEMODE	TOGGLE	T	Ich Auto Range
ICHOFFSETENABLE	TOGGLE	F	Ich Offset Enable
ICHOFFSET	QUANT	0	Ich Offset (V)
ICHFILTER	IQUANT	1	Ich Filter
VCHRANGE	IQUANT	2	Vch Range
VCHRANGEMODE	TOGGLE	T	Vch Auto Range
VCHOFFSETENABLE	TOGGLE	F	Vch Offset Enable
VCHOFFSET	QUANT	0	Vch Offset (V)
VCHFILTER	IQUANT	1	Vch Filter
IERANGELOWERLIMIT	IQUANT	9	I/E Range Lower Limit
IERANGEMODE	TOGGLE	F	I/E AutoRange
IERANGE	IQUANT	10	I/E Range
ACHSELECT	IQUANT	1	Ach Select
ACHRANGE	IQUANT	2	Ach Range
ACHOFFSETENABLE	TOGGLE	F	Ach Offset Enable
ACHOFFSET	QUANT	0	Ach Offset (V)
ACHFILTER	IQUANT	1	Ach Filter
CABLEID	IQUANT	14	Cable ID
DCCALDATE	LABEL	20-10-2016	DC Calibration Date
ACCALDATE	LABEL	12/3/2015	AC Calibration Date
FRAMEWORKVERSION	QUANT	7.01	Framework Version
INSTRUMENTVERSION	LABEL	4.00	Instrument Version
CURVE	TABLE	71
	Pt	T	Vf	Im	Vu	Pwr	Sig	Ach	Temp	IERange	Over
	#	s	V	A	V	W	V	V	deg C	#	bits
	0	0.013333	5.84458E-001	5.99379E-003	0.00000E+000	3.50312E-003	3.59960E-001	-1.05418E+000	3.57730E+000	10	...........
	1	0.026667	5.92685E-001	5.99391E-003	0.00000E+000	3.55250E-003	3.59960E-001	-1.06578E+000	3.57730E+000	10	...........
	2	0.04	6.00160E-001	5.99237E-003	0.00000E+000	3.59638E-003	3.59960E-001	-1.05426E+000	3.57730E+000	10	...........
	3	0.053333	6.07299E-001	5.99501E-003	0.00000E+000	3.64076E-003	3.59960E-001	-1.05418E+000	3.57730E+000	10	...........
	4	0.066667	6.14206E-001	5.99604E-003	0.00000E+000	3.68281E-003	3.59960E-001	-1.06597E+000	3.57730E+000	10	...........
	5	0.08	6.20900E-001	5.99839E-003	0.00000E+000	3.72440E-003	3.59960E-001	-1.05416E+000	3.57730E+000	10	...........
	6	0.093333	6.27416E-001	5.99471E-003	0.00000E+000	3.76118E-003	3.59960E-001	-1.05379E+000	3.57730E+000	10	...........
	7	0.106667	6.33810E-001	5.99532E-003	0.00000E+000	3.79990E-003	3.59960E-001	-1.06561E+000	3.57730E+000	10	...........
	8	0.12	6.40162E-001	5.99439E-003	0.00000E+000	3.83738E-003	3.59960E-001	-1.05422E+000	3.57730E+000	10	...........
	9	0.133333	6.46386E-001	5.99298E-003	0.00000E+000	3.87378E-003	3.59960E-001	-1.05411E+000	3.57730E+000	10	...........
	10	0.146667	6.52584E-001	5.99186E-003	0.00000E+000	3.91020E-003	3.59960E-001	-1.06596E+000	3.57730E+000	10	...........
	11	0.16	6.58692E-001	5.99729E-003	0.00000E+000	3.95036E-003	3.59960E-001	-1.05406E+000	3.57730E+000	10	...........
	12	0.173333	6.64801E-001	5.99698E-003	0.00000E+000	3.98680E-003	3.59960E-001	-1.05404E+000	3.57730E+000	10	...........
	13	0.186667	6.70900E-001	5.99888E-003	0.00000E+000	4.02465E-003	3.59960E-001	-1.06592E+000	3.57730E+000	10	...........
	14	0.2	6.76951E-001	5.99135E-003	0.00000E+000	4.05585E-003	3.59960E-001	-1.05413E+000	3.57730E+000	10	...........
	15	0.213333	6.82933E-001	5.99158E-003	0.00000E+000	4.09185E-003	3.59960E-001	-1.05415E+000	3.57730E+000	10	...........
	16	0.226667	6.88930E-001	5.99273E-003	0.00000E+000	4.12857E-003	3.59960E-001	-1.06558E+000	3.57730E+000	10	...........
	17	0.24	6.94926E-001	5.99192E-003	0.00000E+000	4.16395E-003	3.59960E-001	-1.05381E+000	3.57730E+000	10	...........
	18	0.253333	7.00813E-001	5.99322E-003	0.00000E+000	4.20013E-003	3.59960E-001	-1.05361E+000	3.57730E+000	10	...........
	19	0.266667	7.06759E-001	5.99407E-003	0.00000E+000	4.23637E-003	3.59960E-001	-1.06526E+000	3.57730E+000	10	...........
	20	0.28	7.12651E-001	5.99286E-003	0.00000E+000	4.27082E-003	3.59960E-001	-1.05356E+000	3.57730E+000	10	...........
	21	0.293333	7.18574E-001	5.99165E-003	0.00000E+000	4.30544E-003	3.59960E-001	-1.05352E+000	3.57730E+000	10	...........
	22	0.306667	7.24477E-001	5.99628E-003	0.00000E+000	4.34417E-003	3.59960E-001	-1.06502E+000	3.57730E+000	10	...........
	23	0.32	7.30377E-001	5.99298E-003	0.00000E+000	4.37713E-003	3.59960E-001	-1.05376E+000	3.57730E+000	10	...........
	24	0.333333	7.36263E-001	5.99425E-003	0.00000E+000	4.41334E-003	3.59960E-001	-1.05340E+000	3.57730E+000	10	...........
	25	0.346667	7.42165E-001	5.99358E-003	0.00000E+000	4.44823E-003	3.59960E-001	-1.06520E+000	3.57730E+000	10	...........
	26	0.36	7.48025E-001	5.99458E-003	0.00000E+000	4.48410E-003	3.59960E-001	-1.05340E+000	3.57730E+000	10	...........
	27	0.373333	7.53898E-001	5.99307E-003	0.00000E+000	4.51817E-003	3.59960E-001	-1.05314E+000	3.57730E+000	10	...........
	28	0.386667	7.59783E-001	5.99503E-003	0.00000E+000	4.55492E-003	3.59960E-001	-1.06509E+000	3.57730E+000	10	...........
	29	0.4	7.65645E-001	5.99389E-003	0.00000E+000	4.58919E-003	3.59960E-001	-1.05351E+000	3.57730E+000	10	...........
	30	0.413333	7.71532E-001	5.99391E-003	0.00000E+000	4.62449E-003	3.59960E-001	-1.05351E+000	3.57730E+000	10	...........
	31	0.426667	7.77355E-001	5.99319E-003	0.00000E+000	4.65884E-003	3.59960E-001	-1.06498E+000	3.57730E+000	10	...........
	32	0.44	7.83258E-001	5.99181E-003	0.00000E+000	4.69313E-003	3.59960E-001	-1.05322E+000	3.57730E+000	10	...........
	33	0.453333	7.89112E-001	5.99611E-003	0.00000E+000	4.73160E-003	3.59960E-001	-1.05338E+000	3.57730E+000	10	...........
	34	0.466667	7.94944E-001	5.99283E-003	0.00000E+000	4.76397E-003	3.59960E-001	-1.06533E+000	3.57730E+000	10	...........
	35	0.48	8.00827E-001	5.99715E-003	0.00000E+000	4.80268E-003	3.59960E-001	-1.05354E+000	3.57730E+000	10	...........
	36	0.493333	8.06629E-001	5.99677E-003	0.00000E+000	4.83717E-003	3.59960E-001	-1.05364E+000	3.57730E+000	10	...........
	37	0.506667	8.12431E-001	5.99329E-003	0.00000E+000	4.86913E-003	3.59960E-001	-1.06505E+000	3.57730E+000	10	...........
	38	0.52	8.18258E-001	5.99206E-003	0.00000E+000	4.90305E-003	3.59960E-001	-1.05347E+000	3.57730E+000	10	...........
	39	0.533333	8.24109E-001	5.99577E-003	0.00000E+000	4.94117E-003	3.59960E-001	-1.05352E+000	3.57730E+000	10	...........
	40	0.546667	8.29936E-001	5.99264E-003	0.00000E+000	4.97351E-003	3.59960E-001	-1.06503E+000	3.57730E+000	10	...........
	41	0.56	8.35753E-001	5.99911E-003	0.00000E+000	5.01378E-003	3.59960E-001	-1.05309E+000	3.57730E+000	10	...........
	42	0.573333	8.41590E-001	5.99559E-003	0.00000E+000	5.04583E-003	3.59960E-001	-1.05287E+000	3.57730E+000	10	...........
	43	0.586667	8.47459E-001	5.99564E-003	0.00000E+000	5.08106E-003	3.59960E-001	-1.06469E+000	3.57730E+000	10	...........
	44	0.6	8.53242E-001	5.99183E-003	0.00000E+000	5.11248E-003	3.59960E-001	-1.05304E+000	3.57730E+000	10	...........
	45	0.613333	8.59043E-001	5.99493E-003	0.00000E+000	5.14990E-003	3.59960E-001	-1.05298E+000	3.57730E+000	10	...........
	46	0.626667	8.64832E-001	5.99094E-003	0.00000E+000	5.18116E-003	3.59960E-001	-1.06451E+000	3.57730E+000	10	...........
	47	0.64	8.70679E-001	5.99060E-003	0.00000E+000	5.21589E-003	3.59960E-001	-1.05265E+000	3.57730E+000	10	...........
	48	0.653333	8.76465E-001	5.99459E-003	0.00000E+000	5.25405E-003	3.59960E-001	-1.05304E+000	3.57730E+000	10	...........
	49	0.666667	8.82209E-001	5.99598E-003	0.00000E+000	5.28971E-003	3.59960E-001	-1.06477E+000	3.57795E+000	10	...........
	50	0.68	8.87961E-001	5.99203E-003	0.00000E+000	5.32069E-003	3.59960E-001	-1.05308E+000	3.57860E+000	10	...........
	51	0.693333	8.93727E-001	5.99405E-003	0.00000E+000	5.35705E-003	3.59960E-001	-1.05265E+000	3.57860E+000	10	...........
	52	0.706667	8.99506E-001	5.98933E-003	0.00000E+000	5.38743E-003	3.59960E-001	-1.06458E+000	3.57860E+000	10	...........
	53	0.72	9.05189E-001	5.99393E-003	0.00000E+000	5.42564E-003	3.59960E-001	-1.05300E+000	3.57860E+000	10	...........
	54	0.733333	9.10885E-001	5.99502E-003	0.00000E+000	5.46077E-003	3.59960E-001	-1.05309E+000	3.57860E+000	10	...........
	55	0.746667	9.16556E-001	5.99329E-003	0.00000E+000	5.49318E-003	3.59960E-001	-1.06478E+000	3.57860E+000	10	...........
	56	0.76	9.22304E-001	5.99397E-003	0.00000E+000	5.52826E-003	3.59960E-001	-1.05269E+000	3.57860E+000	10	...........
	57	0.773333	9.27941E-001	5.99353E-003	0.00000E+000	5.56164E-003	3.59960E-001	-1.05286E+000	3.57860E+000	10	...........
	58	0.786667	9.33583E-001	5.99562E-003	0.00000E+000	5.59741E-003	3.59960E-001	-1.06469E+000	3.57860E+000	10	...........
	59	0.8	9.39198E-001	5.99226E-003	0.00000E+000	5.62792E-003	3.59960E-001	-1.05291E+000	3.57860E+000	10	...........
	60	0.813333	9.44784E-001	5.99368E-003	0.00000E+000	5.66273E-003	3.59960E-001	-1.05283E+000	3.57860E+000	10	...........
	61	0.826667	9.50394E-001	5.99317E-003	0.00000E+000	5.69587E-003	3.59960E-001	-1.06448E+000	3.57860E+000	10	...........
	62	0.84	9.55938E-001	5.99498E-003	0.00000E+000	5.73083E-003	3.59960E-001	-1.05263E+000	3.57860E+000	10	...........
	63	0.853333	9.61437E-001	5.99246E-003	0.00000E+000	5.76137E-003	3.59960E-001	-1.05312E+000	3.57860E+000	10	...........
	64	0.866667	9.66858E-001	5.99264E-003	0.00000E+000	5.79404E-003	3.59960E-001	-1.06441E+000	3.57860E+000	10	...........
	65	0.88	9.72342E-001	5.99118E-003	0.00000E+000	5.82548E-003	3.59960E-001	-1.05276E+000	3.57860E+000	10	...........
	66	0.893333	9.77790E-001	5.99283E-003	0.00000E+000	5.85973E-003	3.59960E-001	-1.05249E+000	3.57860E+000	10	...........
	67	0.906667	9.83170E-001	5.99010E-003	0.00000E+000	5.88929E-003	3.59960E-001	-1.06403E+000	3.57860E+000	10	...........
	68	0.92	9.88551E-001	5.99716E-003	0.00000E+000	5.92850E-003	3.59960E-001	-1.05264E+000	3.57860E+000	10	...........
	69	0.933333	9.93883E-001	5.99583E-003	0.00000E+000	5.95915E-003	3.59960E-001	-1.05276E+000	3.57860E+000	10	...........
	70	0.943333	9.98533E-001	5.99431E-003	0.00000E+000	5.98551E-003	3.59960E-001	-1.06491E+000	3.57860E+000	10	...........
STARTTIMEOFFSET	QUANT	163.5967	Start Time Offset (s)