File: Data/CV_CRGO300517_1/PWRCCD_CRGO300517_1/CHARGE_DISCHARGE/CHARGE_#541.DTA
EXPLAIN
TAG	PWR800_CHARGE
TITLE	LABEL	PWR Cyclic Charge Discharge (Cell) - Charge Step	Test &Identifier
DATE	LABEL	22-6-2017	Date
TIME	LABEL	15:57:30	Time
NOTES	NOTES	3	&Notes...
	supercap test cell
	0.6mg
	6M KOH
PSTAT	PSTAT	IFC5000-01520	Potentiostat
CAPACITY	QUANT	1.00000E-003	Capacity (A-hr)
CELLTYPE	SELECTOR	1	&Cell Type
WORKINGCONNECTION	SELECTOR	0	&Working Lead
MAXCHARGETIME	VARIABLEANDUNITS	1.00000E+002	s	1.00000E+002	second(s)	Max &Charge Time
CHARGECURRENT	QUANT	6.00000E-003	&Charge Current (A)
VOLTAGEFINISH	TWOPARAM	F	1.00000E-003	3.60000E+003	&Voltage Finish	 I (A) < 	Max Time(s)
SAMPLETIME	QUANT	1.00000E-002	Sa&mple Period (s)
CHARGESTOPAT1	MULTIPARAM	4	1.00000E+000	Charge Stop At &1	Voltage > Limit	V
CHARGESTOPAT2	MULTIPARAM	0	0.00000E+000	Charge Stop At &2	None	N/A
AESBHCSELECTOR	TOGGLE	F	Save Both Half Cells
IRCOMP	TOGGLE	F	IR &Measure
EOC	QUANT	0	Open Circuit (V)
SEQUENCER	TOGGLE	TRUE	Run as Sequence
PSTATMODEL	IQUANT	53	Pstat Model
PSTATSECTION	LABEL	IFC5000-01520	Pstat Section
PSTATSERIALNO	LABEL	01520	Pstat Serial Number
CTRLMODE	IQUANT	0	Control Mode
ELECTROMETER	IQUANT	1	RE=0 or CS=1
IESTAB	IQUANT	0	I/E Stability
CASPEED	IQUANT	4	Control Amp Speed
CONVENTION	IQUANT	1	Current Convention
ICHRANGE	IQUANT	2	Ich Range
ICHRANGEMODE	TOGGLE	T	Ich Auto Range
ICHOFFSETENABLE	TOGGLE	F	Ich Offset Enable
ICHOFFSET	QUANT	0	Ich Offset (V)
ICHFILTER	IQUANT	1	Ich Filter
VCHRANGE	IQUANT	2	Vch Range
VCHRANGEMODE	TOGGLE	T	Vch Auto Range
VCHOFFSETENABLE	TOGGLE	F	Vch Offset Enable
VCHOFFSET	QUANT	0	Vch Offset (V)
VCHFILTER	IQUANT	1	Vch Filter
IERANGELOWERLIMIT	IQUANT	9	I/E Range Lower Limit
IERANGEMODE	TOGGLE	F	I/E AutoRange
IERANGE	IQUANT	10	I/E Range
ACHSELECT	IQUANT	1	Ach Select
ACHRANGE	IQUANT	2	Ach Range
ACHOFFSETENABLE	TOGGLE	F	Ach Offset Enable
ACHOFFSET	QUANT	0	Ach Offset (V)
ACHFILTER	IQUANT	1	Ach Filter
CABLEID	IQUANT	14	Cable ID
DCCALDATE	LABEL	20-10-2016	DC Calibration Date
ACCALDATE	LABEL	12/3/2015	AC Calibration Date
FRAMEWORKVERSION	QUANT	7.01	Framework Version
INSTRUMENTVERSION	LABEL	4.00	Instrument Version
CURVE	TABLE	58
	Pt	T	Vf	Im	Vu	Pwr	Sig	Ach	Temp	IERange	Over
	#	s	V	A	V	W	V	V	deg C	#	bits
	0	0.013333	6.34359E-001	5.99683E-003	0.00000E+000	3.80414E-003	3.59960E-001	-1.10591E+000	3.57790E+000	10	...........
	1	0.026667	6.43277E-001	5.99411E-003	0.00000E+000	3.85588E-003	3.59960E-001	-1.10641E+000	3.57790E+000	10	...........
	2	0.04	6.51460E-001	5.99247E-003	0.00000E+000	3.90385E-003	3.59960E-001	-1.09915E+000	3.57790E+000	10	...........
	3	0.053333	6.59272E-001	5.99213E-003	0.00000E+000	3.95044E-003	3.59960E-001	-1.10647E+000	3.57790E+000	10	...........
	4	0.066667	6.66798E-001	5.99247E-003	0.00000E+000	3.99577E-003	3.59960E-001	-1.10730E+000	3.57790E+000	10	...........
	5	0.08	6.74097E-001	5.99664E-003	0.00000E+000	4.04232E-003	3.59960E-001	-1.10025E+000	3.57790E+000	10	...........
	6	0.093333	6.81231E-001	5.99432E-003	0.00000E+000	4.08352E-003	3.59960E-001	-1.10812E+000	3.57790E+000	10	...........
	7	0.106667	6.88264E-001	5.99403E-003	0.00000E+000	4.12547E-003	3.59960E-001	-1.10892E+000	3.57790E+000	10	...........
	8	0.12	6.95226E-001	5.99396E-003	0.00000E+000	4.16716E-003	3.59960E-001	-1.10162E+000	3.57790E+000	10	...........
	9	0.133333	7.02118E-001	5.99493E-003	0.00000E+000	4.20914E-003	3.59960E-001	-1.10886E+000	3.57790E+000	10	...........
	10	0.146667	7.08938E-001	5.99216E-003	0.00000E+000	4.24807E-003	3.59960E-001	-1.10958E+000	3.57790E+000	10	...........
	11	0.16	7.15735E-001	5.99281E-003	0.00000E+000	4.28927E-003	3.59960E-001	-1.10213E+000	3.57790E+000	10	...........
	12	0.173333	7.22474E-001	5.99196E-003	0.00000E+000	4.32903E-003	3.59960E-001	-1.10940E+000	3.57790E+000	10	...........
	13	0.186667	7.29206E-001	5.99416E-003	0.00000E+000	4.37098E-003	3.59960E-001	-1.11017E+000	3.57790E+000	10	...........
	14	0.2	7.35836E-001	5.99465E-003	0.00000E+000	4.41108E-003	3.59960E-001	-1.10293E+000	3.57790E+000	10	...........
	15	0.213333	7.42478E-001	5.99232E-003	0.00000E+000	4.44916E-003	3.59960E-001	-1.11033E+000	3.57790E+000	10	...........
	16	0.226667	7.49080E-001	5.99382E-003	0.00000E+000	4.48985E-003	3.59960E-001	-1.11138E+000	3.57790E+000	10	...........
	17	0.24	7.55687E-001	5.99743E-003	0.00000E+000	4.53218E-003	3.59960E-001	-1.10419E+000	3.57790E+000	10	...........
	18	0.253333	7.62254E-001	5.99284E-003	0.00000E+000	4.56807E-003	3.59960E-001	-1.11145E+000	3.57790E+000	10	...........
	19	0.266667	7.68839E-001	5.98916E-003	0.00000E+000	4.60470E-003	3.59960E-001	-1.11254E+000	3.57790E+000	10	...........
	20	0.28	7.75355E-001	5.99605E-003	0.00000E+000	4.64907E-003	3.59960E-001	-1.10546E+000	3.57790E+000	10	...........
	21	0.293333	7.81853E-001	5.99073E-003	0.00000E+000	4.68387E-003	3.59960E-001	-1.11227E+000	3.57790E+000	10	...........
	22	0.306667	7.88331E-001	5.98958E-003	0.00000E+000	4.72177E-003	3.59960E-001	-1.11338E+000	3.57790E+000	10	...........
	23	0.32	7.94909E-001	5.99450E-003	0.00000E+000	4.76508E-003	3.59960E-001	-1.10564E+000	3.57790E+000	10	...........
	24	0.333333	8.01333E-001	5.98949E-003	0.00000E+000	4.79958E-003	3.59960E-001	-1.11247E+000	3.57790E+000	10	...........
	25	0.346667	8.07777E-001	6.00025E-003	0.00000E+000	4.84686E-003	3.59960E-001	-1.11384E+000	3.57790E+000	10	...........
	26	0.36	8.14218E-001	5.99407E-003	0.00000E+000	4.88048E-003	3.59960E-001	-1.10643E+000	3.57790E+000	10	...........
	27	0.373333	8.20675E-001	5.99475E-003	0.00000E+000	4.91974E-003	3.59960E-001	-1.11357E+000	3.57790E+000	10	...........
	28	0.386667	8.27056E-001	5.99320E-003	0.00000E+000	4.95671E-003	3.59960E-001	-1.11471E+000	3.57790E+000	10	...........
	29	0.4	8.33437E-001	5.99696E-003	0.00000E+000	4.99809E-003	3.59960E-001	-1.10719E+000	3.57790E+000	10	...........
	30	0.413333	8.39806E-001	5.99517E-003	0.00000E+000	5.03478E-003	3.59960E-001	-1.11429E+000	3.57790E+000	10	...........
	31	0.426667	8.46182E-001	5.99783E-003	0.00000E+000	5.07525E-003	3.59960E-001	-1.11575E+000	3.57790E+000	10	...........
	32	0.44	8.52506E-001	5.99500E-003	0.00000E+000	5.11077E-003	3.59960E-001	-1.10827E+000	3.57790E+000	10	...........
	33	0.453333	8.58777E-001	5.99615E-003	0.00000E+000	5.14935E-003	3.59960E-001	-1.11540E+000	3.57790E+000	10	...........
	34	0.466667	8.65053E-001	5.99609E-003	0.00000E+000	5.18693E-003	3.59960E-001	-1.11699E+000	3.57790E+000	10	...........
	35	0.48	8.71374E-001	5.99149E-003	0.00000E+000	5.22083E-003	3.59960E-001	-1.10924E+000	3.57790E+000	10	...........
	36	0.493333	8.77592E-001	5.99447E-003	0.00000E+000	5.26070E-003	3.59960E-001	-1.11639E+000	3.57790E+000	10	...........
	37	0.506667	8.83793E-001	5.99021E-003	0.00000E+000	5.29411E-003	3.59960E-001	-1.11767E+000	3.57790E+000	10	...........
	38	0.52	8.90016E-001	5.98938E-003	0.00000E+000	5.33064E-003	3.59960E-001	-1.11022E+000	3.57790E+000	10	...........
	39	0.533333	8.96169E-001	5.99721E-003	0.00000E+000	5.37452E-003	3.59960E-001	-1.11715E+000	3.57790E+000	10	...........
	40	0.546667	9.02325E-001	5.99102E-003	0.00000E+000	5.40585E-003	3.59960E-001	-1.11836E+000	3.57790E+000	10	...........
	41	0.56	9.08426E-001	5.98961E-003	0.00000E+000	5.44112E-003	3.59960E-001	-1.11089E+000	3.57790E+000	10	...........
	42	0.573333	9.14495E-001	5.99192E-003	0.00000E+000	5.47958E-003	3.59960E-001	-1.11780E+000	3.57790E+000	10	...........
	43	0.586667	9.20567E-001	5.99631E-003	0.00000E+000	5.52000E-003	3.59960E-001	-1.11921E+000	3.57790E+000	10	...........
	44	0.6	9.26612E-001	5.99506E-003	0.00000E+000	5.55510E-003	3.59960E-001	-1.11164E+000	3.57790E+000	10	...........
	45	0.613333	9.32579E-001	5.99251E-003	0.00000E+000	5.58849E-003	3.59960E-001	-1.11830E+000	3.57790E+000	10	...........
	46	0.626667	9.38542E-001	5.98958E-003	0.00000E+000	5.62147E-003	3.59960E-001	-1.11980E+000	3.57790E+000	10	...........
	47	0.64	9.44472E-001	5.99419E-003	0.00000E+000	5.66134E-003	3.59960E-001	-1.11212E+000	3.57815E+000	10	...........
	48	0.653333	9.50368E-001	5.99269E-003	0.00000E+000	5.69526E-003	3.59960E-001	-1.11860E+000	3.57830E+000	10	...........
	49	0.666667	9.56180E-001	5.99387E-003	0.00000E+000	5.73123E-003	3.59960E-001	-1.12031E+000	3.57830E+000	10	...........
	50	0.68	9.61897E-001	5.99074E-003	0.00000E+000	5.76247E-003	3.59960E-001	-1.11255E+000	3.57830E+000	10	...........
	51	0.693333	9.67642E-001	5.98689E-003	0.00000E+000	5.79316E-003	3.59960E-001	-1.11913E+000	3.57830E+000	10	...........
	52	0.706667	9.73410E-001	5.99253E-003	0.00000E+000	5.83319E-003	3.59960E-001	-1.12083E+000	3.57830E+000	10	...........
	53	0.72	9.79071E-001	5.99551E-003	0.00000E+000	5.87003E-003	3.59960E-001	-1.11309E+000	3.57830E+000	10	...........
	54	0.733333	9.84651E-001	5.99037E-003	0.00000E+000	5.89842E-003	3.59960E-001	-1.11967E+000	3.57830E+000	10	...........
	55	0.746667	9.90213E-001	5.99664E-003	0.00000E+000	5.93795E-003	3.59960E-001	-1.12140E+000	3.57830E+000	10	...........
	56	0.76	9.95685E-001	5.99551E-003	0.00000E+000	5.96964E-003	3.59960E-001	-1.11372E+000	3.57830E+000	10	...........
	57	0.765	9.99454E-001	5.99635E-003	0.00000E+000	5.99307E-003	3.59960E-001	-1.12886E+000	3.57830E+000	10	...........
STARTTIMEOFFSET	QUANT	921.8219	Start Time Offset (s)