File: Data/CV_CRGO300517_1/PWRCCD_CRGO300517_1/CHARGE_DISCHARGE/CHARGE_#413.DTA
EXPLAIN
TAG	PWR800_CHARGE
TITLE	LABEL	PWR Cyclic Charge Discharge (Cell) - Charge Step	Test &Identifier
DATE	LABEL	22-6-2017	Date
TIME	LABEL	15:52:29	Time
NOTES	NOTES	3	&Notes...
	supercap test cell
	0.6mg
	6M KOH
PSTAT	PSTAT	IFC5000-01520	Potentiostat
CAPACITY	QUANT	1.00000E-003	Capacity (A-hr)
CELLTYPE	SELECTOR	1	&Cell Type
WORKINGCONNECTION	SELECTOR	0	&Working Lead
MAXCHARGETIME	VARIABLEANDUNITS	1.00000E+002	s	1.00000E+002	second(s)	Max &Charge Time
CHARGECURRENT	QUANT	6.00000E-003	&Charge Current (A)
VOLTAGEFINISH	TWOPARAM	F	1.00000E-003	3.60000E+003	&Voltage Finish	 I (A) < 	Max Time(s)
SAMPLETIME	QUANT	1.00000E-002	Sa&mple Period (s)
CHARGESTOPAT1	MULTIPARAM	4	1.00000E+000	Charge Stop At &1	Voltage > Limit	V
CHARGESTOPAT2	MULTIPARAM	0	0.00000E+000	Charge Stop At &2	None	N/A
AESBHCSELECTOR	TOGGLE	F	Save Both Half Cells
IRCOMP	TOGGLE	F	IR &Measure
EOC	QUANT	0	Open Circuit (V)
SEQUENCER	TOGGLE	TRUE	Run as Sequence
PSTATMODEL	IQUANT	53	Pstat Model
PSTATSECTION	LABEL	IFC5000-01520	Pstat Section
PSTATSERIALNO	LABEL	01520	Pstat Serial Number
CTRLMODE	IQUANT	0	Control Mode
ELECTROMETER	IQUANT	1	RE=0 or CS=1
IESTAB	IQUANT	0	I/E Stability
CASPEED	IQUANT	4	Control Amp Speed
CONVENTION	IQUANT	1	Current Convention
ICHRANGE	IQUANT	2	Ich Range
ICHRANGEMODE	TOGGLE	T	Ich Auto Range
ICHOFFSETENABLE	TOGGLE	F	Ich Offset Enable
ICHOFFSET	QUANT	0	Ich Offset (V)
ICHFILTER	IQUANT	1	Ich Filter
VCHRANGE	IQUANT	2	Vch Range
VCHRANGEMODE	TOGGLE	T	Vch Auto Range
VCHOFFSETENABLE	TOGGLE	F	Vch Offset Enable
VCHOFFSET	QUANT	0	Vch Offset (V)
VCHFILTER	IQUANT	1	Vch Filter
IERANGELOWERLIMIT	IQUANT	9	I/E Range Lower Limit
IERANGEMODE	TOGGLE	F	I/E AutoRange
IERANGE	IQUANT	10	I/E Range
ACHSELECT	IQUANT	1	Ach Select
ACHRANGE	IQUANT	2	Ach Range
ACHOFFSETENABLE	TOGGLE	F	Ach Offset Enable
ACHOFFSET	QUANT	0	Ach Offset (V)
ACHFILTER	IQUANT	1	Ach Filter
CABLEID	IQUANT	14	Cable ID
DCCALDATE	LABEL	20-10-2016	DC Calibration Date
ACCALDATE	LABEL	12/3/2015	AC Calibration Date
FRAMEWORKVERSION	QUANT	7.01	Framework Version
INSTRUMENTVERSION	LABEL	4.00	Instrument Version
CURVE	TABLE	60
	Pt	T	Vf	Im	Vu	Pwr	Sig	Ach	Temp	IERange	Over
	#	s	V	A	V	W	V	V	deg C	#	bits
	0	0.013333	6.26181E-001	5.99624E-003	0.00000E+000	3.75473E-003	3.59960E-001	-1.12847E+000	3.57790E+000	10	...........
	1	0.026667	6.34899E-001	5.99225E-003	0.00000E+000	3.80447E-003	3.59960E-001	-1.12992E+000	3.57790E+000	10	...........
	2	0.04	6.42968E-001	5.99601E-003	0.00000E+000	3.85525E-003	3.59960E-001	-1.13837E+000	3.57790E+000	10	...........
	3	0.053333	6.50570E-001	5.99484E-003	0.00000E+000	3.90006E-003	3.59960E-001	-1.12804E+000	3.57790E+000	10	...........
	4	0.066667	6.57929E-001	5.99155E-003	0.00000E+000	3.94201E-003	3.59960E-001	-1.12983E+000	3.57790E+000	10	...........
	5	0.08	6.65084E-001	5.99106E-003	0.00000E+000	3.98456E-003	3.59960E-001	-1.13835E+000	3.57790E+000	10	...........
	6	0.093333	6.72104E-001	5.99525E-003	0.00000E+000	4.02943E-003	3.59960E-001	-1.12819E+000	3.57790E+000	10	...........
	7	0.106667	6.79043E-001	5.99237E-003	0.00000E+000	4.06908E-003	3.59960E-001	-1.12986E+000	3.57790E+000	10	...........
	8	0.12	6.85892E-001	5.99593E-003	0.00000E+000	4.11256E-003	3.59960E-001	-1.13796E+000	3.57790E+000	10	...........
	9	0.133333	6.92663E-001	5.99705E-003	0.00000E+000	4.15393E-003	3.59960E-001	-1.12791E+000	3.57790E+000	10	...........
	10	0.146667	6.99337E-001	5.98816E-003	0.00000E+000	4.18774E-003	3.59960E-001	-1.12992E+000	3.57790E+000	10	...........
	11	0.16	7.05973E-001	5.99260E-003	0.00000E+000	4.23061E-003	3.59960E-001	-1.13810E+000	3.57790E+000	10	...........
	12	0.173333	7.12568E-001	5.99442E-003	0.00000E+000	4.27143E-003	3.59960E-001	-1.12791E+000	3.57790E+000	10	...........
	13	0.186667	7.19180E-001	5.99756E-003	0.00000E+000	4.31332E-003	3.59960E-001	-1.12956E+000	3.57790E+000	10	...........
	14	0.2	7.25746E-001	5.99551E-003	0.00000E+000	4.35122E-003	3.59960E-001	-1.13809E+000	3.57790E+000	10	...........
	15	0.213333	7.32229E-001	5.99644E-003	0.00000E+000	4.39077E-003	3.59960E-001	-1.12789E+000	3.57790E+000	10	...........
	16	0.226667	7.38704E-001	5.98843E-003	0.00000E+000	4.42368E-003	3.59960E-001	-1.12978E+000	3.57790E+000	10	...........
	17	0.24	7.45222E-001	5.99530E-003	0.00000E+000	4.46783E-003	3.59960E-001	-1.13795E+000	3.57790E+000	10	...........
	18	0.253333	7.51675E-001	5.99583E-003	0.00000E+000	4.50691E-003	3.59960E-001	-1.12767E+000	3.57790E+000	10	...........
	19	0.266667	7.58115E-001	5.99904E-003	0.00000E+000	4.54796E-003	3.59960E-001	-1.12966E+000	3.57790E+000	10	...........
	20	0.28	7.64527E-001	5.98841E-003	0.00000E+000	4.57830E-003	3.59960E-001	-1.13781E+000	3.57790E+000	10	...........
	21	0.293333	7.70969E-001	5.99648E-003	0.00000E+000	4.62310E-003	3.59960E-001	-1.12732E+000	3.57790E+000	10	...........
	22	0.306667	7.77364E-001	5.99376E-003	0.00000E+000	4.65933E-003	3.59960E-001	-1.12925E+000	3.57790E+000	10	...........
	23	0.32	7.83756E-001	5.99864E-003	0.00000E+000	4.70147E-003	3.59960E-001	-1.13738E+000	3.57790E+000	10	...........
	24	0.333333	7.90141E-001	5.99531E-003	0.00000E+000	4.73715E-003	3.59960E-001	-1.12723E+000	3.57790E+000	10	...........
	25	0.346667	7.96490E-001	5.99446E-003	0.00000E+000	4.77453E-003	3.59960E-001	-1.12943E+000	3.57790E+000	10	...........
	26	0.36	8.02821E-001	5.99343E-003	0.00000E+000	4.81165E-003	3.59960E-001	-1.13728E+000	3.57790E+000	10	...........
	27	0.373333	8.09115E-001	5.99588E-003	0.00000E+000	4.85135E-003	3.59960E-001	-1.12722E+000	3.57790E+000	10	...........
	28	0.386667	8.15459E-001	5.99608E-003	0.00000E+000	4.88956E-003	3.59960E-001	-1.12917E+000	3.57790E+000	10	...........
	29	0.4	8.21781E-001	5.98945E-003	0.00000E+000	4.92202E-003	3.59960E-001	-1.13719E+000	3.57790E+000	10	...........
	30	0.413333	8.28043E-001	5.99456E-003	0.00000E+000	4.96376E-003	3.59960E-001	-1.12718E+000	3.57790E+000	10	...........
	31	0.426667	8.34295E-001	5.99773E-003	0.00000E+000	5.00388E-003	3.59960E-001	-1.12927E+000	3.57790E+000	10	...........
	32	0.44	8.40500E-001	5.99379E-003	0.00000E+000	5.03778E-003	3.59960E-001	-1.13714E+000	3.57790E+000	10	...........
	33	0.453333	8.46790E-001	5.99472E-003	0.00000E+000	5.07627E-003	3.59960E-001	-1.12671E+000	3.57790E+000	10	...........
	34	0.466667	8.53015E-001	5.99867E-003	0.00000E+000	5.11696E-003	3.59960E-001	-1.12938E+000	3.57790E+000	10	...........
	35	0.48	8.59211E-001	5.99646E-003	0.00000E+000	5.15222E-003	3.59960E-001	-1.13715E+000	3.57790E+000	10	...........
	36	0.493333	8.65387E-001	5.99491E-003	0.00000E+000	5.18791E-003	3.59960E-001	-1.12693E+000	3.57790E+000	10	...........
	37	0.506667	8.71618E-001	5.99424E-003	0.00000E+000	5.22469E-003	3.59960E-001	-1.12892E+000	3.57790E+000	10	...........
	38	0.52	8.77784E-001	5.99459E-003	0.00000E+000	5.26196E-003	3.59960E-001	-1.13694E+000	3.57790E+000	10	...........
	39	0.533333	8.83921E-001	5.99491E-003	0.00000E+000	5.29902E-003	3.59960E-001	-1.12698E+000	3.57790E+000	10	...........
	40	0.546667	8.90011E-001	5.99643E-003	0.00000E+000	5.33689E-003	3.59960E-001	-1.12939E+000	3.57790E+000	10	...........
	41	0.56	8.96086E-001	5.99564E-003	0.00000E+000	5.37260E-003	3.59960E-001	-1.13696E+000	3.57790E+000	10	...........
	42	0.573333	9.02190E-001	5.99114E-003	0.00000E+000	5.40515E-003	3.59960E-001	-1.12685E+000	3.57790E+000	10	...........
	43	0.586667	9.08260E-001	5.99283E-003	0.00000E+000	5.44305E-003	3.59960E-001	-1.12922E+000	3.57790E+000	10	...........
	44	0.6	9.14237E-001	5.99459E-003	0.00000E+000	5.48048E-003	3.59960E-001	-1.13692E+000	3.57790E+000	10	...........
	45	0.613333	9.20254E-001	5.99333E-003	0.00000E+000	5.51539E-003	3.59960E-001	-1.12671E+000	3.57790E+000	10	...........
	46	0.626667	9.26254E-001	5.99391E-003	0.00000E+000	5.55188E-003	3.59960E-001	-1.12902E+000	3.57790E+000	10	...........
	47	0.64	9.32173E-001	6.00063E-003	0.00000E+000	5.59363E-003	3.59960E-001	-1.13659E+000	3.57790E+000	10	...........
	48	0.653333	9.38012E-001	5.99067E-003	0.00000E+000	5.61932E-003	3.59960E-001	-1.12642E+000	3.57790E+000	10	...........
	49	0.666667	9.43868E-001	5.99322E-003	0.00000E+000	5.65681E-003	3.59960E-001	-1.12911E+000	3.57790E+000	10	...........
	50	0.68	9.49752E-001	5.99832E-003	0.00000E+000	5.69691E-003	3.59960E-001	-1.13664E+000	3.57790E+000	10	...........
	51	0.693333	9.55487E-001	5.99173E-003	0.00000E+000	5.72502E-003	3.59960E-001	-1.12637E+000	3.57790E+000	10	...........
	52	0.706667	9.61213E-001	5.99529E-003	0.00000E+000	5.76276E-003	3.59960E-001	-1.12895E+000	3.57790E+000	10	...........
	53	0.72	9.66900E-001	5.99707E-003	0.00000E+000	5.79857E-003	3.59960E-001	-1.13629E+000	3.57790E+000	10	...........
	54	0.733333	9.72560E-001	5.99466E-003	0.00000E+000	5.83016E-003	3.59960E-001	-1.12637E+000	3.57790E+000	10	...........
	55	0.746667	9.78158E-001	5.99446E-003	0.00000E+000	5.86353E-003	3.59960E-001	-1.12898E+000	3.57790E+000	10	...........
	56	0.76	9.83728E-001	5.99470E-003	0.00000E+000	5.89715E-003	3.59960E-001	-1.13642E+000	3.57790E+000	10	...........
	57	0.773333	9.89276E-001	5.99451E-003	0.00000E+000	5.93023E-003	3.59960E-001	-1.12636E+000	3.57790E+000	10	...........
	58	0.786667	9.94737E-001	5.99586E-003	0.00000E+000	5.96430E-003	3.59960E-001	-1.12894E+000	3.57790E+000	10	...........
	59	0.795	9.99152E-001	5.99152E-003	0.00000E+000	5.98644E-003	3.59960E-001	-1.13489E+000	3.57790E+000	10	...........
STARTTIMEOFFSET	QUANT	723.2651	Start Time Offset (s)