File: Data/CV_CRGO300517_1/PWRCCD_CRGO300517_1/CHARGE_DISCHARGE/CHARGE_#585.DTA
EXPLAIN
TAG	PWR800_CHARGE
TITLE	LABEL	PWR Cyclic Charge Discharge (Cell) - Charge Step	Test &Identifier
DATE	LABEL	22-6-2017	Date
TIME	LABEL	15:59:11	Time
NOTES	NOTES	3	&Notes...
	supercap test cell
	0.6mg
	6M KOH
PSTAT	PSTAT	IFC5000-01520	Potentiostat
CAPACITY	QUANT	1.00000E-003	Capacity (A-hr)
CELLTYPE	SELECTOR	1	&Cell Type
WORKINGCONNECTION	SELECTOR	0	&Working Lead
MAXCHARGETIME	VARIABLEANDUNITS	1.00000E+002	s	1.00000E+002	second(s)	Max &Charge Time
CHARGECURRENT	QUANT	6.00000E-003	&Charge Current (A)
VOLTAGEFINISH	TWOPARAM	F	1.00000E-003	3.60000E+003	&Voltage Finish	 I (A) < 	Max Time(s)
SAMPLETIME	QUANT	1.00000E-002	Sa&mple Period (s)
CHARGESTOPAT1	MULTIPARAM	4	1.00000E+000	Charge Stop At &1	Voltage > Limit	V
CHARGESTOPAT2	MULTIPARAM	0	0.00000E+000	Charge Stop At &2	None	N/A
AESBHCSELECTOR	TOGGLE	F	Save Both Half Cells
IRCOMP	TOGGLE	F	IR &Measure
EOC	QUANT	0	Open Circuit (V)
SEQUENCER	TOGGLE	TRUE	Run as Sequence
PSTATMODEL	IQUANT	53	Pstat Model
PSTATSECTION	LABEL	IFC5000-01520	Pstat Section
PSTATSERIALNO	LABEL	01520	Pstat Serial Number
CTRLMODE	IQUANT	0	Control Mode
ELECTROMETER	IQUANT	1	RE=0 or CS=1
IESTAB	IQUANT	0	I/E Stability
CASPEED	IQUANT	4	Control Amp Speed
CONVENTION	IQUANT	1	Current Convention
ICHRANGE	IQUANT	2	Ich Range
ICHRANGEMODE	TOGGLE	T	Ich Auto Range
ICHOFFSETENABLE	TOGGLE	F	Ich Offset Enable
ICHOFFSET	QUANT	0	Ich Offset (V)
ICHFILTER	IQUANT	1	Ich Filter
VCHRANGE	IQUANT	2	Vch Range
VCHRANGEMODE	TOGGLE	T	Vch Auto Range
VCHOFFSETENABLE	TOGGLE	F	Vch Offset Enable
VCHOFFSET	QUANT	0	Vch Offset (V)
VCHFILTER	IQUANT	1	Vch Filter
IERANGELOWERLIMIT	IQUANT	9	I/E Range Lower Limit
IERANGEMODE	TOGGLE	F	I/E AutoRange
IERANGE	IQUANT	10	I/E Range
ACHSELECT	IQUANT	1	Ach Select
ACHRANGE	IQUANT	2	Ach Range
ACHOFFSETENABLE	TOGGLE	F	Ach Offset Enable
ACHOFFSET	QUANT	0	Ach Offset (V)
ACHFILTER	IQUANT	1	Ach Filter
CABLEID	IQUANT	14	Cable ID
DCCALDATE	LABEL	20-10-2016	DC Calibration Date
ACCALDATE	LABEL	12/3/2015	AC Calibration Date
FRAMEWORKVERSION	QUANT	7.01	Framework Version
INSTRUMENTVERSION	LABEL	4.00	Instrument Version
CURVE	TABLE	57
	Pt	T	Vf	Im	Vu	Pwr	Sig	Ach	Temp	IERange	Over
	#	s	V	A	V	W	V	V	deg C	#	bits
	0	0.013333	6.37450E-001	5.99423E-003	0.00000E+000	3.82102E-003	3.59960E-001	-1.14322E+000	3.57640E+000	10	...........
	1	0.026667	6.46443E-001	5.99092E-003	0.00000E+000	3.87279E-003	3.59960E-001	-1.15419E+000	3.57640E+000	10	...........
	2	0.04	6.54663E-001	5.99931E-003	0.00000E+000	3.92752E-003	3.59960E-001	-1.14565E+000	3.57640E+000	10	...........
	3	0.053333	6.62497E-001	5.99904E-003	0.00000E+000	3.97434E-003	3.59960E-001	-1.14330E+000	3.57640E+000	10	...........
	4	0.066667	6.70047E-001	5.99923E-003	0.00000E+000	4.01976E-003	3.59960E-001	-1.15439E+000	3.57640E+000	10	...........
	5	0.08	6.77387E-001	5.99123E-003	0.00000E+000	4.05838E-003	3.59960E-001	-1.14570E+000	3.57640E+000	10	...........
	6	0.093333	6.84580E-001	5.99568E-003	0.00000E+000	4.10452E-003	3.59960E-001	-1.14317E+000	3.57640E+000	10	...........
	7	0.106667	6.91655E-001	5.99355E-003	0.00000E+000	4.14547E-003	3.59960E-001	-1.15431E+000	3.57640E+000	10	...........
	8	0.12	6.98641E-001	5.98727E-003	0.00000E+000	4.18296E-003	3.59960E-001	-1.14574E+000	3.57640E+000	10	...........
	9	0.133333	7.05565E-001	5.99303E-003	0.00000E+000	4.22847E-003	3.59960E-001	-1.14308E+000	3.57640E+000	10	...........
	10	0.146667	7.12380E-001	5.99846E-003	0.00000E+000	4.27319E-003	3.59960E-001	-1.15399E+000	3.57640E+000	10	...........
	11	0.16	7.19224E-001	5.99851E-003	0.00000E+000	4.31427E-003	3.59960E-001	-1.14551E+000	3.57640E+000	10	...........
	12	0.173333	7.26000E-001	5.99139E-003	0.00000E+000	4.34975E-003	3.59960E-001	-1.14305E+000	3.57640E+000	10	...........
	13	0.186667	7.32719E-001	5.99151E-003	0.00000E+000	4.39009E-003	3.59960E-001	-1.15424E+000	3.57640E+000	10	...........
	14	0.2	7.39379E-001	5.99172E-003	0.00000E+000	4.43015E-003	3.59960E-001	-1.14570E+000	3.57640E+000	10	...........
	15	0.213333	7.46129E-001	6.00105E-003	0.00000E+000	4.47756E-003	3.59960E-001	-1.14318E+000	3.57640E+000	10	...........
	16	0.226667	7.52756E-001	5.99305E-003	0.00000E+000	4.51131E-003	3.59960E-001	-1.15402E+000	3.57640E+000	10	...........
	17	0.24	7.59405E-001	5.99275E-003	0.00000E+000	4.55092E-003	3.59960E-001	-1.14555E+000	3.57640E+000	10	...........
	18	0.253333	7.65972E-001	5.99357E-003	0.00000E+000	4.59091E-003	3.59960E-001	-1.14311E+000	3.57640E+000	10	...........
	19	0.266667	7.72550E-001	5.99434E-003	0.00000E+000	4.63093E-003	3.59960E-001	-1.15415E+000	3.57640E+000	10	...........
	20	0.28	7.79126E-001	5.99127E-003	0.00000E+000	4.66795E-003	3.59960E-001	-1.14521E+000	3.57648E+000	10	...........
	21	0.293333	7.85633E-001	5.99446E-003	0.00000E+000	4.70945E-003	3.59960E-001	-1.14265E+000	3.57670E+000	10	...........
	22	0.306667	7.92231E-001	5.99701E-003	0.00000E+000	4.75102E-003	3.59960E-001	-1.15363E+000	3.57670E+000	10	...........
	23	0.32	7.98750E-001	5.99544E-003	0.00000E+000	4.78885E-003	3.59960E-001	-1.14521E+000	3.57670E+000	10	...........
	24	0.333333	8.05217E-001	5.99383E-003	0.00000E+000	4.82634E-003	3.59960E-001	-1.14262E+000	3.57670E+000	10	...........
	25	0.346667	8.11668E-001	5.99892E-003	0.00000E+000	4.86913E-003	3.59960E-001	-1.15388E+000	3.57670E+000	10	...........
	26	0.36	8.18165E-001	5.99271E-003	0.00000E+000	4.90303E-003	3.59960E-001	-1.14508E+000	3.57670E+000	10	...........
	27	0.373333	8.24600E-001	5.99425E-003	0.00000E+000	4.94286E-003	3.59960E-001	-1.14276E+000	3.57670E+000	10	...........
	28	0.386667	8.30992E-001	5.99349E-003	0.00000E+000	4.98054E-003	3.59960E-001	-1.15383E+000	3.57670E+000	10	...........
	29	0.4	8.37383E-001	5.99522E-003	0.00000E+000	5.02029E-003	3.59960E-001	-1.14527E+000	3.57670E+000	10	...........
	30	0.413333	8.43776E-001	5.99188E-003	0.00000E+000	5.05581E-003	3.59960E-001	-1.14271E+000	3.57670E+000	10	...........
	31	0.426667	8.50131E-001	5.99360E-003	0.00000E+000	5.09535E-003	3.59960E-001	-1.15373E+000	3.57670E+000	10	...........
	32	0.44	8.56451E-001	5.99190E-003	0.00000E+000	5.13177E-003	3.59960E-001	-1.14494E+000	3.57670E+000	10	...........
	33	0.453333	8.62802E-001	5.99229E-003	0.00000E+000	5.17016E-003	3.59960E-001	-1.14275E+000	3.57670E+000	10	...........
	34	0.466667	8.69119E-001	5.99790E-003	0.00000E+000	5.21289E-003	3.59960E-001	-1.15365E+000	3.57670E+000	10	...........
	35	0.48	8.75403E-001	5.99124E-003	0.00000E+000	5.24474E-003	3.59960E-001	-1.14526E+000	3.57670E+000	10	...........
	36	0.493333	8.81624E-001	5.99819E-003	0.00000E+000	5.28815E-003	3.59960E-001	-1.14262E+000	3.57670E+000	10	...........
	37	0.506667	8.87909E-001	5.99517E-003	0.00000E+000	5.32316E-003	3.59960E-001	-1.15364E+000	3.57670E+000	10	...........
	38	0.52	8.94100E-001	5.99465E-003	0.00000E+000	5.35981E-003	3.59960E-001	-1.14515E+000	3.57670E+000	10	...........
	39	0.533333	9.00281E-001	5.99535E-003	0.00000E+000	5.39749E-003	3.59960E-001	-1.14287E+000	3.57670E+000	10	...........
	40	0.546667	9.06418E-001	5.99277E-003	0.00000E+000	5.43195E-003	3.59960E-001	-1.15390E+000	3.57670E+000	10	...........
	41	0.56	9.12540E-001	5.99521E-003	0.00000E+000	5.47087E-003	3.59960E-001	-1.14524E+000	3.57670E+000	10	...........
	42	0.573333	9.18648E-001	5.99620E-003	0.00000E+000	5.50840E-003	3.59960E-001	-1.14280E+000	3.57670E+000	10	...........
	43	0.586667	9.24744E-001	6.00010E-003	0.00000E+000	5.54856E-003	3.59960E-001	-1.15386E+000	3.57670E+000	10	...........
	44	0.6	9.30716E-001	5.99408E-003	0.00000E+000	5.57879E-003	3.59960E-001	-1.14516E+000	3.57670E+000	10	...........
	45	0.613333	9.36662E-001	5.99076E-003	0.00000E+000	5.61131E-003	3.59960E-001	-1.14245E+000	3.57670E+000	10	...........
	46	0.626667	9.42588E-001	5.99047E-003	0.00000E+000	5.64655E-003	3.59960E-001	-1.15357E+000	3.57670E+000	10	...........
	47	0.64	9.48504E-001	5.99136E-003	0.00000E+000	5.68283E-003	3.59960E-001	-1.14484E+000	3.57670E+000	10	...........
	48	0.653333	9.54305E-001	5.99469E-003	0.00000E+000	5.72076E-003	3.59960E-001	-1.14247E+000	3.57670E+000	10	...........
	49	0.666667	9.60103E-001	5.99068E-003	0.00000E+000	5.75167E-003	3.59960E-001	-1.15360E+000	3.57670E+000	10	...........
	50	0.68	9.65888E-001	5.99444E-003	0.00000E+000	5.78995E-003	3.59960E-001	-1.14491E+000	3.57670E+000	10	...........
	51	0.693333	9.71616E-001	5.98796E-003	0.00000E+000	5.81800E-003	3.59960E-001	-1.14237E+000	3.57670E+000	10	...........
	52	0.706667	9.77352E-001	5.99925E-003	0.00000E+000	5.86337E-003	3.59960E-001	-1.15344E+000	3.57670E+000	10	...........
	53	0.72	9.82970E-001	6.00037E-003	0.00000E+000	5.89819E-003	3.59960E-001	-1.14489E+000	3.57670E+000	10	...........
	54	0.733333	9.88531E-001	5.99385E-003	0.00000E+000	5.92511E-003	3.59960E-001	-1.14241E+000	3.57670E+000	10	...........
	55	0.746667	9.94047E-001	5.99277E-003	0.00000E+000	5.95709E-003	3.59960E-001	-1.15364E+000	3.57670E+000	10	...........
	56	0.756667	9.98857E-001	5.98709E-003	0.00000E+000	5.98024E-003	3.59960E-001	-1.14073E+000	3.57670E+000	10	...........
STARTTIMEOFFSET	QUANT	988.41	Start Time Offset (s)