File: Data/CV_CRGO300517_1/PWRCCD_CRGO300517_1/CHARGE_DISCHARGE/CHARGE_#311.DTA
EXPLAIN
TAG	PWR800_CHARGE
TITLE	LABEL	PWR Cyclic Charge Discharge (Cell) - Charge Step	Test &Identifier
DATE	LABEL	22-6-2017	Date
TIME	LABEL	15:48:23	Time
NOTES	NOTES	3	&Notes...
	supercap test cell
	0.6mg
	6M KOH
PSTAT	PSTAT	IFC5000-01520	Potentiostat
CAPACITY	QUANT	1.00000E-003	Capacity (A-hr)
CELLTYPE	SELECTOR	1	&Cell Type
WORKINGCONNECTION	SELECTOR	0	&Working Lead
MAXCHARGETIME	VARIABLEANDUNITS	1.00000E+002	s	1.00000E+002	second(s)	Max &Charge Time
CHARGECURRENT	QUANT	6.00000E-003	&Charge Current (A)
VOLTAGEFINISH	TWOPARAM	F	1.00000E-003	3.60000E+003	&Voltage Finish	 I (A) < 	Max Time(s)
SAMPLETIME	QUANT	1.00000E-002	Sa&mple Period (s)
CHARGESTOPAT1	MULTIPARAM	4	1.00000E+000	Charge Stop At &1	Voltage > Limit	V
CHARGESTOPAT2	MULTIPARAM	0	0.00000E+000	Charge Stop At &2	None	N/A
AESBHCSELECTOR	TOGGLE	F	Save Both Half Cells
IRCOMP	TOGGLE	F	IR &Measure
EOC	QUANT	0	Open Circuit (V)
SEQUENCER	TOGGLE	TRUE	Run as Sequence
PSTATMODEL	IQUANT	53	Pstat Model
PSTATSECTION	LABEL	IFC5000-01520	Pstat Section
PSTATSERIALNO	LABEL	01520	Pstat Serial Number
CTRLMODE	IQUANT	0	Control Mode
ELECTROMETER	IQUANT	1	RE=0 or CS=1
IESTAB	IQUANT	0	I/E Stability
CASPEED	IQUANT	4	Control Amp Speed
CONVENTION	IQUANT	1	Current Convention
ICHRANGE	IQUANT	2	Ich Range
ICHRANGEMODE	TOGGLE	T	Ich Auto Range
ICHOFFSETENABLE	TOGGLE	F	Ich Offset Enable
ICHOFFSET	QUANT	0	Ich Offset (V)
ICHFILTER	IQUANT	1	Ich Filter
VCHRANGE	IQUANT	2	Vch Range
VCHRANGEMODE	TOGGLE	T	Vch Auto Range
VCHOFFSETENABLE	TOGGLE	F	Vch Offset Enable
VCHOFFSET	QUANT	0	Vch Offset (V)
VCHFILTER	IQUANT	1	Vch Filter
IERANGELOWERLIMIT	IQUANT	9	I/E Range Lower Limit
IERANGEMODE	TOGGLE	F	I/E AutoRange
IERANGE	IQUANT	10	I/E Range
ACHSELECT	IQUANT	1	Ach Select
ACHRANGE	IQUANT	2	Ach Range
ACHOFFSETENABLE	TOGGLE	F	Ach Offset Enable
ACHOFFSET	QUANT	0	Ach Offset (V)
ACHFILTER	IQUANT	1	Ach Filter
CABLEID	IQUANT	14	Cable ID
DCCALDATE	LABEL	20-10-2016	DC Calibration Date
ACCALDATE	LABEL	12/3/2015	AC Calibration Date
FRAMEWORKVERSION	QUANT	7.01	Framework Version
INSTRUMENTVERSION	LABEL	4.00	Instrument Version
CURVE	TABLE	62
	Pt	T	Vf	Im	Vu	Pwr	Sig	Ach	Temp	IERange	Over
	#	s	V	A	V	W	V	V	deg C	#	bits
	0	0.013333	6.17445E-001	5.99248E-003	0.00000E+000	3.70003E-003	3.59960E-001	-1.10354E+000	3.57660E+000	10	...........
	1	0.026667	6.26043E-001	5.98969E-003	0.00000E+000	3.74981E-003	3.59960E-001	-1.10750E+000	3.57660E+000	10	...........
	2	0.04	6.33945E-001	5.99469E-003	0.00000E+000	3.80030E-003	3.59960E-001	-1.11234E+000	3.57660E+000	10	...........
	3	0.053333	6.41470E-001	5.99348E-003	0.00000E+000	3.84464E-003	3.59960E-001	-1.10331E+000	3.57660E+000	10	...........
	4	0.066667	6.48735E-001	5.99706E-003	0.00000E+000	3.89050E-003	3.59960E-001	-1.10763E+000	3.57660E+000	10	...........
	5	0.08	6.55798E-001	5.99395E-003	0.00000E+000	3.93082E-003	3.59960E-001	-1.11229E+000	3.57660E+000	10	...........
	6	0.093333	6.62699E-001	5.99454E-003	0.00000E+000	3.97258E-003	3.59960E-001	-1.10334E+000	3.57660E+000	10	...........
	7	0.106667	6.69502E-001	5.99352E-003	0.00000E+000	4.01267E-003	3.59960E-001	-1.10734E+000	3.57660E+000	10	...........
	8	0.12	6.76201E-001	5.99201E-003	0.00000E+000	4.05180E-003	3.59960E-001	-1.11204E+000	3.57660E+000	10	...........
	9	0.133333	6.82847E-001	5.99251E-003	0.00000E+000	4.09197E-003	3.59960E-001	-1.10341E+000	3.57660E+000	10	...........
	10	0.146667	6.89428E-001	5.99477E-003	0.00000E+000	4.13296E-003	3.59960E-001	-1.10771E+000	3.57660E+000	10	...........
	11	0.16	6.95995E-001	5.99393E-003	0.00000E+000	4.17174E-003	3.59960E-001	-1.11219E+000	3.57660E+000	10	...........
	12	0.173333	7.02475E-001	5.99506E-003	0.00000E+000	4.21138E-003	3.59960E-001	-1.10355E+000	3.57660E+000	10	...........
	13	0.186667	7.08921E-001	5.99704E-003	0.00000E+000	4.25143E-003	3.59960E-001	-1.10765E+000	3.57660E+000	10	...........
	14	0.2	7.15347E-001	5.99474E-003	0.00000E+000	4.28832E-003	3.59960E-001	-1.11240E+000	3.57660E+000	10	...........
	15	0.213333	7.21780E-001	5.99380E-003	0.00000E+000	4.32621E-003	3.59960E-001	-1.10365E+000	3.57660E+000	10	...........
	16	0.226667	7.28205E-001	5.99309E-003	0.00000E+000	4.36420E-003	3.59960E-001	-1.10764E+000	3.57660E+000	10	...........
	17	0.24	7.34541E-001	5.99771E-003	0.00000E+000	4.40557E-003	3.59960E-001	-1.11217E+000	3.57683E+000	10	...........
	18	0.253333	7.40879E-001	5.99567E-003	0.00000E+000	4.44207E-003	3.59960E-001	-1.10339E+000	3.57700E+000	10	...........
	19	0.266667	7.47197E-001	5.99422E-003	0.00000E+000	4.47886E-003	3.59960E-001	-1.10780E+000	3.57700E+000	10	...........
	20	0.28	7.53539E-001	5.99719E-003	0.00000E+000	4.51912E-003	3.59960E-001	-1.11202E+000	3.57700E+000	10	...........
	21	0.293333	7.59870E-001	5.99530E-003	0.00000E+000	4.55565E-003	3.59960E-001	-1.10310E+000	3.57700E+000	10	...........
	22	0.306667	7.66173E-001	5.99629E-003	0.00000E+000	4.59420E-003	3.59960E-001	-1.10723E+000	3.57700E+000	10	...........
	23	0.32	7.72475E-001	5.99467E-003	0.00000E+000	4.63073E-003	3.59960E-001	-1.11203E+000	3.57700E+000	10	...........
	24	0.333333	7.78748E-001	5.99289E-003	0.00000E+000	4.66696E-003	3.59960E-001	-1.10335E+000	3.57700E+000	10	...........
	25	0.346667	7.84994E-001	5.99407E-003	0.00000E+000	4.70531E-003	3.59960E-001	-1.10750E+000	3.57700E+000	10	...........
	26	0.36	7.91291E-001	5.99473E-003	0.00000E+000	4.74357E-003	3.59960E-001	-1.11215E+000	3.57700E+000	10	...........
	27	0.373333	7.97570E-001	5.99569E-003	0.00000E+000	4.78198E-003	3.59960E-001	-1.10333E+000	3.57700E+000	10	...........
	28	0.386667	8.03798E-001	5.99343E-003	0.00000E+000	4.81750E-003	3.59960E-001	-1.10764E+000	3.57700E+000	10	...........
	29	0.4	8.10021E-001	5.99376E-003	0.00000E+000	4.85507E-003	3.59960E-001	-1.11239E+000	3.57700E+000	10	...........
	30	0.413333	8.16204E-001	5.99447E-003	0.00000E+000	4.89271E-003	3.59960E-001	-1.10353E+000	3.57700E+000	10	...........
	31	0.426667	8.22420E-001	5.99036E-003	0.00000E+000	4.92659E-003	3.59960E-001	-1.10783E+000	3.57700E+000	10	...........
	32	0.44	8.28621E-001	5.99435E-003	0.00000E+000	4.96705E-003	3.59960E-001	-1.11206E+000	3.57700E+000	10	...........
	33	0.453333	8.34794E-001	5.98848E-003	0.00000E+000	4.99915E-003	3.59960E-001	-1.10355E+000	3.57700E+000	10	...........
	34	0.466667	8.40973E-001	5.99353E-003	0.00000E+000	5.04040E-003	3.59960E-001	-1.10775E+000	3.57700E+000	10	...........
	35	0.48	8.47152E-001	5.99366E-003	0.00000E+000	5.07754E-003	3.59960E-001	-1.11230E+000	3.57700E+000	10	...........
	36	0.493333	8.53301E-001	5.99541E-003	0.00000E+000	5.11589E-003	3.59960E-001	-1.10357E+000	3.57700E+000	10	...........
	37	0.506667	8.59421E-001	5.99551E-003	0.00000E+000	5.15267E-003	3.59960E-001	-1.10779E+000	3.57700E+000	10	...........
	38	0.52	8.65468E-001	5.99602E-003	0.00000E+000	5.18937E-003	3.59960E-001	-1.11252E+000	3.57700E+000	10	...........
	39	0.533333	8.71616E-001	5.99173E-003	0.00000E+000	5.22249E-003	3.59960E-001	-1.10384E+000	3.57700E+000	10	...........
	40	0.546667	8.77688E-001	5.99560E-003	0.00000E+000	5.26226E-003	3.59960E-001	-1.10809E+000	3.57700E+000	10	...........
	41	0.56	8.83779E-001	5.99287E-003	0.00000E+000	5.29637E-003	3.59960E-001	-1.11252E+000	3.57700E+000	10	...........
	42	0.573333	8.89809E-001	6.00092E-003	0.00000E+000	5.33967E-003	3.59960E-001	-1.10366E+000	3.57700E+000	10	...........
	43	0.586667	8.95844E-001	5.99529E-003	0.00000E+000	5.37085E-003	3.59960E-001	-1.10801E+000	3.57700E+000	10	...........
	44	0.6	9.01784E-001	5.99817E-003	0.00000E+000	5.40905E-003	3.59960E-001	-1.11234E+000	3.57700E+000	10	...........
	45	0.613333	9.07755E-001	5.99214E-003	0.00000E+000	5.43940E-003	3.59960E-001	-1.10354E+000	3.57700E+000	10	...........
	46	0.626667	9.13717E-001	5.99252E-003	0.00000E+000	5.47547E-003	3.59960E-001	-1.10768E+000	3.57700E+000	10	...........
	47	0.64	9.19667E-001	5.99244E-003	0.00000E+000	5.51104E-003	3.59960E-001	-1.11210E+000	3.57700E+000	10	...........
	48	0.653333	9.25616E-001	5.99744E-003	0.00000E+000	5.55133E-003	3.59960E-001	-1.10361E+000	3.57700E+000	10	...........
	49	0.666667	9.31481E-001	5.99345E-003	0.00000E+000	5.58278E-003	3.59960E-001	-1.10785E+000	3.57700E+000	10	...........
	50	0.68	9.37307E-001	5.98980E-003	0.00000E+000	5.61428E-003	3.59960E-001	-1.11225E+000	3.57700E+000	10	...........
	51	0.693333	9.43075E-001	5.98923E-003	0.00000E+000	5.64830E-003	3.59960E-001	-1.10349E+000	3.57700E+000	10	...........
	52	0.706667	9.48845E-001	5.99237E-003	0.00000E+000	5.68583E-003	3.59960E-001	-1.10755E+000	3.57700E+000	10	...........
	53	0.72	9.54608E-001	5.99834E-003	0.00000E+000	5.72607E-003	3.59960E-001	-1.11213E+000	3.57700E+000	10	...........
	54	0.733333	9.60271E-001	5.99352E-003	0.00000E+000	5.75540E-003	3.59960E-001	-1.10365E+000	3.57700E+000	10	...........
	55	0.746667	9.65918E-001	5.99792E-003	0.00000E+000	5.79350E-003	3.59960E-001	-1.10774E+000	3.57700E+000	10	...........
	56	0.76	9.71523E-001	5.99554E-003	0.00000E+000	5.82481E-003	3.59960E-001	-1.11208E+000	3.57700E+000	10	...........
	57	0.773333	9.77167E-001	5.99536E-003	0.00000E+000	5.85846E-003	3.59960E-001	-1.10342E+000	3.57700E+000	10	...........
	58	0.786667	9.82696E-001	5.99652E-003	0.00000E+000	5.89276E-003	3.59960E-001	-1.10783E+000	3.57700E+000	10	...........
	59	0.8	9.88202E-001	5.99482E-003	0.00000E+000	5.92410E-003	3.59960E-001	-1.11253E+000	3.57700E+000	10	...........
	60	0.813333	9.93648E-001	5.99683E-003	0.00000E+000	5.95873E-003	3.59960E-001	-1.10365E+000	3.57700E+000	10	...........
	61	0.823333	9.98407E-001	5.99062E-003	0.00000E+000	5.98108E-003	3.59960E-001	-1.11338E+000	3.57700E+000	10	...........
STARTTIMEOFFSET	QUANT	559.2083	Start Time Offset (s)