File: Data/CV_CRGO300517_1/PWRCCD_CRGO300517_1/CHARGE_DISCHARGE/CHARGE_#469.DTA
EXPLAIN
TAG	PWR800_CHARGE
TITLE	LABEL	PWR Cyclic Charge Discharge (Cell) - Charge Step	Test &Identifier
DATE	LABEL	22-6-2017	Date
TIME	LABEL	15:54:42	Time
NOTES	NOTES	3	&Notes...
	supercap test cell
	0.6mg
	6M KOH
PSTAT	PSTAT	IFC5000-01520	Potentiostat
CAPACITY	QUANT	1.00000E-003	Capacity (A-hr)
CELLTYPE	SELECTOR	1	&Cell Type
WORKINGCONNECTION	SELECTOR	0	&Working Lead
MAXCHARGETIME	VARIABLEANDUNITS	1.00000E+002	s	1.00000E+002	second(s)	Max &Charge Time
CHARGECURRENT	QUANT	6.00000E-003	&Charge Current (A)
VOLTAGEFINISH	TWOPARAM	F	1.00000E-003	3.60000E+003	&Voltage Finish	 I (A) < 	Max Time(s)
SAMPLETIME	QUANT	1.00000E-002	Sa&mple Period (s)
CHARGESTOPAT1	MULTIPARAM	4	1.00000E+000	Charge Stop At &1	Voltage > Limit	V
CHARGESTOPAT2	MULTIPARAM	0	0.00000E+000	Charge Stop At &2	None	N/A
AESBHCSELECTOR	TOGGLE	F	Save Both Half Cells
IRCOMP	TOGGLE	F	IR &Measure
EOC	QUANT	0	Open Circuit (V)
SEQUENCER	TOGGLE	TRUE	Run as Sequence
PSTATMODEL	IQUANT	53	Pstat Model
PSTATSECTION	LABEL	IFC5000-01520	Pstat Section
PSTATSERIALNO	LABEL	01520	Pstat Serial Number
CTRLMODE	IQUANT	0	Control Mode
ELECTROMETER	IQUANT	1	RE=0 or CS=1
IESTAB	IQUANT	0	I/E Stability
CASPEED	IQUANT	4	Control Amp Speed
CONVENTION	IQUANT	1	Current Convention
ICHRANGE	IQUANT	2	Ich Range
ICHRANGEMODE	TOGGLE	T	Ich Auto Range
ICHOFFSETENABLE	TOGGLE	F	Ich Offset Enable
ICHOFFSET	QUANT	0	Ich Offset (V)
ICHFILTER	IQUANT	1	Ich Filter
VCHRANGE	IQUANT	2	Vch Range
VCHRANGEMODE	TOGGLE	T	Vch Auto Range
VCHOFFSETENABLE	TOGGLE	F	Vch Offset Enable
VCHOFFSET	QUANT	0	Vch Offset (V)
VCHFILTER	IQUANT	1	Vch Filter
IERANGELOWERLIMIT	IQUANT	9	I/E Range Lower Limit
IERANGEMODE	TOGGLE	F	I/E AutoRange
IERANGE	IQUANT	10	I/E Range
ACHSELECT	IQUANT	1	Ach Select
ACHRANGE	IQUANT	2	Ach Range
ACHOFFSETENABLE	TOGGLE	F	Ach Offset Enable
ACHOFFSET	QUANT	0	Ach Offset (V)
ACHFILTER	IQUANT	1	Ach Filter
CABLEID	IQUANT	14	Cable ID
DCCALDATE	LABEL	20-10-2016	DC Calibration Date
ACCALDATE	LABEL	12/3/2015	AC Calibration Date
FRAMEWORKVERSION	QUANT	7.01	Framework Version
INSTRUMENTVERSION	LABEL	4.00	Instrument Version
CURVE	TABLE	59
	Pt	T	Vf	Im	Vu	Pwr	Sig	Ach	Temp	IERange	Over
	#	s	V	A	V	W	V	V	deg C	#	bits
	0	0.013333	6.29807E-001	5.99720E-003	0.00000E+000	3.77708E-003	3.59960E-001	-1.15065E+000	3.57790E+000	10	...........
	1	0.026667	6.38667E-001	5.99372E-003	0.00000E+000	3.82799E-003	3.59960E-001	-1.14087E+000	3.57790E+000	10	...........
	2	0.04	6.46790E-001	5.99401E-003	0.00000E+000	3.87686E-003	3.59960E-001	-1.14465E+000	3.57790E+000	10	...........
	3	0.053333	6.54511E-001	5.99954E-003	0.00000E+000	3.92677E-003	3.59960E-001	-1.15058E+000	3.57790E+000	10	...........
	4	0.066667	6.61903E-001	5.99735E-003	0.00000E+000	3.96966E-003	3.59960E-001	-1.14097E+000	3.57790E+000	10	...........
	5	0.08	6.69152E-001	5.99740E-003	0.00000E+000	4.01317E-003	3.59960E-001	-1.14457E+000	3.57790E+000	10	...........
	6	0.093333	6.76211E-001	5.99540E-003	0.00000E+000	4.05415E-003	3.59960E-001	-1.14995E+000	3.57790E+000	10	...........
	7	0.106667	6.83197E-001	5.99419E-003	0.00000E+000	4.09521E-003	3.59960E-001	-1.14068E+000	3.57790E+000	10	...........
	8	0.12	6.90097E-001	5.99728E-003	0.00000E+000	4.13870E-003	3.59960E-001	-1.14460E+000	3.57790E+000	10	...........
	9	0.133333	6.96933E-001	5.99639E-003	0.00000E+000	4.17908E-003	3.59960E-001	-1.15003E+000	3.57790E+000	10	...........
	10	0.146667	7.03691E-001	5.99612E-003	0.00000E+000	4.21941E-003	3.59960E-001	-1.14069E+000	3.57790E+000	10	...........
	11	0.16	7.10356E-001	5.99445E-003	0.00000E+000	4.25819E-003	3.59960E-001	-1.14464E+000	3.57790E+000	10	...........
	12	0.173333	7.17074E-001	5.99817E-003	0.00000E+000	4.30114E-003	3.59960E-001	-1.14988E+000	3.57790E+000	10	...........
	13	0.186667	7.23696E-001	5.99501E-003	0.00000E+000	4.33856E-003	3.59960E-001	-1.14079E+000	3.57790E+000	10	...........
	14	0.2	7.30314E-001	5.99317E-003	0.00000E+000	4.37689E-003	3.59960E-001	-1.14495E+000	3.57790E+000	10	...........
	15	0.213333	7.36844E-001	5.99378E-003	0.00000E+000	4.41648E-003	3.59960E-001	-1.14943E+000	3.57790E+000	10	...........
	16	0.226667	7.43442E-001	5.99417E-003	0.00000E+000	4.45631E-003	3.59960E-001	-1.14061E+000	3.57790E+000	10	...........
	17	0.24	7.49969E-001	5.99819E-003	0.00000E+000	4.49846E-003	3.59960E-001	-1.14506E+000	3.57790E+000	10	...........
	18	0.253333	7.56513E-001	5.99500E-003	0.00000E+000	4.53529E-003	3.59960E-001	-1.14966E+000	3.57790E+000	10	...........
	19	0.266667	7.62966E-001	5.99451E-003	0.00000E+000	4.57361E-003	3.59960E-001	-1.14067E+000	3.57790E+000	10	...........
	20	0.28	7.69465E-001	5.99473E-003	0.00000E+000	4.61274E-003	3.59960E-001	-1.14506E+000	3.57790E+000	10	...........
	21	0.293333	7.75912E-001	5.99550E-003	0.00000E+000	4.65198E-003	3.59960E-001	-1.14934E+000	3.57790E+000	10	...........
	22	0.306667	7.82392E-001	5.99700E-003	0.00000E+000	4.69201E-003	3.59960E-001	-1.14091E+000	3.57790E+000	10	...........
	23	0.32	7.88818E-001	5.99396E-003	0.00000E+000	4.72814E-003	3.59960E-001	-1.14555E+000	3.57790E+000	10	...........
	24	0.333333	7.95256E-001	5.98807E-003	0.00000E+000	4.76204E-003	3.59960E-001	-1.14923E+000	3.57790E+000	10	...........
	25	0.346667	8.01648E-001	5.99205E-003	0.00000E+000	4.80352E-003	3.59960E-001	-1.14071E+000	3.57790E+000	10	...........
	26	0.36	8.08004E-001	5.99625E-003	0.00000E+000	4.84500E-003	3.59960E-001	-1.14561E+000	3.57790E+000	10	...........
	27	0.373333	8.14409E-001	5.99332E-003	0.00000E+000	4.88102E-003	3.59960E-001	-1.14924E+000	3.57790E+000	10	...........
	28	0.386667	8.20803E-001	5.99319E-003	0.00000E+000	4.91922E-003	3.59960E-001	-1.14070E+000	3.57790E+000	10	...........
	29	0.4	8.27128E-001	5.99489E-003	0.00000E+000	4.95854E-003	3.59960E-001	-1.14552E+000	3.57790E+000	10	...........
	30	0.413333	8.33445E-001	5.99500E-003	0.00000E+000	4.99650E-003	3.59960E-001	-1.14859E+000	3.57790E+000	10	...........
	31	0.426667	8.39763E-001	5.99294E-003	0.00000E+000	5.03265E-003	3.59960E-001	-1.13991E+000	3.57790E+000	10	...........
	32	0.44	8.46052E-001	5.99255E-003	0.00000E+000	5.07001E-003	3.59960E-001	-1.14523E+000	3.57790E+000	10	...........
	33	0.453333	8.52297E-001	5.99287E-003	0.00000E+000	5.10771E-003	3.59960E-001	-1.14805E+000	3.57790E+000	10	...........
	34	0.466667	8.58602E-001	5.99538E-003	0.00000E+000	5.14764E-003	3.59960E-001	-1.13979E+000	3.57790E+000	10	...........
	35	0.48	8.64824E-001	5.99280E-003	0.00000E+000	5.18272E-003	3.59960E-001	-1.14521E+000	3.57790E+000	10	...........
	36	0.493333	8.71025E-001	5.99520E-003	0.00000E+000	5.22197E-003	3.59960E-001	-1.14771E+000	3.57790E+000	10	...........
	37	0.506667	8.77270E-001	5.99133E-003	0.00000E+000	5.25601E-003	3.59960E-001	-1.13969E+000	3.57790E+000	10	...........
	38	0.52	8.83478E-001	5.99715E-003	0.00000E+000	5.29835E-003	3.59960E-001	-1.14519E+000	3.57790E+000	10	...........
	39	0.533333	8.89634E-001	5.99668E-003	0.00000E+000	5.33485E-003	3.59960E-001	-1.14771E+000	3.57790E+000	10	...........
	40	0.546667	8.95739E-001	5.99454E-003	0.00000E+000	5.36955E-003	3.59960E-001	-1.13946E+000	3.57790E+000	10	...........
	41	0.56	9.01813E-001	5.99077E-003	0.00000E+000	5.40255E-003	3.59960E-001	-1.14547E+000	3.57790E+000	10	...........
	42	0.573333	9.07911E-001	5.99212E-003	0.00000E+000	5.44031E-003	3.59960E-001	-1.14748E+000	3.57790E+000	10	...........
	43	0.586667	9.13941E-001	5.99184E-003	0.00000E+000	5.47619E-003	3.59960E-001	-1.13955E+000	3.57790E+000	10	...........
	44	0.6	9.19973E-001	5.99361E-003	0.00000E+000	5.51396E-003	3.59960E-001	-1.14570E+000	3.57790E+000	10	...........
	45	0.613333	9.25984E-001	5.99513E-003	0.00000E+000	5.55139E-003	3.59960E-001	-1.14714E+000	3.57790E+000	10	...........
	46	0.626667	9.31905E-001	5.98971E-003	0.00000E+000	5.58184E-003	3.59960E-001	-1.13949E+000	3.57790E+000	10	...........
	47	0.64	9.37852E-001	5.99597E-003	0.00000E+000	5.62333E-003	3.59960E-001	-1.14590E+000	3.57790E+000	10	...........
	48	0.653333	9.43703E-001	5.98754E-003	0.00000E+000	5.65046E-003	3.59960E-001	-1.14730E+000	3.57790E+000	10	...........
	49	0.666667	9.49595E-001	5.99067E-003	0.00000E+000	5.68871E-003	3.59960E-001	-1.13964E+000	3.57790E+000	10	...........
	50	0.68	9.55408E-001	5.99414E-003	0.00000E+000	5.72684E-003	3.59960E-001	-1.14608E+000	3.57790E+000	10	...........
	51	0.693333	9.61138E-001	5.99326E-003	0.00000E+000	5.76035E-003	3.59960E-001	-1.14692E+000	3.57790E+000	10	...........
	52	0.706667	9.66818E-001	5.99394E-003	0.00000E+000	5.79505E-003	3.59960E-001	-1.13943E+000	3.57790E+000	10	...........
	53	0.72	9.72560E-001	5.99465E-003	0.00000E+000	5.83015E-003	3.59960E-001	-1.14609E+000	3.57790E+000	10	...........
	54	0.733333	9.78193E-001	5.99200E-003	0.00000E+000	5.86133E-003	3.59960E-001	-1.14641E+000	3.57790E+000	10	...........
	55	0.746667	9.83763E-001	5.99541E-003	0.00000E+000	5.89806E-003	3.59960E-001	-1.13900E+000	3.57790E+000	10	...........
	56	0.76	9.89309E-001	5.99663E-003	0.00000E+000	5.93252E-003	3.59960E-001	-1.14568E+000	3.57790E+000	10	...........
	57	0.773333	9.94752E-001	5.99083E-003	0.00000E+000	5.95939E-003	3.59960E-001	-1.14601E+000	3.57790E+000	10	...........
	58	0.781667	9.99216E-001	5.99451E-003	0.00000E+000	5.98981E-003	3.59960E-001	-1.13584E+000	3.57790E+000	10	...........
STARTTIMEOFFSET	QUANT	811.0668	Start Time Offset (s)