File: Data/CV_CRGO300517_1/PWRCCD_CRGO300517_1/CHARGE_DISCHARGE/CHARGE_#968.DTA
EXPLAIN
TAG	PWR800_CHARGE
TITLE	LABEL	PWR Cyclic Charge Discharge (Cell) - Charge Step	Test &Identifier
DATE	LABEL	22-6-2017	Date
TIME	LABEL	16:13:28	Time
NOTES	NOTES	3	&Notes...
	supercap test cell
	0.6mg
	6M KOH
PSTAT	PSTAT	IFC5000-01520	Potentiostat
CAPACITY	QUANT	1.00000E-003	Capacity (A-hr)
CELLTYPE	SELECTOR	1	&Cell Type
WORKINGCONNECTION	SELECTOR	0	&Working Lead
MAXCHARGETIME	VARIABLEANDUNITS	1.00000E+002	s	1.00000E+002	second(s)	Max &Charge Time
CHARGECURRENT	QUANT	6.00000E-003	&Charge Current (A)
VOLTAGEFINISH	TWOPARAM	F	1.00000E-003	3.60000E+003	&Voltage Finish	 I (A) < 	Max Time(s)
SAMPLETIME	QUANT	1.00000E-002	Sa&mple Period (s)
CHARGESTOPAT1	MULTIPARAM	4	1.00000E+000	Charge Stop At &1	Voltage > Limit	V
CHARGESTOPAT2	MULTIPARAM	0	0.00000E+000	Charge Stop At &2	None	N/A
AESBHCSELECTOR	TOGGLE	F	Save Both Half Cells
IRCOMP	TOGGLE	F	IR &Measure
EOC	QUANT	0	Open Circuit (V)
SEQUENCER	TOGGLE	TRUE	Run as Sequence
PSTATMODEL	IQUANT	53	Pstat Model
PSTATSECTION	LABEL	IFC5000-01520	Pstat Section
PSTATSERIALNO	LABEL	01520	Pstat Serial Number
CTRLMODE	IQUANT	0	Control Mode
ELECTROMETER	IQUANT	1	RE=0 or CS=1
IESTAB	IQUANT	0	I/E Stability
CASPEED	IQUANT	4	Control Amp Speed
CONVENTION	IQUANT	1	Current Convention
ICHRANGE	IQUANT	2	Ich Range
ICHRANGEMODE	TOGGLE	T	Ich Auto Range
ICHOFFSETENABLE	TOGGLE	F	Ich Offset Enable
ICHOFFSET	QUANT	0	Ich Offset (V)
ICHFILTER	IQUANT	1	Ich Filter
VCHRANGE	IQUANT	2	Vch Range
VCHRANGEMODE	TOGGLE	T	Vch Auto Range
VCHOFFSETENABLE	TOGGLE	F	Vch Offset Enable
VCHOFFSET	QUANT	0	Vch Offset (V)
VCHFILTER	IQUANT	1	Vch Filter
IERANGELOWERLIMIT	IQUANT	9	I/E Range Lower Limit
IERANGEMODE	TOGGLE	F	I/E AutoRange
IERANGE	IQUANT	10	I/E Range
ACHSELECT	IQUANT	1	Ach Select
ACHRANGE	IQUANT	2	Ach Range
ACHOFFSETENABLE	TOGGLE	F	Ach Offset Enable
ACHOFFSET	QUANT	0	Ach Offset (V)
ACHFILTER	IQUANT	1	Ach Filter
CABLEID	IQUANT	14	Cable ID
DCCALDATE	LABEL	20-10-2016	DC Calibration Date
ACCALDATE	LABEL	12/3/2015	AC Calibration Date
FRAMEWORKVERSION	QUANT	7.01	Framework Version
INSTRUMENTVERSION	LABEL	4.00	Instrument Version
CURVE	TABLE	53
	Pt	T	Vf	Im	Vu	Pwr	Sig	Ach	Temp	IERange	Over
	#	s	V	A	V	W	V	V	deg C	#	bits
	0	0.013333	6.55939E-001	5.99361E-003	0.00000E+000	3.93145E-003	3.59960E-001	-1.17325E+000	3.57640E+000	10	...........
	1	0.026667	6.65234E-001	5.99849E-003	0.00000E+000	3.99040E-003	3.59960E-001	-1.17630E+000	3.57640E+000	10	...........
	2	0.04	6.73857E-001	5.98986E-003	0.00000E+000	4.03631E-003	3.59960E-001	-1.18349E+000	3.57640E+000	10	...........
	3	0.053333	6.82004E-001	5.99521E-003	0.00000E+000	4.08876E-003	3.59960E-001	-1.17318E+000	3.57640E+000	10	...........
	4	0.066667	6.89779E-001	5.99043E-003	0.00000E+000	4.13208E-003	3.59960E-001	-1.17608E+000	3.57640E+000	10	...........
	5	0.08	6.97481E-001	5.99183E-003	0.00000E+000	4.17919E-003	3.59960E-001	-1.18303E+000	3.57640E+000	10	...........
	6	0.093333	7.04990E-001	5.99517E-003	0.00000E+000	4.22653E-003	3.59960E-001	-1.17295E+000	3.57640E+000	10	...........
	7	0.106667	7.12369E-001	5.99356E-003	0.00000E+000	4.26963E-003	3.59960E-001	-1.17600E+000	3.57640E+000	10	...........
	8	0.12	7.19667E-001	5.99666E-003	0.00000E+000	4.31560E-003	3.59960E-001	-1.18353E+000	3.57640E+000	10	...........
	9	0.133333	7.26863E-001	5.99454E-003	0.00000E+000	4.35721E-003	3.59960E-001	-1.17317E+000	3.57640E+000	10	...........
	10	0.146667	7.33994E-001	5.99889E-003	0.00000E+000	4.40315E-003	3.59960E-001	-1.17606E+000	3.57640E+000	10	...........
	11	0.16	7.41075E-001	5.99460E-003	0.00000E+000	4.44245E-003	3.59960E-001	-1.18312E+000	3.57640E+000	10	...........
	12	0.173333	7.48088E-001	5.99569E-003	0.00000E+000	4.48531E-003	3.59960E-001	-1.17296E+000	3.57640E+000	10	...........
	13	0.186667	7.55108E-001	5.98971E-003	0.00000E+000	4.52288E-003	3.59960E-001	-1.17612E+000	3.57640E+000	10	...........
	14	0.2	7.62057E-001	5.99547E-003	0.00000E+000	4.56889E-003	3.59960E-001	-1.18296E+000	3.57640E+000	10	...........
	15	0.213333	7.68987E-001	5.99145E-003	0.00000E+000	4.60735E-003	3.59960E-001	-1.17245E+000	3.57640E+000	10	...........
	16	0.226667	7.75874E-001	5.99360E-003	0.00000E+000	4.65028E-003	3.59960E-001	-1.17555E+000	3.57640E+000	10	...........
	17	0.24	7.82724E-001	5.98919E-003	0.00000E+000	4.68788E-003	3.59960E-001	-1.18246E+000	3.57640E+000	10	...........
	18	0.253333	7.89534E-001	5.99301E-003	0.00000E+000	4.73168E-003	3.59960E-001	-1.17219E+000	3.57640E+000	10	...........
	19	0.266667	7.96331E-001	5.99180E-003	0.00000E+000	4.77146E-003	3.59960E-001	-1.17534E+000	3.57640E+000	10	...........
	20	0.28	8.03087E-001	5.99421E-003	0.00000E+000	4.81387E-003	3.59960E-001	-1.18215E+000	3.57640E+000	10	...........
	21	0.293333	8.09814E-001	5.99342E-003	0.00000E+000	4.85355E-003	3.59960E-001	-1.17199E+000	3.57640E+000	10	...........
	22	0.306667	8.16522E-001	5.98953E-003	0.00000E+000	4.89058E-003	3.59960E-001	-1.17526E+000	3.57640E+000	10	...........
	23	0.32	8.23219E-001	5.99574E-003	0.00000E+000	4.93581E-003	3.59960E-001	-1.18221E+000	3.57640E+000	10	...........
	24	0.333333	8.29847E-001	5.98967E-003	0.00000E+000	4.97051E-003	3.59960E-001	-1.17188E+000	3.57640E+000	10	...........
	25	0.346667	8.36460E-001	5.99479E-003	0.00000E+000	5.01440E-003	3.59960E-001	-1.17512E+000	3.57640E+000	10	...........
	26	0.36	8.43117E-001	5.99114E-003	0.00000E+000	5.05124E-003	3.59960E-001	-1.18156E+000	3.57640E+000	10	...........
	27	0.373333	8.49722E-001	5.99561E-003	0.00000E+000	5.09460E-003	3.59960E-001	-1.17170E+000	3.57640E+000	10	...........
	28	0.386667	8.56246E-001	5.99431E-003	0.00000E+000	5.13261E-003	3.59960E-001	-1.17521E+000	3.57640E+000	10	...........
	29	0.4	8.62821E-001	5.99399E-003	0.00000E+000	5.17174E-003	3.59960E-001	-1.18175E+000	3.57640E+000	10	...........
	30	0.413333	8.69338E-001	5.99263E-003	0.00000E+000	5.20963E-003	3.59960E-001	-1.17133E+000	3.57640E+000	10	...........
	31	0.426667	8.75769E-001	5.99560E-003	0.00000E+000	5.25076E-003	3.59960E-001	-1.17480E+000	3.57640E+000	10	...........
	32	0.44	8.82203E-001	5.99397E-003	0.00000E+000	5.28790E-003	3.59960E-001	-1.18163E+000	3.57640E+000	10	...........
	33	0.453333	8.88630E-001	5.99521E-003	0.00000E+000	5.32753E-003	3.59960E-001	-1.17178E+000	3.57640E+000	10	...........
	34	0.466667	8.94979E-001	5.99353E-003	0.00000E+000	5.36408E-003	3.59960E-001	-1.17497E+000	3.57647E+000	10	...........
	35	0.48	9.01301E-001	5.99060E-003	0.00000E+000	5.39934E-003	3.59960E-001	-1.18137E+000	3.57660E+000	10	...........
	36	0.493333	9.07571E-001	5.99616E-003	0.00000E+000	5.44194E-003	3.59960E-001	-1.17132E+000	3.57660E+000	10	...........
	37	0.506667	9.13800E-001	5.99031E-003	0.00000E+000	5.47394E-003	3.59960E-001	-1.17478E+000	3.57660E+000	10	...........
	38	0.52	9.20037E-001	5.99390E-003	0.00000E+000	5.51461E-003	3.59960E-001	-1.18156E+000	3.57660E+000	10	...........
	39	0.533333	9.26223E-001	5.99609E-003	0.00000E+000	5.55371E-003	3.59960E-001	-1.17123E+000	3.57660E+000	10	...........
	40	0.546667	9.32325E-001	5.99195E-003	0.00000E+000	5.58644E-003	3.59960E-001	-1.17423E+000	3.57660E+000	10	...........
	41	0.56	9.38377E-001	5.99570E-003	0.00000E+000	5.62623E-003	3.59960E-001	-1.18037E+000	3.57660E+000	10	...........
	42	0.573333	9.44420E-001	5.99778E-003	0.00000E+000	5.66442E-003	3.59960E-001	-1.17066E+000	3.57660E+000	10	...........
	43	0.586667	9.50438E-001	5.98985E-003	0.00000E+000	5.69298E-003	3.59960E-001	-1.17430E+000	3.57660E+000	10	...........
	44	0.6	9.56385E-001	5.99324E-003	0.00000E+000	5.73185E-003	3.59960E-001	-1.18042E+000	3.57660E+000	10	...........
	45	0.613333	9.62229E-001	5.99131E-003	0.00000E+000	5.76501E-003	3.59960E-001	-1.17003E+000	3.57660E+000	10	...........
	46	0.626667	9.68051E-001	5.99359E-003	0.00000E+000	5.80210E-003	3.59960E-001	-1.17366E+000	3.57660E+000	10	...........
	47	0.64	9.73869E-001	5.99428E-003	0.00000E+000	5.83765E-003	3.59960E-001	-1.18052E+000	3.57660E+000	10	...........
	48	0.653333	9.79555E-001	5.99416E-003	0.00000E+000	5.87161E-003	3.59960E-001	-1.17054E+000	3.57660E+000	10	...........
	49	0.666667	9.85222E-001	5.99591E-003	0.00000E+000	5.90730E-003	3.59960E-001	-1.17385E+000	3.57660E+000	10	...........
	50	0.68	9.90823E-001	5.99410E-003	0.00000E+000	5.93910E-003	3.59960E-001	-1.17997E+000	3.57660E+000	10	...........
	51	0.693333	9.96375E-001	5.99278E-003	0.00000E+000	5.97106E-003	3.59960E-001	-1.17009E+000	3.57660E+000	10	...........
	52	0.696667	9.99799E-001	5.99154E-003	0.00000E+000	5.99033E-003	3.59960E-001	-1.18525E+000	3.57660E+000	10	...........
STARTTIMEOFFSET	QUANT	1540.995	Start Time Offset (s)