File: Data/CV_CRGO300517_1/PWRCCD_CRGO300517_1/CHARGE_DISCHARGE/CHARGE_#453.DTA
EXPLAIN
TAG	PWR800_CHARGE
TITLE	LABEL	PWR Cyclic Charge Discharge (Cell) - Charge Step	Test &Identifier
DATE	LABEL	22-6-2017	Date
TIME	LABEL	15:54:04	Time
NOTES	NOTES	3	&Notes...
	supercap test cell
	0.6mg
	6M KOH
PSTAT	PSTAT	IFC5000-01520	Potentiostat
CAPACITY	QUANT	1.00000E-003	Capacity (A-hr)
CELLTYPE	SELECTOR	1	&Cell Type
WORKINGCONNECTION	SELECTOR	0	&Working Lead
MAXCHARGETIME	VARIABLEANDUNITS	1.00000E+002	s	1.00000E+002	second(s)	Max &Charge Time
CHARGECURRENT	QUANT	6.00000E-003	&Charge Current (A)
VOLTAGEFINISH	TWOPARAM	F	1.00000E-003	3.60000E+003	&Voltage Finish	 I (A) < 	Max Time(s)
SAMPLETIME	QUANT	1.00000E-002	Sa&mple Period (s)
CHARGESTOPAT1	MULTIPARAM	4	1.00000E+000	Charge Stop At &1	Voltage > Limit	V
CHARGESTOPAT2	MULTIPARAM	0	0.00000E+000	Charge Stop At &2	None	N/A
AESBHCSELECTOR	TOGGLE	F	Save Both Half Cells
IRCOMP	TOGGLE	F	IR &Measure
EOC	QUANT	0	Open Circuit (V)
SEQUENCER	TOGGLE	TRUE	Run as Sequence
PSTATMODEL	IQUANT	53	Pstat Model
PSTATSECTION	LABEL	IFC5000-01520	Pstat Section
PSTATSERIALNO	LABEL	01520	Pstat Serial Number
CTRLMODE	IQUANT	0	Control Mode
ELECTROMETER	IQUANT	1	RE=0 or CS=1
IESTAB	IQUANT	0	I/E Stability
CASPEED	IQUANT	4	Control Amp Speed
CONVENTION	IQUANT	1	Current Convention
ICHRANGE	IQUANT	2	Ich Range
ICHRANGEMODE	TOGGLE	T	Ich Auto Range
ICHOFFSETENABLE	TOGGLE	F	Ich Offset Enable
ICHOFFSET	QUANT	0	Ich Offset (V)
ICHFILTER	IQUANT	1	Ich Filter
VCHRANGE	IQUANT	2	Vch Range
VCHRANGEMODE	TOGGLE	T	Vch Auto Range
VCHOFFSETENABLE	TOGGLE	F	Vch Offset Enable
VCHOFFSET	QUANT	0	Vch Offset (V)
VCHFILTER	IQUANT	1	Vch Filter
IERANGELOWERLIMIT	IQUANT	9	I/E Range Lower Limit
IERANGEMODE	TOGGLE	F	I/E AutoRange
IERANGE	IQUANT	10	I/E Range
ACHSELECT	IQUANT	1	Ach Select
ACHRANGE	IQUANT	2	Ach Range
ACHOFFSETENABLE	TOGGLE	F	Ach Offset Enable
ACHOFFSET	QUANT	0	Ach Offset (V)
ACHFILTER	IQUANT	1	Ach Filter
CABLEID	IQUANT	14	Cable ID
DCCALDATE	LABEL	20-10-2016	DC Calibration Date
ACCALDATE	LABEL	12/3/2015	AC Calibration Date
FRAMEWORKVERSION	QUANT	7.01	Framework Version
INSTRUMENTVERSION	LABEL	4.00	Instrument Version
CURVE	TABLE	59
	Pt	T	Vf	Im	Vu	Pwr	Sig	Ach	Temp	IERange	Over
	#	s	V	A	V	W	V	V	deg C	#	bits
	0	0.013333	6.28277E-001	5.99326E-003	0.00000E+000	3.76542E-003	3.59960E-001	-1.13724E+000	3.57650E+000	10	...........
	1	0.026667	6.37094E-001	5.99255E-003	0.00000E+000	3.81782E-003	3.59960E-001	-1.14269E+000	3.57650E+000	10	...........
	2	0.04	6.45208E-001	5.99186E-003	0.00000E+000	3.86600E-003	3.59960E-001	-1.13350E+000	3.57650E+000	10	...........
	3	0.053333	6.52881E-001	5.99553E-003	0.00000E+000	3.91437E-003	3.59960E-001	-1.13720E+000	3.57650E+000	10	...........
	4	0.066667	6.60285E-001	5.99348E-003	0.00000E+000	3.95740E-003	3.59960E-001	-1.14254E+000	3.57650E+000	10	...........
	5	0.08	6.67530E-001	5.99582E-003	0.00000E+000	4.00239E-003	3.59960E-001	-1.13307E+000	3.57663E+000	10	...........
	6	0.093333	6.74601E-001	5.99960E-003	0.00000E+000	4.04734E-003	3.59960E-001	-1.13713E+000	3.57670E+000	10	...........
	7	0.106667	6.81538E-001	5.99404E-003	0.00000E+000	4.08516E-003	3.59960E-001	-1.14258E+000	3.57670E+000	10	...........
	8	0.12	6.88444E-001	5.99329E-003	0.00000E+000	4.12604E-003	3.59960E-001	-1.13311E+000	3.57670E+000	10	...........
	9	0.133333	6.95245E-001	5.99740E-003	0.00000E+000	4.16966E-003	3.59960E-001	-1.13699E+000	3.57670E+000	10	...........
	10	0.146667	7.01999E-001	5.99337E-003	0.00000E+000	4.20734E-003	3.59960E-001	-1.14230E+000	3.57670E+000	10	...........
	11	0.16	7.08680E-001	5.99157E-003	0.00000E+000	4.24611E-003	3.59960E-001	-1.13300E+000	3.57670E+000	10	...........
	12	0.173333	7.15319E-001	5.98990E-003	0.00000E+000	4.28469E-003	3.59960E-001	-1.13719E+000	3.57670E+000	10	...........
	13	0.186667	7.22051E-001	5.99576E-003	0.00000E+000	4.32925E-003	3.59960E-001	-1.14264E+000	3.57670E+000	10	...........
	14	0.2	7.28606E-001	5.99534E-003	0.00000E+000	4.36824E-003	3.59960E-001	-1.13309E+000	3.57670E+000	10	...........
	15	0.213333	7.35144E-001	5.99362E-003	0.00000E+000	4.40617E-003	3.59960E-001	-1.13703E+000	3.57670E+000	10	...........
	16	0.226667	7.41706E-001	5.99573E-003	0.00000E+000	4.44707E-003	3.59960E-001	-1.14263E+000	3.57670E+000	10	...........
	17	0.24	7.48212E-001	5.99172E-003	0.00000E+000	4.48307E-003	3.59960E-001	-1.13324E+000	3.57670E+000	10	...........
	18	0.253333	7.54706E-001	5.98901E-003	0.00000E+000	4.51994E-003	3.59960E-001	-1.13716E+000	3.57670E+000	10	...........
	19	0.266667	7.61174E-001	5.99256E-003	0.00000E+000	4.56138E-003	3.59960E-001	-1.14234E+000	3.57670E+000	10	...........
	20	0.28	7.67656E-001	5.99282E-003	0.00000E+000	4.60042E-003	3.59960E-001	-1.13275E+000	3.57670E+000	10	...........
	21	0.293333	7.74116E-001	5.99783E-003	0.00000E+000	4.64301E-003	3.59960E-001	-1.13695E+000	3.57670E+000	10	...........
	22	0.306667	7.80532E-001	5.99195E-003	0.00000E+000	4.67690E-003	3.59960E-001	-1.14210E+000	3.57670E+000	10	...........
	23	0.32	7.86966E-001	5.99660E-003	0.00000E+000	4.71912E-003	3.59960E-001	-1.13287E+000	3.57670E+000	10	...........
	24	0.333333	7.93385E-001	5.99361E-003	0.00000E+000	4.75524E-003	3.59960E-001	-1.13678E+000	3.57670E+000	10	...........
	25	0.346667	7.99774E-001	5.99473E-003	0.00000E+000	4.79443E-003	3.59960E-001	-1.14184E+000	3.57670E+000	10	...........
	26	0.36	8.06095E-001	5.99284E-003	0.00000E+000	4.83080E-003	3.59960E-001	-1.13265E+000	3.57670E+000	10	...........
	27	0.373333	8.12461E-001	5.99374E-003	0.00000E+000	4.86968E-003	3.59960E-001	-1.13699E+000	3.57670E+000	10	...........
	28	0.386667	8.18806E-001	5.99387E-003	0.00000E+000	4.90782E-003	3.59960E-001	-1.14198E+000	3.57670E+000	10	...........
	29	0.4	8.25154E-001	5.99259E-003	0.00000E+000	4.94481E-003	3.59960E-001	-1.13260E+000	3.57670E+000	10	...........
	30	0.413333	8.31469E-001	6.00010E-003	0.00000E+000	4.98890E-003	3.59960E-001	-1.13681E+000	3.57670E+000	10	...........
	31	0.426667	8.37760E-001	5.99448E-003	0.00000E+000	5.02194E-003	3.59960E-001	-1.14212E+000	3.57670E+000	10	...........
	32	0.44	8.44079E-001	5.99154E-003	0.00000E+000	5.05733E-003	3.59960E-001	-1.13266E+000	3.57670E+000	10	...........
	33	0.453333	8.50351E-001	5.99465E-003	0.00000E+000	5.09755E-003	3.59960E-001	-1.13705E+000	3.57670E+000	10	...........
	34	0.466667	8.56617E-001	5.99611E-003	0.00000E+000	5.13637E-003	3.59960E-001	-1.14177E+000	3.57670E+000	10	...........
	35	0.48	8.62836E-001	5.99383E-003	0.00000E+000	5.17169E-003	3.59960E-001	-1.13258E+000	3.57670E+000	10	...........
	36	0.493333	8.69049E-001	5.99372E-003	0.00000E+000	5.20884E-003	3.59960E-001	-1.13710E+000	3.57670E+000	10	...........
	37	0.506667	8.75302E-001	5.99199E-003	0.00000E+000	5.24480E-003	3.59960E-001	-1.14218E+000	3.57670E+000	10	...........
	38	0.52	8.81460E-001	5.99762E-003	0.00000E+000	5.28666E-003	3.59960E-001	-1.13290E+000	3.57670E+000	10	...........
	39	0.533333	8.87581E-001	5.99433E-003	0.00000E+000	5.32046E-003	3.59960E-001	-1.13696E+000	3.57670E+000	10	...........
	40	0.546667	8.93730E-001	5.99421E-003	0.00000E+000	5.35720E-003	3.59960E-001	-1.14185E+000	3.57670E+000	10	...........
	41	0.56	8.99821E-001	5.99108E-003	0.00000E+000	5.39090E-003	3.59960E-001	-1.13281E+000	3.57670E+000	10	...........
	42	0.573333	9.05892E-001	5.99073E-003	0.00000E+000	5.42695E-003	3.59960E-001	-1.13718E+000	3.57670E+000	10	...........
	43	0.586667	9.11943E-001	5.99279E-003	0.00000E+000	5.46508E-003	3.59960E-001	-1.14184E+000	3.57670E+000	10	...........
	44	0.6	9.17940E-001	5.99831E-003	0.00000E+000	5.50609E-003	3.59960E-001	-1.13240E+000	3.57670E+000	10	...........
	45	0.613333	9.23947E-001	5.99136E-003	0.00000E+000	5.53570E-003	3.59960E-001	-1.13673E+000	3.57670E+000	10	...........
	46	0.626667	9.29907E-001	5.99130E-003	0.00000E+000	5.57135E-003	3.59960E-001	-1.14144E+000	3.57670E+000	10	...........
	47	0.64	9.35810E-001	5.99116E-003	0.00000E+000	5.60659E-003	3.59960E-001	-1.13257E+000	3.57670E+000	10	...........
	48	0.653333	9.41676E-001	5.99396E-003	0.00000E+000	5.64437E-003	3.59960E-001	-1.13694E+000	3.57670E+000	10	...........
	49	0.666667	9.47568E-001	5.99510E-003	0.00000E+000	5.68076E-003	3.59960E-001	-1.14131E+000	3.57670E+000	10	...........
	50	0.68	9.53392E-001	5.99271E-003	0.00000E+000	5.71340E-003	3.59960E-001	-1.13244E+000	3.57670E+000	10	...........
	51	0.693333	9.59141E-001	5.99540E-003	0.00000E+000	5.75043E-003	3.59960E-001	-1.13671E+000	3.57670E+000	10	...........
	52	0.706667	9.64836E-001	5.98962E-003	0.00000E+000	5.77900E-003	3.59960E-001	-1.14151E+000	3.57670E+000	10	...........
	53	0.72	9.70514E-001	5.99567E-003	0.00000E+000	5.81888E-003	3.59960E-001	-1.13254E+000	3.57670E+000	10	...........
	54	0.733333	9.76215E-001	5.99486E-003	0.00000E+000	5.85227E-003	3.59960E-001	-1.13697E+000	3.57670E+000	10	...........
	55	0.746667	9.81790E-001	5.99383E-003	0.00000E+000	5.88468E-003	3.59960E-001	-1.14140E+000	3.57670E+000	10	...........
	56	0.76	9.87351E-001	5.99027E-003	0.00000E+000	5.91449E-003	3.59960E-001	-1.13251E+000	3.57670E+000	10	...........
	57	0.773333	9.92861E-001	5.99084E-003	0.00000E+000	5.94807E-003	3.59960E-001	-1.13702E+000	3.57670E+000	10	...........
	58	0.785	9.98010E-001	5.99228E-003	0.00000E+000	5.98036E-003	3.59960E-001	-1.14103E+000	3.57670E+000	10	...........
STARTTIMEOFFSET	QUANT	786.1418	Start Time Offset (s)