File: Data/CV_CRGO300517_1/PWRCCD_CRGO300517_1/CHARGE_DISCHARGE/CHARGE_#855.DTA
EXPLAIN
TAG	PWR800_CHARGE
TITLE	LABEL	PWR Cyclic Charge Discharge (Cell) - Charge Step	Test &Identifier
DATE	LABEL	22-6-2017	Date
TIME	LABEL	16:09:19	Time
NOTES	NOTES	3	&Notes...
	supercap test cell
	0.6mg
	6M KOH
PSTAT	PSTAT	IFC5000-01520	Potentiostat
CAPACITY	QUANT	1.00000E-003	Capacity (A-hr)
CELLTYPE	SELECTOR	1	&Cell Type
WORKINGCONNECTION	SELECTOR	0	&Working Lead
MAXCHARGETIME	VARIABLEANDUNITS	1.00000E+002	s	1.00000E+002	second(s)	Max &Charge Time
CHARGECURRENT	QUANT	6.00000E-003	&Charge Current (A)
VOLTAGEFINISH	TWOPARAM	F	1.00000E-003	3.60000E+003	&Voltage Finish	 I (A) < 	Max Time(s)
SAMPLETIME	QUANT	1.00000E-002	Sa&mple Period (s)
CHARGESTOPAT1	MULTIPARAM	4	1.00000E+000	Charge Stop At &1	Voltage > Limit	V
CHARGESTOPAT2	MULTIPARAM	0	0.00000E+000	Charge Stop At &2	None	N/A
AESBHCSELECTOR	TOGGLE	F	Save Both Half Cells
IRCOMP	TOGGLE	F	IR &Measure
EOC	QUANT	0	Open Circuit (V)
SEQUENCER	TOGGLE	TRUE	Run as Sequence
PSTATMODEL	IQUANT	53	Pstat Model
PSTATSECTION	LABEL	IFC5000-01520	Pstat Section
PSTATSERIALNO	LABEL	01520	Pstat Serial Number
CTRLMODE	IQUANT	0	Control Mode
ELECTROMETER	IQUANT	1	RE=0 or CS=1
IESTAB	IQUANT	0	I/E Stability
CASPEED	IQUANT	4	Control Amp Speed
CONVENTION	IQUANT	1	Current Convention
ICHRANGE	IQUANT	2	Ich Range
ICHRANGEMODE	TOGGLE	T	Ich Auto Range
ICHOFFSETENABLE	TOGGLE	F	Ich Offset Enable
ICHOFFSET	QUANT	0	Ich Offset (V)
ICHFILTER	IQUANT	1	Ich Filter
VCHRANGE	IQUANT	2	Vch Range
VCHRANGEMODE	TOGGLE	T	Vch Auto Range
VCHOFFSETENABLE	TOGGLE	F	Vch Offset Enable
VCHOFFSET	QUANT	0	Vch Offset (V)
VCHFILTER	IQUANT	1	Vch Filter
IERANGELOWERLIMIT	IQUANT	9	I/E Range Lower Limit
IERANGEMODE	TOGGLE	F	I/E AutoRange
IERANGE	IQUANT	10	I/E Range
ACHSELECT	IQUANT	1	Ach Select
ACHRANGE	IQUANT	2	Ach Range
ACHOFFSETENABLE	TOGGLE	F	Ach Offset Enable
ACHOFFSET	QUANT	0	Ach Offset (V)
ACHFILTER	IQUANT	1	Ach Filter
CABLEID	IQUANT	14	Cable ID
DCCALDATE	LABEL	20-10-2016	DC Calibration Date
ACCALDATE	LABEL	12/3/2015	AC Calibration Date
FRAMEWORKVERSION	QUANT	7.01	Framework Version
INSTRUMENTVERSION	LABEL	4.00	Instrument Version
CURVE	TABLE	54
	Pt	T	Vf	Im	Vu	Pwr	Sig	Ach	Temp	IERange	Over
	#	s	V	A	V	W	V	V	deg C	#	bits
	0	0.013333	6.51135E-001	5.99378E-003	0.00000E+000	3.90276E-003	3.59960E-001	-1.17366E+000	3.57780E+000	10	...........
	1	0.026667	6.60416E-001	5.99426E-003	0.00000E+000	3.95871E-003	3.59960E-001	-1.16365E+000	3.57780E+000	10	...........
	2	0.04	6.68902E-001	5.99152E-003	0.00000E+000	4.00774E-003	3.59960E-001	-1.16654E+000	3.57780E+000	10	...........
	3	0.053333	6.76966E-001	5.99327E-003	0.00000E+000	4.05724E-003	3.59960E-001	-1.17318E+000	3.57780E+000	10	...........
	4	0.066667	6.84759E-001	5.99119E-003	0.00000E+000	4.10252E-003	3.59960E-001	-1.16318E+000	3.57780E+000	10	...........
	5	0.08	6.92326E-001	5.99475E-003	0.00000E+000	4.15032E-003	3.59960E-001	-1.16641E+000	3.57780E+000	10	...........
	6	0.093333	6.99697E-001	5.99334E-003	0.00000E+000	4.19352E-003	3.59960E-001	-1.17305E+000	3.57780E+000	10	...........
	7	0.106667	7.07001E-001	5.99288E-003	0.00000E+000	4.23697E-003	3.59960E-001	-1.16313E+000	3.57780E+000	10	...........
	8	0.12	7.14217E-001	5.99491E-003	0.00000E+000	4.28167E-003	3.59960E-001	-1.16636E+000	3.57780E+000	10	...........
	9	0.133333	7.21410E-001	5.99090E-003	0.00000E+000	4.32190E-003	3.59960E-001	-1.17298E+000	3.57780E+000	10	...........
	10	0.146667	7.28447E-001	5.99133E-003	0.00000E+000	4.36437E-003	3.59960E-001	-1.16324E+000	3.57780E+000	10	...........
	11	0.16	7.35434E-001	5.99444E-003	0.00000E+000	4.40851E-003	3.59960E-001	-1.16635E+000	3.57780E+000	10	...........
	12	0.173333	7.42435E-001	5.99321E-003	0.00000E+000	4.44957E-003	3.59960E-001	-1.17304E+000	3.57780E+000	10	...........
	13	0.186667	7.49379E-001	5.99418E-003	0.00000E+000	4.49191E-003	3.59960E-001	-1.16300E+000	3.57780E+000	10	...........
	14	0.2	7.56266E-001	5.99229E-003	0.00000E+000	4.53177E-003	3.59960E-001	-1.16642E+000	3.57780E+000	10	...........
	15	0.213333	7.63108E-001	5.99235E-003	0.00000E+000	4.57281E-003	3.59960E-001	-1.17315E+000	3.57780E+000	10	...........
	16	0.226667	7.69921E-001	5.99036E-003	0.00000E+000	4.61211E-003	3.59960E-001	-1.16285E+000	3.57780E+000	10	...........
	17	0.24	7.76736E-001	5.99450E-003	0.00000E+000	4.65615E-003	3.59960E-001	-1.16615E+000	3.57780E+000	10	...........
	18	0.253333	7.83525E-001	5.99869E-003	0.00000E+000	4.70013E-003	3.59960E-001	-1.17287E+000	3.57780E+000	10	...........
	19	0.266667	7.90304E-001	5.99414E-003	0.00000E+000	4.73719E-003	3.59960E-001	-1.16290E+000	3.57780E+000	10	...........
	20	0.28	7.97043E-001	5.99729E-003	0.00000E+000	4.78009E-003	3.59960E-001	-1.16652E+000	3.57780E+000	10	...........
	21	0.293333	8.03736E-001	5.98991E-003	0.00000E+000	4.81431E-003	3.59960E-001	-1.17293E+000	3.57780E+000	10	...........
	22	0.306667	8.10369E-001	5.99586E-003	0.00000E+000	4.85886E-003	3.59960E-001	-1.16279E+000	3.57780E+000	10	...........
	23	0.32	8.17014E-001	5.99120E-003	0.00000E+000	4.89490E-003	3.59960E-001	-1.16620E+000	3.57780E+000	10	...........
	24	0.333333	8.23616E-001	5.99032E-003	0.00000E+000	4.93372E-003	3.59960E-001	-1.17283E+000	3.57780E+000	10	...........
	25	0.346667	8.30207E-001	5.99233E-003	0.00000E+000	4.97488E-003	3.59960E-001	-1.16308E+000	3.57780E+000	10	...........
	26	0.36	8.36806E-001	5.99514E-003	0.00000E+000	5.01677E-003	3.59960E-001	-1.16620E+000	3.57780E+000	10	...........
	27	0.373333	8.43351E-001	5.99218E-003	0.00000E+000	5.05352E-003	3.59960E-001	-1.17241E+000	3.57780E+000	10	...........
	28	0.386667	8.49911E-001	5.99416E-003	0.00000E+000	5.09450E-003	3.59960E-001	-1.16239E+000	3.57780E+000	10	...........
	29	0.4	8.56387E-001	5.99140E-003	0.00000E+000	5.13096E-003	3.59960E-001	-1.16610E+000	3.57780E+000	10	...........
	30	0.413333	8.62910E-001	5.99858E-003	0.00000E+000	5.17623E-003	3.59960E-001	-1.17251E+000	3.57780E+000	10	...........
	31	0.426667	8.69371E-001	5.99318E-003	0.00000E+000	5.21029E-003	3.59960E-001	-1.16251E+000	3.57780E+000	10	...........
	32	0.44	8.75789E-001	5.99419E-003	0.00000E+000	5.24965E-003	3.59960E-001	-1.16604E+000	3.57780E+000	10	...........
	33	0.453333	8.82157E-001	5.99507E-003	0.00000E+000	5.28859E-003	3.59960E-001	-1.17242E+000	3.57780E+000	10	...........
	34	0.466667	8.88497E-001	5.99446E-003	0.00000E+000	5.32606E-003	3.59960E-001	-1.16251E+000	3.57780E+000	10	...........
	35	0.48	8.94786E-001	5.99924E-003	0.00000E+000	5.36803E-003	3.59960E-001	-1.16618E+000	3.57780E+000	10	...........
	36	0.493333	9.01044E-001	5.99360E-003	0.00000E+000	5.40050E-003	3.59960E-001	-1.17239E+000	3.57780E+000	10	...........
	37	0.506667	9.07306E-001	5.99410E-003	0.00000E+000	5.43849E-003	3.59960E-001	-1.16239E+000	3.57780E+000	10	...........
	38	0.52	9.13503E-001	5.99524E-003	0.00000E+000	5.47667E-003	3.59960E-001	-1.16580E+000	3.57780E+000	10	...........
	39	0.533333	9.19704E-001	5.99642E-003	0.00000E+000	5.51493E-003	3.59960E-001	-1.17215E+000	3.57780E+000	10	...........
	40	0.546667	9.25857E-001	5.99927E-003	0.00000E+000	5.55446E-003	3.59960E-001	-1.16235E+000	3.57780E+000	10	...........
	41	0.56	9.31974E-001	5.99447E-003	0.00000E+000	5.58669E-003	3.59960E-001	-1.16607E+000	3.57780E+000	10	...........
	42	0.573333	9.38001E-001	5.99232E-003	0.00000E+000	5.62080E-003	3.59960E-001	-1.17218E+000	3.57780E+000	10	...........
	43	0.586667	9.43980E-001	5.99115E-003	0.00000E+000	5.65553E-003	3.59960E-001	-1.16232E+000	3.57780E+000	10	...........
	44	0.6	9.49969E-001	5.98703E-003	0.00000E+000	5.68750E-003	3.59960E-001	-1.16616E+000	3.57780E+000	10	...........
	45	0.613333	9.55845E-001	5.99522E-003	0.00000E+000	5.73050E-003	3.59960E-001	-1.17229E+000	3.57780E+000	10	...........
	46	0.626667	9.61684E-001	5.99379E-003	0.00000E+000	5.76413E-003	3.59960E-001	-1.16241E+000	3.57780E+000	10	...........
	47	0.64	9.67473E-001	5.99814E-003	0.00000E+000	5.80304E-003	3.59960E-001	-1.16598E+000	3.57780E+000	10	...........
	48	0.653333	9.73293E-001	5.99560E-003	0.00000E+000	5.83547E-003	3.59960E-001	-1.17206E+000	3.57780E+000	10	...........
	49	0.666667	9.78986E-001	5.99445E-003	0.00000E+000	5.86848E-003	3.59960E-001	-1.16255E+000	3.57780E+000	10	...........
	50	0.68	9.84637E-001	5.99347E-003	0.00000E+000	5.90139E-003	3.59960E-001	-1.16611E+000	3.57780E+000	10	...........
	51	0.693333	9.90254E-001	5.99561E-003	0.00000E+000	5.93717E-003	3.59960E-001	-1.17195E+000	3.57780E+000	10	...........
	52	0.706667	9.95797E-001	5.99425E-003	0.00000E+000	5.96906E-003	3.59960E-001	-1.16202E+000	3.57780E+000	10	...........
	53	0.711667	9.99590E-001	5.98803E-003	0.00000E+000	5.98558E-003	3.59960E-001	-1.17578E+000	3.57780E+000	10	...........
STARTTIMEOFFSET	QUANT	1382.538	Start Time Offset (s)