File: Data/CV_CRGO300517_1/PWRCCD_CRGO300517_1/CHARGE_DISCHARGE/CHARGE_#241.DTA
EXPLAIN
TAG	PWR800_CHARGE
TITLE	LABEL	PWR Cyclic Charge Discharge (Cell) - Charge Step	Test &Identifier
DATE	LABEL	22-6-2017	Date
TIME	LABEL	15:45:30	Time
NOTES	NOTES	3	&Notes...
	supercap test cell
	0.6mg
	6M KOH
PSTAT	PSTAT	IFC5000-01520	Potentiostat
CAPACITY	QUANT	1.00000E-003	Capacity (A-hr)
CELLTYPE	SELECTOR	1	&Cell Type
WORKINGCONNECTION	SELECTOR	0	&Working Lead
MAXCHARGETIME	VARIABLEANDUNITS	1.00000E+002	s	1.00000E+002	second(s)	Max &Charge Time
CHARGECURRENT	QUANT	6.00000E-003	&Charge Current (A)
VOLTAGEFINISH	TWOPARAM	F	1.00000E-003	3.60000E+003	&Voltage Finish	 I (A) < 	Max Time(s)
SAMPLETIME	QUANT	1.00000E-002	Sa&mple Period (s)
CHARGESTOPAT1	MULTIPARAM	4	1.00000E+000	Charge Stop At &1	Voltage > Limit	V
CHARGESTOPAT2	MULTIPARAM	0	0.00000E+000	Charge Stop At &2	None	N/A
AESBHCSELECTOR	TOGGLE	F	Save Both Half Cells
IRCOMP	TOGGLE	F	IR &Measure
EOC	QUANT	0	Open Circuit (V)
SEQUENCER	TOGGLE	TRUE	Run as Sequence
PSTATMODEL	IQUANT	53	Pstat Model
PSTATSECTION	LABEL	IFC5000-01520	Pstat Section
PSTATSERIALNO	LABEL	01520	Pstat Serial Number
CTRLMODE	IQUANT	0	Control Mode
ELECTROMETER	IQUANT	1	RE=0 or CS=1
IESTAB	IQUANT	0	I/E Stability
CASPEED	IQUANT	4	Control Amp Speed
CONVENTION	IQUANT	1	Current Convention
ICHRANGE	IQUANT	2	Ich Range
ICHRANGEMODE	TOGGLE	T	Ich Auto Range
ICHOFFSETENABLE	TOGGLE	F	Ich Offset Enable
ICHOFFSET	QUANT	0	Ich Offset (V)
ICHFILTER	IQUANT	1	Ich Filter
VCHRANGE	IQUANT	2	Vch Range
VCHRANGEMODE	TOGGLE	T	Vch Auto Range
VCHOFFSETENABLE	TOGGLE	F	Vch Offset Enable
VCHOFFSET	QUANT	0	Vch Offset (V)
VCHFILTER	IQUANT	1	Vch Filter
IERANGELOWERLIMIT	IQUANT	9	I/E Range Lower Limit
IERANGEMODE	TOGGLE	F	I/E AutoRange
IERANGE	IQUANT	10	I/E Range
ACHSELECT	IQUANT	1	Ach Select
ACHRANGE	IQUANT	2	Ach Range
ACHOFFSETENABLE	TOGGLE	F	Ach Offset Enable
ACHOFFSET	QUANT	0	Ach Offset (V)
ACHFILTER	IQUANT	1	Ach Filter
CABLEID	IQUANT	14	Cable ID
DCCALDATE	LABEL	20-10-2016	DC Calibration Date
ACCALDATE	LABEL	12/3/2015	AC Calibration Date
FRAMEWORKVERSION	QUANT	7.01	Framework Version
INSTRUMENTVERSION	LABEL	4.00	Instrument Version
CURVE	TABLE	64
	Pt	T	Vf	Im	Vu	Pwr	Sig	Ach	Temp	IERange	Over
	#	s	V	A	V	W	V	V	deg C	#	bits
	0	0.013333	6.11280E-001	5.99088E-003	0.00000E+000	3.66211E-003	3.59960E-001	-1.10324E+000	3.57810E+000	10	...........
	1	0.026667	6.19812E-001	5.99333E-003	0.00000E+000	3.71474E-003	3.59960E-001	-1.09797E+000	3.57810E+000	10	...........
	2	0.04	6.27640E-001	5.99715E-003	0.00000E+000	3.76405E-003	3.59960E-001	-1.09376E+000	3.57810E+000	10	...........
	3	0.053333	6.35018E-001	5.99865E-003	0.00000E+000	3.80925E-003	3.59960E-001	-1.10298E+000	3.57810E+000	10	...........
	4	0.066667	6.42239E-001	5.99584E-003	0.00000E+000	3.85076E-003	3.59960E-001	-1.09792E+000	3.57810E+000	10	...........
	5	0.08	6.49184E-001	5.99417E-003	0.00000E+000	3.89132E-003	3.59960E-001	-1.09392E+000	3.57810E+000	10	...........
	6	0.093333	6.55978E-001	5.99512E-003	0.00000E+000	3.93266E-003	3.59960E-001	-1.10282E+000	3.57810E+000	10	...........
	7	0.106667	6.62708E-001	5.99304E-003	0.00000E+000	3.97164E-003	3.59960E-001	-1.09772E+000	3.57810E+000	10	...........
	8	0.12	6.69339E-001	5.99404E-003	0.00000E+000	4.01205E-003	3.59960E-001	-1.09369E+000	3.57810E+000	10	...........
	9	0.133333	6.75894E-001	5.99362E-003	0.00000E+000	4.05106E-003	3.59960E-001	-1.10254E+000	3.57810E+000	10	...........
	10	0.146667	6.82345E-001	5.99783E-003	0.00000E+000	4.09259E-003	3.59960E-001	-1.09796E+000	3.57810E+000	10	...........
	11	0.16	6.88790E-001	5.99517E-003	0.00000E+000	4.12941E-003	3.59960E-001	-1.09368E+000	3.57810E+000	10	...........
	12	0.173333	6.95194E-001	5.99149E-003	0.00000E+000	4.16524E-003	3.59960E-001	-1.10264E+000	3.57810E+000	10	...........
	13	0.186667	7.01546E-001	5.99230E-003	0.00000E+000	4.20387E-003	3.59960E-001	-1.09792E+000	3.57810E+000	10	...........
	14	0.2	7.07868E-001	5.99677E-003	0.00000E+000	4.24493E-003	3.59960E-001	-1.09375E+000	3.57810E+000	10	...........
	15	0.213333	7.14200E-001	5.99615E-003	0.00000E+000	4.28245E-003	3.59960E-001	-1.10274E+000	3.57810E+000	10	...........
	16	0.226667	7.20534E-001	6.00092E-003	0.00000E+000	4.32387E-003	3.59960E-001	-1.09796E+000	3.57810E+000	10	...........
	17	0.24	7.26761E-001	5.99710E-003	0.00000E+000	4.35845E-003	3.59960E-001	-1.09366E+000	3.57810E+000	10	...........
	18	0.253333	7.33015E-001	5.99204E-003	0.00000E+000	4.39226E-003	3.59960E-001	-1.10220E+000	3.57810E+000	10	...........
	19	0.266667	7.39269E-001	5.99053E-003	0.00000E+000	4.42861E-003	3.59960E-001	-1.09758E+000	3.57810E+000	10	...........
	20	0.28	7.45527E-001	5.99287E-003	0.00000E+000	4.46785E-003	3.59960E-001	-1.09341E+000	3.57810E+000	10	...........
	21	0.293333	7.51723E-001	5.99824E-003	0.00000E+000	4.50901E-003	3.59960E-001	-1.10196E+000	3.57810E+000	10	...........
	22	0.306667	7.57966E-001	5.99762E-003	0.00000E+000	4.54599E-003	3.59960E-001	-1.09752E+000	3.57810E+000	10	...........
	23	0.32	7.64153E-001	5.99572E-003	0.00000E+000	4.58165E-003	3.59960E-001	-1.09338E+000	3.57810E+000	10	...........
	24	0.333333	7.70362E-001	5.98964E-003	0.00000E+000	4.61419E-003	3.59960E-001	-1.10190E+000	3.57810E+000	10	...........
	25	0.346667	7.76549E-001	5.99542E-003	0.00000E+000	4.65574E-003	3.59960E-001	-1.09765E+000	3.57810E+000	10	...........
	26	0.36	7.82704E-001	5.99363E-003	0.00000E+000	4.69124E-003	3.59960E-001	-1.09315E+000	3.57810E+000	10	...........
	27	0.373333	7.88835E-001	5.99485E-003	0.00000E+000	4.72894E-003	3.59960E-001	-1.10186E+000	3.57810E+000	10	...........
	28	0.386667	7.95037E-001	5.99281E-003	0.00000E+000	4.76451E-003	3.59960E-001	-1.09755E+000	3.57705E+000	10	...........
	29	0.4	8.01167E-001	5.99289E-003	0.00000E+000	4.80131E-003	3.59960E-001	-1.09317E+000	3.57690E+000	10	...........
	30	0.413333	8.07271E-001	5.99011E-003	0.00000E+000	4.83564E-003	3.59960E-001	-1.10167E+000	3.57690E+000	10	...........
	31	0.426667	8.13414E-001	5.99021E-003	0.00000E+000	4.87252E-003	3.59960E-001	-1.09759E+000	3.57690E+000	10	...........
	32	0.44	8.19575E-001	5.99835E-003	0.00000E+000	4.91610E-003	3.59960E-001	-1.09310E+000	3.57690E+000	10	...........
	33	0.453333	8.25658E-001	5.99388E-003	0.00000E+000	4.94890E-003	3.59960E-001	-1.10166E+000	3.57690E+000	10	...........
	34	0.466667	8.31693E-001	5.99187E-003	0.00000E+000	4.98340E-003	3.59960E-001	-1.09787E+000	3.57690E+000	10	...........
	35	0.48	8.37800E-001	5.99345E-003	0.00000E+000	5.02131E-003	3.59960E-001	-1.09350E+000	3.57690E+000	10	...........
	36	0.493333	8.43933E-001	5.99118E-003	0.00000E+000	5.05615E-003	3.59960E-001	-1.10178E+000	3.57690E+000	10	...........
	37	0.506667	8.50002E-001	5.99855E-003	0.00000E+000	5.09878E-003	3.59960E-001	-1.09781E+000	3.57690E+000	10	...........
	38	0.52	8.56031E-001	5.99667E-003	0.00000E+000	5.13333E-003	3.59960E-001	-1.09308E+000	3.57690E+000	10	...........
	39	0.533333	8.62104E-001	5.99643E-003	0.00000E+000	5.16955E-003	3.59960E-001	-1.10165E+000	3.57690E+000	10	...........
	40	0.546667	8.68165E-001	5.99226E-003	0.00000E+000	5.20227E-003	3.59960E-001	-1.09797E+000	3.57690E+000	10	...........
	41	0.56	8.74206E-001	5.99018E-003	0.00000E+000	5.23665E-003	3.59960E-001	-1.09325E+000	3.57690E+000	10	...........
	42	0.573333	8.80166E-001	5.99505E-003	0.00000E+000	5.27664E-003	3.59960E-001	-1.10096E+000	3.57690E+000	10	...........
	43	0.586667	8.86161E-001	5.99387E-003	0.00000E+000	5.31154E-003	3.59960E-001	-1.09769E+000	3.57690E+000	10	...........
	44	0.6	8.92125E-001	5.99438E-003	0.00000E+000	5.34773E-003	3.59960E-001	-1.09305E+000	3.57690E+000	10	...........
	45	0.613333	8.98101E-001	5.99261E-003	0.00000E+000	5.38197E-003	3.59960E-001	-1.10110E+000	3.57690E+000	10	...........
	46	0.626667	9.04002E-001	5.99292E-003	0.00000E+000	5.41761E-003	3.59960E-001	-1.09769E+000	3.57690E+000	10	...........
	47	0.64	9.09944E-001	5.99469E-003	0.00000E+000	5.45483E-003	3.59960E-001	-1.09270E+000	3.57690E+000	10	...........
	48	0.653333	9.15779E-001	5.99910E-003	0.00000E+000	5.49385E-003	3.59960E-001	-1.10090E+000	3.57690E+000	10	...........
	49	0.666667	9.21674E-001	5.99637E-003	0.00000E+000	5.52669E-003	3.59960E-001	-1.09776E+000	3.57690E+000	10	...........
	50	0.68	9.27530E-001	5.99795E-003	0.00000E+000	5.56328E-003	3.59960E-001	-1.09294E+000	3.57690E+000	10	...........
	51	0.693333	9.33304E-001	5.99308E-003	0.00000E+000	5.59337E-003	3.59960E-001	-1.10098E+000	3.57690E+000	10	...........
	52	0.706667	9.39055E-001	5.99397E-003	0.00000E+000	5.62867E-003	3.59960E-001	-1.09776E+000	3.57690E+000	10	...........
	53	0.72	9.44795E-001	5.99418E-003	0.00000E+000	5.66327E-003	3.59960E-001	-1.09271E+000	3.57690E+000	10	...........
	54	0.733333	9.50542E-001	5.99725E-003	0.00000E+000	5.70064E-003	3.59960E-001	-1.10072E+000	3.57690E+000	10	...........
	55	0.746667	9.56225E-001	5.99005E-003	0.00000E+000	5.72783E-003	3.59960E-001	-1.09794E+000	3.57690E+000	10	...........
	56	0.76	9.61880E-001	5.99433E-003	0.00000E+000	5.76583E-003	3.59960E-001	-1.09298E+000	3.57690E+000	10	...........
	57	0.773333	9.67453E-001	5.99803E-003	0.00000E+000	5.80281E-003	3.59960E-001	-1.10072E+000	3.57690E+000	10	...........
	58	0.786667	9.73050E-001	5.99544E-003	0.00000E+000	5.83386E-003	3.59960E-001	-1.09795E+000	3.57690E+000	10	...........
	59	0.8	9.78604E-001	5.99423E-003	0.00000E+000	5.86597E-003	3.59960E-001	-1.09301E+000	3.57690E+000	10	...........
	60	0.813333	9.84063E-001	5.99202E-003	0.00000E+000	5.89652E-003	3.59960E-001	-1.10087E+000	3.57690E+000	10	...........
	61	0.826667	9.89511E-001	5.99585E-003	0.00000E+000	5.93296E-003	3.59960E-001	-1.09813E+000	3.57690E+000	10	...........
	62	0.84	9.94923E-001	5.99372E-003	0.00000E+000	5.96329E-003	3.59960E-001	-1.09305E+000	3.57690E+000	10	...........
	63	0.846667	9.99016E-001	5.99696E-003	0.00000E+000	5.99106E-003	3.59960E-001	-1.10599E+000	3.57690E+000	10	...........
STARTTIMEOFFSET	QUANT	442.81	Start Time Offset (s)