File: Data/CV_CRGO300517_1/PWRCCD_CRGO300517_1/CHARGE_DISCHARGE/CHARGE_#931.DTA
EXPLAIN
TAG	PWR800_CHARGE
TITLE	LABEL	PWR Cyclic Charge Discharge (Cell) - Charge Step	Test &Identifier
DATE	LABEL	22-6-2017	Date
TIME	LABEL	16:12:08	Time
NOTES	NOTES	3	&Notes...
	supercap test cell
	0.6mg
	6M KOH
PSTAT	PSTAT	IFC5000-01520	Potentiostat
CAPACITY	QUANT	1.00000E-003	Capacity (A-hr)
CELLTYPE	SELECTOR	1	&Cell Type
WORKINGCONNECTION	SELECTOR	0	&Working Lead
MAXCHARGETIME	VARIABLEANDUNITS	1.00000E+002	s	1.00000E+002	second(s)	Max &Charge Time
CHARGECURRENT	QUANT	6.00000E-003	&Charge Current (A)
VOLTAGEFINISH	TWOPARAM	F	1.00000E-003	3.60000E+003	&Voltage Finish	 I (A) < 	Max Time(s)
SAMPLETIME	QUANT	1.00000E-002	Sa&mple Period (s)
CHARGESTOPAT1	MULTIPARAM	4	1.00000E+000	Charge Stop At &1	Voltage > Limit	V
CHARGESTOPAT2	MULTIPARAM	0	0.00000E+000	Charge Stop At &2	None	N/A
AESBHCSELECTOR	TOGGLE	F	Save Both Half Cells
IRCOMP	TOGGLE	F	IR &Measure
EOC	QUANT	0	Open Circuit (V)
SEQUENCER	TOGGLE	TRUE	Run as Sequence
PSTATMODEL	IQUANT	53	Pstat Model
PSTATSECTION	LABEL	IFC5000-01520	Pstat Section
PSTATSERIALNO	LABEL	01520	Pstat Serial Number
CTRLMODE	IQUANT	0	Control Mode
ELECTROMETER	IQUANT	1	RE=0 or CS=1
IESTAB	IQUANT	0	I/E Stability
CASPEED	IQUANT	4	Control Amp Speed
CONVENTION	IQUANT	1	Current Convention
ICHRANGE	IQUANT	2	Ich Range
ICHRANGEMODE	TOGGLE	T	Ich Auto Range
ICHOFFSETENABLE	TOGGLE	F	Ich Offset Enable
ICHOFFSET	QUANT	0	Ich Offset (V)
ICHFILTER	IQUANT	1	Ich Filter
VCHRANGE	IQUANT	2	Vch Range
VCHRANGEMODE	TOGGLE	T	Vch Auto Range
VCHOFFSETENABLE	TOGGLE	F	Vch Offset Enable
VCHOFFSET	QUANT	0	Vch Offset (V)
VCHFILTER	IQUANT	1	Vch Filter
IERANGELOWERLIMIT	IQUANT	9	I/E Range Lower Limit
IERANGEMODE	TOGGLE	F	I/E AutoRange
IERANGE	IQUANT	10	I/E Range
ACHSELECT	IQUANT	1	Ach Select
ACHRANGE	IQUANT	2	Ach Range
ACHOFFSETENABLE	TOGGLE	F	Ach Offset Enable
ACHOFFSET	QUANT	0	Ach Offset (V)
ACHFILTER	IQUANT	1	Ach Filter
CABLEID	IQUANT	14	Cable ID
DCCALDATE	LABEL	20-10-2016	DC Calibration Date
ACCALDATE	LABEL	12/3/2015	AC Calibration Date
FRAMEWORKVERSION	QUANT	7.01	Framework Version
INSTRUMENTVERSION	LABEL	4.00	Instrument Version
CURVE	TABLE	53
	Pt	T	Vf	Im	Vu	Pwr	Sig	Ach	Temp	IERange	Over
	#	s	V	A	V	W	V	V	deg C	#	bits
	0	0.013333	6.54216E-001	5.99398E-003	0.00000E+000	3.92136E-003	3.59960E-001	-1.16765E+000	3.57640E+000	10	...........
	1	0.026667	6.63495E-001	5.99052E-003	0.00000E+000	3.97468E-003	3.59960E-001	-1.17456E+000	3.57640E+000	10	...........
	2	0.04	6.72095E-001	5.99690E-003	0.00000E+000	4.03049E-003	3.59960E-001	-1.17553E+000	3.57640E+000	10	...........
	3	0.053333	6.80203E-001	5.99233E-003	0.00000E+000	4.07600E-003	3.59960E-001	-1.16783E+000	3.57640E+000	10	...........
	4	0.066667	6.88005E-001	5.98779E-003	0.00000E+000	4.11963E-003	3.59960E-001	-1.17464E+000	3.57640E+000	10	...........
	5	0.08	6.95660E-001	5.99549E-003	0.00000E+000	4.17083E-003	3.59960E-001	-1.17511E+000	3.57640E+000	10	...........
	6	0.093333	7.03094E-001	5.99213E-003	0.00000E+000	4.21303E-003	3.59960E-001	-1.16767E+000	3.57640E+000	10	...........
	7	0.106667	7.10491E-001	5.99070E-003	0.00000E+000	4.25634E-003	3.59960E-001	-1.17488E+000	3.57640E+000	10	...........
	8	0.12	7.17735E-001	5.99528E-003	0.00000E+000	4.30302E-003	3.59960E-001	-1.17524E+000	3.57640E+000	10	...........
	9	0.133333	7.24920E-001	5.99278E-003	0.00000E+000	4.34429E-003	3.59960E-001	-1.16747E+000	3.57640E+000	10	...........
	10	0.146667	7.32060E-001	5.99518E-003	0.00000E+000	4.38883E-003	3.59960E-001	-1.17423E+000	3.57640E+000	10	...........
	11	0.16	7.39118E-001	5.99280E-003	0.00000E+000	4.42938E-003	3.59960E-001	-1.17455E+000	3.57640E+000	10	...........
	12	0.173333	7.46108E-001	5.99742E-003	0.00000E+000	4.47472E-003	3.59960E-001	-1.16724E+000	3.57640E+000	10	...........
	13	0.186667	7.53095E-001	5.99859E-003	0.00000E+000	4.51751E-003	3.59960E-001	-1.17429E+000	3.57650E+000	10	...........
	14	0.2	7.59971E-001	5.99437E-003	0.00000E+000	4.55555E-003	3.59960E-001	-1.17438E+000	3.57660E+000	10	...........
	15	0.213333	7.66837E-001	5.99264E-003	0.00000E+000	4.59538E-003	3.59960E-001	-1.16692E+000	3.57660E+000	10	...........
	16	0.226667	7.73737E-001	5.99214E-003	0.00000E+000	4.63634E-003	3.59960E-001	-1.17416E+000	3.57660E+000	10	...........
	17	0.24	7.80579E-001	5.99476E-003	0.00000E+000	4.67939E-003	3.59960E-001	-1.17452E+000	3.57660E+000	10	...........
	18	0.253333	7.87423E-001	5.98967E-003	0.00000E+000	4.71640E-003	3.59960E-001	-1.16729E+000	3.57660E+000	10	...........
	19	0.266667	7.94232E-001	5.99028E-003	0.00000E+000	4.75767E-003	3.59960E-001	-1.17405E+000	3.57660E+000	10	...........
	20	0.28	8.00975E-001	5.99058E-003	0.00000E+000	4.79831E-003	3.59960E-001	-1.17409E+000	3.57660E+000	10	...........
	21	0.293333	8.07657E-001	5.99272E-003	0.00000E+000	4.84006E-003	3.59960E-001	-1.16704E+000	3.57660E+000	10	...........
	22	0.306667	8.14347E-001	5.99262E-003	0.00000E+000	4.88007E-003	3.59960E-001	-1.17463E+000	3.57660E+000	10	...........
	23	0.32	8.21027E-001	5.99380E-003	0.00000E+000	4.92107E-003	3.59960E-001	-1.17418E+000	3.57660E+000	10	...........
	24	0.333333	8.27682E-001	5.99187E-003	0.00000E+000	4.95936E-003	3.59960E-001	-1.16694E+000	3.57660E+000	10	...........
	25	0.346667	8.34285E-001	5.99866E-003	0.00000E+000	5.00460E-003	3.59960E-001	-1.17417E+000	3.57660E+000	10	...........
	26	0.36	8.40911E-001	5.99348E-003	0.00000E+000	5.03998E-003	3.59960E-001	-1.17413E+000	3.57660E+000	10	...........
	27	0.373333	8.47495E-001	5.99274E-003	0.00000E+000	5.07882E-003	3.59960E-001	-1.16714E+000	3.57660E+000	10	...........
	28	0.386667	8.54010E-001	5.99282E-003	0.00000E+000	5.11793E-003	3.59960E-001	-1.17451E+000	3.57660E+000	10	...........
	29	0.4	8.60559E-001	5.99604E-003	0.00000E+000	5.15995E-003	3.59960E-001	-1.17397E+000	3.57660E+000	10	...........
	30	0.413333	8.67034E-001	5.98902E-003	0.00000E+000	5.19269E-003	3.59960E-001	-1.16668E+000	3.57660E+000	10	...........
	31	0.426667	8.73485E-001	5.98902E-003	0.00000E+000	5.23132E-003	3.59960E-001	-1.17436E+000	3.57660E+000	10	...........
	32	0.44	8.79898E-001	5.99463E-003	0.00000E+000	5.27466E-003	3.59960E-001	-1.17409E+000	3.57660E+000	10	...........
	33	0.453333	8.86333E-001	5.99067E-003	0.00000E+000	5.30973E-003	3.59960E-001	-1.16706E+000	3.57660E+000	10	...........
	34	0.466667	8.92667E-001	5.99098E-003	0.00000E+000	5.34794E-003	3.59960E-001	-1.17417E+000	3.57660E+000	10	...........
	35	0.48	8.99005E-001	5.99199E-003	0.00000E+000	5.38683E-003	3.59960E-001	-1.17328E+000	3.57660E+000	10	...........
	36	0.493333	9.05283E-001	5.99042E-003	0.00000E+000	5.42303E-003	3.59960E-001	-1.16639E+000	3.57660E+000	10	...........
	37	0.506667	9.11525E-001	5.99270E-003	0.00000E+000	5.46249E-003	3.59960E-001	-1.17424E+000	3.57660E+000	10	...........
	38	0.52	9.17751E-001	5.99076E-003	0.00000E+000	5.49802E-003	3.59960E-001	-1.17344E+000	3.57660E+000	10	...........
	39	0.533333	9.23977E-001	5.99397E-003	0.00000E+000	5.53829E-003	3.59960E-001	-1.16659E+000	3.57660E+000	10	...........
	40	0.546667	9.30114E-001	5.99584E-003	0.00000E+000	5.57681E-003	3.59960E-001	-1.17403E+000	3.57660E+000	10	...........
	41	0.56	9.36219E-001	5.99374E-003	0.00000E+000	5.61145E-003	3.59960E-001	-1.17309E+000	3.57660E+000	10	...........
	42	0.573333	9.42205E-001	5.99307E-003	0.00000E+000	5.64670E-003	3.59960E-001	-1.16664E+000	3.57660E+000	10	...........
	43	0.586667	9.48187E-001	5.99386E-003	0.00000E+000	5.68331E-003	3.59960E-001	-1.17459E+000	3.57660E+000	10	...........
	44	0.6	9.54114E-001	5.98885E-003	0.00000E+000	5.71405E-003	3.59960E-001	-1.17320E+000	3.57660E+000	10	...........
	45	0.613333	9.60037E-001	5.99342E-003	0.00000E+000	5.75390E-003	3.59960E-001	-1.16621E+000	3.57660E+000	10	...........
	46	0.626667	9.65871E-001	5.99544E-003	0.00000E+000	5.79082E-003	3.59960E-001	-1.17408E+000	3.57660E+000	10	...........
	47	0.64	9.71680E-001	5.99384E-003	0.00000E+000	5.82410E-003	3.59960E-001	-1.17319E+000	3.57660E+000	10	...........
	48	0.653333	9.77426E-001	5.99185E-003	0.00000E+000	5.85659E-003	3.59960E-001	-1.16657E+000	3.57660E+000	10	...........
	49	0.666667	9.83108E-001	5.99493E-003	0.00000E+000	5.89366E-003	3.59960E-001	-1.17431E+000	3.57660E+000	10	...........
	50	0.68	9.88744E-001	5.99499E-003	0.00000E+000	5.92751E-003	3.59960E-001	-1.17296E+000	3.57660E+000	10	...........
	51	0.693333	9.94337E-001	5.99017E-003	0.00000E+000	5.95625E-003	3.59960E-001	-1.16635E+000	3.57660E+000	10	...........
	52	0.701667	9.98836E-001	5.99234E-003	0.00000E+000	5.98536E-003	3.59960E-001	-1.18039E+000	3.57660E+000	10	...........
STARTTIMEOFFSET	QUANT	1489.472	Start Time Offset (s)