File: Data/CV_CRGO300517_1/PWRCCD_CRGO300517_1/CHARGE_DISCHARGE/CHARGE_#476.DTA
EXPLAIN
TAG	PWR800_CHARGE
TITLE	LABEL	PWR Cyclic Charge Discharge (Cell) - Charge Step	Test &Identifier
DATE	LABEL	22-6-2017	Date
TIME	LABEL	15:54:58	Time
NOTES	NOTES	3	&Notes...
	supercap test cell
	0.6mg
	6M KOH
PSTAT	PSTAT	IFC5000-01520	Potentiostat
CAPACITY	QUANT	1.00000E-003	Capacity (A-hr)
CELLTYPE	SELECTOR	1	&Cell Type
WORKINGCONNECTION	SELECTOR	0	&Working Lead
MAXCHARGETIME	VARIABLEANDUNITS	1.00000E+002	s	1.00000E+002	second(s)	Max &Charge Time
CHARGECURRENT	QUANT	6.00000E-003	&Charge Current (A)
VOLTAGEFINISH	TWOPARAM	F	1.00000E-003	3.60000E+003	&Voltage Finish	 I (A) < 	Max Time(s)
SAMPLETIME	QUANT	1.00000E-002	Sa&mple Period (s)
CHARGESTOPAT1	MULTIPARAM	4	1.00000E+000	Charge Stop At &1	Voltage > Limit	V
CHARGESTOPAT2	MULTIPARAM	0	0.00000E+000	Charge Stop At &2	None	N/A
AESBHCSELECTOR	TOGGLE	F	Save Both Half Cells
IRCOMP	TOGGLE	F	IR &Measure
EOC	QUANT	0	Open Circuit (V)
SEQUENCER	TOGGLE	TRUE	Run as Sequence
PSTATMODEL	IQUANT	53	Pstat Model
PSTATSECTION	LABEL	IFC5000-01520	Pstat Section
PSTATSERIALNO	LABEL	01520	Pstat Serial Number
CTRLMODE	IQUANT	0	Control Mode
ELECTROMETER	IQUANT	1	RE=0 or CS=1
IESTAB	IQUANT	0	I/E Stability
CASPEED	IQUANT	4	Control Amp Speed
CONVENTION	IQUANT	1	Current Convention
ICHRANGE	IQUANT	2	Ich Range
ICHRANGEMODE	TOGGLE	T	Ich Auto Range
ICHOFFSETENABLE	TOGGLE	F	Ich Offset Enable
ICHOFFSET	QUANT	0	Ich Offset (V)
ICHFILTER	IQUANT	1	Ich Filter
VCHRANGE	IQUANT	2	Vch Range
VCHRANGEMODE	TOGGLE	T	Vch Auto Range
VCHOFFSETENABLE	TOGGLE	F	Vch Offset Enable
VCHOFFSET	QUANT	0	Vch Offset (V)
VCHFILTER	IQUANT	1	Vch Filter
IERANGELOWERLIMIT	IQUANT	9	I/E Range Lower Limit
IERANGEMODE	TOGGLE	F	I/E AutoRange
IERANGE	IQUANT	10	I/E Range
ACHSELECT	IQUANT	1	Ach Select
ACHRANGE	IQUANT	2	Ach Range
ACHOFFSETENABLE	TOGGLE	F	Ach Offset Enable
ACHOFFSET	QUANT	0	Ach Offset (V)
ACHFILTER	IQUANT	1	Ach Filter
CABLEID	IQUANT	14	Cable ID
DCCALDATE	LABEL	20-10-2016	DC Calibration Date
ACCALDATE	LABEL	12/3/2015	AC Calibration Date
FRAMEWORKVERSION	QUANT	7.01	Framework Version
INSTRUMENTVERSION	LABEL	4.00	Instrument Version
CURVE	TABLE	59
	Pt	T	Vf	Im	Vu	Pwr	Sig	Ach	Temp	IERange	Over
	#	s	V	A	V	W	V	V	deg C	#	bits
	0	0.013333	6.30191E-001	5.99486E-003	0.00000E+000	3.77790E-003	3.59960E-001	-1.14373E+000	3.57680E+000	10	...........
	1	0.026667	6.39047E-001	5.99802E-003	0.00000E+000	3.83301E-003	3.59960E-001	-1.15339E+000	3.57680E+000	10	...........
	2	0.04	6.47191E-001	5.99405E-003	0.00000E+000	3.87930E-003	3.59960E-001	-1.14800E+000	3.57680E+000	10	...........
	3	0.053333	6.54873E-001	5.99425E-003	0.00000E+000	3.92547E-003	3.59960E-001	-1.14343E+000	3.57680E+000	10	...........
	4	0.066667	6.62304E-001	5.99429E-003	0.00000E+000	3.97004E-003	3.59960E-001	-1.15315E+000	3.57680E+000	10	...........
	5	0.08	6.69587E-001	5.99338E-003	0.00000E+000	4.01309E-003	3.59960E-001	-1.14776E+000	3.57680E+000	10	...........
	6	0.093333	6.76698E-001	5.99418E-003	0.00000E+000	4.05625E-003	3.59960E-001	-1.14311E+000	3.57680E+000	10	...........
	7	0.106667	6.83687E-001	5.99558E-003	0.00000E+000	4.09910E-003	3.59960E-001	-1.15319E+000	3.57680E+000	10	...........
	8	0.12	6.90611E-001	5.99583E-003	0.00000E+000	4.14078E-003	3.59960E-001	-1.14730E+000	3.57680E+000	10	...........
	9	0.133333	6.97467E-001	5.99316E-003	0.00000E+000	4.18003E-003	3.59960E-001	-1.14309E+000	3.57680E+000	10	...........
	10	0.146667	7.04230E-001	6.00029E-003	0.00000E+000	4.22558E-003	3.59960E-001	-1.15301E+000	3.57680E+000	10	...........
	11	0.16	7.10935E-001	5.99428E-003	0.00000E+000	4.26154E-003	3.59960E-001	-1.14710E+000	3.57680E+000	10	...........
	12	0.173333	7.17640E-001	5.99557E-003	0.00000E+000	4.30266E-003	3.59960E-001	-1.14288E+000	3.57680E+000	10	...........
	13	0.186667	7.24283E-001	5.99620E-003	0.00000E+000	4.34295E-003	3.59960E-001	-1.15311E+000	3.57680E+000	10	...........
	14	0.2	7.30874E-001	5.99376E-003	0.00000E+000	4.38069E-003	3.59960E-001	-1.14670E+000	3.57680E+000	10	...........
	15	0.213333	7.37414E-001	5.99762E-003	0.00000E+000	4.42273E-003	3.59960E-001	-1.14270E+000	3.57680E+000	10	...........
	16	0.226667	7.44012E-001	6.00064E-003	0.00000E+000	4.46455E-003	3.59960E-001	-1.15279E+000	3.57680E+000	10	...........
	17	0.24	7.50564E-001	5.99499E-003	0.00000E+000	4.49963E-003	3.59960E-001	-1.14655E+000	3.57680E+000	10	...........
	18	0.253333	7.57048E-001	5.99901E-003	0.00000E+000	4.54154E-003	3.59960E-001	-1.14285E+000	3.57680E+000	10	...........
	19	0.266667	7.63532E-001	5.98998E-003	0.00000E+000	4.57354E-003	3.59960E-001	-1.15321E+000	3.57680E+000	10	...........
	20	0.28	7.70061E-001	5.99400E-003	0.00000E+000	4.61575E-003	3.59960E-001	-1.14635E+000	3.57680E+000	10	...........
	21	0.293333	7.76519E-001	5.99691E-003	0.00000E+000	4.65671E-003	3.59960E-001	-1.14282E+000	3.57680E+000	10	...........
	22	0.306667	7.82960E-001	5.99527E-003	0.00000E+000	4.69406E-003	3.59960E-001	-1.15304E+000	3.57680E+000	10	...........
	23	0.32	7.89381E-001	5.99225E-003	0.00000E+000	4.73017E-003	3.59960E-001	-1.14609E+000	3.57680E+000	10	...........
	24	0.333333	7.95828E-001	5.99337E-003	0.00000E+000	4.76970E-003	3.59960E-001	-1.14262E+000	3.57692E+000	10	...........
	25	0.346667	8.02251E-001	5.99733E-003	0.00000E+000	4.81136E-003	3.59960E-001	-1.15312E+000	3.57700E+000	10	...........
	26	0.36	8.08628E-001	5.99275E-003	0.00000E+000	4.84591E-003	3.59960E-001	-1.14557E+000	3.57700E+000	10	...........
	27	0.373333	8.14964E-001	5.99771E-003	0.00000E+000	4.88792E-003	3.59960E-001	-1.14220E+000	3.57700E+000	10	...........
	28	0.386667	8.21392E-001	5.99075E-003	0.00000E+000	4.92075E-003	3.59960E-001	-1.15303E+000	3.57700E+000	10	...........
	29	0.4	8.27717E-001	5.99409E-003	0.00000E+000	4.96141E-003	3.59960E-001	-1.14546E+000	3.57700E+000	10	...........
	30	0.413333	8.34023E-001	5.99193E-003	0.00000E+000	4.99741E-003	3.59960E-001	-1.14219E+000	3.57700E+000	10	...........
	31	0.426667	8.40332E-001	5.99065E-003	0.00000E+000	5.03414E-003	3.59960E-001	-1.15276E+000	3.57700E+000	10	...........
	32	0.44	8.46625E-001	5.99812E-003	0.00000E+000	5.07816E-003	3.59960E-001	-1.14523E+000	3.57700E+000	10	...........
	33	0.453333	8.52931E-001	5.99190E-003	0.00000E+000	5.11068E-003	3.59960E-001	-1.14229E+000	3.57700E+000	10	...........
	34	0.466667	8.59181E-001	5.99583E-003	0.00000E+000	5.15150E-003	3.59960E-001	-1.15307E+000	3.57700E+000	10	...........
	35	0.48	8.65414E-001	5.99660E-003	0.00000E+000	5.18954E-003	3.59960E-001	-1.14492E+000	3.57700E+000	10	...........
	36	0.493333	8.71671E-001	5.99504E-003	0.00000E+000	5.22571E-003	3.59960E-001	-1.14234E+000	3.57700E+000	10	...........
	37	0.506667	8.77861E-001	5.99254E-003	0.00000E+000	5.26062E-003	3.59960E-001	-1.15296E+000	3.57700E+000	10	...........
	38	0.52	8.84079E-001	5.99686E-003	0.00000E+000	5.30169E-003	3.59960E-001	-1.14503E+000	3.57700E+000	10	...........
	39	0.533333	8.90225E-001	5.99486E-003	0.00000E+000	5.33677E-003	3.59960E-001	-1.14233E+000	3.57700E+000	10	...........
	40	0.546667	8.96356E-001	5.99233E-003	0.00000E+000	5.37126E-003	3.59960E-001	-1.15305E+000	3.57700E+000	10	...........
	41	0.56	9.02458E-001	5.99684E-003	0.00000E+000	5.41189E-003	3.59960E-001	-1.14491E+000	3.57700E+000	10	...........
	42	0.573333	9.08559E-001	5.99142E-003	0.00000E+000	5.44356E-003	3.59960E-001	-1.14240E+000	3.57700E+000	10	...........
	43	0.586667	9.14527E-001	5.99905E-003	0.00000E+000	5.48629E-003	3.59960E-001	-1.15335E+000	3.57700E+000	10	...........
	44	0.6	9.20555E-001	5.98938E-003	0.00000E+000	5.51355E-003	3.59960E-001	-1.14522E+000	3.57700E+000	10	...........
	45	0.613333	9.26551E-001	5.98962E-003	0.00000E+000	5.54969E-003	3.59960E-001	-1.14268E+000	3.57700E+000	10	...........
	46	0.626667	9.32520E-001	5.99984E-003	0.00000E+000	5.59497E-003	3.59960E-001	-1.15349E+000	3.57700E+000	10	...........
	47	0.64	9.38406E-001	5.99475E-003	0.00000E+000	5.62551E-003	3.59960E-001	-1.14507E+000	3.57700E+000	10	...........
	48	0.653333	9.44296E-001	5.99620E-003	0.00000E+000	5.66219E-003	3.59960E-001	-1.14275E+000	3.57700E+000	10	...........
	49	0.666667	9.50176E-001	5.99425E-003	0.00000E+000	5.69559E-003	3.59960E-001	-1.15380E+000	3.57700E+000	10	...........
	50	0.68	9.55961E-001	5.99433E-003	0.00000E+000	5.73035E-003	3.59960E-001	-1.14484E+000	3.57700E+000	10	...........
	51	0.693333	9.61711E-001	5.99428E-003	0.00000E+000	5.76477E-003	3.59960E-001	-1.14240E+000	3.57700E+000	10	...........
	52	0.706667	9.67413E-001	5.99554E-003	0.00000E+000	5.80017E-003	3.59960E-001	-1.15336E+000	3.57700E+000	10	...........
	53	0.72	9.73133E-001	5.99410E-003	0.00000E+000	5.83306E-003	3.59960E-001	-1.14453E+000	3.57700E+000	10	...........
	54	0.733333	9.78719E-001	5.99426E-003	0.00000E+000	5.86669E-003	3.59960E-001	-1.14261E+000	3.57700E+000	10	...........
	55	0.746667	9.84314E-001	5.99487E-003	0.00000E+000	5.90083E-003	3.59960E-001	-1.15338E+000	3.57700E+000	10	...........
	56	0.76	9.89876E-001	5.99263E-003	0.00000E+000	5.93197E-003	3.59960E-001	-1.14439E+000	3.57700E+000	10	...........
	57	0.773333	9.95376E-001	5.98912E-003	0.00000E+000	5.96142E-003	3.59960E-001	-1.14258E+000	3.57700E+000	10	...........
	58	0.78	9.99484E-001	5.99020E-003	0.00000E+000	5.98711E-003	3.59960E-001	-1.15504E+000	3.57700E+000	10	...........
STARTTIMEOFFSET	QUANT	821.9385	Start Time Offset (s)