File: Data/CV_CRGO300517_1/PWRCCD_CRGO300517_1/CHARGE_DISCHARGE/CHARGE_#21.DTA
EXPLAIN
TAG	PWR800_CHARGE
TITLE	LABEL	PWR Cyclic Charge Discharge (Cell) - Charge Step	Test &Identifier
DATE	LABEL	22-6-2017	Date
TIME	LABEL	15:35:54	Time
NOTES	NOTES	3	&Notes...
	supercap test cell
	0.6mg
	6M KOH
PSTAT	PSTAT	IFC5000-01520	Potentiostat
CAPACITY	QUANT	1.00000E-003	Capacity (A-hr)
CELLTYPE	SELECTOR	1	&Cell Type
WORKINGCONNECTION	SELECTOR	0	&Working Lead
MAXCHARGETIME	VARIABLEANDUNITS	1.00000E+002	s	1.00000E+002	second(s)	Max &Charge Time
CHARGECURRENT	QUANT	6.00000E-003	&Charge Current (A)
VOLTAGEFINISH	TWOPARAM	F	1.00000E-003	3.60000E+003	&Voltage Finish	 I (A) < 	Max Time(s)
SAMPLETIME	QUANT	1.00000E-002	Sa&mple Period (s)
CHARGESTOPAT1	MULTIPARAM	4	1.00000E+000	Charge Stop At &1	Voltage > Limit	V
CHARGESTOPAT2	MULTIPARAM	0	0.00000E+000	Charge Stop At &2	None	N/A
AESBHCSELECTOR	TOGGLE	F	Save Both Half Cells
IRCOMP	TOGGLE	F	IR &Measure
EOC	QUANT	0	Open Circuit (V)
SEQUENCER	TOGGLE	TRUE	Run as Sequence
PSTATMODEL	IQUANT	53	Pstat Model
PSTATSECTION	LABEL	IFC5000-01520	Pstat Section
PSTATSERIALNO	LABEL	01520	Pstat Serial Number
CTRLMODE	IQUANT	0	Control Mode
ELECTROMETER	IQUANT	1	RE=0 or CS=1
IESTAB	IQUANT	0	I/E Stability
CASPEED	IQUANT	4	Control Amp Speed
CONVENTION	IQUANT	1	Current Convention
ICHRANGE	IQUANT	2	Ich Range
ICHRANGEMODE	TOGGLE	T	Ich Auto Range
ICHOFFSETENABLE	TOGGLE	F	Ich Offset Enable
ICHOFFSET	QUANT	0	Ich Offset (V)
ICHFILTER	IQUANT	1	Ich Filter
VCHRANGE	IQUANT	2	Vch Range
VCHRANGEMODE	TOGGLE	T	Vch Auto Range
VCHOFFSETENABLE	TOGGLE	F	Vch Offset Enable
VCHOFFSET	QUANT	0	Vch Offset (V)
VCHFILTER	IQUANT	1	Vch Filter
IERANGELOWERLIMIT	IQUANT	9	I/E Range Lower Limit
IERANGEMODE	TOGGLE	F	I/E AutoRange
IERANGE	IQUANT	10	I/E Range
ACHSELECT	IQUANT	1	Ach Select
ACHRANGE	IQUANT	2	Ach Range
ACHOFFSETENABLE	TOGGLE	F	Ach Offset Enable
ACHOFFSET	QUANT	0	Ach Offset (V)
ACHFILTER	IQUANT	1	Ach Filter
CABLEID	IQUANT	14	Cable ID
DCCALDATE	LABEL	20-10-2016	DC Calibration Date
ACCALDATE	LABEL	12/3/2015	AC Calibration Date
FRAMEWORKVERSION	QUANT	7.01	Framework Version
INSTRUMENTVERSION	LABEL	4.00	Instrument Version
CURVE	TABLE	78
	Pt	T	Vf	Im	Vu	Pwr	Sig	Ach	Temp	IERange	Over
	#	s	V	A	V	W	V	V	deg C	#	bits
	0	0.013333	5.61189E-001	5.99352E-003	0.00000E+000	3.36350E-003	3.59960E-001	-1.01693E+000	3.57860E+000	10	...........
	1	0.026667	5.69181E-001	5.99381E-003	0.00000E+000	3.41156E-003	3.59960E-001	-1.02081E+000	3.57860E+000	10	...........
	2	0.04	5.76490E-001	5.99272E-003	0.00000E+000	3.45474E-003	3.59960E-001	-1.02748E+000	3.57860E+000	10	...........
	3	0.053333	5.83404E-001	5.99311E-003	0.00000E+000	3.49640E-003	3.59960E-001	-1.01674E+000	3.57860E+000	10	...........
	4	0.066667	5.90035E-001	5.99468E-003	0.00000E+000	3.53707E-003	3.59960E-001	-1.02041E+000	3.57860E+000	10	...........
	5	0.08	5.96457E-001	5.99378E-003	0.00000E+000	3.57503E-003	3.59960E-001	-1.02705E+000	3.57860E+000	10	...........
	6	0.093333	6.02761E-001	5.99270E-003	0.00000E+000	3.61216E-003	3.59960E-001	-1.01667E+000	3.57860E+000	10	...........
	7	0.106667	6.08939E-001	5.99348E-003	0.00000E+000	3.64967E-003	3.59960E-001	-1.02055E+000	3.57860E+000	10	...........
	8	0.12	6.15109E-001	5.99192E-003	0.00000E+000	3.68569E-003	3.59960E-001	-1.02705E+000	3.57860E+000	10	...........
	9	0.133333	6.21160E-001	5.99165E-003	0.00000E+000	3.72178E-003	3.59960E-001	-1.01634E+000	3.57860E+000	10	...........
	10	0.146667	6.27147E-001	5.99322E-003	0.00000E+000	3.75863E-003	3.59960E-001	-1.02037E+000	3.57860E+000	10	...........
	11	0.16	6.33080E-001	5.99289E-003	0.00000E+000	3.79398E-003	3.59960E-001	-1.02728E+000	3.57860E+000	10	...........
	12	0.173333	6.38934E-001	5.99433E-003	0.00000E+000	3.82999E-003	3.59960E-001	-1.01647E+000	3.57860E+000	10	...........
	13	0.186667	6.44741E-001	5.99238E-003	0.00000E+000	3.86354E-003	3.59960E-001	-1.02066E+000	3.57860E+000	10	...........
	14	0.2	6.50502E-001	5.99352E-003	0.00000E+000	3.89880E-003	3.59960E-001	-1.02697E+000	3.57860E+000	10	...........
	15	0.213333	6.56321E-001	5.99492E-003	0.00000E+000	3.93459E-003	3.59960E-001	-1.01639E+000	3.57860E+000	10	...........
	16	0.226667	6.62034E-001	5.99462E-003	0.00000E+000	3.96864E-003	3.59960E-001	-1.02077E+000	3.57860E+000	10	...........
	17	0.24	6.67775E-001	5.99466E-003	0.00000E+000	4.00308E-003	3.59960E-001	-1.02732E+000	3.57860E+000	10	...........
	18	0.253333	6.73432E-001	5.99292E-003	0.00000E+000	4.03582E-003	3.59960E-001	-1.01637E+000	3.57860E+000	10	...........
	19	0.266667	6.79090E-001	5.99568E-003	0.00000E+000	4.07161E-003	3.59960E-001	-1.02064E+000	3.57860E+000	10	...........
	20	0.28	6.84744E-001	5.99122E-003	0.00000E+000	4.10245E-003	3.59960E-001	-1.02714E+000	3.57860E+000	10	...........
	21	0.293333	6.90400E-001	5.99047E-003	0.00000E+000	4.13582E-003	3.59960E-001	-1.01666E+000	3.57860E+000	10	...........
	22	0.306667	6.96033E-001	5.99178E-003	0.00000E+000	4.17047E-003	3.59960E-001	-1.02092E+000	3.57860E+000	10	...........
	23	0.32	7.01674E-001	5.99033E-003	0.00000E+000	4.20326E-003	3.59960E-001	-1.02722E+000	3.57860E+000	10	...........
	24	0.333333	7.07257E-001	5.99476E-003	0.00000E+000	4.23984E-003	3.59960E-001	-1.01644E+000	3.57860E+000	10	...........
	25	0.346667	7.12862E-001	5.99478E-003	0.00000E+000	4.27345E-003	3.59960E-001	-1.02060E+000	3.57860E+000	10	...........
	26	0.36	7.18527E-001	5.99337E-003	0.00000E+000	4.30640E-003	3.59960E-001	-1.02699E+000	3.57860E+000	10	...........
	27	0.373333	7.24107E-001	5.99536E-003	0.00000E+000	4.34128E-003	3.59960E-001	-1.01644E+000	3.57755E+000	10	...........
	28	0.386667	7.29699E-001	5.99338E-003	0.00000E+000	4.37337E-003	3.59960E-001	-1.02075E+000	3.57740E+000	10	...........
	29	0.4	7.35252E-001	5.99337E-003	0.00000E+000	4.40664E-003	3.59960E-001	-1.02685E+000	3.57740E+000	10	...........
	30	0.413333	7.40834E-001	5.99477E-003	0.00000E+000	4.44113E-003	3.59960E-001	-1.01631E+000	3.57740E+000	10	...........
	31	0.426667	7.46455E-001	5.99780E-003	0.00000E+000	4.47709E-003	3.59960E-001	-1.02077E+000	3.57740E+000	10	...........
	32	0.44	7.52042E-001	5.99232E-003	0.00000E+000	4.50648E-003	3.59960E-001	-1.02710E+000	3.57740E+000	10	...........
	33	0.453333	7.57619E-001	5.99477E-003	0.00000E+000	4.54176E-003	3.59960E-001	-1.01645E+000	3.57740E+000	10	...........
	34	0.466667	7.63213E-001	5.99254E-003	0.00000E+000	4.57358E-003	3.59960E-001	-1.02083E+000	3.57740E+000	10	...........
	35	0.48	7.68829E-001	5.99771E-003	0.00000E+000	4.61121E-003	3.59960E-001	-1.02694E+000	3.57740E+000	10	...........
	36	0.493333	7.74383E-001	5.99515E-003	0.00000E+000	4.64254E-003	3.59960E-001	-1.01650E+000	3.57740E+000	10	...........
	37	0.506667	7.79953E-001	5.99130E-003	0.00000E+000	4.67293E-003	3.59960E-001	-1.02102E+000	3.57740E+000	10	...........
	38	0.52	7.85560E-001	5.99636E-003	0.00000E+000	4.71050E-003	3.59960E-001	-1.02685E+000	3.57740E+000	10	...........
	39	0.533333	7.91129E-001	5.99050E-003	0.00000E+000	4.73926E-003	3.59960E-001	-1.01596E+000	3.57740E+000	10	...........
	40	0.546667	7.96746E-001	5.99474E-003	0.00000E+000	4.77629E-003	3.59960E-001	-1.02062E+000	3.57740E+000	10	...........
	41	0.56	8.02325E-001	5.99233E-003	0.00000E+000	4.80779E-003	3.59960E-001	-1.02668E+000	3.57740E+000	10	...........
	42	0.573333	8.07929E-001	5.99358E-003	0.00000E+000	4.84239E-003	3.59960E-001	-1.01636E+000	3.57740E+000	10	...........
	43	0.586667	8.13478E-001	5.98990E-003	0.00000E+000	4.87265E-003	3.59960E-001	-1.02069E+000	3.57740E+000	10	...........
	44	0.6	8.19057E-001	5.99427E-003	0.00000E+000	4.90965E-003	3.59960E-001	-1.02650E+000	3.57740E+000	10	...........
	45	0.613333	8.24652E-001	5.99243E-003	0.00000E+000	4.94166E-003	3.59960E-001	-1.01620E+000	3.57740E+000	10	...........
	46	0.626667	8.30202E-001	5.99660E-003	0.00000E+000	4.97839E-003	3.59960E-001	-1.02094E+000	3.57740E+000	10	...........
	47	0.64	8.35766E-001	5.99631E-003	0.00000E+000	5.01151E-003	3.59960E-001	-1.02673E+000	3.57740E+000	10	...........
	48	0.653333	8.41352E-001	5.99570E-003	0.00000E+000	5.04449E-003	3.59960E-001	-1.01616E+000	3.57740E+000	10	...........
	49	0.666667	8.46971E-001	5.99481E-003	0.00000E+000	5.07743E-003	3.59960E-001	-1.02063E+000	3.57740E+000	10	...........
	50	0.68	8.52516E-001	5.99492E-003	0.00000E+000	5.11076E-003	3.59960E-001	-1.02617E+000	3.57740E+000	10	...........
	51	0.693333	8.58073E-001	5.99471E-003	0.00000E+000	5.14390E-003	3.59960E-001	-1.01580E+000	3.57740E+000	10	...........
	52	0.706667	8.63656E-001	5.99495E-003	0.00000E+000	5.17757E-003	3.59960E-001	-1.02071E+000	3.57740E+000	10	...........
	53	0.72	8.69274E-001	5.99734E-003	0.00000E+000	5.21333E-003	3.59960E-001	-1.02632E+000	3.57740E+000	10	...........
	54	0.733333	8.74856E-001	5.99663E-003	0.00000E+000	5.24619E-003	3.59960E-001	-1.01583E+000	3.57740E+000	10	...........
	55	0.746667	8.80409E-001	5.99482E-003	0.00000E+000	5.27789E-003	3.59960E-001	-1.02041E+000	3.57740E+000	10	...........
	56	0.76	8.85958E-001	5.99582E-003	0.00000E+000	5.31204E-003	3.59960E-001	-1.02625E+000	3.57740E+000	10	...........
	57	0.773333	8.91525E-001	5.99193E-003	0.00000E+000	5.34196E-003	3.59960E-001	-1.01598E+000	3.57740E+000	10	...........
	58	0.786667	8.97055E-001	5.99899E-003	0.00000E+000	5.38142E-003	3.59960E-001	-1.02066E+000	3.57740E+000	10	...........
	59	0.8	9.02574E-001	5.99474E-003	0.00000E+000	5.41070E-003	3.59960E-001	-1.02611E+000	3.57740E+000	10	...........
	60	0.813333	9.08064E-001	5.99426E-003	0.00000E+000	5.44317E-003	3.59960E-001	-1.01585E+000	3.57740E+000	10	...........
	61	0.826667	9.13568E-001	5.99941E-003	0.00000E+000	5.48087E-003	3.59960E-001	-1.02072E+000	3.57740E+000	10	...........
	62	0.84	9.19077E-001	5.99516E-003	0.00000E+000	5.51001E-003	3.59960E-001	-1.02617E+000	3.57740E+000	10	...........
	63	0.853333	9.24609E-001	5.99062E-003	0.00000E+000	5.53898E-003	3.59960E-001	-1.01608E+000	3.57740E+000	10	...........
	64	0.866667	9.30064E-001	5.98957E-003	0.00000E+000	5.57068E-003	3.59960E-001	-1.02059E+000	3.57740E+000	10	...........
	65	0.88	9.35521E-001	5.99302E-003	0.00000E+000	5.60660E-003	3.59960E-001	-1.02610E+000	3.57740E+000	10	...........
	66	0.893333	9.40991E-001	5.99879E-003	0.00000E+000	5.64480E-003	3.59960E-001	-1.01592E+000	3.57740E+000	10	...........
	67	0.906667	9.46423E-001	5.99213E-003	0.00000E+000	5.67109E-003	3.59960E-001	-1.02084E+000	3.57740E+000	10	...........
	68	0.92	9.51876E-001	5.99403E-003	0.00000E+000	5.70558E-003	3.59960E-001	-1.02611E+000	3.57740E+000	10	...........
	69	0.933333	9.57298E-001	5.99099E-003	0.00000E+000	5.73516E-003	3.59960E-001	-1.01576E+000	3.57740E+000	10	...........
	70	0.946667	9.62673E-001	5.99693E-003	0.00000E+000	5.77308E-003	3.59960E-001	-1.02064E+000	3.57740E+000	10	...........
	71	0.96	9.68023E-001	5.99087E-003	0.00000E+000	5.79930E-003	3.59960E-001	-1.02615E+000	3.57740E+000	10	...........
	72	0.97333	9.73407E-001	5.99230E-003	0.00000E+000	5.83294E-003	3.59960E-001	-1.01599E+000	3.57740E+000	10	...........
	73	0.98667	9.78726E-001	5.99812E-003	0.00000E+000	5.87052E-003	3.59960E-001	-1.02077E+000	3.57740E+000	10	...........
	74	1	9.84017E-001	5.99598E-003	0.00000E+000	5.90015E-003	3.59960E-001	-1.02551E+000	3.57740E+000	10	...........
	75	1.01333	9.89266E-001	5.99370E-003	0.00000E+000	5.92936E-003	3.59960E-001	-1.01546E+000	3.57740E+000	10	...........
	76	1.02667	9.94469E-001	5.99163E-003	0.00000E+000	5.95849E-003	3.59960E-001	-1.02047E+000	3.57740E+000	10	...........
	77	1.035	9.98728E-001	5.99695E-003	0.00000E+000	5.98931E-003	3.59960E-001	-1.02337E+000	3.57740E+000	10	...........
STARTTIMEOFFSET	QUANT	42.56667	Start Time Offset (s)