File: Data/CV_CRGO300517_1/PWRCCD_CRGO300517_1/CHARGE_DISCHARGE/CHARGE_#238.DTA
EXPLAIN
TAG	PWR800_CHARGE
TITLE	LABEL	PWR Cyclic Charge Discharge (Cell) - Charge Step	Test &Identifier
DATE	LABEL	22-6-2017	Date
TIME	LABEL	15:45:23	Time
NOTES	NOTES	3	&Notes...
	supercap test cell
	0.6mg
	6M KOH
PSTAT	PSTAT	IFC5000-01520	Potentiostat
CAPACITY	QUANT	1.00000E-003	Capacity (A-hr)
CELLTYPE	SELECTOR	1	&Cell Type
WORKINGCONNECTION	SELECTOR	0	&Working Lead
MAXCHARGETIME	VARIABLEANDUNITS	1.00000E+002	s	1.00000E+002	second(s)	Max &Charge Time
CHARGECURRENT	QUANT	6.00000E-003	&Charge Current (A)
VOLTAGEFINISH	TWOPARAM	F	1.00000E-003	3.60000E+003	&Voltage Finish	 I (A) < 	Max Time(s)
SAMPLETIME	QUANT	1.00000E-002	Sa&mple Period (s)
CHARGESTOPAT1	MULTIPARAM	4	1.00000E+000	Charge Stop At &1	Voltage > Limit	V
CHARGESTOPAT2	MULTIPARAM	0	0.00000E+000	Charge Stop At &2	None	N/A
AESBHCSELECTOR	TOGGLE	F	Save Both Half Cells
IRCOMP	TOGGLE	F	IR &Measure
EOC	QUANT	0	Open Circuit (V)
SEQUENCER	TOGGLE	TRUE	Run as Sequence
PSTATMODEL	IQUANT	53	Pstat Model
PSTATSECTION	LABEL	IFC5000-01520	Pstat Section
PSTATSERIALNO	LABEL	01520	Pstat Serial Number
CTRLMODE	IQUANT	0	Control Mode
ELECTROMETER	IQUANT	1	RE=0 or CS=1
IESTAB	IQUANT	0	I/E Stability
CASPEED	IQUANT	4	Control Amp Speed
CONVENTION	IQUANT	1	Current Convention
ICHRANGE	IQUANT	2	Ich Range
ICHRANGEMODE	TOGGLE	T	Ich Auto Range
ICHOFFSETENABLE	TOGGLE	F	Ich Offset Enable
ICHOFFSET	QUANT	0	Ich Offset (V)
ICHFILTER	IQUANT	1	Ich Filter
VCHRANGE	IQUANT	2	Vch Range
VCHRANGEMODE	TOGGLE	T	Vch Auto Range
VCHOFFSETENABLE	TOGGLE	F	Vch Offset Enable
VCHOFFSET	QUANT	0	Vch Offset (V)
VCHFILTER	IQUANT	1	Vch Filter
IERANGELOWERLIMIT	IQUANT	9	I/E Range Lower Limit
IERANGEMODE	TOGGLE	F	I/E AutoRange
IERANGE	IQUANT	10	I/E Range
ACHSELECT	IQUANT	1	Ach Select
ACHRANGE	IQUANT	2	Ach Range
ACHOFFSETENABLE	TOGGLE	F	Ach Offset Enable
ACHOFFSET	QUANT	0	Ach Offset (V)
ACHFILTER	IQUANT	1	Ach Filter
CABLEID	IQUANT	14	Cable ID
DCCALDATE	LABEL	20-10-2016	DC Calibration Date
ACCALDATE	LABEL	12/3/2015	AC Calibration Date
FRAMEWORKVERSION	QUANT	7.01	Framework Version
INSTRUMENTVERSION	LABEL	4.00	Instrument Version
CURVE	TABLE	64
	Pt	T	Vf	Im	Vu	Pwr	Sig	Ach	Temp	IERange	Over
	#	s	V	A	V	W	V	V	deg C	#	bits
	0	0.013333	6.09765E-001	5.99491E-003	0.00000E+000	3.65548E-003	3.59960E-001	-1.10054E+000	3.57700E+000	10	...........
	1	0.026667	6.18415E-001	5.99190E-003	0.00000E+000	3.70549E-003	3.59960E-001	-1.09201E+000	3.57700E+000	10	...........
	2	0.04	6.26266E-001	5.99453E-003	0.00000E+000	3.75417E-003	3.59960E-001	-1.09520E+000	3.57700E+000	10	...........
	3	0.053333	6.33671E-001	5.99319E-003	0.00000E+000	3.79771E-003	3.59960E-001	-1.10058E+000	3.57700E+000	10	...........
	4	0.066667	6.40847E-001	5.99320E-003	0.00000E+000	3.84072E-003	3.59960E-001	-1.09213E+000	3.57700E+000	10	...........
	5	0.08	6.47798E-001	5.99125E-003	0.00000E+000	3.88111E-003	3.59960E-001	-1.09528E+000	3.57700E+000	10	...........
	6	0.093333	6.54669E-001	5.99454E-003	0.00000E+000	3.92444E-003	3.59960E-001	-1.10047E+000	3.57700E+000	10	...........
	7	0.106667	6.61390E-001	5.99198E-003	0.00000E+000	3.96303E-003	3.59960E-001	-1.09185E+000	3.57700E+000	10	...........
	8	0.12	6.68060E-001	5.99545E-003	0.00000E+000	4.00532E-003	3.59960E-001	-1.09519E+000	3.57700E+000	10	...........
	9	0.133333	6.74631E-001	5.99244E-003	0.00000E+000	4.04268E-003	3.59960E-001	-1.10075E+000	3.57700E+000	10	...........
	10	0.146667	6.81099E-001	5.99443E-003	0.00000E+000	4.08280E-003	3.59960E-001	-1.09178E+000	3.57700E+000	10	...........
	11	0.16	6.87510E-001	5.99171E-003	0.00000E+000	4.11936E-003	3.59960E-001	-1.09520E+000	3.57700E+000	10	...........
	12	0.173333	6.93977E-001	5.99428E-003	0.00000E+000	4.15989E-003	3.59960E-001	-1.10056E+000	3.57700E+000	10	...........
	13	0.186667	7.00357E-001	5.99666E-003	0.00000E+000	4.19980E-003	3.59960E-001	-1.09161E+000	3.57700E+000	10	...........
	14	0.2	7.06726E-001	5.99666E-003	0.00000E+000	4.23799E-003	3.59960E-001	-1.09489E+000	3.57700E+000	10	...........
	15	0.213333	7.13010E-001	5.99316E-003	0.00000E+000	4.27318E-003	3.59960E-001	-1.10042E+000	3.57700E+000	10	...........
	16	0.226667	7.19364E-001	5.99184E-003	0.00000E+000	4.31031E-003	3.59960E-001	-1.09175E+000	3.57700E+000	10	...........
	17	0.24	7.25596E-001	5.99623E-003	0.00000E+000	4.35084E-003	3.59960E-001	-1.09503E+000	3.57700E+000	10	...........
	18	0.253333	7.31870E-001	5.99426E-003	0.00000E+000	4.38702E-003	3.59960E-001	-1.10065E+000	3.57700E+000	10	...........
	19	0.266667	7.38146E-001	5.99673E-003	0.00000E+000	4.42646E-003	3.59960E-001	-1.09186E+000	3.57700E+000	10	...........
	20	0.28	7.44401E-001	5.99389E-003	0.00000E+000	4.46185E-003	3.59960E-001	-1.09493E+000	3.57700E+000	10	...........
	21	0.293333	7.50573E-001	5.99032E-003	0.00000E+000	4.49617E-003	3.59960E-001	-1.10055E+000	3.57700E+000	10	...........
	22	0.306667	7.56773E-001	5.99278E-003	0.00000E+000	4.53517E-003	3.59960E-001	-1.09184E+000	3.57700E+000	10	...........
	23	0.32	7.62953E-001	5.99313E-003	0.00000E+000	4.57248E-003	3.59960E-001	-1.09490E+000	3.57700E+000	10	...........
	24	0.333333	7.69159E-001	5.99064E-003	0.00000E+000	4.60775E-003	3.59960E-001	-1.10062E+000	3.57700E+000	10	...........
	25	0.346667	7.75343E-001	5.99380E-003	0.00000E+000	4.64725E-003	3.59960E-001	-1.09168E+000	3.57700E+000	10	...........
	26	0.36	7.81539E-001	5.99233E-003	0.00000E+000	4.68324E-003	3.59960E-001	-1.09466E+000	3.57700E+000	10	...........
	27	0.373333	7.87677E-001	5.99336E-003	0.00000E+000	4.72083E-003	3.59960E-001	-1.10038E+000	3.57700E+000	10	...........
	28	0.386667	7.93867E-001	5.99127E-003	0.00000E+000	4.75627E-003	3.59960E-001	-1.09148E+000	3.57700E+000	10	...........
	29	0.4	8.00041E-001	5.99482E-003	0.00000E+000	4.79611E-003	3.59960E-001	-1.09472E+000	3.57700E+000	10	...........
	30	0.413333	8.06174E-001	5.99028E-003	0.00000E+000	4.82920E-003	3.59960E-001	-1.10046E+000	3.57700E+000	10	...........
	31	0.426667	8.12277E-001	5.99441E-003	0.00000E+000	4.86912E-003	3.59960E-001	-1.09151E+000	3.57700E+000	10	...........
	32	0.44	8.18377E-001	5.99273E-003	0.00000E+000	4.90431E-003	3.59960E-001	-1.09461E+000	3.57700E+000	10	...........
	33	0.453333	8.24533E-001	5.99522E-003	0.00000E+000	4.94326E-003	3.59960E-001	-1.10072E+000	3.57700E+000	10	...........
	34	0.466667	8.30618E-001	5.99322E-003	0.00000E+000	4.97807E-003	3.59960E-001	-1.09178E+000	3.57700E+000	10	...........
	35	0.48	8.36681E-001	5.99237E-003	0.00000E+000	5.01371E-003	3.59960E-001	-1.09462E+000	3.57700E+000	10	...........
	36	0.493333	8.42802E-001	5.99836E-003	0.00000E+000	5.05543E-003	3.59960E-001	-1.10046E+000	3.57700E+000	10	...........
	37	0.506667	8.48917E-001	5.99549E-003	0.00000E+000	5.08967E-003	3.59960E-001	-1.09165E+000	3.57700E+000	10	...........
	38	0.52	8.54947E-001	5.99262E-003	0.00000E+000	5.12337E-003	3.59960E-001	-1.09466E+000	3.57700E+000	10	...........
	39	0.533333	8.60985E-001	5.99526E-003	0.00000E+000	5.16183E-003	3.59960E-001	-1.10080E+000	3.57700E+000	10	...........
	40	0.546667	8.66976E-001	5.98996E-003	0.00000E+000	5.19315E-003	3.59960E-001	-1.09191E+000	3.57700E+000	10	...........
	41	0.56	8.73063E-001	5.99112E-003	0.00000E+000	5.23063E-003	3.59960E-001	-1.09469E+000	3.57700E+000	10	...........
	42	0.573333	8.79045E-001	5.99206E-003	0.00000E+000	5.26729E-003	3.59960E-001	-1.10077E+000	3.57700E+000	10	...........
	43	0.586667	8.85054E-001	5.98986E-003	0.00000E+000	5.30135E-003	3.59960E-001	-1.09189E+000	3.57700E+000	10	...........
	44	0.6	8.91015E-001	5.99348E-003	0.00000E+000	5.34028E-003	3.59960E-001	-1.09460E+000	3.57700E+000	10	...........
	45	0.613333	8.96996E-001	5.99562E-003	0.00000E+000	5.37804E-003	3.59960E-001	-1.10074E+000	3.57700E+000	10	...........
	46	0.626667	9.02911E-001	5.99583E-003	0.00000E+000	5.41369E-003	3.59960E-001	-1.09190E+000	3.57700E+000	10	...........
	47	0.64	9.08795E-001	5.99949E-003	0.00000E+000	5.45230E-003	3.59960E-001	-1.09434E+000	3.57700E+000	10	...........
	48	0.653333	9.14645E-001	5.99284E-003	0.00000E+000	5.48132E-003	3.59960E-001	-1.10086E+000	3.57700E+000	10	...........
	49	0.666667	9.20556E-001	5.99849E-003	0.00000E+000	5.52194E-003	3.59960E-001	-1.09150E+000	3.57700E+000	10	...........
	50	0.68	9.26382E-001	5.99085E-003	0.00000E+000	5.54981E-003	3.59960E-001	-1.09391E+000	3.57700E+000	10	...........
	51	0.693333	9.32250E-001	5.99184E-003	0.00000E+000	5.58589E-003	3.59960E-001	-1.10057E+000	3.57700E+000	10	...........
	52	0.706667	9.37990E-001	5.99078E-003	0.00000E+000	5.61929E-003	3.59960E-001	-1.09143E+000	3.57700E+000	10	...........
	53	0.72	9.43776E-001	5.99480E-003	0.00000E+000	5.65775E-003	3.59960E-001	-1.09419E+000	3.57700E+000	10	...........
	54	0.733333	9.49490E-001	5.99252E-003	0.00000E+000	5.68984E-003	3.59960E-001	-1.10065E+000	3.57700E+000	10	...........
	55	0.746667	9.55160E-001	5.99328E-003	0.00000E+000	5.72454E-003	3.59960E-001	-1.09146E+000	3.57700E+000	10	...........
	56	0.76	9.60806E-001	5.99352E-003	0.00000E+000	5.75861E-003	3.59960E-001	-1.09398E+000	3.57700E+000	10	...........
	57	0.773333	9.66412E-001	5.99164E-003	0.00000E+000	5.79039E-003	3.59960E-001	-1.10053E+000	3.57700E+000	10	...........
	58	0.786667	9.72030E-001	5.99289E-003	0.00000E+000	5.82527E-003	3.59960E-001	-1.09130E+000	3.57700E+000	10	...........
	59	0.8	9.77626E-001	5.99574E-003	0.00000E+000	5.86159E-003	3.59960E-001	-1.09406E+000	3.57700E+000	10	...........
	60	0.813333	9.83068E-001	5.99316E-003	0.00000E+000	5.89168E-003	3.59960E-001	-1.10068E+000	3.57700E+000	10	...........
	61	0.826667	9.88552E-001	5.99781E-003	0.00000E+000	5.92915E-003	3.59960E-001	-1.09133E+000	3.57700E+000	10	...........
	62	0.84	9.93948E-001	5.99028E-003	0.00000E+000	5.95402E-003	3.59960E-001	-1.09382E+000	3.57755E+000	10	...........
	63	0.85	9.98668E-001	5.99745E-003	0.00000E+000	5.98946E-003	3.59960E-001	-1.10023E+000	3.57810E+000	10	...........
STARTTIMEOFFSET	QUANT	437.7467	Start Time Offset (s)