File: Data/CV_CRGO300517_1/PWRCCD_CRGO300517_1/CHARGE_DISCHARGE/CHARGE_#877.DTA
EXPLAIN
TAG	PWR800_CHARGE
TITLE	LABEL	PWR Cyclic Charge Discharge (Cell) - Charge Step	Test &Identifier
DATE	LABEL	22-6-2017	Date
TIME	LABEL	16:10:08	Time
NOTES	NOTES	3	&Notes...
	supercap test cell
	0.6mg
	6M KOH
PSTAT	PSTAT	IFC5000-01520	Potentiostat
CAPACITY	QUANT	1.00000E-003	Capacity (A-hr)
CELLTYPE	SELECTOR	1	&Cell Type
WORKINGCONNECTION	SELECTOR	0	&Working Lead
MAXCHARGETIME	VARIABLEANDUNITS	1.00000E+002	s	1.00000E+002	second(s)	Max &Charge Time
CHARGECURRENT	QUANT	6.00000E-003	&Charge Current (A)
VOLTAGEFINISH	TWOPARAM	F	1.00000E-003	3.60000E+003	&Voltage Finish	 I (A) < 	Max Time(s)
SAMPLETIME	QUANT	1.00000E-002	Sa&mple Period (s)
CHARGESTOPAT1	MULTIPARAM	4	1.00000E+000	Charge Stop At &1	Voltage > Limit	V
CHARGESTOPAT2	MULTIPARAM	0	0.00000E+000	Charge Stop At &2	None	N/A
AESBHCSELECTOR	TOGGLE	F	Save Both Half Cells
IRCOMP	TOGGLE	F	IR &Measure
EOC	QUANT	0	Open Circuit (V)
SEQUENCER	TOGGLE	TRUE	Run as Sequence
PSTATMODEL	IQUANT	53	Pstat Model
PSTATSECTION	LABEL	IFC5000-01520	Pstat Section
PSTATSERIALNO	LABEL	01520	Pstat Serial Number
CTRLMODE	IQUANT	0	Control Mode
ELECTROMETER	IQUANT	1	RE=0 or CS=1
IESTAB	IQUANT	0	I/E Stability
CASPEED	IQUANT	4	Control Amp Speed
CONVENTION	IQUANT	1	Current Convention
ICHRANGE	IQUANT	2	Ich Range
ICHRANGEMODE	TOGGLE	T	Ich Auto Range
ICHOFFSETENABLE	TOGGLE	F	Ich Offset Enable
ICHOFFSET	QUANT	0	Ich Offset (V)
ICHFILTER	IQUANT	1	Ich Filter
VCHRANGE	IQUANT	2	Vch Range
VCHRANGEMODE	TOGGLE	T	Vch Auto Range
VCHOFFSETENABLE	TOGGLE	F	Vch Offset Enable
VCHOFFSET	QUANT	0	Vch Offset (V)
VCHFILTER	IQUANT	1	Vch Filter
IERANGELOWERLIMIT	IQUANT	9	I/E Range Lower Limit
IERANGEMODE	TOGGLE	F	I/E AutoRange
IERANGE	IQUANT	10	I/E Range
ACHSELECT	IQUANT	1	Ach Select
ACHRANGE	IQUANT	2	Ach Range
ACHOFFSETENABLE	TOGGLE	F	Ach Offset Enable
ACHOFFSET	QUANT	0	Ach Offset (V)
ACHFILTER	IQUANT	1	Ach Filter
CABLEID	IQUANT	14	Cable ID
DCCALDATE	LABEL	20-10-2016	DC Calibration Date
ACCALDATE	LABEL	12/3/2015	AC Calibration Date
FRAMEWORKVERSION	QUANT	7.01	Framework Version
INSTRUMENTVERSION	LABEL	4.00	Instrument Version
CURVE	TABLE	54
	Pt	T	Vf	Im	Vu	Pwr	Sig	Ach	Temp	IERange	Over
	#	s	V	A	V	W	V	V	deg C	#	bits
	0	0.013333	6.51997E-001	5.99733E-003	0.00000E+000	3.91024E-003	3.59960E-001	-1.17347E+000	3.57640E+000	10	...........
	1	0.026667	6.61225E-001	5.99186E-003	0.00000E+000	3.96197E-003	3.59960E-001	-1.16315E+000	3.57640E+000	10	...........
	2	0.04	6.69713E-001	5.99160E-003	0.00000E+000	4.01265E-003	3.59960E-001	-1.16574E+000	3.57640E+000	10	...........
	3	0.053333	6.77779E-001	5.99580E-003	0.00000E+000	4.06383E-003	3.59960E-001	-1.17374E+000	3.57655E+000	10	...........
	4	0.066667	6.85554E-001	5.99519E-003	0.00000E+000	4.11003E-003	3.59960E-001	-1.16354E+000	3.57660E+000	10	...........
	5	0.08	6.93138E-001	5.99203E-003	0.00000E+000	4.15330E-003	3.59960E-001	-1.16579E+000	3.57660E+000	10	...........
	6	0.093333	7.00556E-001	5.99157E-003	0.00000E+000	4.19743E-003	3.59960E-001	-1.17287E+000	3.57660E+000	10	...........
	7	0.106667	7.07891E-001	5.99085E-003	0.00000E+000	4.24087E-003	3.59960E-001	-1.16282E+000	3.57660E+000	10	...........
	8	0.12	7.15089E-001	5.99341E-003	0.00000E+000	4.28582E-003	3.59960E-001	-1.16571E+000	3.57660E+000	10	...........
	9	0.133333	7.22269E-001	5.99769E-003	0.00000E+000	4.33195E-003	3.59960E-001	-1.17304E+000	3.57660E+000	10	...........
	10	0.146667	7.29345E-001	5.99101E-003	0.00000E+000	4.36951E-003	3.59960E-001	-1.16300E+000	3.57660E+000	10	...........
	11	0.16	7.36375E-001	5.99376E-003	0.00000E+000	4.41366E-003	3.59960E-001	-1.16541E+000	3.57660E+000	10	...........
	12	0.173333	7.43350E-001	5.98922E-003	0.00000E+000	4.45209E-003	3.59960E-001	-1.17289E+000	3.57660E+000	10	...........
	13	0.186667	7.50317E-001	5.99435E-003	0.00000E+000	4.49766E-003	3.59960E-001	-1.16286E+000	3.57660E+000	10	...........
	14	0.2	7.57150E-001	5.99501E-003	0.00000E+000	4.53913E-003	3.59960E-001	-1.16569E+000	3.57660E+000	10	...........
	15	0.213333	7.64003E-001	5.99071E-003	0.00000E+000	4.57692E-003	3.59960E-001	-1.17294E+000	3.57660E+000	10	...........
	16	0.226667	7.70824E-001	5.99427E-003	0.00000E+000	4.62053E-003	3.59960E-001	-1.16260E+000	3.57660E+000	10	...........
	17	0.24	7.77641E-001	5.98578E-003	0.00000E+000	4.65479E-003	3.59960E-001	-1.16549E+000	3.57660E+000	10	...........
	18	0.253333	7.84427E-001	5.99248E-003	0.00000E+000	4.70066E-003	3.59960E-001	-1.17299E+000	3.57660E+000	10	...........
	19	0.266667	7.91194E-001	5.99195E-003	0.00000E+000	4.74079E-003	3.59960E-001	-1.16270E+000	3.57660E+000	10	...........
	20	0.28	7.97928E-001	5.99480E-003	0.00000E+000	4.78342E-003	3.59960E-001	-1.16560E+000	3.57660E+000	10	...........
	21	0.293333	8.04603E-001	5.99118E-003	0.00000E+000	4.82052E-003	3.59960E-001	-1.17293E+000	3.57660E+000	10	...........
	22	0.306667	8.11253E-001	5.99638E-003	0.00000E+000	4.86458E-003	3.59960E-001	-1.16280E+000	3.57660E+000	10	...........
	23	0.32	8.17919E-001	5.99168E-003	0.00000E+000	4.90071E-003	3.59960E-001	-1.16584E+000	3.57660E+000	10	...........
	24	0.333333	8.24572E-001	5.99902E-003	0.00000E+000	4.94662E-003	3.59960E-001	-1.17320E+000	3.57660E+000	10	...........
	25	0.346667	8.31150E-001	5.99499E-003	0.00000E+000	4.98274E-003	3.59960E-001	-1.16291E+000	3.57660E+000	10	...........
	26	0.36	8.37723E-001	5.99202E-003	0.00000E+000	5.01965E-003	3.59960E-001	-1.16557E+000	3.57660E+000	10	...........
	27	0.373333	8.44304E-001	5.99363E-003	0.00000E+000	5.06045E-003	3.59960E-001	-1.17290E+000	3.57660E+000	10	...........
	28	0.386667	8.50836E-001	5.99448E-003	0.00000E+000	5.10032E-003	3.59960E-001	-1.16286E+000	3.57660E+000	10	...........
	29	0.4	8.57340E-001	6.00048E-003	0.00000E+000	5.14445E-003	3.59960E-001	-1.16555E+000	3.57660E+000	10	...........
	30	0.413333	8.63800E-001	5.99474E-003	0.00000E+000	5.17826E-003	3.59960E-001	-1.17243E+000	3.57660E+000	10	...........
	31	0.426667	8.70291E-001	5.99396E-003	0.00000E+000	5.21649E-003	3.59960E-001	-1.16241E+000	3.57660E+000	10	...........
	32	0.44	8.76718E-001	5.99221E-003	0.00000E+000	5.25348E-003	3.59960E-001	-1.16527E+000	3.57660E+000	10	...........
	33	0.453333	8.83103E-001	5.99638E-003	0.00000E+000	5.29542E-003	3.59960E-001	-1.17260E+000	3.57660E+000	10	...........
	34	0.466667	8.89466E-001	5.99413E-003	0.00000E+000	5.33157E-003	3.59960E-001	-1.16243E+000	3.57660E+000	10	...........
	35	0.48	8.95798E-001	5.99354E-003	0.00000E+000	5.36900E-003	3.59960E-001	-1.16536E+000	3.57660E+000	10	...........
	36	0.493333	9.02095E-001	5.99750E-003	0.00000E+000	5.41032E-003	3.59960E-001	-1.17246E+000	3.57660E+000	10	...........
	37	0.506667	9.08355E-001	5.98980E-003	0.00000E+000	5.44086E-003	3.59960E-001	-1.16240E+000	3.57660E+000	10	...........
	38	0.52	9.14589E-001	5.99614E-003	0.00000E+000	5.48400E-003	3.59960E-001	-1.16532E+000	3.57660E+000	10	...........
	39	0.533333	9.20786E-001	5.99212E-003	0.00000E+000	5.51746E-003	3.59960E-001	-1.17266E+000	3.57660E+000	10	...........
	40	0.546667	9.26899E-001	5.99367E-003	0.00000E+000	5.55553E-003	3.59960E-001	-1.16238E+000	3.57660E+000	10	...........
	41	0.56	9.32990E-001	5.99763E-003	0.00000E+000	5.59573E-003	3.59960E-001	-1.16515E+000	3.57660E+000	10	...........
	42	0.573333	9.39019E-001	5.99504E-003	0.00000E+000	5.62946E-003	3.59960E-001	-1.17226E+000	3.57660E+000	10	...........
	43	0.586667	9.44999E-001	5.99085E-003	0.00000E+000	5.66135E-003	3.59960E-001	-1.16224E+000	3.57660E+000	10	...........
	44	0.6	9.50995E-001	5.99332E-003	0.00000E+000	5.69962E-003	3.59960E-001	-1.16553E+000	3.57660E+000	10	...........
	45	0.613333	9.56908E-001	5.99516E-003	0.00000E+000	5.73681E-003	3.59960E-001	-1.17269E+000	3.57660E+000	10	...........
	46	0.626667	9.62758E-001	5.99647E-003	0.00000E+000	5.77315E-003	3.59960E-001	-1.16250E+000	3.57660E+000	10	...........
	47	0.64	9.68550E-001	5.99310E-003	0.00000E+000	5.80462E-003	3.59960E-001	-1.16550E+000	3.57660E+000	10	...........
	48	0.653333	9.74371E-001	5.99465E-003	0.00000E+000	5.84101E-003	3.59960E-001	-1.17261E+000	3.57660E+000	10	...........
	49	0.666667	9.80050E-001	5.99181E-003	0.00000E+000	5.87227E-003	3.59960E-001	-1.16283E+000	3.57660E+000	10	...........
	50	0.68	9.85684E-001	5.99268E-003	0.00000E+000	5.90688E-003	3.59960E-001	-1.16577E+000	3.57660E+000	10	...........
	51	0.693333	9.91266E-001	5.99499E-003	0.00000E+000	5.94263E-003	3.59960E-001	-1.17274E+000	3.57660E+000	10	...........
	52	0.706667	9.96844E-001	5.99309E-003	0.00000E+000	5.97418E-003	3.59960E-001	-1.16250E+000	3.57660E+000	10	...........
	53	0.71	1.00030E+000	5.99025E-003	0.00000E+000	5.99207E-003	3.59960E-001	-1.17696E+000	3.57660E+000	10	...........
STARTTIMEOFFSET	QUANT	1413.667	Start Time Offset (s)