File: Data/CV_CRGO300517_1/PWRCCD_CRGO300517_1/CHARGE_DISCHARGE/CHARGE_#375.DTA
EXPLAIN
TAG	PWR800_CHARGE
TITLE	LABEL	PWR Cyclic Charge Discharge (Cell) - Charge Step	Test &Identifier
DATE	LABEL	22-6-2017	Date
TIME	LABEL	15:50:58	Time
NOTES	NOTES	3	&Notes...
	supercap test cell
	0.6mg
	6M KOH
PSTAT	PSTAT	IFC5000-01520	Potentiostat
CAPACITY	QUANT	1.00000E-003	Capacity (A-hr)
CELLTYPE	SELECTOR	1	&Cell Type
WORKINGCONNECTION	SELECTOR	0	&Working Lead
MAXCHARGETIME	VARIABLEANDUNITS	1.00000E+002	s	1.00000E+002	second(s)	Max &Charge Time
CHARGECURRENT	QUANT	6.00000E-003	&Charge Current (A)
VOLTAGEFINISH	TWOPARAM	F	1.00000E-003	3.60000E+003	&Voltage Finish	 I (A) < 	Max Time(s)
SAMPLETIME	QUANT	1.00000E-002	Sa&mple Period (s)
CHARGESTOPAT1	MULTIPARAM	4	1.00000E+000	Charge Stop At &1	Voltage > Limit	V
CHARGESTOPAT2	MULTIPARAM	0	0.00000E+000	Charge Stop At &2	None	N/A
AESBHCSELECTOR	TOGGLE	F	Save Both Half Cells
IRCOMP	TOGGLE	F	IR &Measure
EOC	QUANT	0	Open Circuit (V)
SEQUENCER	TOGGLE	TRUE	Run as Sequence
PSTATMODEL	IQUANT	53	Pstat Model
PSTATSECTION	LABEL	IFC5000-01520	Pstat Section
PSTATSERIALNO	LABEL	01520	Pstat Serial Number
CTRLMODE	IQUANT	0	Control Mode
ELECTROMETER	IQUANT	1	RE=0 or CS=1
IESTAB	IQUANT	0	I/E Stability
CASPEED	IQUANT	4	Control Amp Speed
CONVENTION	IQUANT	1	Current Convention
ICHRANGE	IQUANT	2	Ich Range
ICHRANGEMODE	TOGGLE	T	Ich Auto Range
ICHOFFSETENABLE	TOGGLE	F	Ich Offset Enable
ICHOFFSET	QUANT	0	Ich Offset (V)
ICHFILTER	IQUANT	1	Ich Filter
VCHRANGE	IQUANT	2	Vch Range
VCHRANGEMODE	TOGGLE	T	Vch Auto Range
VCHOFFSETENABLE	TOGGLE	F	Vch Offset Enable
VCHOFFSET	QUANT	0	Vch Offset (V)
VCHFILTER	IQUANT	1	Vch Filter
IERANGELOWERLIMIT	IQUANT	9	I/E Range Lower Limit
IERANGEMODE	TOGGLE	F	I/E AutoRange
IERANGE	IQUANT	10	I/E Range
ACHSELECT	IQUANT	1	Ach Select
ACHRANGE	IQUANT	2	Ach Range
ACHOFFSETENABLE	TOGGLE	F	Ach Offset Enable
ACHOFFSET	QUANT	0	Ach Offset (V)
ACHFILTER	IQUANT	1	Ach Filter
CABLEID	IQUANT	14	Cable ID
DCCALDATE	LABEL	20-10-2016	DC Calibration Date
ACCALDATE	LABEL	12/3/2015	AC Calibration Date
FRAMEWORKVERSION	QUANT	7.01	Framework Version
INSTRUMENTVERSION	LABEL	4.00	Instrument Version
CURVE	TABLE	61
	Pt	T	Vf	Im	Vu	Pwr	Sig	Ach	Temp	IERange	Over
	#	s	V	A	V	W	V	V	deg C	#	bits
	0	0.013333	6.22881E-001	5.99406E-003	0.00000E+000	3.73359E-003	3.59960E-001	-1.11907E+000	3.57650E+000	10	...........
	1	0.026667	6.31640E-001	5.99673E-003	0.00000E+000	3.78778E-003	3.59960E-001	-1.12273E+000	3.57650E+000	10	...........
	2	0.04	6.39608E-001	5.99658E-003	0.00000E+000	3.83546E-003	3.59960E-001	-1.12886E+000	3.57650E+000	10	...........
	3	0.053333	6.47259E-001	5.99392E-003	0.00000E+000	3.87961E-003	3.59960E-001	-1.11881E+000	3.57650E+000	10	...........
	4	0.066667	6.54583E-001	5.99454E-003	0.00000E+000	3.92392E-003	3.59960E-001	-1.12282E+000	3.57650E+000	10	...........
	5	0.08	6.61716E-001	5.99238E-003	0.00000E+000	3.96526E-003	3.59960E-001	-1.12885E+000	3.57650E+000	10	...........
	6	0.093333	6.68760E-001	5.99016E-003	0.00000E+000	4.00598E-003	3.59960E-001	-1.11847E+000	3.57650E+000	10	...........
	7	0.106667	6.75634E-001	5.99444E-003	0.00000E+000	4.05005E-003	3.59960E-001	-1.12186E+000	3.57650E+000	10	...........
	8	0.12	6.82395E-001	5.99329E-003	0.00000E+000	4.08979E-003	3.59960E-001	-1.12851E+000	3.57650E+000	10	...........
	9	0.133333	6.89099E-001	5.99467E-003	0.00000E+000	4.13092E-003	3.59960E-001	-1.11832E+000	3.57650E+000	10	...........
	10	0.146667	6.95754E-001	5.98886E-003	0.00000E+000	4.16677E-003	3.59960E-001	-1.12217E+000	3.57650E+000	10	...........
	11	0.16	7.02381E-001	5.99372E-003	0.00000E+000	4.20988E-003	3.59960E-001	-1.12819E+000	3.57650E+000	10	...........
	12	0.173333	7.08945E-001	5.99489E-003	0.00000E+000	4.25005E-003	3.59960E-001	-1.11815E+000	3.57650E+000	10	...........
	13	0.186667	7.15511E-001	5.99431E-003	0.00000E+000	4.28900E-003	3.59960E-001	-1.12247E+000	3.57650E+000	10	...........
	14	0.2	7.22093E-001	5.99048E-003	0.00000E+000	4.32568E-003	3.59960E-001	-1.12826E+000	3.57650E+000	10	...........
	15	0.213333	7.28531E-001	5.99035E-003	0.00000E+000	4.36416E-003	3.59960E-001	-1.11826E+000	3.57650E+000	10	...........
	16	0.226667	7.35016E-001	6.00135E-003	0.00000E+000	4.41109E-003	3.59960E-001	-1.12211E+000	3.57650E+000	10	...........
	17	0.24	7.41450E-001	5.99563E-003	0.00000E+000	4.44546E-003	3.59960E-001	-1.12802E+000	3.57658E+000	10	...........
	18	0.253333	7.47896E-001	5.99575E-003	0.00000E+000	4.48420E-003	3.59960E-001	-1.11814E+000	3.57670E+000	10	...........
	19	0.266667	7.54289E-001	5.99892E-003	0.00000E+000	4.52492E-003	3.59960E-001	-1.12239E+000	3.57670E+000	10	...........
	20	0.28	7.60663E-001	5.98978E-003	0.00000E+000	4.55620E-003	3.59960E-001	-1.12795E+000	3.57670E+000	10	...........
	21	0.293333	7.67048E-001	5.99522E-003	0.00000E+000	4.59862E-003	3.59960E-001	-1.11776E+000	3.57670E+000	10	...........
	22	0.306667	7.73406E-001	5.99407E-003	0.00000E+000	4.63585E-003	3.59960E-001	-1.12192E+000	3.57670E+000	10	...........
	23	0.32	7.79750E-001	5.99762E-003	0.00000E+000	4.67664E-003	3.59960E-001	-1.12808E+000	3.57670E+000	10	...........
	24	0.333333	7.86086E-001	5.99491E-003	0.00000E+000	4.71251E-003	3.59960E-001	-1.11808E+000	3.57670E+000	10	...........
	25	0.346667	7.92423E-001	5.99109E-003	0.00000E+000	4.74748E-003	3.59960E-001	-1.12198E+000	3.57670E+000	10	...........
	26	0.36	7.98778E-001	5.99625E-003	0.00000E+000	4.78968E-003	3.59960E-001	-1.12766E+000	3.57670E+000	10	...........
	27	0.373333	8.05074E-001	5.99439E-003	0.00000E+000	4.82593E-003	3.59960E-001	-1.11799E+000	3.57670E+000	10	...........
	28	0.386667	8.11379E-001	5.99240E-003	0.00000E+000	4.86211E-003	3.59960E-001	-1.12222E+000	3.57670E+000	10	...........
	29	0.4	8.17663E-001	5.99303E-003	0.00000E+000	4.90028E-003	3.59960E-001	-1.12795E+000	3.57670E+000	10	...........
	30	0.413333	8.23934E-001	5.99441E-003	0.00000E+000	4.93899E-003	3.59960E-001	-1.11775E+000	3.57670E+000	10	...........
	31	0.426667	8.30169E-001	5.99093E-003	0.00000E+000	4.97349E-003	3.59960E-001	-1.12182E+000	3.57670E+000	10	...........
	32	0.44	8.36367E-001	5.99054E-003	0.00000E+000	5.01029E-003	3.59960E-001	-1.12715E+000	3.57670E+000	10	...........
	33	0.453333	8.42622E-001	5.99646E-003	0.00000E+000	5.05275E-003	3.59960E-001	-1.11758E+000	3.57670E+000	10	...........
	34	0.466667	8.48848E-001	5.99603E-003	0.00000E+000	5.08972E-003	3.59960E-001	-1.12179E+000	3.57670E+000	10	...........
	35	0.48	8.55017E-001	5.99496E-003	0.00000E+000	5.12579E-003	3.59960E-001	-1.12732E+000	3.57670E+000	10	...........
	36	0.493333	8.61215E-001	5.99439E-003	0.00000E+000	5.16246E-003	3.59960E-001	-1.11732E+000	3.57670E+000	10	...........
	37	0.506667	8.67386E-001	5.99559E-003	0.00000E+000	5.20049E-003	3.59960E-001	-1.12166E+000	3.57670E+000	10	...........
	38	0.52	8.73563E-001	5.98848E-003	0.00000E+000	5.23132E-003	3.59960E-001	-1.12710E+000	3.57670E+000	10	...........
	39	0.533333	8.79703E-001	5.99599E-003	0.00000E+000	5.27469E-003	3.59960E-001	-1.11743E+000	3.57670E+000	10	...........
	40	0.546667	8.85786E-001	5.99394E-003	0.00000E+000	5.30934E-003	3.59960E-001	-1.12170E+000	3.57670E+000	10	...........
	41	0.56	8.91877E-001	5.99625E-003	0.00000E+000	5.34792E-003	3.59960E-001	-1.12686E+000	3.57670E+000	10	...........
	42	0.573333	8.97964E-001	5.99619E-003	0.00000E+000	5.38436E-003	3.59960E-001	-1.11721E+000	3.57670E+000	10	...........
	43	0.586667	9.03966E-001	5.98825E-003	0.00000E+000	5.41318E-003	3.59960E-001	-1.12176E+000	3.57670E+000	10	...........
	44	0.6	9.10001E-001	5.99195E-003	0.00000E+000	5.45267E-003	3.59960E-001	-1.12698E+000	3.57670E+000	10	...........
	45	0.613333	9.15992E-001	5.99526E-003	0.00000E+000	5.49161E-003	3.59960E-001	-1.11709E+000	3.57670E+000	10	...........
	46	0.626667	9.21996E-001	5.99077E-003	0.00000E+000	5.52347E-003	3.59960E-001	-1.12145E+000	3.57670E+000	10	...........
	47	0.64	9.27949E-001	5.99284E-003	0.00000E+000	5.56105E-003	3.59960E-001	-1.12706E+000	3.57670E+000	10	...........
	48	0.653333	9.33823E-001	5.99544E-003	0.00000E+000	5.59868E-003	3.59960E-001	-1.11748E+000	3.57670E+000	10	...........
	49	0.666667	9.39670E-001	5.99162E-003	0.00000E+000	5.63015E-003	3.59960E-001	-1.12200E+000	3.57670E+000	10	...........
	50	0.68	9.45500E-001	5.99265E-003	0.00000E+000	5.66606E-003	3.59960E-001	-1.12680E+000	3.57670E+000	10	...........
	51	0.693333	9.51263E-001	5.99133E-003	0.00000E+000	5.69933E-003	3.59960E-001	-1.11698E+000	3.57670E+000	10	...........
	52	0.706667	9.57039E-001	5.99215E-003	0.00000E+000	5.73473E-003	3.59960E-001	-1.12165E+000	3.57670E+000	10	...........
	53	0.72	9.62736E-001	5.99237E-003	0.00000E+000	5.76908E-003	3.59960E-001	-1.12696E+000	3.57670E+000	10	...........
	54	0.733333	9.68395E-001	5.99484E-003	0.00000E+000	5.80538E-003	3.59960E-001	-1.11714E+000	3.57670E+000	10	...........
	55	0.746667	9.74071E-001	5.99199E-003	0.00000E+000	5.83662E-003	3.59960E-001	-1.12146E+000	3.57670E+000	10	...........
	56	0.76	9.79669E-001	5.99670E-003	0.00000E+000	5.87478E-003	3.59960E-001	-1.12634E+000	3.57670E+000	10	...........
	57	0.773333	9.85215E-001	5.99513E-003	0.00000E+000	5.90649E-003	3.59960E-001	-1.11659E+000	3.57670E+000	10	...........
	58	0.786667	9.90727E-001	5.99687E-003	0.00000E+000	5.94126E-003	3.59960E-001	-1.12154E+000	3.57670E+000	10	...........
	59	0.8	9.96153E-001	5.99628E-003	0.00000E+000	5.97321E-003	3.59960E-001	-1.12657E+000	3.57670E+000	10	...........
	60	0.805	9.99864E-001	5.99093E-003	0.00000E+000	5.99011E-003	3.59960E-001	-1.11483E+000	3.57670E+000	10	...........
STARTTIMEOFFSET	QUANT	662.8415	Start Time Offset (s)