File: Data/CV_CRGO300517_1/PWRCCD_CRGO300517_1/CHARGE_DISCHARGE/CHARGE_#702.DTA
EXPLAIN
TAG	PWR800_CHARGE
TITLE	LABEL	PWR Cyclic Charge Discharge (Cell) - Charge Step	Test &Identifier
DATE	LABEL	22-6-2017	Date
TIME	LABEL	16:03:38	Time
NOTES	NOTES	3	&Notes...
	supercap test cell
	0.6mg
	6M KOH
PSTAT	PSTAT	IFC5000-01520	Potentiostat
CAPACITY	QUANT	1.00000E-003	Capacity (A-hr)
CELLTYPE	SELECTOR	1	&Cell Type
WORKINGCONNECTION	SELECTOR	0	&Working Lead
MAXCHARGETIME	VARIABLEANDUNITS	1.00000E+002	s	1.00000E+002	second(s)	Max &Charge Time
CHARGECURRENT	QUANT	6.00000E-003	&Charge Current (A)
VOLTAGEFINISH	TWOPARAM	F	1.00000E-003	3.60000E+003	&Voltage Finish	 I (A) < 	Max Time(s)
SAMPLETIME	QUANT	1.00000E-002	Sa&mple Period (s)
CHARGESTOPAT1	MULTIPARAM	4	1.00000E+000	Charge Stop At &1	Voltage > Limit	V
CHARGESTOPAT2	MULTIPARAM	0	0.00000E+000	Charge Stop At &2	None	N/A
AESBHCSELECTOR	TOGGLE	F	Save Both Half Cells
IRCOMP	TOGGLE	F	IR &Measure
EOC	QUANT	0	Open Circuit (V)
SEQUENCER	TOGGLE	TRUE	Run as Sequence
PSTATMODEL	IQUANT	53	Pstat Model
PSTATSECTION	LABEL	IFC5000-01520	Pstat Section
PSTATSERIALNO	LABEL	01520	Pstat Serial Number
CTRLMODE	IQUANT	0	Control Mode
ELECTROMETER	IQUANT	1	RE=0 or CS=1
IESTAB	IQUANT	0	I/E Stability
CASPEED	IQUANT	4	Control Amp Speed
CONVENTION	IQUANT	1	Current Convention
ICHRANGE	IQUANT	2	Ich Range
ICHRANGEMODE	TOGGLE	T	Ich Auto Range
ICHOFFSETENABLE	TOGGLE	F	Ich Offset Enable
ICHOFFSET	QUANT	0	Ich Offset (V)
ICHFILTER	IQUANT	1	Ich Filter
VCHRANGE	IQUANT	2	Vch Range
VCHRANGEMODE	TOGGLE	T	Vch Auto Range
VCHOFFSETENABLE	TOGGLE	F	Vch Offset Enable
VCHOFFSET	QUANT	0	Vch Offset (V)
VCHFILTER	IQUANT	1	Vch Filter
IERANGELOWERLIMIT	IQUANT	9	I/E Range Lower Limit
IERANGEMODE	TOGGLE	F	I/E AutoRange
IERANGE	IQUANT	10	I/E Range
ACHSELECT	IQUANT	1	Ach Select
ACHRANGE	IQUANT	2	Ach Range
ACHOFFSETENABLE	TOGGLE	F	Ach Offset Enable
ACHOFFSET	QUANT	0	Ach Offset (V)
ACHFILTER	IQUANT	1	Ach Filter
CABLEID	IQUANT	14	Cable ID
DCCALDATE	LABEL	20-10-2016	DC Calibration Date
ACCALDATE	LABEL	12/3/2015	AC Calibration Date
FRAMEWORKVERSION	QUANT	7.01	Framework Version
INSTRUMENTVERSION	LABEL	4.00	Instrument Version
CURVE	TABLE	56
	Pt	T	Vf	Im	Vu	Pwr	Sig	Ach	Temp	IERange	Over
	#	s	V	A	V	W	V	V	deg C	#	bits
	0	0.013333	6.43555E-001	5.98964E-003	0.00000E+000	3.85466E-003	3.59960E-001	-1.16273E+000	3.57660E+000	10	...........
	1	0.026667	6.52644E-001	5.99976E-003	0.00000E+000	3.91571E-003	3.59960E-001	-1.15304E+000	3.57660E+000	10	...........
	2	0.04	6.60980E-001	5.99165E-003	0.00000E+000	3.96036E-003	3.59960E-001	-1.15704E+000	3.57660E+000	10	...........
	3	0.053333	6.68923E-001	5.99116E-003	0.00000E+000	4.00763E-003	3.59960E-001	-1.16241E+000	3.57660E+000	10	...........
	4	0.066667	6.76593E-001	5.99368E-003	0.00000E+000	4.05528E-003	3.59960E-001	-1.15272E+000	3.57698E+000	10	...........
	5	0.08	6.84015E-001	5.98823E-003	0.00000E+000	4.09604E-003	3.59960E-001	-1.15716E+000	3.57710E+000	10	...........
	6	0.093333	6.91282E-001	5.99779E-003	0.00000E+000	4.14616E-003	3.59960E-001	-1.16263E+000	3.57710E+000	10	...........
	7	0.106667	6.98474E-001	5.99383E-003	0.00000E+000	4.18653E-003	3.59960E-001	-1.15292E+000	3.57710E+000	10	...........
	8	0.12	7.05558E-001	5.99323E-003	0.00000E+000	4.22857E-003	3.59960E-001	-1.15691E+000	3.57710E+000	10	...........
	9	0.133333	7.12544E-001	5.99288E-003	0.00000E+000	4.27019E-003	3.59960E-001	-1.16229E+000	3.57710E+000	10	...........
	10	0.146667	7.19529E-001	5.99431E-003	0.00000E+000	4.31308E-003	3.59960E-001	-1.15291E+000	3.57710E+000	10	...........
	11	0.16	7.26458E-001	5.99799E-003	0.00000E+000	4.35729E-003	3.59960E-001	-1.15722E+000	3.57710E+000	10	...........
	12	0.173333	7.33293E-001	5.99496E-003	0.00000E+000	4.39606E-003	3.59960E-001	-1.16208E+000	3.57710E+000	10	...........
	13	0.186667	7.40082E-001	5.99052E-003	0.00000E+000	4.43347E-003	3.59960E-001	-1.15245E+000	3.57710E+000	10	...........
	14	0.2	7.46902E-001	5.99182E-003	0.00000E+000	4.47530E-003	3.59960E-001	-1.15680E+000	3.57710E+000	10	...........
	15	0.213333	7.53647E-001	5.99581E-003	0.00000E+000	4.51873E-003	3.59960E-001	-1.16166E+000	3.57710E+000	10	...........
	16	0.226667	7.60354E-001	5.98951E-003	0.00000E+000	4.55415E-003	3.59960E-001	-1.15229E+000	3.57710E+000	10	...........
	17	0.24	7.67053E-001	5.99660E-003	0.00000E+000	4.59971E-003	3.59960E-001	-1.15683E+000	3.57710E+000	10	...........
	18	0.253333	7.73770E-001	5.99599E-003	0.00000E+000	4.63952E-003	3.59960E-001	-1.16118E+000	3.57710E+000	10	...........
	19	0.266667	7.80389E-001	5.99332E-003	0.00000E+000	4.67712E-003	3.59960E-001	-1.15202E+000	3.57710E+000	10	...........
	20	0.28	7.87012E-001	5.99482E-003	0.00000E+000	4.71800E-003	3.59960E-001	-1.15708E+000	3.57710E+000	10	...........
	21	0.293333	7.93631E-001	5.98696E-003	0.00000E+000	4.75144E-003	3.59960E-001	-1.16121E+000	3.57710E+000	10	...........
	22	0.306667	8.00215E-001	5.99644E-003	0.00000E+000	4.79844E-003	3.59960E-001	-1.15207E+000	3.57710E+000	10	...........
	23	0.32	8.06825E-001	5.99644E-003	0.00000E+000	4.83808E-003	3.59960E-001	-1.15672E+000	3.57710E+000	10	...........
	24	0.333333	8.13366E-001	5.99765E-003	0.00000E+000	4.87829E-003	3.59960E-001	-1.16096E+000	3.57710E+000	10	...........
	25	0.346667	8.19930E-001	5.99493E-003	0.00000E+000	4.91542E-003	3.59960E-001	-1.15213E+000	3.57710E+000	10	...........
	26	0.36	8.26459E-001	5.99495E-003	0.00000E+000	4.95458E-003	3.59960E-001	-1.15710E+000	3.57710E+000	10	...........
	27	0.373333	8.32942E-001	5.99640E-003	0.00000E+000	4.99465E-003	3.59960E-001	-1.16092E+000	3.57710E+000	10	...........
	28	0.386667	8.39387E-001	5.99596E-003	0.00000E+000	5.03293E-003	3.59960E-001	-1.15172E+000	3.57710E+000	10	...........
	29	0.4	8.45848E-001	5.99359E-003	0.00000E+000	5.06967E-003	3.59960E-001	-1.15707E+000	3.57710E+000	10	...........
	30	0.413333	8.52293E-001	5.99246E-003	0.00000E+000	5.10733E-003	3.59960E-001	-1.16088E+000	3.57710E+000	10	...........
	31	0.426667	8.58699E-001	5.99271E-003	0.00000E+000	5.14593E-003	3.59960E-001	-1.15206E+000	3.57710E+000	10	...........
	32	0.44	8.65053E-001	5.99593E-003	0.00000E+000	5.18680E-003	3.59960E-001	-1.15713E+000	3.57710E+000	10	...........
	33	0.453333	8.71423E-001	5.99369E-003	0.00000E+000	5.22303E-003	3.59960E-001	-1.16059E+000	3.57710E+000	10	...........
	34	0.466667	8.77786E-001	5.99348E-003	0.00000E+000	5.26099E-003	3.59960E-001	-1.15194E+000	3.57710E+000	10	...........
	35	0.48	8.84084E-001	5.99946E-003	0.00000E+000	5.30402E-003	3.59960E-001	-1.15748E+000	3.57710E+000	10	...........
	36	0.493333	8.90345E-001	5.99430E-003	0.00000E+000	5.33700E-003	3.59960E-001	-1.16054E+000	3.57710E+000	10	...........
	37	0.506667	8.96625E-001	5.99663E-003	0.00000E+000	5.37672E-003	3.59960E-001	-1.15160E+000	3.57710E+000	10	...........
	38	0.52	9.02811E-001	5.99526E-003	0.00000E+000	5.41259E-003	3.59960E-001	-1.15697E+000	3.57710E+000	10	...........
	39	0.533333	9.09042E-001	5.99306E-003	0.00000E+000	5.44794E-003	3.59960E-001	-1.16005E+000	3.57710E+000	10	...........
	40	0.546667	9.15170E-001	5.99396E-003	0.00000E+000	5.48549E-003	3.59960E-001	-1.15145E+000	3.57710E+000	10	...........
	41	0.56	9.21336E-001	5.99258E-003	0.00000E+000	5.52118E-003	3.59960E-001	-1.15712E+000	3.57710E+000	10	...........
	42	0.573333	9.27398E-001	5.99422E-003	0.00000E+000	5.55903E-003	3.59960E-001	-1.15990E+000	3.57710E+000	10	...........
	43	0.586667	9.33399E-001	5.99243E-003	0.00000E+000	5.59333E-003	3.59960E-001	-1.15132E+000	3.57710E+000	10	...........
	44	0.6	9.39379E-001	5.99521E-003	0.00000E+000	5.63177E-003	3.59960E-001	-1.15707E+000	3.57710E+000	10	...........
	45	0.613333	9.45305E-001	5.99165E-003	0.00000E+000	5.66394E-003	3.59960E-001	-1.15965E+000	3.57710E+000	10	...........
	46	0.626667	9.51241E-001	5.99215E-003	0.00000E+000	5.69998E-003	3.59960E-001	-1.15130E+000	3.57710E+000	10	...........
	47	0.64	9.57054E-001	5.99348E-003	0.00000E+000	5.73608E-003	3.59960E-001	-1.15717E+000	3.57710E+000	10	...........
	48	0.653333	9.62838E-001	5.99398E-003	0.00000E+000	5.77123E-003	3.59960E-001	-1.15930E+000	3.57710E+000	10	...........
	49	0.666667	9.68611E-001	5.99412E-003	0.00000E+000	5.80597E-003	3.59960E-001	-1.15130E+000	3.57710E+000	10	...........
	50	0.68	9.74357E-001	5.99615E-003	0.00000E+000	5.84239E-003	3.59960E-001	-1.15714E+000	3.57710E+000	10	...........
	51	0.693333	9.80005E-001	5.99712E-003	0.00000E+000	5.87721E-003	3.59960E-001	-1.15934E+000	3.57710E+000	10	...........
	52	0.706667	9.85629E-001	5.99610E-003	0.00000E+000	5.90992E-003	3.59960E-001	-1.15123E+000	3.57710E+000	10	...........
	53	0.72	9.91186E-001	5.99424E-003	0.00000E+000	5.94140E-003	3.59960E-001	-1.15747E+000	3.57710E+000	10	...........
	54	0.733333	9.96727E-001	5.99331E-003	0.00000E+000	5.97369E-003	3.59960E-001	-1.15925E+000	3.57710E+000	10	...........
	55	0.736667	1.00018E+000	6.00927E-003	0.00000E+000	6.01038E-003	3.59960E-001	-1.15835E+000	3.57710E+000	10	...........
STARTTIMEOFFSET	QUANT	1162.156	Start Time Offset (s)