File: Data/CV_CRGO300517_1/PWRCCD_CRGO300517_1/CHARGE_DISCHARGE/CHARGE_#732.DTA
EXPLAIN
TAG	PWR800_CHARGE
TITLE	LABEL	PWR Cyclic Charge Discharge (Cell) - Charge Step	Test &Identifier
DATE	LABEL	22-6-2017	Date
TIME	LABEL	16:04:45	Time
NOTES	NOTES	3	&Notes...
	supercap test cell
	0.6mg
	6M KOH
PSTAT	PSTAT	IFC5000-01520	Potentiostat
CAPACITY	QUANT	1.00000E-003	Capacity (A-hr)
CELLTYPE	SELECTOR	1	&Cell Type
WORKINGCONNECTION	SELECTOR	0	&Working Lead
MAXCHARGETIME	VARIABLEANDUNITS	1.00000E+002	s	1.00000E+002	second(s)	Max &Charge Time
CHARGECURRENT	QUANT	6.00000E-003	&Charge Current (A)
VOLTAGEFINISH	TWOPARAM	F	1.00000E-003	3.60000E+003	&Voltage Finish	 I (A) < 	Max Time(s)
SAMPLETIME	QUANT	1.00000E-002	Sa&mple Period (s)
CHARGESTOPAT1	MULTIPARAM	4	1.00000E+000	Charge Stop At &1	Voltage > Limit	V
CHARGESTOPAT2	MULTIPARAM	0	0.00000E+000	Charge Stop At &2	None	N/A
AESBHCSELECTOR	TOGGLE	F	Save Both Half Cells
IRCOMP	TOGGLE	F	IR &Measure
EOC	QUANT	0	Open Circuit (V)
SEQUENCER	TOGGLE	TRUE	Run as Sequence
PSTATMODEL	IQUANT	53	Pstat Model
PSTATSECTION	LABEL	IFC5000-01520	Pstat Section
PSTATSERIALNO	LABEL	01520	Pstat Serial Number
CTRLMODE	IQUANT	0	Control Mode
ELECTROMETER	IQUANT	1	RE=0 or CS=1
IESTAB	IQUANT	0	I/E Stability
CASPEED	IQUANT	4	Control Amp Speed
CONVENTION	IQUANT	1	Current Convention
ICHRANGE	IQUANT	2	Ich Range
ICHRANGEMODE	TOGGLE	T	Ich Auto Range
ICHOFFSETENABLE	TOGGLE	F	Ich Offset Enable
ICHOFFSET	QUANT	0	Ich Offset (V)
ICHFILTER	IQUANT	1	Ich Filter
VCHRANGE	IQUANT	2	Vch Range
VCHRANGEMODE	TOGGLE	T	Vch Auto Range
VCHOFFSETENABLE	TOGGLE	F	Vch Offset Enable
VCHOFFSET	QUANT	0	Vch Offset (V)
VCHFILTER	IQUANT	1	Vch Filter
IERANGELOWERLIMIT	IQUANT	9	I/E Range Lower Limit
IERANGEMODE	TOGGLE	F	I/E AutoRange
IERANGE	IQUANT	10	I/E Range
ACHSELECT	IQUANT	1	Ach Select
ACHRANGE	IQUANT	2	Ach Range
ACHOFFSETENABLE	TOGGLE	F	Ach Offset Enable
ACHOFFSET	QUANT	0	Ach Offset (V)
ACHFILTER	IQUANT	1	Ach Filter
CABLEID	IQUANT	14	Cable ID
DCCALDATE	LABEL	20-10-2016	DC Calibration Date
ACCALDATE	LABEL	12/3/2015	AC Calibration Date
FRAMEWORKVERSION	QUANT	7.01	Framework Version
INSTRUMENTVERSION	LABEL	4.00	Instrument Version
CURVE	TABLE	55
	Pt	T	Vf	Im	Vu	Pwr	Sig	Ach	Temp	IERange	Over
	#	s	V	A	V	W	V	V	deg C	#	bits
	0	0.013333	6.45873E-001	5.99505E-003	0.00000E+000	3.87204E-003	3.59960E-001	-1.16491E+000	3.57780E+000	10	...........
	1	0.026667	6.54929E-001	5.99202E-003	0.00000E+000	3.92435E-003	3.59960E-001	-1.15497E+000	3.57780E+000	10	...........
	2	0.04	6.63268E-001	5.99550E-003	0.00000E+000	3.97663E-003	3.59960E-001	-1.15420E+000	3.57780E+000	10	...........
	3	0.053333	6.71235E-001	5.98974E-003	0.00000E+000	4.02053E-003	3.59960E-001	-1.16466E+000	3.57780E+000	10	...........
	4	0.066667	6.78863E-001	5.98697E-003	0.00000E+000	4.06433E-003	3.59960E-001	-1.15446E+000	3.57780E+000	10	...........
	5	0.08	6.86254E-001	5.99465E-003	0.00000E+000	4.11385E-003	3.59960E-001	-1.15399E+000	3.57780E+000	10	...........
	6	0.093333	6.93576E-001	5.99213E-003	0.00000E+000	4.15600E-003	3.59960E-001	-1.16473E+000	3.57780E+000	10	...........
	7	0.106667	7.00738E-001	5.99593E-003	0.00000E+000	4.20158E-003	3.59960E-001	-1.15471E+000	3.57780E+000	10	...........
	8	0.12	7.07857E-001	5.99157E-003	0.00000E+000	4.24118E-003	3.59960E-001	-1.15370E+000	3.57780E+000	10	...........
	9	0.133333	7.14914E-001	5.98953E-003	0.00000E+000	4.28199E-003	3.59960E-001	-1.16455E+000	3.57780E+000	10	...........
	10	0.146667	7.21970E-001	5.99781E-003	0.00000E+000	4.33024E-003	3.59960E-001	-1.15461E+000	3.57780E+000	10	...........
	11	0.16	7.28875E-001	5.99279E-003	0.00000E+000	4.36800E-003	3.59960E-001	-1.15414E+000	3.57780E+000	10	...........
	12	0.173333	7.35771E-001	5.99530E-003	0.00000E+000	4.41117E-003	3.59960E-001	-1.16466E+000	3.57780E+000	10	...........
	13	0.186667	7.42615E-001	5.99387E-003	0.00000E+000	4.45114E-003	3.59960E-001	-1.15424E+000	3.57780E+000	10	...........
	14	0.2	7.49403E-001	5.99617E-003	0.00000E+000	4.49354E-003	3.59960E-001	-1.15372E+000	3.57780E+000	10	...........
	15	0.213333	7.56159E-001	5.99575E-003	0.00000E+000	4.53374E-003	3.59960E-001	-1.16437E+000	3.57780E+000	10	...........
	16	0.226667	7.62891E-001	5.99405E-003	0.00000E+000	4.57281E-003	3.59960E-001	-1.15446E+000	3.57780E+000	10	...........
	17	0.24	7.69653E-001	5.99616E-003	0.00000E+000	4.61496E-003	3.59960E-001	-1.15337E+000	3.57780E+000	10	...........
	18	0.253333	7.76390E-001	5.99195E-003	0.00000E+000	4.65209E-003	3.59960E-001	-1.16376E+000	3.57780E+000	10	...........
	19	0.266667	7.83051E-001	5.98932E-003	0.00000E+000	4.68994E-003	3.59960E-001	-1.15384E+000	3.57780E+000	10	...........
	20	0.28	7.89657E-001	5.99669E-003	0.00000E+000	4.73533E-003	3.59960E-001	-1.15352E+000	3.57780E+000	10	...........
	21	0.293333	7.96321E-001	5.99447E-003	0.00000E+000	4.77352E-003	3.59960E-001	-1.16412E+000	3.57780E+000	10	...........
	22	0.306667	8.02940E-001	5.99178E-003	0.00000E+000	4.81104E-003	3.59960E-001	-1.15398E+000	3.57780E+000	10	...........
	23	0.32	8.09524E-001	5.99405E-003	0.00000E+000	4.85233E-003	3.59960E-001	-1.15337E+000	3.57780E+000	10	...........
	24	0.333333	8.16126E-001	5.99739E-003	0.00000E+000	4.89463E-003	3.59960E-001	-1.16388E+000	3.57780E+000	10	...........
	25	0.346667	8.22685E-001	5.99021E-003	0.00000E+000	4.92806E-003	3.59960E-001	-1.15399E+000	3.57780E+000	10	...........
	26	0.36	8.29161E-001	5.99658E-003	0.00000E+000	4.97213E-003	3.59960E-001	-1.15343E+000	3.57780E+000	10	...........
	27	0.373333	8.35624E-001	5.99559E-003	0.00000E+000	5.01006E-003	3.59960E-001	-1.16383E+000	3.57780E+000	10	...........
	28	0.386667	8.42106E-001	5.99435E-003	0.00000E+000	5.04788E-003	3.59960E-001	-1.15339E+000	3.57780E+000	10	...........
	29	0.4	8.48634E-001	5.98725E-003	0.00000E+000	5.08099E-003	3.59960E-001	-1.15319E+000	3.57780E+000	10	...........
	30	0.413333	8.55042E-001	5.99211E-003	0.00000E+000	5.12350E-003	3.59960E-001	-1.16383E+000	3.57780E+000	10	...........
	31	0.426667	8.61428E-001	5.99299E-003	0.00000E+000	5.16253E-003	3.59960E-001	-1.15382E+000	3.57780E+000	10	...........
	32	0.44	8.67825E-001	5.99504E-003	0.00000E+000	5.20265E-003	3.59960E-001	-1.15316E+000	3.57780E+000	10	...........
	33	0.453333	8.74226E-001	6.00097E-003	0.00000E+000	5.24620E-003	3.59960E-001	-1.16380E+000	3.57780E+000	10	...........
	34	0.466667	8.80579E-001	5.99752E-003	0.00000E+000	5.28128E-003	3.59960E-001	-1.15382E+000	3.57780E+000	10	...........
	35	0.48	8.86896E-001	5.99026E-003	0.00000E+000	5.31273E-003	3.59960E-001	-1.15369E+000	3.57780E+000	10	...........
	36	0.493333	8.93164E-001	5.99578E-003	0.00000E+000	5.35522E-003	3.59960E-001	-1.16420E+000	3.57780E+000	10	...........
	37	0.506667	8.99391E-001	5.99571E-003	0.00000E+000	5.39249E-003	3.59960E-001	-1.15400E+000	3.57780E+000	10	...........
	38	0.52	9.05587E-001	5.99470E-003	0.00000E+000	5.42872E-003	3.59960E-001	-1.15342E+000	3.57780E+000	10	...........
	39	0.533333	9.11783E-001	5.99201E-003	0.00000E+000	5.46341E-003	3.59960E-001	-1.16403E+000	3.57780E+000	10	...........
	40	0.546667	9.17929E-001	5.99733E-003	0.00000E+000	5.50512E-003	3.59960E-001	-1.15395E+000	3.57780E+000	10	...........
	41	0.56	9.24072E-001	5.99431E-003	0.00000E+000	5.53918E-003	3.59960E-001	-1.15330E+000	3.57780E+000	10	...........
	42	0.573333	9.30156E-001	5.99293E-003	0.00000E+000	5.57435E-003	3.59960E-001	-1.16358E+000	3.57780E+000	10	...........
	43	0.586667	9.36139E-001	5.99343E-003	0.00000E+000	5.61068E-003	3.59960E-001	-1.15324E+000	3.57780E+000	10	...........
	44	0.6	9.42139E-001	6.00116E-003	0.00000E+000	5.65392E-003	3.59960E-001	-1.15333E+000	3.57780E+000	10	...........
	45	0.613333	9.48053E-001	5.99349E-003	0.00000E+000	5.68215E-003	3.59960E-001	-1.16387E+000	3.57780E+000	10	...........
	46	0.626667	9.54008E-001	5.99119E-003	0.00000E+000	5.71565E-003	3.59960E-001	-1.15377E+000	3.57780E+000	10	...........
	47	0.64	9.59860E-001	5.99425E-003	0.00000E+000	5.75364E-003	3.59960E-001	-1.15319E+000	3.57780E+000	10	...........
	48	0.653333	9.65608E-001	5.99157E-003	0.00000E+000	5.78550E-003	3.59960E-001	-1.16352E+000	3.57780E+000	10	...........
	49	0.666667	9.71400E-001	5.99319E-003	0.00000E+000	5.82178E-003	3.59960E-001	-1.15352E+000	3.57780E+000	10	...........
	50	0.68	9.77148E-001	5.99656E-003	0.00000E+000	5.85952E-003	3.59960E-001	-1.15339E+000	3.57780E+000	10	...........
	51	0.693333	9.82805E-001	5.99578E-003	0.00000E+000	5.89269E-003	3.59960E-001	-1.16389E+000	3.57780E+000	10	...........
	52	0.706667	9.88431E-001	5.99239E-003	0.00000E+000	5.92307E-003	3.59960E-001	-1.15354E+000	3.57780E+000	10	...........
	53	0.72	9.93939E-001	5.99372E-003	0.00000E+000	5.95739E-003	3.59960E-001	-1.15299E+000	3.57780E+000	10	...........
	54	0.73	9.98769E-001	5.99307E-003	0.00000E+000	5.98569E-003	3.59960E-001	-1.16458E+000	3.57780E+000	10	...........
STARTTIMEOFFSET	QUANT	1205.95	Start Time Offset (s)