File: Data/CV_CRGO300517_1/PWRCCD_CRGO300517_1/CHARGE_DISCHARGE/CHARGE_#543.DTA
EXPLAIN
TAG	PWR800_CHARGE
TITLE	LABEL	PWR Cyclic Charge Discharge (Cell) - Charge Step	Test &Identifier
DATE	LABEL	22-6-2017	Date
TIME	LABEL	15:57:35	Time
NOTES	NOTES	3	&Notes...
	supercap test cell
	0.6mg
	6M KOH
PSTAT	PSTAT	IFC5000-01520	Potentiostat
CAPACITY	QUANT	1.00000E-003	Capacity (A-hr)
CELLTYPE	SELECTOR	1	&Cell Type
WORKINGCONNECTION	SELECTOR	0	&Working Lead
MAXCHARGETIME	VARIABLEANDUNITS	1.00000E+002	s	1.00000E+002	second(s)	Max &Charge Time
CHARGECURRENT	QUANT	6.00000E-003	&Charge Current (A)
VOLTAGEFINISH	TWOPARAM	F	1.00000E-003	3.60000E+003	&Voltage Finish	 I (A) < 	Max Time(s)
SAMPLETIME	QUANT	1.00000E-002	Sa&mple Period (s)
CHARGESTOPAT1	MULTIPARAM	4	1.00000E+000	Charge Stop At &1	Voltage > Limit	V
CHARGESTOPAT2	MULTIPARAM	0	0.00000E+000	Charge Stop At &2	None	N/A
AESBHCSELECTOR	TOGGLE	F	Save Both Half Cells
IRCOMP	TOGGLE	F	IR &Measure
EOC	QUANT	0	Open Circuit (V)
SEQUENCER	TOGGLE	TRUE	Run as Sequence
PSTATMODEL	IQUANT	53	Pstat Model
PSTATSECTION	LABEL	IFC5000-01520	Pstat Section
PSTATSERIALNO	LABEL	01520	Pstat Serial Number
CTRLMODE	IQUANT	0	Control Mode
ELECTROMETER	IQUANT	1	RE=0 or CS=1
IESTAB	IQUANT	0	I/E Stability
CASPEED	IQUANT	4	Control Amp Speed
CONVENTION	IQUANT	1	Current Convention
ICHRANGE	IQUANT	2	Ich Range
ICHRANGEMODE	TOGGLE	T	Ich Auto Range
ICHOFFSETENABLE	TOGGLE	F	Ich Offset Enable
ICHOFFSET	QUANT	0	Ich Offset (V)
ICHFILTER	IQUANT	1	Ich Filter
VCHRANGE	IQUANT	2	Vch Range
VCHRANGEMODE	TOGGLE	T	Vch Auto Range
VCHOFFSETENABLE	TOGGLE	F	Vch Offset Enable
VCHOFFSET	QUANT	0	Vch Offset (V)
VCHFILTER	IQUANT	1	Vch Filter
IERANGELOWERLIMIT	IQUANT	9	I/E Range Lower Limit
IERANGEMODE	TOGGLE	F	I/E AutoRange
IERANGE	IQUANT	10	I/E Range
ACHSELECT	IQUANT	1	Ach Select
ACHRANGE	IQUANT	2	Ach Range
ACHOFFSETENABLE	TOGGLE	F	Ach Offset Enable
ACHOFFSET	QUANT	0	Ach Offset (V)
ACHFILTER	IQUANT	1	Ach Filter
CABLEID	IQUANT	14	Cable ID
DCCALDATE	LABEL	20-10-2016	DC Calibration Date
ACCALDATE	LABEL	12/3/2015	AC Calibration Date
FRAMEWORKVERSION	QUANT	7.01	Framework Version
INSTRUMENTVERSION	LABEL	4.00	Instrument Version
CURVE	TABLE	58
	Pt	T	Vf	Im	Vu	Pwr	Sig	Ach	Temp	IERange	Over
	#	s	V	A	V	W	V	V	deg C	#	bits
	0	0.013333	6.34859E-001	5.99338E-003	0.00000E+000	3.80495E-003	3.59960E-001	-1.13170E+000	3.57680E+000	10	...........
	1	0.026667	6.43829E-001	5.99444E-003	0.00000E+000	3.85939E-003	3.59960E-001	-1.13865E+000	3.57680E+000	10	...........
	2	0.04	6.52012E-001	5.99104E-003	0.00000E+000	3.90623E-003	3.59960E-001	-1.13968E+000	3.57680E+000	10	...........
	3	0.053333	6.59773E-001	5.99447E-003	0.00000E+000	3.95499E-003	3.59960E-001	-1.13195E+000	3.57680E+000	10	...........
	4	0.066667	6.67356E-001	5.99568E-003	0.00000E+000	4.00125E-003	3.59960E-001	-1.13860E+000	3.57680E+000	10	...........
	5	0.08	6.74690E-001	5.99873E-003	0.00000E+000	4.04728E-003	3.59960E-001	-1.13953E+000	3.57680E+000	10	...........
	6	0.093333	6.81819E-001	5.99421E-003	0.00000E+000	4.08696E-003	3.59960E-001	-1.13203E+000	3.57680E+000	10	...........
	7	0.106667	6.88853E-001	6.00021E-003	0.00000E+000	4.13326E-003	3.59960E-001	-1.13906E+000	3.57680E+000	10	...........
	8	0.12	6.95800E-001	5.99419E-003	0.00000E+000	4.17076E-003	3.59960E-001	-1.13998E+000	3.57680E+000	10	...........
	9	0.133333	7.02688E-001	5.99505E-003	0.00000E+000	4.21265E-003	3.59960E-001	-1.13220E+000	3.57680E+000	10	...........
	10	0.146667	7.09543E-001	5.99491E-003	0.00000E+000	4.25364E-003	3.59960E-001	-1.13878E+000	3.57680E+000	10	...........
	11	0.16	7.16320E-001	5.98996E-003	0.00000E+000	4.29073E-003	3.59960E-001	-1.14019E+000	3.57680E+000	10	...........
	12	0.173333	7.23112E-001	5.99585E-003	0.00000E+000	4.33567E-003	3.59960E-001	-1.13225E+000	3.57680E+000	10	...........
	13	0.186667	7.29804E-001	5.99100E-003	0.00000E+000	4.37225E-003	3.59960E-001	-1.13873E+000	3.57680E+000	10	...........
	14	0.2	7.36463E-001	5.99416E-003	0.00000E+000	4.41447E-003	3.59960E-001	-1.13999E+000	3.57680E+000	10	...........
	15	0.213333	7.43144E-001	5.99381E-003	0.00000E+000	4.45427E-003	3.59960E-001	-1.13166E+000	3.57680E+000	10	...........
	16	0.226667	7.49756E-001	5.99579E-003	0.00000E+000	4.49539E-003	3.59960E-001	-1.13825E+000	3.57680E+000	10	...........
	17	0.24	7.56350E-001	5.99138E-003	0.00000E+000	4.53158E-003	3.59960E-001	-1.14008E+000	3.57680E+000	10	...........
	18	0.253333	7.62915E-001	5.99378E-003	0.00000E+000	4.57275E-003	3.59960E-001	-1.13220E+000	3.57680E+000	10	...........
	19	0.266667	7.69498E-001	5.99143E-003	0.00000E+000	4.61039E-003	3.59960E-001	-1.13839E+000	3.57680E+000	10	...........
	20	0.28	7.76052E-001	5.99151E-003	0.00000E+000	4.64972E-003	3.59960E-001	-1.13983E+000	3.57680E+000	10	...........
	21	0.293333	7.82557E-001	5.99467E-003	0.00000E+000	4.69117E-003	3.59960E-001	-1.13192E+000	3.57680E+000	10	...........
	22	0.306667	7.89020E-001	5.99490E-003	0.00000E+000	4.73009E-003	3.59960E-001	-1.13850E+000	3.57680E+000	10	...........
	23	0.32	7.95550E-001	5.99323E-003	0.00000E+000	4.76791E-003	3.59960E-001	-1.13996E+000	3.57680E+000	10	...........
	24	0.333333	8.01995E-001	5.99348E-003	0.00000E+000	4.80674E-003	3.59960E-001	-1.13193E+000	3.57680E+000	10	...........
	25	0.346667	8.08421E-001	5.98800E-003	0.00000E+000	4.84082E-003	3.59960E-001	-1.13784E+000	3.57680E+000	10	...........
	26	0.36	8.14859E-001	5.99312E-003	0.00000E+000	4.88355E-003	3.59960E-001	-1.14007E+000	3.57680E+000	10	...........
	27	0.373333	8.21329E-001	6.00127E-003	0.00000E+000	4.92902E-003	3.59960E-001	-1.13229E+000	3.57680E+000	10	...........
	28	0.386667	8.27718E-001	5.99593E-003	0.00000E+000	4.96294E-003	3.59960E-001	-1.13815E+000	3.57680E+000	10	...........
	29	0.4	8.34079E-001	5.99892E-003	0.00000E+000	5.00357E-003	3.59960E-001	-1.14022E+000	3.57680E+000	10	...........
	30	0.413333	8.40415E-001	5.98935E-003	0.00000E+000	5.03354E-003	3.59960E-001	-1.13189E+000	3.57680E+000	10	...........
	31	0.426667	8.46816E-001	5.99412E-003	0.00000E+000	5.07591E-003	3.59960E-001	-1.13803E+000	3.57680E+000	10	...........
	32	0.44	8.53126E-001	5.99477E-003	0.00000E+000	5.11430E-003	3.59960E-001	-1.14058E+000	3.57680E+000	10	...........
	33	0.453333	8.59462E-001	5.99389E-003	0.00000E+000	5.15152E-003	3.59960E-001	-1.13207E+000	3.57680E+000	10	...........
	34	0.466667	8.65741E-001	5.99346E-003	0.00000E+000	5.18878E-003	3.59960E-001	-1.13767E+000	3.57680E+000	10	...........
	35	0.48	8.72005E-001	5.99694E-003	0.00000E+000	5.22937E-003	3.59960E-001	-1.14006E+000	3.57680E+000	10	...........
	36	0.493333	8.78241E-001	5.99642E-003	0.00000E+000	5.26630E-003	3.59960E-001	-1.13179E+000	3.57680E+000	10	...........
	37	0.506667	8.84469E-001	5.99227E-003	0.00000E+000	5.29997E-003	3.59960E-001	-1.13760E+000	3.57680E+000	10	...........
	38	0.52	8.90645E-001	5.98881E-003	0.00000E+000	5.33390E-003	3.59960E-001	-1.14000E+000	3.57680E+000	10	...........
	39	0.533333	8.96808E-001	5.99707E-003	0.00000E+000	5.37822E-003	3.59960E-001	-1.13112E+000	3.57680E+000	10	...........
	40	0.546667	9.02912E-001	5.99156E-003	0.00000E+000	5.40985E-003	3.59960E-001	-1.13673E+000	3.57680E+000	10	...........
	41	0.56	9.09045E-001	5.99310E-003	0.00000E+000	5.44800E-003	3.59960E-001	-1.13971E+000	3.57680E+000	10	...........
	42	0.573333	9.15105E-001	5.99445E-003	0.00000E+000	5.48555E-003	3.59960E-001	-1.13140E+000	3.57680E+000	10	...........
	43	0.586667	9.21191E-001	5.98935E-003	0.00000E+000	5.51733E-003	3.59960E-001	-1.13705E+000	3.57680E+000	10	...........
	44	0.6	9.27210E-001	5.99168E-003	0.00000E+000	5.55555E-003	3.59960E-001	-1.13975E+000	3.57680E+000	10	...........
	45	0.613333	9.33165E-001	5.99022E-003	0.00000E+000	5.58987E-003	3.59960E-001	-1.13141E+000	3.57680E+000	10	...........
	46	0.626667	9.39121E-001	5.99414E-003	0.00000E+000	5.62922E-003	3.59960E-001	-1.13687E+000	3.57680E+000	10	...........
	47	0.64	9.45054E-001	5.99514E-003	0.00000E+000	5.66573E-003	3.59960E-001	-1.13992E+000	3.57680E+000	10	...........
	48	0.653333	9.50947E-001	5.99527E-003	0.00000E+000	5.70119E-003	3.59960E-001	-1.13131E+000	3.57680E+000	10	...........
	49	0.666667	9.56793E-001	5.99012E-003	0.00000E+000	5.73130E-003	3.59960E-001	-1.13653E+000	3.57680E+000	10	...........
	50	0.68	9.62520E-001	5.99386E-003	0.00000E+000	5.76922E-003	3.59960E-001	-1.13972E+000	3.57680E+000	10	...........
	51	0.693333	9.68275E-001	6.00062E-003	0.00000E+000	5.81025E-003	3.59960E-001	-1.13119E+000	3.57680E+000	10	...........
	52	0.706667	9.73988E-001	5.99360E-003	0.00000E+000	5.83770E-003	3.59960E-001	-1.13675E+000	3.57680E+000	10	...........
	53	0.72	9.79634E-001	5.99373E-003	0.00000E+000	5.87166E-003	3.59960E-001	-1.14001E+000	3.57680E+000	10	...........
	54	0.733333	9.85195E-001	5.99424E-003	0.00000E+000	5.90549E-003	3.59960E-001	-1.13139E+000	3.57680E+000	10	...........
	55	0.746667	9.90753E-001	5.99771E-003	0.00000E+000	5.94225E-003	3.59960E-001	-1.13670E+000	3.57680E+000	10	...........
	56	0.76	9.96245E-001	5.99536E-003	0.00000E+000	5.97284E-003	3.59960E-001	-1.14015E+000	3.57680E+000	10	...........
	57	0.765	9.99984E-001	5.99237E-003	0.00000E+000	5.99228E-003	3.59960E-001	-1.13156E+000	3.57680E+000	10	...........
STARTTIMEOFFSET	QUANT	924.8635	Start Time Offset (s)