File: Data/CV_CRGO300517_1/PWRCCD_CRGO300517_1/CHARGE_DISCHARGE/CHARGE_#334.DTA
EXPLAIN
TAG	PWR800_CHARGE
TITLE	LABEL	PWR Cyclic Charge Discharge (Cell) - Charge Step	Test &Identifier
DATE	LABEL	22-6-2017	Date
TIME	LABEL	15:49:18	Time
NOTES	NOTES	3	&Notes...
	supercap test cell
	0.6mg
	6M KOH
PSTAT	PSTAT	IFC5000-01520	Potentiostat
CAPACITY	QUANT	1.00000E-003	Capacity (A-hr)
CELLTYPE	SELECTOR	1	&Cell Type
WORKINGCONNECTION	SELECTOR	0	&Working Lead
MAXCHARGETIME	VARIABLEANDUNITS	1.00000E+002	s	1.00000E+002	second(s)	Max &Charge Time
CHARGECURRENT	QUANT	6.00000E-003	&Charge Current (A)
VOLTAGEFINISH	TWOPARAM	F	1.00000E-003	3.60000E+003	&Voltage Finish	 I (A) < 	Max Time(s)
SAMPLETIME	QUANT	1.00000E-002	Sa&mple Period (s)
CHARGESTOPAT1	MULTIPARAM	4	1.00000E+000	Charge Stop At &1	Voltage > Limit	V
CHARGESTOPAT2	MULTIPARAM	0	0.00000E+000	Charge Stop At &2	None	N/A
AESBHCSELECTOR	TOGGLE	F	Save Both Half Cells
IRCOMP	TOGGLE	F	IR &Measure
EOC	QUANT	0	Open Circuit (V)
SEQUENCER	TOGGLE	TRUE	Run as Sequence
PSTATMODEL	IQUANT	53	Pstat Model
PSTATSECTION	LABEL	IFC5000-01520	Pstat Section
PSTATSERIALNO	LABEL	01520	Pstat Serial Number
CTRLMODE	IQUANT	0	Control Mode
ELECTROMETER	IQUANT	1	RE=0 or CS=1
IESTAB	IQUANT	0	I/E Stability
CASPEED	IQUANT	4	Control Amp Speed
CONVENTION	IQUANT	1	Current Convention
ICHRANGE	IQUANT	2	Ich Range
ICHRANGEMODE	TOGGLE	T	Ich Auto Range
ICHOFFSETENABLE	TOGGLE	F	Ich Offset Enable
ICHOFFSET	QUANT	0	Ich Offset (V)
ICHFILTER	IQUANT	1	Ich Filter
VCHRANGE	IQUANT	2	Vch Range
VCHRANGEMODE	TOGGLE	T	Vch Auto Range
VCHOFFSETENABLE	TOGGLE	F	Vch Offset Enable
VCHOFFSET	QUANT	0	Vch Offset (V)
VCHFILTER	IQUANT	1	Vch Filter
IERANGELOWERLIMIT	IQUANT	9	I/E Range Lower Limit
IERANGEMODE	TOGGLE	F	I/E AutoRange
IERANGE	IQUANT	10	I/E Range
ACHSELECT	IQUANT	1	Ach Select
ACHRANGE	IQUANT	2	Ach Range
ACHOFFSETENABLE	TOGGLE	F	Ach Offset Enable
ACHOFFSET	QUANT	0	Ach Offset (V)
ACHFILTER	IQUANT	1	Ach Filter
CABLEID	IQUANT	14	Cable ID
DCCALDATE	LABEL	20-10-2016	DC Calibration Date
ACCALDATE	LABEL	12/3/2015	AC Calibration Date
FRAMEWORKVERSION	QUANT	7.01	Framework Version
INSTRUMENTVERSION	LABEL	4.00	Instrument Version
CURVE	TABLE	62
	Pt	T	Vf	Im	Vu	Pwr	Sig	Ach	Temp	IERange	Over
	#	s	V	A	V	W	V	V	deg C	#	bits
	0	0.013333	6.19193E-001	5.99412E-003	0.00000E+000	3.71152E-003	3.59960E-001	-1.12202E+000	3.57660E+000	10	...........
	1	0.026667	6.27830E-001	5.99433E-003	0.00000E+000	3.76342E-003	3.59960E-001	-1.11485E+000	3.57660E+000	10	...........
	2	0.04	6.35774E-001	5.99547E-003	0.00000E+000	3.81177E-003	3.59960E-001	-1.12140E+000	3.57660E+000	10	...........
	3	0.053333	6.43380E-001	5.99549E-003	0.00000E+000	3.85738E-003	3.59960E-001	-1.12218E+000	3.57660E+000	10	...........
	4	0.066667	6.50649E-001	5.99021E-003	0.00000E+000	3.89752E-003	3.59960E-001	-1.11497E+000	3.57660E+000	10	...........
	5	0.08	6.57725E-001	5.99251E-003	0.00000E+000	3.94142E-003	3.59960E-001	-1.12149E+000	3.57660E+000	10	...........
	6	0.093333	6.64643E-001	5.99519E-003	0.00000E+000	3.98466E-003	3.59960E-001	-1.12274E+000	3.57660E+000	10	...........
	7	0.106667	6.71474E-001	5.99183E-003	0.00000E+000	4.02336E-003	3.59960E-001	-1.11501E+000	3.57660E+000	10	...........
	8	0.12	6.78240E-001	5.99683E-003	0.00000E+000	4.06729E-003	3.59960E-001	-1.12133E+000	3.57660E+000	10	...........
	9	0.133333	6.84913E-001	5.99421E-003	0.00000E+000	4.10551E-003	3.59960E-001	-1.12267E+000	3.57660E+000	10	...........
	10	0.146667	6.91492E-001	6.00195E-003	0.00000E+000	4.15030E-003	3.59960E-001	-1.11514E+000	3.57660E+000	10	...........
	11	0.16	6.98095E-001	5.99241E-003	0.00000E+000	4.18327E-003	3.59960E-001	-1.12079E+000	3.57660E+000	10	...........
	12	0.173333	7.04630E-001	5.99774E-003	0.00000E+000	4.22619E-003	3.59960E-001	-1.12213E+000	3.57660E+000	10	...........
	13	0.186667	7.11117E-001	5.99696E-003	0.00000E+000	4.26454E-003	3.59960E-001	-1.11442E+000	3.57660E+000	10	...........
	14	0.2	7.17612E-001	5.99967E-003	0.00000E+000	4.30544E-003	3.59960E-001	-1.12032E+000	3.57660E+000	10	...........
	15	0.213333	7.24058E-001	5.99017E-003	0.00000E+000	4.33723E-003	3.59960E-001	-1.12198E+000	3.57660E+000	10	...........
	16	0.226667	7.30447E-001	5.99230E-003	0.00000E+000	4.37706E-003	3.59960E-001	-1.11435E+000	3.57660E+000	10	...........
	17	0.24	7.36837E-001	5.99483E-003	0.00000E+000	4.41721E-003	3.59960E-001	-1.11982E+000	3.57660E+000	10	...........
	18	0.253333	7.43238E-001	5.98505E-003	0.00000E+000	4.44832E-003	3.59960E-001	-1.12188E+000	3.57660E+000	10	...........
	19	0.266667	7.49624E-001	5.99383E-003	0.00000E+000	4.49312E-003	3.59960E-001	-1.11387E+000	3.57660E+000	10	...........
	20	0.28	7.55964E-001	5.98891E-003	0.00000E+000	4.52740E-003	3.59960E-001	-1.11917E+000	3.57660E+000	10	...........
	21	0.293333	7.62250E-001	5.99352E-003	0.00000E+000	4.56856E-003	3.59960E-001	-1.12112E+000	3.57660E+000	10	...........
	22	0.306667	7.68607E-001	5.99160E-003	0.00000E+000	4.60519E-003	3.59960E-001	-1.11311E+000	3.57660E+000	10	...........
	23	0.32	7.74935E-001	5.99856E-003	0.00000E+000	4.64849E-003	3.59960E-001	-1.11794E+000	3.57662E+000	10	...........
	24	0.333333	7.81258E-001	5.98977E-003	0.00000E+000	4.67955E-003	3.59960E-001	-1.11998E+000	3.57680E+000	10	...........
	25	0.346667	7.87513E-001	5.99111E-003	0.00000E+000	4.71808E-003	3.59960E-001	-1.11172E+000	3.57680E+000	10	...........
	26	0.36	7.93780E-001	5.99391E-003	0.00000E+000	4.75784E-003	3.59960E-001	-1.11639E+000	3.57680E+000	10	...........
	27	0.373333	8.00036E-001	5.99159E-003	0.00000E+000	4.79349E-003	3.59960E-001	-1.11868E+000	3.57680E+000	10	...........
	28	0.386667	8.06329E-001	5.99391E-003	0.00000E+000	4.83306E-003	3.59960E-001	-1.10999E+000	3.57680E+000	10	...........
	29	0.4	8.12567E-001	5.99340E-003	0.00000E+000	4.87004E-003	3.59960E-001	-1.11387E+000	3.57680E+000	10	...........
	30	0.413333	8.18821E-001	5.99234E-003	0.00000E+000	4.90665E-003	3.59960E-001	-1.11626E+000	3.57680E+000	10	...........
	31	0.426667	8.25042E-001	5.99043E-003	0.00000E+000	4.94236E-003	3.59960E-001	-1.10731E+000	3.57680E+000	10	...........
	32	0.44	8.31200E-001	5.99182E-003	0.00000E+000	4.98040E-003	3.59960E-001	-1.11116E+000	3.57680E+000	10	...........
	33	0.453333	8.37415E-001	5.99610E-003	0.00000E+000	5.02122E-003	3.59960E-001	-1.11384E+000	3.57680E+000	10	...........
	34	0.466667	8.43640E-001	5.99535E-003	0.00000E+000	5.05791E-003	3.59960E-001	-1.10528E+000	3.57680E+000	10	...........
	35	0.48	8.49818E-001	5.99543E-003	0.00000E+000	5.09503E-003	3.59960E-001	-1.10932E+000	3.57680E+000	10	...........
	36	0.493333	8.55904E-001	5.99298E-003	0.00000E+000	5.12942E-003	3.59960E-001	-1.11288E+000	3.57680E+000	10	...........
	37	0.506667	8.62109E-001	5.99601E-003	0.00000E+000	5.16922E-003	3.59960E-001	-1.10461E+000	3.57680E+000	10	...........
	38	0.52	8.68233E-001	5.99068E-003	0.00000E+000	5.20131E-003	3.59960E-001	-1.10880E+000	3.57680E+000	10	...........
	39	0.533333	8.74345E-001	5.99688E-003	0.00000E+000	5.24334E-003	3.59960E-001	-1.11258E+000	3.57680E+000	10	...........
	40	0.546667	8.80418E-001	5.99471E-003	0.00000E+000	5.27785E-003	3.59960E-001	-1.10453E+000	3.57680E+000	10	...........
	41	0.56	8.86479E-001	5.98997E-003	0.00000E+000	5.30999E-003	3.59960E-001	-1.10867E+000	3.57680E+000	10	...........
	42	0.573333	8.92537E-001	5.99222E-003	0.00000E+000	5.34827E-003	3.59960E-001	-1.11282E+000	3.57680E+000	10	...........
	43	0.586667	8.98563E-001	5.99659E-003	0.00000E+000	5.38831E-003	3.59960E-001	-1.10456E+000	3.57680E+000	10	...........
	44	0.6	9.04565E-001	5.99778E-003	0.00000E+000	5.42538E-003	3.59960E-001	-1.10838E+000	3.57680E+000	10	...........
	45	0.613333	9.10520E-001	5.99202E-003	0.00000E+000	5.45585E-003	3.59960E-001	-1.11302E+000	3.57680E+000	10	...........
	46	0.626667	9.16437E-001	5.99269E-003	0.00000E+000	5.49192E-003	3.59960E-001	-1.10507E+000	3.57680E+000	10	...........
	47	0.64	9.22427E-001	5.99209E-003	0.00000E+000	5.52726E-003	3.59960E-001	-1.10891E+000	3.57680E+000	10	...........
	48	0.653333	9.28337E-001	5.99571E-003	0.00000E+000	5.56604E-003	3.59960E-001	-1.11362E+000	3.57680E+000	10	...........
	49	0.666667	9.34207E-001	5.99031E-003	0.00000E+000	5.59619E-003	3.59960E-001	-1.10510E+000	3.57680E+000	10	...........
	50	0.68	9.40024E-001	5.99657E-003	0.00000E+000	5.63692E-003	3.59960E-001	-1.10880E+000	3.57680E+000	10	...........
	51	0.693333	9.45820E-001	5.99556E-003	0.00000E+000	5.67073E-003	3.59960E-001	-1.11420E+000	3.57680E+000	10	...........
	52	0.706667	9.51581E-001	5.98962E-003	0.00000E+000	5.69961E-003	3.59960E-001	-1.10561E+000	3.57680E+000	10	...........
	53	0.72	9.57303E-001	5.99384E-003	0.00000E+000	5.73793E-003	3.59960E-001	-1.10913E+000	3.57680E+000	10	...........
	54	0.733333	9.62992E-001	5.99348E-003	0.00000E+000	5.77167E-003	3.59960E-001	-1.11455E+000	3.57680E+000	10	...........
	55	0.746667	9.68681E-001	5.99375E-003	0.00000E+000	5.80603E-003	3.59960E-001	-1.10597E+000	3.57680E+000	10	...........
	56	0.76	9.74341E-001	5.99104E-003	0.00000E+000	5.83731E-003	3.59960E-001	-1.10975E+000	3.57680E+000	10	...........
	57	0.773333	9.79899E-001	5.99041E-003	0.00000E+000	5.87000E-003	3.59960E-001	-1.11527E+000	3.57680E+000	10	...........
	58	0.786667	9.85391E-001	5.99344E-003	0.00000E+000	5.90588E-003	3.59960E-001	-1.10641E+000	3.57680E+000	10	...........
	59	0.8	9.90873E-001	5.99695E-003	0.00000E+000	5.94222E-003	3.59960E-001	-1.10968E+000	3.57680E+000	10	...........
	60	0.813333	9.96289E-001	5.99491E-003	0.00000E+000	5.97266E-003	3.59960E-001	-1.11573E+000	3.57680E+000	10	...........
	61	0.816667	9.99694E-001	5.99851E-003	0.00000E+000	5.99667E-003	3.59960E-001	-1.10725E+000	3.57680E+000	10	...........
STARTTIMEOFFSET	QUANT	596.7398	Start Time Offset (s)