File: Data/CV_CRGO300517_1/PWRCCD_CRGO300517_1/CHARGE_DISCHARGE/CHARGE_#720.DTA
EXPLAIN
TAG	PWR800_CHARGE
TITLE	LABEL	PWR Cyclic Charge Discharge (Cell) - Charge Step	Test &Identifier
DATE	LABEL	22-6-2017	Date
TIME	LABEL	16:04:18	Time
NOTES	NOTES	3	&Notes...
	supercap test cell
	0.6mg
	6M KOH
PSTAT	PSTAT	IFC5000-01520	Potentiostat
CAPACITY	QUANT	1.00000E-003	Capacity (A-hr)
CELLTYPE	SELECTOR	1	&Cell Type
WORKINGCONNECTION	SELECTOR	0	&Working Lead
MAXCHARGETIME	VARIABLEANDUNITS	1.00000E+002	s	1.00000E+002	second(s)	Max &Charge Time
CHARGECURRENT	QUANT	6.00000E-003	&Charge Current (A)
VOLTAGEFINISH	TWOPARAM	F	1.00000E-003	3.60000E+003	&Voltage Finish	 I (A) < 	Max Time(s)
SAMPLETIME	QUANT	1.00000E-002	Sa&mple Period (s)
CHARGESTOPAT1	MULTIPARAM	4	1.00000E+000	Charge Stop At &1	Voltage > Limit	V
CHARGESTOPAT2	MULTIPARAM	0	0.00000E+000	Charge Stop At &2	None	N/A
AESBHCSELECTOR	TOGGLE	F	Save Both Half Cells
IRCOMP	TOGGLE	F	IR &Measure
EOC	QUANT	0	Open Circuit (V)
SEQUENCER	TOGGLE	TRUE	Run as Sequence
PSTATMODEL	IQUANT	53	Pstat Model
PSTATSECTION	LABEL	IFC5000-01520	Pstat Section
PSTATSERIALNO	LABEL	01520	Pstat Serial Number
CTRLMODE	IQUANT	0	Control Mode
ELECTROMETER	IQUANT	1	RE=0 or CS=1
IESTAB	IQUANT	0	I/E Stability
CASPEED	IQUANT	4	Control Amp Speed
CONVENTION	IQUANT	1	Current Convention
ICHRANGE	IQUANT	2	Ich Range
ICHRANGEMODE	TOGGLE	T	Ich Auto Range
ICHOFFSETENABLE	TOGGLE	F	Ich Offset Enable
ICHOFFSET	QUANT	0	Ich Offset (V)
ICHFILTER	IQUANT	1	Ich Filter
VCHRANGE	IQUANT	2	Vch Range
VCHRANGEMODE	TOGGLE	T	Vch Auto Range
VCHOFFSETENABLE	TOGGLE	F	Vch Offset Enable
VCHOFFSET	QUANT	0	Vch Offset (V)
VCHFILTER	IQUANT	1	Vch Filter
IERANGELOWERLIMIT	IQUANT	9	I/E Range Lower Limit
IERANGEMODE	TOGGLE	F	I/E AutoRange
IERANGE	IQUANT	10	I/E Range
ACHSELECT	IQUANT	1	Ach Select
ACHRANGE	IQUANT	2	Ach Range
ACHOFFSETENABLE	TOGGLE	F	Ach Offset Enable
ACHOFFSET	QUANT	0	Ach Offset (V)
ACHFILTER	IQUANT	1	Ach Filter
CABLEID	IQUANT	14	Cable ID
DCCALDATE	LABEL	20-10-2016	DC Calibration Date
ACCALDATE	LABEL	12/3/2015	AC Calibration Date
FRAMEWORKVERSION	QUANT	7.01	Framework Version
INSTRUMENTVERSION	LABEL	4.00	Instrument Version
CURVE	TABLE	55
	Pt	T	Vf	Im	Vu	Pwr	Sig	Ach	Temp	IERange	Over
	#	s	V	A	V	W	V	V	deg C	#	bits
	0	0.013333	6.44520E-001	5.99373E-003	0.00000E+000	3.86308E-003	3.59960E-001	-1.15413E+000	3.57780E+000	10	...........
	1	0.026667	6.53636E-001	5.99042E-003	0.00000E+000	3.91556E-003	3.59960E-001	-1.16367E+000	3.57780E+000	10	...........
	2	0.04	6.62001E-001	5.99495E-003	0.00000E+000	3.96867E-003	3.59960E-001	-1.15915E+000	3.57780E+000	10	...........
	3	0.053333	6.69957E-001	5.98937E-003	0.00000E+000	4.01262E-003	3.59960E-001	-1.15428E+000	3.57780E+000	10	...........
	4	0.066667	6.77645E-001	5.99390E-003	0.00000E+000	4.06173E-003	3.59960E-001	-1.16358E+000	3.57780E+000	10	...........
	5	0.08	6.85049E-001	5.99202E-003	0.00000E+000	4.10482E-003	3.59960E-001	-1.15890E+000	3.57780E+000	10	...........
	6	0.093333	6.92402E-001	6.00025E-003	0.00000E+000	4.15458E-003	3.59960E-001	-1.15354E+000	3.57780E+000	10	...........
	7	0.106667	6.99583E-001	5.99057E-003	0.00000E+000	4.19090E-003	3.59960E-001	-1.16311E+000	3.57780E+000	10	...........
	8	0.12	7.06701E-001	5.99211E-003	0.00000E+000	4.23463E-003	3.59960E-001	-1.15875E+000	3.57780E+000	10	...........
	9	0.133333	7.13756E-001	6.00396E-003	0.00000E+000	4.28536E-003	3.59960E-001	-1.15372E+000	3.57780E+000	10	...........
	10	0.146667	7.20726E-001	5.99376E-003	0.00000E+000	4.31986E-003	3.59960E-001	-1.16327E+000	3.57780E+000	10	...........
	11	0.16	7.27613E-001	5.99613E-003	0.00000E+000	4.36286E-003	3.59960E-001	-1.15895E+000	3.57780E+000	10	...........
	12	0.173333	7.34436E-001	5.99340E-003	0.00000E+000	4.40176E-003	3.59960E-001	-1.15372E+000	3.57780E+000	10	...........
	13	0.186667	7.41332E-001	5.99541E-003	0.00000E+000	4.44459E-003	3.59960E-001	-1.16335E+000	3.57780E+000	10	...........
	14	0.2	7.48105E-001	5.99490E-003	0.00000E+000	4.48481E-003	3.59960E-001	-1.15894E+000	3.57780E+000	10	...........
	15	0.213333	7.54882E-001	5.99248E-003	0.00000E+000	4.52361E-003	3.59960E-001	-1.15383E+000	3.57780E+000	10	...........
	16	0.226667	7.61596E-001	5.99460E-003	0.00000E+000	4.56547E-003	3.59960E-001	-1.16347E+000	3.57780E+000	10	...........
	17	0.24	7.68297E-001	5.99475E-003	0.00000E+000	4.60575E-003	3.59960E-001	-1.15881E+000	3.57780E+000	10	...........
	18	0.253333	7.74995E-001	5.99525E-003	0.00000E+000	4.64629E-003	3.59960E-001	-1.15362E+000	3.57780E+000	10	...........
	19	0.266667	7.81690E-001	5.99486E-003	0.00000E+000	4.68612E-003	3.59960E-001	-1.16330E+000	3.57780E+000	10	...........
	20	0.28	7.88333E-001	5.99234E-003	0.00000E+000	4.72396E-003	3.59960E-001	-1.15859E+000	3.57780E+000	10	...........
	21	0.293333	7.94984E-001	5.99152E-003	0.00000E+000	4.76316E-003	3.59960E-001	-1.15361E+000	3.57780E+000	10	...........
	22	0.306667	8.01588E-001	5.99105E-003	0.00000E+000	4.80235E-003	3.59960E-001	-1.16327E+000	3.57780E+000	10	...........
	23	0.32	8.08142E-001	5.98947E-003	0.00000E+000	4.84034E-003	3.59960E-001	-1.15846E+000	3.57780E+000	10	...........
	24	0.333333	8.14708E-001	5.99309E-003	0.00000E+000	4.88262E-003	3.59960E-001	-1.15368E+000	3.57780E+000	10	...........
	25	0.346667	8.21254E-001	5.99409E-003	0.00000E+000	4.92267E-003	3.59960E-001	-1.16335E+000	3.57780E+000	10	...........
	26	0.36	8.27735E-001	5.98917E-003	0.00000E+000	4.95745E-003	3.59960E-001	-1.15853E+000	3.57780E+000	10	...........
	27	0.373333	8.34199E-001	5.99204E-003	0.00000E+000	4.99855E-003	3.59960E-001	-1.15365E+000	3.57780E+000	10	...........
	28	0.386667	8.40655E-001	5.99303E-003	0.00000E+000	5.03807E-003	3.59960E-001	-1.16338E+000	3.57780E+000	10	...........
	29	0.4	8.47151E-001	5.99309E-003	0.00000E+000	5.07706E-003	3.59960E-001	-1.15817E+000	3.57780E+000	10	...........
	30	0.413333	8.53579E-001	5.98922E-003	0.00000E+000	5.11227E-003	3.59960E-001	-1.15323E+000	3.57780E+000	10	...........
	31	0.426667	8.59996E-001	5.99179E-003	0.00000E+000	5.15291E-003	3.59960E-001	-1.16312E+000	3.57780E+000	10	...........
	32	0.44	8.66391E-001	5.99587E-003	0.00000E+000	5.19476E-003	3.59960E-001	-1.15795E+000	3.57780E+000	10	...........
	33	0.453333	8.72721E-001	5.99417E-003	0.00000E+000	5.23123E-003	3.59960E-001	-1.15288E+000	3.57780E+000	10	...........
	34	0.466667	8.79071E-001	5.99841E-003	0.00000E+000	5.27303E-003	3.59960E-001	-1.16315E+000	3.57780E+000	10	...........
	35	0.48	8.85375E-001	5.99579E-003	0.00000E+000	5.30853E-003	3.59960E-001	-1.15801E+000	3.57780E+000	10	...........
	36	0.493333	8.91663E-001	5.98972E-003	0.00000E+000	5.34081E-003	3.59960E-001	-1.15279E+000	3.57780E+000	10	...........
	37	0.506667	8.97934E-001	5.99616E-003	0.00000E+000	5.38415E-003	3.59960E-001	-1.16303E+000	3.57780E+000	10	...........
	38	0.52	9.04194E-001	5.99270E-003	0.00000E+000	5.41856E-003	3.59960E-001	-1.15769E+000	3.57780E+000	10	...........
	39	0.533333	9.10370E-001	5.98770E-003	0.00000E+000	5.45102E-003	3.59960E-001	-1.15275E+000	3.57778E+000	10	...........
	40	0.546667	9.16494E-001	5.99930E-003	0.00000E+000	5.49832E-003	3.59960E-001	-1.16299E+000	3.57760E+000	10	...........
	41	0.56	9.22640E-001	5.99413E-003	0.00000E+000	5.53042E-003	3.59960E-001	-1.15721E+000	3.57760E+000	10	...........
	42	0.573333	9.28711E-001	5.99957E-003	0.00000E+000	5.57187E-003	3.59960E-001	-1.15255E+000	3.57760E+000	10	...........
	43	0.586667	9.34714E-001	5.99208E-003	0.00000E+000	5.60088E-003	3.59960E-001	-1.16273E+000	3.57760E+000	10	...........
	44	0.6	9.40696E-001	5.99212E-003	0.00000E+000	5.63676E-003	3.59960E-001	-1.15749E+000	3.57760E+000	10	...........
	45	0.613333	9.46673E-001	5.98826E-003	0.00000E+000	5.66893E-003	3.59960E-001	-1.15304E+000	3.57760E+000	10	...........
	46	0.626667	9.52565E-001	5.99230E-003	0.00000E+000	5.70806E-003	3.59960E-001	-1.16297E+000	3.57760E+000	10	...........
	47	0.64	9.58397E-001	5.99549E-003	0.00000E+000	5.74606E-003	3.59960E-001	-1.15760E+000	3.57760E+000	10	...........
	48	0.653333	9.64196E-001	5.99179E-003	0.00000E+000	5.77726E-003	3.59960E-001	-1.15297E+000	3.57760E+000	10	...........
	49	0.666667	9.69967E-001	5.98925E-003	0.00000E+000	5.80938E-003	3.59960E-001	-1.16315E+000	3.57760E+000	10	...........
	50	0.68	9.75731E-001	5.99699E-003	0.00000E+000	5.85145E-003	3.59960E-001	-1.15782E+000	3.57760E+000	10	...........
	51	0.693333	9.81420E-001	5.99304E-003	0.00000E+000	5.88169E-003	3.59960E-001	-1.15305E+000	3.57760E+000	10	...........
	52	0.706667	9.87004E-001	5.99544E-003	0.00000E+000	5.91752E-003	3.59960E-001	-1.16303E+000	3.57760E+000	10	...........
	53	0.72	9.92567E-001	5.99071E-003	0.00000E+000	5.94619E-003	3.59960E-001	-1.15726E+000	3.57760E+000	10	...........
	54	0.733333	9.98126E-001	5.99666E-003	0.00000E+000	5.98542E-003	3.59960E-001	-1.15287E+000	3.57760E+000	10	...........
STARTTIMEOFFSET	QUANT	1188.47	Start Time Offset (s)