File: Data/CV_CRGO300517_1/PWRCCD_CRGO300517_1/CHARGE_DISCHARGE/CHARGE_#353.DTA
EXPLAIN
TAG	PWR800_CHARGE
TITLE	LABEL	PWR Cyclic Charge Discharge (Cell) - Charge Step	Test &Identifier
DATE	LABEL	22-6-2017	Date
TIME	LABEL	15:50:05	Time
NOTES	NOTES	3	&Notes...
	supercap test cell
	0.6mg
	6M KOH
PSTAT	PSTAT	IFC5000-01520	Potentiostat
CAPACITY	QUANT	1.00000E-003	Capacity (A-hr)
CELLTYPE	SELECTOR	1	&Cell Type
WORKINGCONNECTION	SELECTOR	0	&Working Lead
MAXCHARGETIME	VARIABLEANDUNITS	1.00000E+002	s	1.00000E+002	second(s)	Max &Charge Time
CHARGECURRENT	QUANT	6.00000E-003	&Charge Current (A)
VOLTAGEFINISH	TWOPARAM	F	1.00000E-003	3.60000E+003	&Voltage Finish	 I (A) < 	Max Time(s)
SAMPLETIME	QUANT	1.00000E-002	Sa&mple Period (s)
CHARGESTOPAT1	MULTIPARAM	4	1.00000E+000	Charge Stop At &1	Voltage > Limit	V
CHARGESTOPAT2	MULTIPARAM	0	0.00000E+000	Charge Stop At &2	None	N/A
AESBHCSELECTOR	TOGGLE	F	Save Both Half Cells
IRCOMP	TOGGLE	F	IR &Measure
EOC	QUANT	0	Open Circuit (V)
SEQUENCER	TOGGLE	TRUE	Run as Sequence
PSTATMODEL	IQUANT	53	Pstat Model
PSTATSECTION	LABEL	IFC5000-01520	Pstat Section
PSTATSERIALNO	LABEL	01520	Pstat Serial Number
CTRLMODE	IQUANT	0	Control Mode
ELECTROMETER	IQUANT	1	RE=0 or CS=1
IESTAB	IQUANT	0	I/E Stability
CASPEED	IQUANT	4	Control Amp Speed
CONVENTION	IQUANT	1	Current Convention
ICHRANGE	IQUANT	2	Ich Range
ICHRANGEMODE	TOGGLE	T	Ich Auto Range
ICHOFFSETENABLE	TOGGLE	F	Ich Offset Enable
ICHOFFSET	QUANT	0	Ich Offset (V)
ICHFILTER	IQUANT	1	Ich Filter
VCHRANGE	IQUANT	2	Vch Range
VCHRANGEMODE	TOGGLE	T	Vch Auto Range
VCHOFFSETENABLE	TOGGLE	F	Vch Offset Enable
VCHOFFSET	QUANT	0	Vch Offset (V)
VCHFILTER	IQUANT	1	Vch Filter
IERANGELOWERLIMIT	IQUANT	9	I/E Range Lower Limit
IERANGEMODE	TOGGLE	F	I/E AutoRange
IERANGE	IQUANT	10	I/E Range
ACHSELECT	IQUANT	1	Ach Select
ACHRANGE	IQUANT	2	Ach Range
ACHOFFSETENABLE	TOGGLE	F	Ach Offset Enable
ACHOFFSET	QUANT	0	Ach Offset (V)
ACHFILTER	IQUANT	1	Ach Filter
CABLEID	IQUANT	14	Cable ID
DCCALDATE	LABEL	20-10-2016	DC Calibration Date
ACCALDATE	LABEL	12/3/2015	AC Calibration Date
FRAMEWORKVERSION	QUANT	7.01	Framework Version
INSTRUMENTVERSION	LABEL	4.00	Instrument Version
CURVE	TABLE	61
	Pt	T	Vf	Im	Vu	Pwr	Sig	Ach	Temp	IERange	Over
	#	s	V	A	V	W	V	V	deg C	#	bits
	0	0.013333	6.20950E-001	5.99262E-003	0.00000E+000	3.72112E-003	3.59960E-001	-1.12989E+000	3.57720E+000	10	...........
	1	0.026667	6.29608E-001	5.99794E-003	0.00000E+000	3.77635E-003	3.59960E-001	-1.12092E+000	3.57720E+000	10	...........
	2	0.04	6.37570E-001	5.99377E-003	0.00000E+000	3.82145E-003	3.59960E-001	-1.11803E+000	3.57720E+000	10	...........
	3	0.053333	6.45194E-001	5.98990E-003	0.00000E+000	3.86465E-003	3.59960E-001	-1.12916E+000	3.57720E+000	10	...........
	4	0.066667	6.52483E-001	5.99234E-003	0.00000E+000	3.90990E-003	3.59960E-001	-1.12059E+000	3.57720E+000	10	...........
	5	0.08	6.59549E-001	5.99144E-003	0.00000E+000	3.95165E-003	3.59960E-001	-1.11814E+000	3.57720E+000	10	...........
	6	0.093333	6.66523E-001	5.99384E-003	0.00000E+000	3.99504E-003	3.59960E-001	-1.12914E+000	3.57720E+000	10	...........
	7	0.106667	6.73397E-001	5.99146E-003	0.00000E+000	4.03463E-003	3.59960E-001	-1.12078E+000	3.57720E+000	10	...........
	8	0.12	6.80218E-001	5.99433E-003	0.00000E+000	4.07746E-003	3.59960E-001	-1.11786E+000	3.57720E+000	10	...........
	9	0.133333	6.86893E-001	5.99127E-003	0.00000E+000	4.11536E-003	3.59960E-001	-1.12869E+000	3.57720E+000	10	...........
	10	0.146667	6.93546E-001	5.99603E-003	0.00000E+000	4.15852E-003	3.59960E-001	-1.12078E+000	3.57720E+000	10	...........
	11	0.16	7.00132E-001	5.99515E-003	0.00000E+000	4.19739E-003	3.59960E-001	-1.11773E+000	3.57720E+000	10	...........
	12	0.173333	7.06659E-001	5.99166E-003	0.00000E+000	4.23406E-003	3.59960E-001	-1.12877E+000	3.57720E+000	10	...........
	13	0.186667	7.13113E-001	5.99090E-003	0.00000E+000	4.27219E-003	3.59960E-001	-1.12069E+000	3.57720E+000	10	...........
	14	0.2	7.19659E-001	5.99799E-003	0.00000E+000	4.31651E-003	3.59960E-001	-1.11739E+000	3.57720E+000	10	...........
	15	0.213333	7.26099E-001	5.99048E-003	0.00000E+000	4.34969E-003	3.59960E-001	-1.12832E+000	3.57720E+000	10	...........
	16	0.226667	7.32534E-001	5.99114E-003	0.00000E+000	4.38871E-003	3.59960E-001	-1.12087E+000	3.57720E+000	10	...........
	17	0.24	7.38972E-001	5.99792E-003	0.00000E+000	4.43230E-003	3.59960E-001	-1.11748E+000	3.57720E+000	10	...........
	18	0.253333	7.45412E-001	5.99349E-003	0.00000E+000	4.46762E-003	3.59960E-001	-1.12854E+000	3.57720E+000	10	...........
	19	0.266667	7.51783E-001	5.99169E-003	0.00000E+000	4.50446E-003	3.59960E-001	-1.12116E+000	3.57720E+000	10	...........
	20	0.28	7.58141E-001	5.99656E-003	0.00000E+000	4.54623E-003	3.59960E-001	-1.11751E+000	3.57720E+000	10	...........
	21	0.293333	7.64499E-001	5.99801E-003	0.00000E+000	4.58547E-003	3.59960E-001	-1.12841E+000	3.57720E+000	10	...........
	22	0.306667	7.70834E-001	5.99264E-003	0.00000E+000	4.61934E-003	3.59960E-001	-1.12112E+000	3.57720E+000	10	...........
	23	0.32	7.77143E-001	5.99571E-003	0.00000E+000	4.65952E-003	3.59960E-001	-1.11728E+000	3.57720E+000	10	...........
	24	0.333333	7.83521E-001	5.99363E-003	0.00000E+000	4.69614E-003	3.59960E-001	-1.12802E+000	3.57720E+000	10	...........
	25	0.346667	7.89805E-001	5.99280E-003	0.00000E+000	4.73314E-003	3.59960E-001	-1.12102E+000	3.57720E+000	10	...........
	26	0.36	7.96122E-001	5.99576E-003	0.00000E+000	4.77336E-003	3.59960E-001	-1.11703E+000	3.57720E+000	10	...........
	27	0.373333	8.02361E-001	5.99296E-003	0.00000E+000	4.80851E-003	3.59960E-001	-1.12769E+000	3.57720E+000	10	...........
	28	0.386667	8.08619E-001	5.99208E-003	0.00000E+000	4.84531E-003	3.59960E-001	-1.12093E+000	3.57720E+000	10	...........
	29	0.4	8.14893E-001	5.99582E-003	0.00000E+000	4.88596E-003	3.59960E-001	-1.11681E+000	3.57740E+000	10	...........
	30	0.413333	8.21190E-001	5.99256E-003	0.00000E+000	4.92103E-003	3.59960E-001	-1.12744E+000	3.57740E+000	10	...........
	31	0.426667	8.27408E-001	5.99789E-003	0.00000E+000	4.96270E-003	3.59960E-001	-1.12119E+000	3.57740E+000	10	...........
	32	0.44	8.33649E-001	5.99468E-003	0.00000E+000	4.99746E-003	3.59960E-001	-1.11702E+000	3.57740E+000	10	...........
	33	0.453333	8.39827E-001	5.99499E-003	0.00000E+000	5.03476E-003	3.59960E-001	-1.12701E+000	3.57740E+000	10	...........
	34	0.466667	8.46048E-001	5.99643E-003	0.00000E+000	5.07327E-003	3.59960E-001	-1.12115E+000	3.57740E+000	10	...........
	35	0.48	8.52251E-001	5.99562E-003	0.00000E+000	5.10977E-003	3.59960E-001	-1.11674E+000	3.57740E+000	10	...........
	36	0.493333	8.58413E-001	5.99429E-003	0.00000E+000	5.14558E-003	3.59960E-001	-1.12705E+000	3.57740E+000	10	...........
	37	0.506667	8.64554E-001	5.99131E-003	0.00000E+000	5.17981E-003	3.59960E-001	-1.12132E+000	3.57740E+000	10	...........
	38	0.52	8.70704E-001	5.99595E-003	0.00000E+000	5.22070E-003	3.59960E-001	-1.11665E+000	3.57740E+000	10	...........
	39	0.533333	8.76843E-001	5.99175E-003	0.00000E+000	5.25382E-003	3.59960E-001	-1.12650E+000	3.57740E+000	10	...........
	40	0.546667	8.82957E-001	5.99100E-003	0.00000E+000	5.28979E-003	3.59960E-001	-1.12124E+000	3.57740E+000	10	...........
	41	0.56	8.89029E-001	5.99619E-003	0.00000E+000	5.33079E-003	3.59960E-001	-1.11681E+000	3.57740E+000	10	...........
	42	0.573333	8.95046E-001	5.99511E-003	0.00000E+000	5.36590E-003	3.59960E-001	-1.12665E+000	3.57740E+000	10	...........
	43	0.586667	9.01084E-001	5.99247E-003	0.00000E+000	5.39971E-003	3.59960E-001	-1.12159E+000	3.57740E+000	10	...........
	44	0.6	9.07097E-001	5.99726E-003	0.00000E+000	5.44010E-003	3.59960E-001	-1.11656E+000	3.57740E+000	10	...........
	45	0.613333	9.13084E-001	5.98965E-003	0.00000E+000	5.46906E-003	3.59960E-001	-1.12659E+000	3.57740E+000	10	...........
	46	0.626667	9.19072E-001	5.99409E-003	0.00000E+000	5.50900E-003	3.59960E-001	-1.12181E+000	3.57740E+000	10	...........
	47	0.64	9.25011E-001	5.99726E-003	0.00000E+000	5.54754E-003	3.59960E-001	-1.11679E+000	3.57740E+000	10	...........
	48	0.653333	9.30892E-001	5.99704E-003	0.00000E+000	5.58259E-003	3.59960E-001	-1.12632E+000	3.57740E+000	10	...........
	49	0.666667	9.36752E-001	5.99410E-003	0.00000E+000	5.61499E-003	3.59960E-001	-1.12157E+000	3.57740E+000	10	...........
	50	0.68	9.42560E-001	5.99377E-003	0.00000E+000	5.64949E-003	3.59960E-001	-1.11622E+000	3.57740E+000	10	...........
	51	0.693333	9.48357E-001	5.99990E-003	0.00000E+000	5.69005E-003	3.59960E-001	-1.12589E+000	3.57740E+000	10	...........
	52	0.706667	9.54104E-001	5.99401E-003	0.00000E+000	5.71891E-003	3.59960E-001	-1.12165E+000	3.57740E+000	10	...........
	53	0.72	9.59780E-001	5.99714E-003	0.00000E+000	5.75594E-003	3.59960E-001	-1.11635E+000	3.57740E+000	10	...........
	54	0.733333	9.65486E-001	5.99553E-003	0.00000E+000	5.78860E-003	3.59960E-001	-1.12542E+000	3.57740E+000	10	...........
	55	0.746667	9.71128E-001	5.99160E-003	0.00000E+000	5.81861E-003	3.59960E-001	-1.12190E+000	3.57740E+000	10	...........
	56	0.76	9.76762E-001	5.99213E-003	0.00000E+000	5.85289E-003	3.59960E-001	-1.11646E+000	3.57740E+000	10	...........
	57	0.773333	9.82297E-001	5.99269E-003	0.00000E+000	5.88660E-003	3.59960E-001	-1.12517E+000	3.57740E+000	10	...........
	58	0.786667	9.87828E-001	5.99552E-003	0.00000E+000	5.92255E-003	3.59960E-001	-1.12179E+000	3.57740E+000	10	...........
	59	0.8	9.93259E-001	5.99543E-003	0.00000E+000	5.95501E-003	3.59960E-001	-1.11630E+000	3.57740E+000	10	...........
	60	0.811667	9.98381E-001	5.99614E-003	0.00000E+000	5.98643E-003	3.59960E-001	-1.12778E+000	3.57740E+000	10	...........
STARTTIMEOFFSET	QUANT	627.498	Start Time Offset (s)