File: Data/CV_CRGO300517_1/PWRCCD_CRGO300517_1/CHARGE_DISCHARGE/CHARGE_#110.DTA
EXPLAIN
TAG	PWR800_CHARGE
TITLE	LABEL	PWR Cyclic Charge Discharge (Cell) - Charge Step	Test &Identifier
DATE	LABEL	22-6-2017	Date
TIME	LABEL	15:39:56	Time
NOTES	NOTES	3	&Notes...
	supercap test cell
	0.6mg
	6M KOH
PSTAT	PSTAT	IFC5000-01520	Potentiostat
CAPACITY	QUANT	1.00000E-003	Capacity (A-hr)
CELLTYPE	SELECTOR	1	&Cell Type
WORKINGCONNECTION	SELECTOR	0	&Working Lead
MAXCHARGETIME	VARIABLEANDUNITS	1.00000E+002	s	1.00000E+002	second(s)	Max &Charge Time
CHARGECURRENT	QUANT	6.00000E-003	&Charge Current (A)
VOLTAGEFINISH	TWOPARAM	F	1.00000E-003	3.60000E+003	&Voltage Finish	 I (A) < 	Max Time(s)
SAMPLETIME	QUANT	1.00000E-002	Sa&mple Period (s)
CHARGESTOPAT1	MULTIPARAM	4	1.00000E+000	Charge Stop At &1	Voltage > Limit	V
CHARGESTOPAT2	MULTIPARAM	0	0.00000E+000	Charge Stop At &2	None	N/A
AESBHCSELECTOR	TOGGLE	F	Save Both Half Cells
IRCOMP	TOGGLE	F	IR &Measure
EOC	QUANT	0	Open Circuit (V)
SEQUENCER	TOGGLE	TRUE	Run as Sequence
PSTATMODEL	IQUANT	53	Pstat Model
PSTATSECTION	LABEL	IFC5000-01520	Pstat Section
PSTATSERIALNO	LABEL	01520	Pstat Serial Number
CTRLMODE	IQUANT	0	Control Mode
ELECTROMETER	IQUANT	1	RE=0 or CS=1
IESTAB	IQUANT	0	I/E Stability
CASPEED	IQUANT	4	Control Amp Speed
CONVENTION	IQUANT	1	Current Convention
ICHRANGE	IQUANT	2	Ich Range
ICHRANGEMODE	TOGGLE	T	Ich Auto Range
ICHOFFSETENABLE	TOGGLE	F	Ich Offset Enable
ICHOFFSET	QUANT	0	Ich Offset (V)
ICHFILTER	IQUANT	1	Ich Filter
VCHRANGE	IQUANT	2	Vch Range
VCHRANGEMODE	TOGGLE	T	Vch Auto Range
VCHOFFSETENABLE	TOGGLE	F	Vch Offset Enable
VCHOFFSET	QUANT	0	Vch Offset (V)
VCHFILTER	IQUANT	1	Vch Filter
IERANGELOWERLIMIT	IQUANT	9	I/E Range Lower Limit
IERANGEMODE	TOGGLE	F	I/E AutoRange
IERANGE	IQUANT	10	I/E Range
ACHSELECT	IQUANT	1	Ach Select
ACHRANGE	IQUANT	2	Ach Range
ACHOFFSETENABLE	TOGGLE	F	Ach Offset Enable
ACHOFFSET	QUANT	0	Ach Offset (V)
ACHFILTER	IQUANT	1	Ach Filter
CABLEID	IQUANT	14	Cable ID
DCCALDATE	LABEL	20-10-2016	DC Calibration Date
ACCALDATE	LABEL	12/3/2015	AC Calibration Date
FRAMEWORKVERSION	QUANT	7.01	Framework Version
INSTRUMENTVERSION	LABEL	4.00	Instrument Version
CURVE	TABLE	69
	Pt	T	Vf	Im	Vu	Pwr	Sig	Ach	Temp	IERange	Over
	#	s	V	A	V	W	V	V	deg C	#	bits
	0	0.013333	5.90758E-001	5.99596E-003	0.00000E+000	3.54216E-003	3.59960E-001	-1.07064E+000	3.57840E+000	10	...........
	1	0.026667	5.99022E-001	5.99607E-003	0.00000E+000	3.59177E-003	3.59960E-001	-1.07565E+000	3.57840E+000	10	...........
	2	0.04	6.06619E-001	5.99505E-003	0.00000E+000	3.63671E-003	3.59960E-001	-1.06565E+000	3.57840E+000	10	...........
	3	0.053333	6.13876E-001	5.99672E-003	0.00000E+000	3.68125E-003	3.59960E-001	-1.07061E+000	3.57840E+000	10	...........
	4	0.066667	6.20826E-001	5.99780E-003	0.00000E+000	3.72359E-003	3.59960E-001	-1.07582E+000	3.57840E+000	10	...........
	5	0.08	6.27558E-001	5.99644E-003	0.00000E+000	3.76311E-003	3.59960E-001	-1.06568E+000	3.57840E+000	10	...........
	6	0.093333	6.34091E-001	5.99136E-003	0.00000E+000	3.79907E-003	3.59960E-001	-1.07014E+000	3.57840E+000	10	...........
	7	0.106667	6.40580E-001	5.99082E-003	0.00000E+000	3.83760E-003	3.59960E-001	-1.07563E+000	3.57840E+000	10	...........
	8	0.12	6.46990E-001	5.99661E-003	0.00000E+000	3.87974E-003	3.59960E-001	-1.06571E+000	3.57840E+000	10	...........
	9	0.133333	6.53303E-001	5.99483E-003	0.00000E+000	3.91645E-003	3.59960E-001	-1.07035E+000	3.57840E+000	10	...........
	10	0.146667	6.59573E-001	5.99489E-003	0.00000E+000	3.95407E-003	3.59960E-001	-1.07583E+000	3.57840E+000	10	...........
	11	0.16	6.65835E-001	5.99210E-003	0.00000E+000	3.98975E-003	3.59960E-001	-1.06583E+000	3.57840E+000	10	...........
	12	0.173333	6.72023E-001	5.99304E-003	0.00000E+000	4.02746E-003	3.59960E-001	-1.07005E+000	3.57840E+000	10	...........
	13	0.186667	6.78132E-001	5.99548E-003	0.00000E+000	4.06573E-003	3.59960E-001	-1.07575E+000	3.57840E+000	10	...........
	14	0.2	6.84270E-001	5.99684E-003	0.00000E+000	4.10345E-003	3.59960E-001	-1.06539E+000	3.57840E+000	10	...........
	15	0.213333	6.90327E-001	5.99549E-003	0.00000E+000	4.13885E-003	3.59960E-001	-1.06999E+000	3.57840E+000	10	...........
	16	0.226667	6.96432E-001	5.99736E-003	0.00000E+000	4.17675E-003	3.59960E-001	-1.07517E+000	3.57840E+000	10	...........
	17	0.24	7.02456E-001	6.00156E-003	0.00000E+000	4.21584E-003	3.59960E-001	-1.06488E+000	3.57840E+000	10	...........
	18	0.253333	7.08485E-001	5.99365E-003	0.00000E+000	4.24641E-003	3.59960E-001	-1.06951E+000	3.57840E+000	10	...........
	19	0.266667	7.14463E-001	5.99597E-003	0.00000E+000	4.28390E-003	3.59960E-001	-1.07544E+000	3.57840E+000	10	...........
	20	0.28	7.20508E-001	5.99337E-003	0.00000E+000	4.31828E-003	3.59960E-001	-1.06496E+000	3.57840E+000	10	...........
	21	0.293333	7.26480E-001	5.99518E-003	0.00000E+000	4.35538E-003	3.59960E-001	-1.06934E+000	3.57840E+000	10	...........
	22	0.306667	7.32453E-001	5.99921E-003	0.00000E+000	4.39413E-003	3.59960E-001	-1.07506E+000	3.57840E+000	10	...........
	23	0.32	7.38367E-001	5.99712E-003	0.00000E+000	4.42808E-003	3.59960E-001	-1.06501E+000	3.57840E+000	10	...........
	24	0.333333	7.44367E-001	5.99560E-003	0.00000E+000	4.46292E-003	3.59960E-001	-1.06957E+000	3.57840E+000	10	...........
	25	0.346667	7.50310E-001	5.99651E-003	0.00000E+000	4.49925E-003	3.59960E-001	-1.07507E+000	3.57840E+000	10	...........
	26	0.36	7.56254E-001	5.99521E-003	0.00000E+000	4.53390E-003	3.59960E-001	-1.06466E+000	3.57840E+000	10	...........
	27	0.373333	7.62197E-001	5.99292E-003	0.00000E+000	4.56778E-003	3.59960E-001	-1.06905E+000	3.57840E+000	10	...........
	28	0.386667	7.68142E-001	5.99379E-003	0.00000E+000	4.60408E-003	3.59960E-001	-1.07511E+000	3.57840E+000	10	...........
	29	0.4	7.74094E-001	5.99245E-003	0.00000E+000	4.63872E-003	3.59960E-001	-1.06485E+000	3.57840E+000	10	...........
	30	0.413333	7.80051E-001	5.99487E-003	0.00000E+000	4.67630E-003	3.59960E-001	-1.06904E+000	3.57840E+000	10	...........
	31	0.426667	7.85954E-001	5.99222E-003	0.00000E+000	4.70960E-003	3.59960E-001	-1.07498E+000	3.57840E+000	10	...........
	32	0.44	7.91856E-001	5.99410E-003	0.00000E+000	4.74647E-003	3.59960E-001	-1.06453E+000	3.57840E+000	10	...........
	33	0.453333	7.97825E-001	5.99471E-003	0.00000E+000	4.78273E-003	3.59960E-001	-1.06902E+000	3.57825E+000	10	...........
	34	0.466667	8.03731E-001	5.99547E-003	0.00000E+000	4.81875E-003	3.59960E-001	-1.07529E+000	3.57800E+000	10	...........
	35	0.48	8.09619E-001	5.99638E-003	0.00000E+000	4.85478E-003	3.59960E-001	-1.06466E+000	3.57800E+000	10	...........
	36	0.493333	8.15523E-001	5.99397E-003	0.00000E+000	4.88822E-003	3.59960E-001	-1.06870E+000	3.57800E+000	10	...........
	37	0.506667	8.21424E-001	5.99197E-003	0.00000E+000	4.92195E-003	3.59960E-001	-1.07488E+000	3.57800E+000	10	...........
	38	0.52	8.27285E-001	5.99538E-003	0.00000E+000	4.95989E-003	3.59960E-001	-1.06449E+000	3.57800E+000	10	...........
	39	0.533333	8.33157E-001	5.99743E-003	0.00000E+000	4.99680E-003	3.59960E-001	-1.06870E+000	3.57800E+000	10	...........
	40	0.546667	8.39009E-001	5.99612E-003	0.00000E+000	5.03080E-003	3.59960E-001	-1.07466E+000	3.57800E+000	10	...........
	41	0.56	8.44940E-001	5.99380E-003	0.00000E+000	5.06441E-003	3.59960E-001	-1.06389E+000	3.57800E+000	10	...........
	42	0.573333	8.50868E-001	5.99540E-003	0.00000E+000	5.10129E-003	3.59960E-001	-1.06811E+000	3.57800E+000	10	...........
	43	0.586667	8.56691E-001	5.99230E-003	0.00000E+000	5.13355E-003	3.59960E-001	-1.07435E+000	3.57800E+000	10	...........
	44	0.6	8.62556E-001	5.99900E-003	0.00000E+000	5.17447E-003	3.59960E-001	-1.06403E+000	3.57800E+000	10	...........
	45	0.613333	8.68393E-001	5.99404E-003	0.00000E+000	5.20518E-003	3.59960E-001	-1.06796E+000	3.57800E+000	10	...........
	46	0.626667	8.74200E-001	5.99481E-003	0.00000E+000	5.24067E-003	3.59960E-001	-1.07421E+000	3.57800E+000	10	...........
	47	0.64	8.80015E-001	5.99022E-003	0.00000E+000	5.27148E-003	3.59960E-001	-1.06368E+000	3.57800E+000	10	...........
	48	0.653333	8.85871E-001	5.99681E-003	0.00000E+000	5.31239E-003	3.59960E-001	-1.06790E+000	3.57800E+000	10	...........
	49	0.666667	8.91639E-001	5.99282E-003	0.00000E+000	5.34343E-003	3.59960E-001	-1.07453E+000	3.57800E+000	10	...........
	50	0.68	8.97414E-001	5.99476E-003	0.00000E+000	5.37978E-003	3.59960E-001	-1.06379E+000	3.57800E+000	10	...........
	51	0.693333	9.03216E-001	5.99553E-003	0.00000E+000	5.41526E-003	3.59960E-001	-1.06765E+000	3.57800E+000	10	...........
	52	0.706667	9.08995E-001	5.99393E-003	0.00000E+000	5.44845E-003	3.59960E-001	-1.07426E+000	3.57800E+000	10	...........
	53	0.72	9.14752E-001	5.99381E-003	0.00000E+000	5.48285E-003	3.59960E-001	-1.06376E+000	3.57800E+000	10	...........
	54	0.733333	9.20513E-001	5.99260E-003	0.00000E+000	5.51627E-003	3.59960E-001	-1.06767E+000	3.57800E+000	10	...........
	55	0.746667	9.26220E-001	5.99378E-003	0.00000E+000	5.55156E-003	3.59960E-001	-1.07456E+000	3.57800E+000	10	...........
	56	0.76	9.31888E-001	5.99167E-003	0.00000E+000	5.58357E-003	3.59960E-001	-1.06375E+000	3.57800E+000	10	...........
	57	0.773333	9.37550E-001	5.99302E-003	0.00000E+000	5.61875E-003	3.59960E-001	-1.06753E+000	3.57800E+000	10	...........
	58	0.786667	9.43175E-001	5.99186E-003	0.00000E+000	5.65138E-003	3.59960E-001	-1.07464E+000	3.57800E+000	10	...........
	59	0.8	9.48843E-001	5.99554E-003	0.00000E+000	5.68883E-003	3.59960E-001	-1.06400E+000	3.57800E+000	10	...........
	60	0.813333	9.54426E-001	5.99427E-003	0.00000E+000	5.72109E-003	3.59960E-001	-1.06758E+000	3.57800E+000	10	...........
	61	0.826667	9.60000E-001	5.99661E-003	0.00000E+000	5.75675E-003	3.59960E-001	-1.07441E+000	3.57800E+000	10	...........
	62	0.84	9.65526E-001	5.99190E-003	0.00000E+000	5.78534E-003	3.59960E-001	-1.06372E+000	3.57800E+000	10	...........
	63	0.853333	9.70999E-001	5.99505E-003	0.00000E+000	5.82119E-003	3.59960E-001	-1.06760E+000	3.57800E+000	10	...........
	64	0.866667	9.76499E-001	5.99555E-003	0.00000E+000	5.85465E-003	3.59960E-001	-1.07427E+000	3.57800E+000	10	...........
	65	0.88	9.81925E-001	5.99577E-003	0.00000E+000	5.88740E-003	3.59960E-001	-1.06344E+000	3.57800E+000	10	...........
	66	0.893333	9.87309E-001	5.99450E-003	0.00000E+000	5.91843E-003	3.59960E-001	-1.06685E+000	3.57800E+000	10	...........
	67	0.906667	9.92624E-001	5.99463E-003	0.00000E+000	5.95041E-003	3.59960E-001	-1.07396E+000	3.57800E+000	10	...........
	68	0.92	9.97988E-001	5.99513E-003	0.00000E+000	5.98307E-003	3.59960E-001	-1.06330E+000	3.57800E+000	10	...........
STARTTIMEOFFSET	QUANT	213.5933	Start Time Offset (s)