File: Data/CV_CRGO300517_1/PWRCCD_CRGO300517_1/CHARGE_DISCHARGE/CHARGE_#100.DTA
EXPLAIN
TAG	PWR800_CHARGE
TITLE	LABEL	PWR Cyclic Charge Discharge (Cell) - Charge Step	Test &Identifier
DATE	LABEL	22-6-2017	Date
TIME	LABEL	15:39:30	Time
NOTES	NOTES	3	&Notes...
	supercap test cell
	0.6mg
	6M KOH
PSTAT	PSTAT	IFC5000-01520	Potentiostat
CAPACITY	QUANT	1.00000E-003	Capacity (A-hr)
CELLTYPE	SELECTOR	1	&Cell Type
WORKINGCONNECTION	SELECTOR	0	&Working Lead
MAXCHARGETIME	VARIABLEANDUNITS	1.00000E+002	s	1.00000E+002	second(s)	Max &Charge Time
CHARGECURRENT	QUANT	6.00000E-003	&Charge Current (A)
VOLTAGEFINISH	TWOPARAM	F	1.00000E-003	3.60000E+003	&Voltage Finish	 I (A) < 	Max Time(s)
SAMPLETIME	QUANT	1.00000E-002	Sa&mple Period (s)
CHARGESTOPAT1	MULTIPARAM	4	1.00000E+000	Charge Stop At &1	Voltage > Limit	V
CHARGESTOPAT2	MULTIPARAM	0	0.00000E+000	Charge Stop At &2	None	N/A
AESBHCSELECTOR	TOGGLE	F	Save Both Half Cells
IRCOMP	TOGGLE	F	IR &Measure
EOC	QUANT	0	Open Circuit (V)
SEQUENCER	TOGGLE	TRUE	Run as Sequence
PSTATMODEL	IQUANT	53	Pstat Model
PSTATSECTION	LABEL	IFC5000-01520	Pstat Section
PSTATSERIALNO	LABEL	01520	Pstat Serial Number
CTRLMODE	IQUANT	0	Control Mode
ELECTROMETER	IQUANT	1	RE=0 or CS=1
IESTAB	IQUANT	0	I/E Stability
CASPEED	IQUANT	4	Control Amp Speed
CONVENTION	IQUANT	1	Current Convention
ICHRANGE	IQUANT	2	Ich Range
ICHRANGEMODE	TOGGLE	T	Ich Auto Range
ICHOFFSETENABLE	TOGGLE	F	Ich Offset Enable
ICHOFFSET	QUANT	0	Ich Offset (V)
ICHFILTER	IQUANT	1	Ich Filter
VCHRANGE	IQUANT	2	Vch Range
VCHRANGEMODE	TOGGLE	T	Vch Auto Range
VCHOFFSETENABLE	TOGGLE	F	Vch Offset Enable
VCHOFFSET	QUANT	0	Vch Offset (V)
VCHFILTER	IQUANT	1	Vch Filter
IERANGELOWERLIMIT	IQUANT	9	I/E Range Lower Limit
IERANGEMODE	TOGGLE	F	I/E AutoRange
IERANGE	IQUANT	10	I/E Range
ACHSELECT	IQUANT	1	Ach Select
ACHRANGE	IQUANT	2	Ach Range
ACHOFFSETENABLE	TOGGLE	F	Ach Offset Enable
ACHOFFSET	QUANT	0	Ach Offset (V)
ACHFILTER	IQUANT	1	Ach Filter
CABLEID	IQUANT	14	Cable ID
DCCALDATE	LABEL	20-10-2016	DC Calibration Date
ACCALDATE	LABEL	12/3/2015	AC Calibration Date
FRAMEWORKVERSION	QUANT	7.01	Framework Version
INSTRUMENTVERSION	LABEL	4.00	Instrument Version
CURVE	TABLE	70
	Pt	T	Vf	Im	Vu	Pwr	Sig	Ach	Temp	IERange	Over
	#	s	V	A	V	W	V	V	deg C	#	bits
	0	0.013333	5.88177E-001	5.98961E-003	0.00000E+000	3.52295E-003	3.59960E-001	-1.02841E+000	3.57740E+000	10	...........
	1	0.026667	5.96450E-001	5.99265E-003	0.00000E+000	3.57432E-003	3.59960E-001	-1.02706E+000	3.57740E+000	10	...........
	2	0.04	6.04030E-001	5.99496E-003	0.00000E+000	3.62114E-003	3.59960E-001	-1.03672E+000	3.57740E+000	10	...........
	3	0.053333	6.11242E-001	5.99746E-003	0.00000E+000	3.66590E-003	3.59960E-001	-1.02923E+000	3.57740E+000	10	...........
	4	0.066667	6.18215E-001	5.99400E-003	0.00000E+000	3.70558E-003	3.59960E-001	-1.02860E+000	3.57740E+000	10	...........
	5	0.08	6.24904E-001	5.99498E-003	0.00000E+000	3.74629E-003	3.59960E-001	-1.03784E+000	3.57740E+000	10	...........
	6	0.093333	6.31459E-001	5.99245E-003	0.00000E+000	3.78398E-003	3.59960E-001	-1.03052E+000	3.57740E+000	10	...........
	7	0.106667	6.37905E-001	5.99327E-003	0.00000E+000	3.82314E-003	3.59960E-001	-1.02957E+000	3.57740E+000	10	...........
	8	0.12	6.44329E-001	6.00075E-003	0.00000E+000	3.86646E-003	3.59960E-001	-1.03931E+000	3.57740E+000	10	...........
	9	0.133333	6.50596E-001	5.99563E-003	0.00000E+000	3.90073E-003	3.59960E-001	-1.03172E+000	3.57740E+000	10	...........
	10	0.146667	6.56863E-001	5.99411E-003	0.00000E+000	3.93731E-003	3.59960E-001	-1.02994E+000	3.57740E+000	10	...........
	11	0.16	6.63038E-001	5.99275E-003	0.00000E+000	3.97342E-003	3.59960E-001	-1.03917E+000	3.57740E+000	10	...........
	12	0.173333	6.69239E-001	5.99005E-003	0.00000E+000	4.00877E-003	3.59960E-001	-1.03181E+000	3.57740E+000	10	...........
	13	0.186667	6.75358E-001	5.99453E-003	0.00000E+000	4.04845E-003	3.59960E-001	-1.03136E+000	3.57740E+000	10	...........
	14	0.2	6.81414E-001	5.99331E-003	0.00000E+000	4.08392E-003	3.59960E-001	-1.04074E+000	3.57740E+000	10	...........
	15	0.213333	6.87436E-001	5.99264E-003	0.00000E+000	4.11956E-003	3.59960E-001	-1.03362E+000	3.57740E+000	10	...........
	16	0.226667	6.93491E-001	5.99657E-003	0.00000E+000	4.15856E-003	3.59960E-001	-1.03184E+000	3.57740E+000	10	...........
	17	0.24	6.99518E-001	5.99121E-003	0.00000E+000	4.19096E-003	3.59960E-001	-1.04156E+000	3.57740E+000	10	...........
	18	0.253333	7.05530E-001	5.99279E-003	0.00000E+000	4.22809E-003	3.59960E-001	-1.03514E+000	3.57740E+000	10	...........
	19	0.266667	7.11490E-001	5.99345E-003	0.00000E+000	4.26428E-003	3.59960E-001	-1.03372E+000	3.57740E+000	10	...........
	20	0.28	7.17493E-001	5.99307E-003	0.00000E+000	4.29999E-003	3.59960E-001	-1.04322E+000	3.57740E+000	10	...........
	21	0.293333	7.23476E-001	5.99369E-003	0.00000E+000	4.33629E-003	3.59960E-001	-1.03585E+000	3.57740E+000	10	...........
	22	0.306667	7.29389E-001	5.99660E-003	0.00000E+000	4.37385E-003	3.59960E-001	-1.03482E+000	3.57740E+000	10	...........
	23	0.32	7.35321E-001	5.99477E-003	0.00000E+000	4.40808E-003	3.59960E-001	-1.04468E+000	3.57740E+000	10	...........
	24	0.333333	7.41307E-001	5.99203E-003	0.00000E+000	4.44193E-003	3.59960E-001	-1.03795E+000	3.57740E+000	10	...........
	25	0.346667	7.47256E-001	5.98851E-003	0.00000E+000	4.47495E-003	3.59960E-001	-1.03656E+000	3.57740E+000	10	...........
	26	0.36	7.53176E-001	5.99340E-003	0.00000E+000	4.51408E-003	3.59960E-001	-1.04588E+000	3.57740E+000	10	...........
	27	0.373333	7.59087E-001	5.99350E-003	0.00000E+000	4.54959E-003	3.59960E-001	-1.03880E+000	3.57740E+000	10	...........
	28	0.386667	7.64993E-001	5.99633E-003	0.00000E+000	4.58715E-003	3.59960E-001	-1.03784E+000	3.57740E+000	10	...........
	29	0.4	7.70928E-001	5.99809E-003	0.00000E+000	4.62409E-003	3.59960E-001	-1.04764E+000	3.57740E+000	10	...........
	30	0.413333	7.76836E-001	5.99305E-003	0.00000E+000	4.65562E-003	3.59960E-001	-1.04029E+000	3.57740E+000	10	...........
	31	0.426667	7.82760E-001	5.99356E-003	0.00000E+000	4.69152E-003	3.59960E-001	-1.03843E+000	3.57740E+000	10	...........
	32	0.44	7.88647E-001	5.99457E-003	0.00000E+000	4.72760E-003	3.59960E-001	-1.04821E+000	3.57740E+000	10	...........
	33	0.453333	7.94571E-001	5.99280E-003	0.00000E+000	4.76170E-003	3.59960E-001	-1.04140E+000	3.57740E+000	10	...........
	34	0.466667	8.00451E-001	5.99276E-003	0.00000E+000	4.79691E-003	3.59960E-001	-1.04000E+000	3.57740E+000	10	...........
	35	0.48	8.06354E-001	5.99302E-003	0.00000E+000	4.83249E-003	3.59960E-001	-1.04948E+000	3.57740E+000	10	...........
	36	0.493333	8.12251E-001	5.99244E-003	0.00000E+000	4.86736E-003	3.59960E-001	-1.04225E+000	3.57740E+000	10	...........
	37	0.506667	8.18125E-001	5.99811E-003	0.00000E+000	4.90721E-003	3.59960E-001	-1.04030E+000	3.57740E+000	10	...........
	38	0.52	8.23988E-001	5.99062E-003	0.00000E+000	4.93620E-003	3.59960E-001	-1.05002E+000	3.57740E+000	10	...........
	39	0.533333	8.29880E-001	5.99628E-003	0.00000E+000	4.97620E-003	3.59960E-001	-1.04341E+000	3.57740E+000	10	...........
	40	0.546667	8.35743E-001	5.99289E-003	0.00000E+000	5.00852E-003	3.59960E-001	-1.04134E+000	3.57740E+000	10	...........
	41	0.56	8.41574E-001	5.99136E-003	0.00000E+000	5.04217E-003	3.59960E-001	-1.05050E+000	3.57740E+000	10	...........
	42	0.573333	8.47459E-001	5.99261E-003	0.00000E+000	5.07849E-003	3.59960E-001	-1.04356E+000	3.57740E+000	10	...........
	43	0.586667	8.53295E-001	5.99130E-003	0.00000E+000	5.11234E-003	3.59960E-001	-1.04200E+000	3.57740E+000	10	...........
	44	0.6	8.59114E-001	5.99318E-003	0.00000E+000	5.14882E-003	3.59960E-001	-1.05154E+000	3.57740E+000	10	...........
	45	0.613333	8.64958E-001	5.99152E-003	0.00000E+000	5.18241E-003	3.59960E-001	-1.04443E+000	3.57740E+000	10	...........
	46	0.626667	8.70792E-001	5.99544E-003	0.00000E+000	5.22078E-003	3.59960E-001	-1.04236E+000	3.57740E+000	10	...........
	47	0.64	8.76597E-001	5.99148E-003	0.00000E+000	5.25211E-003	3.59960E-001	-1.05208E+000	3.57740E+000	10	...........
	48	0.653333	8.82409E-001	5.99401E-003	0.00000E+000	5.28917E-003	3.59960E-001	-1.04537E+000	3.57800E+000	10	...........
	49	0.666667	8.88201E-001	5.99625E-003	0.00000E+000	5.32588E-003	3.59960E-001	-1.04372E+000	3.57860E+000	10	...........
	50	0.68	8.93982E-001	5.99226E-003	0.00000E+000	5.35697E-003	3.59960E-001	-1.05321E+000	3.57860E+000	10	...........
	51	0.693333	8.99767E-001	5.99556E-003	0.00000E+000	5.39461E-003	3.59960E-001	-1.04604E+000	3.57860E+000	10	...........
	52	0.706667	9.05484E-001	5.99550E-003	0.00000E+000	5.42883E-003	3.59960E-001	-1.04392E+000	3.57860E+000	10	...........
	53	0.72	9.11206E-001	5.99150E-003	0.00000E+000	5.45949E-003	3.59960E-001	-1.05338E+000	3.57860E+000	10	...........
	54	0.733333	9.16942E-001	5.99254E-003	0.00000E+000	5.49481E-003	3.59960E-001	-1.04659E+000	3.57860E+000	10	...........
	55	0.746667	9.22688E-001	5.99080E-003	0.00000E+000	5.52764E-003	3.59960E-001	-1.04403E+000	3.57860E+000	10	...........
	56	0.76	9.28359E-001	5.99167E-003	0.00000E+000	5.56242E-003	3.59960E-001	-1.05302E+000	3.57860E+000	10	...........
	57	0.773333	9.34022E-001	5.99564E-003	0.00000E+000	5.60006E-003	3.59960E-001	-1.04613E+000	3.57860E+000	10	...........
	58	0.786667	9.39657E-001	5.99357E-003	0.00000E+000	5.63190E-003	3.59960E-001	-1.04365E+000	3.57860E+000	10	...........
	59	0.8	9.45330E-001	5.99554E-003	0.00000E+000	5.66777E-003	3.59960E-001	-1.05295E+000	3.57860E+000	10	...........
	60	0.813333	9.50897E-001	5.99108E-003	0.00000E+000	5.69690E-003	3.59960E-001	-1.04566E+000	3.57860E+000	10	...........
	61	0.826667	9.56453E-001	5.99151E-003	0.00000E+000	5.73059E-003	3.59960E-001	-1.04302E+000	3.57860E+000	10	...........
	62	0.84	9.62012E-001	5.99068E-003	0.00000E+000	5.76311E-003	3.59960E-001	-1.05234E+000	3.57860E+000	10	...........
	63	0.853333	9.67501E-001	5.99409E-003	0.00000E+000	5.79929E-003	3.59960E-001	-1.04574E+000	3.57860E+000	10	...........
	64	0.866667	9.73000E-001	5.99529E-003	0.00000E+000	5.83342E-003	3.59960E-001	-1.04335E+000	3.57860E+000	10	...........
	65	0.88	9.78465E-001	5.99593E-003	0.00000E+000	5.86681E-003	3.59960E-001	-1.05258E+000	3.57860E+000	10	...........
	66	0.893333	9.83850E-001	5.99325E-003	0.00000E+000	5.89646E-003	3.59960E-001	-1.04571E+000	3.57860E+000	10	...........
	67	0.906667	9.89222E-001	5.99286E-003	0.00000E+000	5.92828E-003	3.59960E-001	-1.04348E+000	3.57860E+000	10	...........
	68	0.92	9.94514E-001	5.99216E-003	0.00000E+000	5.95929E-003	3.59960E-001	-1.05295E+000	3.57860E+000	10	...........
	69	0.928333	9.98858E-001	5.98917E-003	0.00000E+000	5.98233E-003	3.59960E-001	-1.04051E+000	3.57860E+000	10	...........
STARTTIMEOFFSET	QUANT	195.2133	Start Time Offset (s)