File: Data/CV_CRGO300517_1/PWRCCD_CRGO300517_1/CHARGE_DISCHARGE/CHARGE_#539.DTA
EXPLAIN
TAG	PWR800_CHARGE
TITLE	LABEL	PWR Cyclic Charge Discharge (Cell) - Charge Step	Test &Identifier
DATE	LABEL	22-6-2017	Date
TIME	LABEL	15:57:25	Time
NOTES	NOTES	3	&Notes...
	supercap test cell
	0.6mg
	6M KOH
PSTAT	PSTAT	IFC5000-01520	Potentiostat
CAPACITY	QUANT	1.00000E-003	Capacity (A-hr)
CELLTYPE	SELECTOR	1	&Cell Type
WORKINGCONNECTION	SELECTOR	0	&Working Lead
MAXCHARGETIME	VARIABLEANDUNITS	1.00000E+002	s	1.00000E+002	second(s)	Max &Charge Time
CHARGECURRENT	QUANT	6.00000E-003	&Charge Current (A)
VOLTAGEFINISH	TWOPARAM	F	1.00000E-003	3.60000E+003	&Voltage Finish	 I (A) < 	Max Time(s)
SAMPLETIME	QUANT	1.00000E-002	Sa&mple Period (s)
CHARGESTOPAT1	MULTIPARAM	4	1.00000E+000	Charge Stop At &1	Voltage > Limit	V
CHARGESTOPAT2	MULTIPARAM	0	0.00000E+000	Charge Stop At &2	None	N/A
AESBHCSELECTOR	TOGGLE	F	Save Both Half Cells
IRCOMP	TOGGLE	F	IR &Measure
EOC	QUANT	0	Open Circuit (V)
SEQUENCER	TOGGLE	TRUE	Run as Sequence
PSTATMODEL	IQUANT	53	Pstat Model
PSTATSECTION	LABEL	IFC5000-01520	Pstat Section
PSTATSERIALNO	LABEL	01520	Pstat Serial Number
CTRLMODE	IQUANT	0	Control Mode
ELECTROMETER	IQUANT	1	RE=0 or CS=1
IESTAB	IQUANT	0	I/E Stability
CASPEED	IQUANT	4	Control Amp Speed
CONVENTION	IQUANT	1	Current Convention
ICHRANGE	IQUANT	2	Ich Range
ICHRANGEMODE	TOGGLE	T	Ich Auto Range
ICHOFFSETENABLE	TOGGLE	F	Ich Offset Enable
ICHOFFSET	QUANT	0	Ich Offset (V)
ICHFILTER	IQUANT	1	Ich Filter
VCHRANGE	IQUANT	2	Vch Range
VCHRANGEMODE	TOGGLE	T	Vch Auto Range
VCHOFFSETENABLE	TOGGLE	F	Vch Offset Enable
VCHOFFSET	QUANT	0	Vch Offset (V)
VCHFILTER	IQUANT	1	Vch Filter
IERANGELOWERLIMIT	IQUANT	9	I/E Range Lower Limit
IERANGEMODE	TOGGLE	F	I/E AutoRange
IERANGE	IQUANT	10	I/E Range
ACHSELECT	IQUANT	1	Ach Select
ACHRANGE	IQUANT	2	Ach Range
ACHOFFSETENABLE	TOGGLE	F	Ach Offset Enable
ACHOFFSET	QUANT	0	Ach Offset (V)
ACHFILTER	IQUANT	1	Ach Filter
CABLEID	IQUANT	14	Cable ID
DCCALDATE	LABEL	20-10-2016	DC Calibration Date
ACCALDATE	LABEL	12/3/2015	AC Calibration Date
FRAMEWORKVERSION	QUANT	7.01	Framework Version
INSTRUMENTVERSION	LABEL	4.00	Instrument Version
CURVE	TABLE	58
	Pt	T	Vf	Im	Vu	Pwr	Sig	Ach	Temp	IERange	Over
	#	s	V	A	V	W	V	V	deg C	#	bits
	0	0.013333	6.34344E-001	6.00034E-003	0.00000E+000	3.80628E-003	3.59960E-001	-1.12350E+000	3.57640E+000	10	...........
	1	0.026667	6.43335E-001	5.99113E-003	0.00000E+000	3.85430E-003	3.59960E-001	-1.12720E+000	3.57640E+000	10	...........
	2	0.04	6.51501E-001	5.99410E-003	0.00000E+000	3.90517E-003	3.59960E-001	-1.13161E+000	3.57640E+000	10	...........
	3	0.053333	6.59262E-001	5.98880E-003	0.00000E+000	3.94818E-003	3.59960E-001	-1.12219E+000	3.57640E+000	10	...........
	4	0.066667	6.66776E-001	5.99161E-003	0.00000E+000	3.99506E-003	3.59960E-001	-1.12697E+000	3.57640E+000	10	...........
	5	0.08	6.74077E-001	5.99422E-003	0.00000E+000	4.04057E-003	3.59960E-001	-1.13128E+000	3.57640E+000	10	...........
	6	0.093333	6.81197E-001	5.99198E-003	0.00000E+000	4.08172E-003	3.59960E-001	-1.12165E+000	3.57640E+000	10	...........
	7	0.106667	6.88264E-001	5.98624E-003	0.00000E+000	4.12011E-003	3.59960E-001	-1.12586E+000	3.57640E+000	10	...........
	8	0.12	6.95218E-001	5.99427E-003	0.00000E+000	4.16732E-003	3.59960E-001	-1.13064E+000	3.57640E+000	10	...........
	9	0.133333	7.02131E-001	5.99549E-003	0.00000E+000	4.20962E-003	3.59960E-001	-1.12144E+000	3.57640E+000	10	...........
	10	0.146667	7.08926E-001	5.99418E-003	0.00000E+000	4.24943E-003	3.59960E-001	-1.12476E+000	3.57640E+000	10	...........
	11	0.16	7.15689E-001	5.99323E-003	0.00000E+000	4.28929E-003	3.59960E-001	-1.12877E+000	3.57640E+000	10	...........
	12	0.173333	7.22491E-001	5.99250E-003	0.00000E+000	4.32953E-003	3.59960E-001	-1.11933E+000	3.57640E+000	10	...........
	13	0.186667	7.29175E-001	5.99349E-003	0.00000E+000	4.37030E-003	3.59960E-001	-1.12390E+000	3.57640E+000	10	...........
	14	0.2	7.35798E-001	5.99403E-003	0.00000E+000	4.41039E-003	3.59960E-001	-1.12858E+000	3.57640E+000	10	...........
	15	0.213333	7.42464E-001	5.98975E-003	0.00000E+000	4.44718E-003	3.59960E-001	-1.11853E+000	3.57640E+000	10	...........
	16	0.226667	7.49082E-001	5.99722E-003	0.00000E+000	4.49241E-003	3.59960E-001	-1.12186E+000	3.57640E+000	10	...........
	17	0.24	7.55657E-001	5.99563E-003	0.00000E+000	4.53064E-003	3.59960E-001	-1.12610E+000	3.57640E+000	10	...........
	18	0.253333	7.62211E-001	5.99257E-003	0.00000E+000	4.56760E-003	3.59960E-001	-1.11684E+000	3.57640E+000	10	...........
	19	0.266667	7.68795E-001	5.99078E-003	0.00000E+000	4.60568E-003	3.59960E-001	-1.12111E+000	3.57645E+000	10	...........
	20	0.28	7.75310E-001	5.99273E-003	0.00000E+000	4.64622E-003	3.59960E-001	-1.12558E+000	3.57680E+000	10	...........
	21	0.293333	7.81805E-001	5.99570E-003	0.00000E+000	4.68747E-003	3.59960E-001	-1.11645E+000	3.57680E+000	10	...........
	22	0.306667	7.88312E-001	5.99534E-003	0.00000E+000	4.72619E-003	3.59960E-001	-1.12072E+000	3.57680E+000	10	...........
	23	0.32	7.94804E-001	5.99646E-003	0.00000E+000	4.76601E-003	3.59960E-001	-1.12519E+000	3.57680E+000	10	...........
	24	0.333333	8.01249E-001	5.99384E-003	0.00000E+000	4.80256E-003	3.59960E-001	-1.11670E+000	3.57680E+000	10	...........
	25	0.346667	8.07709E-001	5.99042E-003	0.00000E+000	4.83852E-003	3.59960E-001	-1.12129E+000	3.57680E+000	10	...........
	26	0.36	8.14129E-001	5.99344E-003	0.00000E+000	4.87943E-003	3.59960E-001	-1.12452E+000	3.57680E+000	10	...........
	27	0.373333	8.20578E-001	5.99649E-003	0.00000E+000	4.92059E-003	3.59960E-001	-1.11485E+000	3.57680E+000	10	...........
	28	0.386667	8.26951E-001	5.99650E-003	0.00000E+000	4.95882E-003	3.59960E-001	-1.11960E+000	3.57680E+000	10	...........
	29	0.4	8.33287E-001	5.99545E-003	0.00000E+000	4.99593E-003	3.59960E-001	-1.12379E+000	3.57680E+000	10	...........
	30	0.413333	8.39681E-001	6.00210E-003	0.00000E+000	5.03985E-003	3.59960E-001	-1.11483E+000	3.57680E+000	10	...........
	31	0.426667	8.46031E-001	5.99557E-003	0.00000E+000	5.07243E-003	3.59960E-001	-1.11970E+000	3.57680E+000	10	...........
	32	0.44	8.52348E-001	5.99159E-003	0.00000E+000	5.10692E-003	3.59960E-001	-1.12358E+000	3.57680E+000	10	...........
	33	0.453333	8.58624E-001	5.99189E-003	0.00000E+000	5.14478E-003	3.59960E-001	-1.11462E+000	3.57680E+000	10	...........
	34	0.466667	8.64942E-001	5.99407E-003	0.00000E+000	5.18452E-003	3.59960E-001	-1.11942E+000	3.57680E+000	10	...........
	35	0.48	8.71241E-001	5.99105E-003	0.00000E+000	5.21965E-003	3.59960E-001	-1.12369E+000	3.57680E+000	10	...........
	36	0.493333	8.77475E-001	5.98904E-003	0.00000E+000	5.25523E-003	3.59960E-001	-1.11512E+000	3.57680E+000	10	...........
	37	0.506667	8.83687E-001	5.99901E-003	0.00000E+000	5.30125E-003	3.59960E-001	-1.12000E+000	3.57680E+000	10	...........
	38	0.52	8.89878E-001	5.98861E-003	0.00000E+000	5.32913E-003	3.59960E-001	-1.12419E+000	3.57680E+000	10	...........
	39	0.533333	8.96048E-001	5.98934E-003	0.00000E+000	5.36673E-003	3.59960E-001	-1.11564E+000	3.57680E+000	10	...........
	40	0.546667	9.02180E-001	5.99310E-003	0.00000E+000	5.40686E-003	3.59960E-001	-1.12093E+000	3.57680E+000	10	...........
	41	0.56	9.08253E-001	5.99704E-003	0.00000E+000	5.44682E-003	3.59960E-001	-1.12523E+000	3.57680E+000	10	...........
	42	0.573333	9.14327E-001	5.99236E-003	0.00000E+000	5.47898E-003	3.59960E-001	-1.11638E+000	3.57680E+000	10	...........
	43	0.586667	9.20426E-001	5.99647E-003	0.00000E+000	5.51931E-003	3.59960E-001	-1.12156E+000	3.57680E+000	10	...........
	44	0.6	9.26448E-001	5.99205E-003	0.00000E+000	5.55132E-003	3.59960E-001	-1.12574E+000	3.57680E+000	10	...........
	45	0.613333	9.32403E-001	5.99088E-003	0.00000E+000	5.58591E-003	3.59960E-001	-1.11727E+000	3.57680E+000	10	...........
	46	0.626667	9.38339E-001	5.99491E-003	0.00000E+000	5.62525E-003	3.59960E-001	-1.12234E+000	3.57680E+000	10	...........
	47	0.64	9.44240E-001	5.99559E-003	0.00000E+000	5.66127E-003	3.59960E-001	-1.12580E+000	3.57680E+000	10	...........
	48	0.653333	9.50141E-001	5.99233E-003	0.00000E+000	5.69356E-003	3.59960E-001	-1.11715E+000	3.57680E+000	10	...........
	49	0.666667	9.55963E-001	5.99353E-003	0.00000E+000	5.72959E-003	3.59960E-001	-1.12260E+000	3.57680E+000	10	...........
	50	0.68	9.61747E-001	5.99575E-003	0.00000E+000	5.76640E-003	3.59960E-001	-1.12677E+000	3.57680E+000	10	...........
	51	0.693333	9.67476E-001	5.99641E-003	0.00000E+000	5.80138E-003	3.59960E-001	-1.11791E+000	3.57680E+000	10	...........
	52	0.706667	9.73193E-001	5.99681E-003	0.00000E+000	5.83605E-003	3.59960E-001	-1.12311E+000	3.57680E+000	10	...........
	53	0.72	9.78862E-001	5.99746E-003	0.00000E+000	5.87069E-003	3.59960E-001	-1.12710E+000	3.57680E+000	10	...........
	54	0.733333	9.84434E-001	5.99063E-003	0.00000E+000	5.89738E-003	3.59960E-001	-1.11849E+000	3.57680E+000	10	...........
	55	0.746667	9.89986E-001	5.99422E-003	0.00000E+000	5.93420E-003	3.59960E-001	-1.12378E+000	3.57680E+000	10	...........
	56	0.76	9.95500E-001	5.99296E-003	0.00000E+000	5.96599E-003	3.59960E-001	-1.12766E+000	3.57680E+000	10	...........
	57	0.766667	9.99634E-001	5.99275E-003	0.00000E+000	5.99055E-003	3.59960E-001	-1.11505E+000	3.57680E+000	10	...........
STARTTIMEOFFSET	QUANT	918.7735	Start Time Offset (s)