File: Data/CV_CRGO300517_1/PWRCCD_CRGO300517_1/CHARGE_DISCHARGE/CHARGE_#225.DTA
EXPLAIN
TAG	PWR800_CHARGE
TITLE	LABEL	PWR Cyclic Charge Discharge (Cell) - Charge Step	Test &Identifier
DATE	LABEL	22-6-2017	Date
TIME	LABEL	15:44:51	Time
NOTES	NOTES	3	&Notes...
	supercap test cell
	0.6mg
	6M KOH
PSTAT	PSTAT	IFC5000-01520	Potentiostat
CAPACITY	QUANT	1.00000E-003	Capacity (A-hr)
CELLTYPE	SELECTOR	1	&Cell Type
WORKINGCONNECTION	SELECTOR	0	&Working Lead
MAXCHARGETIME	VARIABLEANDUNITS	1.00000E+002	s	1.00000E+002	second(s)	Max &Charge Time
CHARGECURRENT	QUANT	6.00000E-003	&Charge Current (A)
VOLTAGEFINISH	TWOPARAM	F	1.00000E-003	3.60000E+003	&Voltage Finish	 I (A) < 	Max Time(s)
SAMPLETIME	QUANT	1.00000E-002	Sa&mple Period (s)
CHARGESTOPAT1	MULTIPARAM	4	1.00000E+000	Charge Stop At &1	Voltage > Limit	V
CHARGESTOPAT2	MULTIPARAM	0	0.00000E+000	Charge Stop At &2	None	N/A
AESBHCSELECTOR	TOGGLE	F	Save Both Half Cells
IRCOMP	TOGGLE	F	IR &Measure
EOC	QUANT	0	Open Circuit (V)
SEQUENCER	TOGGLE	TRUE	Run as Sequence
PSTATMODEL	IQUANT	53	Pstat Model
PSTATSECTION	LABEL	IFC5000-01520	Pstat Section
PSTATSERIALNO	LABEL	01520	Pstat Serial Number
CTRLMODE	IQUANT	0	Control Mode
ELECTROMETER	IQUANT	1	RE=0 or CS=1
IESTAB	IQUANT	0	I/E Stability
CASPEED	IQUANT	4	Control Amp Speed
CONVENTION	IQUANT	1	Current Convention
ICHRANGE	IQUANT	2	Ich Range
ICHRANGEMODE	TOGGLE	T	Ich Auto Range
ICHOFFSETENABLE	TOGGLE	F	Ich Offset Enable
ICHOFFSET	QUANT	0	Ich Offset (V)
ICHFILTER	IQUANT	1	Ich Filter
VCHRANGE	IQUANT	2	Vch Range
VCHRANGEMODE	TOGGLE	T	Vch Auto Range
VCHOFFSETENABLE	TOGGLE	F	Vch Offset Enable
VCHOFFSET	QUANT	0	Vch Offset (V)
VCHFILTER	IQUANT	1	Vch Filter
IERANGELOWERLIMIT	IQUANT	9	I/E Range Lower Limit
IERANGEMODE	TOGGLE	F	I/E AutoRange
IERANGE	IQUANT	10	I/E Range
ACHSELECT	IQUANT	1	Ach Select
ACHRANGE	IQUANT	2	Ach Range
ACHOFFSETENABLE	TOGGLE	F	Ach Offset Enable
ACHOFFSET	QUANT	0	Ach Offset (V)
ACHFILTER	IQUANT	1	Ach Filter
CABLEID	IQUANT	14	Cable ID
DCCALDATE	LABEL	20-10-2016	DC Calibration Date
ACCALDATE	LABEL	12/3/2015	AC Calibration Date
FRAMEWORKVERSION	QUANT	7.01	Framework Version
INSTRUMENTVERSION	LABEL	4.00	Instrument Version
CURVE	TABLE	65
	Pt	T	Vf	Im	Vu	Pwr	Sig	Ach	Temp	IERange	Over
	#	s	V	A	V	W	V	V	deg C	#	bits
	0	0.013333	6.08479E-001	5.99704E-003	0.00000E+000	3.64907E-003	3.59960E-001	-1.08646E+000	3.57670E+000	10	...........
	1	0.026667	6.17036E-001	5.99572E-003	0.00000E+000	3.69958E-003	3.59960E-001	-1.09194E+000	3.57670E+000	10	...........
	2	0.04	6.24835E-001	5.99502E-003	0.00000E+000	3.74590E-003	3.59960E-001	-1.09335E+000	3.57670E+000	10	...........
	3	0.053333	6.32210E-001	5.99400E-003	0.00000E+000	3.78947E-003	3.59960E-001	-1.08601E+000	3.57670E+000	10	...........
	4	0.066667	6.39379E-001	5.99231E-003	0.00000E+000	3.83136E-003	3.59960E-001	-1.09176E+000	3.57670E+000	10	...........
	5	0.08	6.46342E-001	5.99617E-003	0.00000E+000	3.87558E-003	3.59960E-001	-1.09372E+000	3.57670E+000	10	...........
	6	0.093333	6.53133E-001	5.99162E-003	0.00000E+000	3.91333E-003	3.59960E-001	-1.08641E+000	3.57674E+000	10	...........
	7	0.106667	6.59842E-001	5.99324E-003	0.00000E+000	3.95459E-003	3.59960E-001	-1.09146E+000	3.57700E+000	10	...........
	8	0.12	6.66453E-001	5.99704E-003	0.00000E+000	3.99674E-003	3.59960E-001	-1.09372E+000	3.57700E+000	10	...........
	9	0.133333	6.73012E-001	5.99393E-003	0.00000E+000	4.03398E-003	3.59960E-001	-1.08673E+000	3.57700E+000	10	...........
	10	0.146667	6.79446E-001	5.99378E-003	0.00000E+000	4.07245E-003	3.59960E-001	-1.09168E+000	3.57700E+000	10	...........
	11	0.16	6.85912E-001	5.99357E-003	0.00000E+000	4.11106E-003	3.59960E-001	-1.09391E+000	3.57700E+000	10	...........
	12	0.173333	6.92315E-001	5.99286E-003	0.00000E+000	4.14895E-003	3.59960E-001	-1.08655E+000	3.57700E+000	10	...........
	13	0.186667	6.98683E-001	5.99315E-003	0.00000E+000	4.18731E-003	3.59960E-001	-1.09129E+000	3.57700E+000	10	...........
	14	0.2	7.04939E-001	5.99498E-003	0.00000E+000	4.22609E-003	3.59960E-001	-1.09392E+000	3.57700E+000	10	...........
	15	0.213333	7.11244E-001	5.99517E-003	0.00000E+000	4.26402E-003	3.59960E-001	-1.08640E+000	3.57700E+000	10	...........
	16	0.226667	7.17510E-001	5.99495E-003	0.00000E+000	4.30143E-003	3.59960E-001	-1.09093E+000	3.57700E+000	10	...........
	17	0.24	7.23799E-001	5.99347E-003	0.00000E+000	4.33807E-003	3.59960E-001	-1.09392E+000	3.57700E+000	10	...........
	18	0.253333	7.30069E-001	5.99638E-003	0.00000E+000	4.37777E-003	3.59960E-001	-1.08621E+000	3.57700E+000	10	...........
	19	0.266667	7.36251E-001	5.99353E-003	0.00000E+000	4.41275E-003	3.59960E-001	-1.09076E+000	3.57700E+000	10	...........
	20	0.28	7.42515E-001	5.99566E-003	0.00000E+000	4.45187E-003	3.59960E-001	-1.09432E+000	3.57700E+000	10	...........
	21	0.293333	7.48711E-001	5.99089E-003	0.00000E+000	4.48545E-003	3.59960E-001	-1.08662E+000	3.57700E+000	10	...........
	22	0.306667	7.54935E-001	5.99418E-003	0.00000E+000	4.52521E-003	3.59960E-001	-1.09093E+000	3.57700E+000	10	...........
	23	0.32	7.61079E-001	5.99118E-003	0.00000E+000	4.55977E-003	3.59960E-001	-1.09407E+000	3.57700E+000	10	...........
	24	0.333333	7.67275E-001	5.99172E-003	0.00000E+000	4.59730E-003	3.59960E-001	-1.08643E+000	3.57700E+000	10	...........
	25	0.346667	7.73428E-001	5.99410E-003	0.00000E+000	4.63601E-003	3.59960E-001	-1.09066E+000	3.57700E+000	10	...........
	26	0.36	7.79570E-001	5.99083E-003	0.00000E+000	4.67027E-003	3.59960E-001	-1.09416E+000	3.57700E+000	10	...........
	27	0.373333	7.85711E-001	5.99665E-003	0.00000E+000	4.71163E-003	3.59960E-001	-1.08634E+000	3.57700E+000	10	...........
	28	0.386667	7.91868E-001	5.99473E-003	0.00000E+000	4.74704E-003	3.59960E-001	-1.09067E+000	3.57700E+000	10	...........
	29	0.4	7.98031E-001	5.99042E-003	0.00000E+000	4.78054E-003	3.59960E-001	-1.09425E+000	3.57700E+000	10	...........
	30	0.413333	8.04130E-001	5.99245E-003	0.00000E+000	4.81871E-003	3.59960E-001	-1.08654E+000	3.57700E+000	10	...........
	31	0.426667	8.10224E-001	6.00020E-003	0.00000E+000	4.86150E-003	3.59960E-001	-1.09066E+000	3.57700E+000	10	...........
	32	0.44	8.16329E-001	5.99814E-003	0.00000E+000	4.89645E-003	3.59960E-001	-1.09426E+000	3.57700E+000	10	...........
	33	0.453333	8.22488E-001	5.99408E-003	0.00000E+000	4.93006E-003	3.59960E-001	-1.08625E+000	3.57700E+000	10	...........
	34	0.466667	8.28553E-001	5.99345E-003	0.00000E+000	4.96589E-003	3.59960E-001	-1.09039E+000	3.57700E+000	10	...........
	35	0.48	8.34619E-001	5.99770E-003	0.00000E+000	5.00580E-003	3.59960E-001	-1.09434E+000	3.57700E+000	10	...........
	36	0.493333	8.40689E-001	5.99497E-003	0.00000E+000	5.03990E-003	3.59960E-001	-1.08642E+000	3.57700E+000	10	...........
	37	0.506667	8.46777E-001	5.99773E-003	0.00000E+000	5.07875E-003	3.59960E-001	-1.09030E+000	3.57700E+000	10	...........
	38	0.52	8.52808E-001	5.99272E-003	0.00000E+000	5.11064E-003	3.59960E-001	-1.09441E+000	3.57700E+000	10	...........
	39	0.533333	8.58842E-001	5.99183E-003	0.00000E+000	5.14603E-003	3.59960E-001	-1.08602E+000	3.57700E+000	10	...........
	40	0.546667	8.64863E-001	5.99795E-003	0.00000E+000	5.18741E-003	3.59960E-001	-1.08988E+000	3.57700E+000	10	...........
	41	0.56	8.70906E-001	5.99520E-003	0.00000E+000	5.22126E-003	3.59960E-001	-1.09433E+000	3.57700E+000	10	...........
	42	0.573333	8.76881E-001	5.99806E-003	0.00000E+000	5.25958E-003	3.59960E-001	-1.08597E+000	3.57700E+000	10	...........
	43	0.586667	8.82853E-001	5.99197E-003	0.00000E+000	5.29003E-003	3.59960E-001	-1.08972E+000	3.57700E+000	10	...........
	44	0.6	8.88803E-001	5.99019E-003	0.00000E+000	5.32410E-003	3.59960E-001	-1.09430E+000	3.57700E+000	10	...........
	45	0.613333	8.94736E-001	5.99473E-003	0.00000E+000	5.36370E-003	3.59960E-001	-1.08606E+000	3.57700E+000	10	...........
	46	0.626667	9.00700E-001	5.99133E-003	0.00000E+000	5.39639E-003	3.59960E-001	-1.08980E+000	3.57700E+000	10	...........
	47	0.64	9.06607E-001	5.99621E-003	0.00000E+000	5.43621E-003	3.59960E-001	-1.09431E+000	3.57700E+000	10	...........
	48	0.653333	9.12505E-001	5.99226E-003	0.00000E+000	5.46797E-003	3.59960E-001	-1.08582E+000	3.57700E+000	10	...........
	49	0.666667	9.18314E-001	5.99416E-003	0.00000E+000	5.50452E-003	3.59960E-001	-1.08934E+000	3.57700E+000	10	...........
	50	0.68	9.24221E-001	5.99545E-003	0.00000E+000	5.54112E-003	3.59960E-001	-1.09461E+000	3.57700E+000	10	...........
	51	0.693333	9.30046E-001	6.00057E-003	0.00000E+000	5.58081E-003	3.59960E-001	-1.08599E+000	3.57700E+000	10	...........
	52	0.706667	9.35759E-001	5.99325E-003	0.00000E+000	5.60824E-003	3.59960E-001	-1.08927E+000	3.57700E+000	10	...........
	53	0.72	9.41542E-001	5.99074E-003	0.00000E+000	5.64053E-003	3.59960E-001	-1.09473E+000	3.57700E+000	10	...........
	54	0.733333	9.47267E-001	5.99585E-003	0.00000E+000	5.67967E-003	3.59960E-001	-1.08594E+000	3.57700E+000	10	...........
	55	0.746667	9.52968E-001	5.99203E-003	0.00000E+000	5.71021E-003	3.59960E-001	-1.08929E+000	3.57700E+000	10	...........
	56	0.76	9.58584E-001	5.99243E-003	0.00000E+000	5.74424E-003	3.59960E-001	-1.09488E+000	3.57700E+000	10	...........
	57	0.773333	9.64209E-001	5.98902E-003	0.00000E+000	5.77467E-003	3.59960E-001	-1.08589E+000	3.57700E+000	10	...........
	58	0.786667	9.69805E-001	5.99429E-003	0.00000E+000	5.81330E-003	3.59960E-001	-1.08916E+000	3.57700E+000	10	...........
	59	0.8	9.75406E-001	5.99825E-003	0.00000E+000	5.85073E-003	3.59960E-001	-1.09486E+000	3.57700E+000	10	...........
	60	0.813333	9.80903E-001	5.99624E-003	0.00000E+000	5.88173E-003	3.59960E-001	-1.08605E+000	3.57700E+000	10	...........
	61	0.826667	9.86355E-001	5.98998E-003	0.00000E+000	5.90825E-003	3.59960E-001	-1.08916E+000	3.57700E+000	10	...........
	62	0.84	9.91763E-001	5.99106E-003	0.00000E+000	5.94171E-003	3.59960E-001	-1.09482E+000	3.57700E+000	10	...........
	63	0.853333	9.97172E-001	5.99435E-003	0.00000E+000	5.97740E-003	3.59960E-001	-1.08546E+000	3.57700E+000	10	...........
	64	0.855	1.00016E+000	5.99012E-003	0.00000E+000	5.99110E-003	3.59960E-001	-1.09921E+000	3.57700E+000	10	...........
STARTTIMEOFFSET	QUANT	415.715	Start Time Offset (s)