File: Data/CV_CRGO300517_1/PWRCCD_CRGO300517_1/CHARGE_DISCHARGE/CHARGE_#783.DTA
EXPLAIN
TAG	PWR800_CHARGE
TITLE	LABEL	PWR Cyclic Charge Discharge (Cell) - Charge Step	Test &Identifier
DATE	LABEL	22-6-2017	Date
TIME	LABEL	16:06:39	Time
NOTES	NOTES	3	&Notes...
	supercap test cell
	0.6mg
	6M KOH
PSTAT	PSTAT	IFC5000-01520	Potentiostat
CAPACITY	QUANT	1.00000E-003	Capacity (A-hr)
CELLTYPE	SELECTOR	1	&Cell Type
WORKINGCONNECTION	SELECTOR	0	&Working Lead
MAXCHARGETIME	VARIABLEANDUNITS	1.00000E+002	s	1.00000E+002	second(s)	Max &Charge Time
CHARGECURRENT	QUANT	6.00000E-003	&Charge Current (A)
VOLTAGEFINISH	TWOPARAM	F	1.00000E-003	3.60000E+003	&Voltage Finish	 I (A) < 	Max Time(s)
SAMPLETIME	QUANT	1.00000E-002	Sa&mple Period (s)
CHARGESTOPAT1	MULTIPARAM	4	1.00000E+000	Charge Stop At &1	Voltage > Limit	V
CHARGESTOPAT2	MULTIPARAM	0	0.00000E+000	Charge Stop At &2	None	N/A
AESBHCSELECTOR	TOGGLE	F	Save Both Half Cells
IRCOMP	TOGGLE	F	IR &Measure
EOC	QUANT	0	Open Circuit (V)
SEQUENCER	TOGGLE	TRUE	Run as Sequence
PSTATMODEL	IQUANT	53	Pstat Model
PSTATSECTION	LABEL	IFC5000-01520	Pstat Section
PSTATSERIALNO	LABEL	01520	Pstat Serial Number
CTRLMODE	IQUANT	0	Control Mode
ELECTROMETER	IQUANT	1	RE=0 or CS=1
IESTAB	IQUANT	0	I/E Stability
CASPEED	IQUANT	4	Control Amp Speed
CONVENTION	IQUANT	1	Current Convention
ICHRANGE	IQUANT	2	Ich Range
ICHRANGEMODE	TOGGLE	T	Ich Auto Range
ICHOFFSETENABLE	TOGGLE	F	Ich Offset Enable
ICHOFFSET	QUANT	0	Ich Offset (V)
ICHFILTER	IQUANT	1	Ich Filter
VCHRANGE	IQUANT	2	Vch Range
VCHRANGEMODE	TOGGLE	T	Vch Auto Range
VCHOFFSETENABLE	TOGGLE	F	Vch Offset Enable
VCHOFFSET	QUANT	0	Vch Offset (V)
VCHFILTER	IQUANT	1	Vch Filter
IERANGELOWERLIMIT	IQUANT	9	I/E Range Lower Limit
IERANGEMODE	TOGGLE	F	I/E AutoRange
IERANGE	IQUANT	10	I/E Range
ACHSELECT	IQUANT	1	Ach Select
ACHRANGE	IQUANT	2	Ach Range
ACHOFFSETENABLE	TOGGLE	F	Ach Offset Enable
ACHOFFSET	QUANT	0	Ach Offset (V)
ACHFILTER	IQUANT	1	Ach Filter
CABLEID	IQUANT	14	Cable ID
DCCALDATE	LABEL	20-10-2016	DC Calibration Date
ACCALDATE	LABEL	12/3/2015	AC Calibration Date
FRAMEWORKVERSION	QUANT	7.01	Framework Version
INSTRUMENTVERSION	LABEL	4.00	Instrument Version
CURVE	TABLE	55
	Pt	T	Vf	Im	Vu	Pwr	Sig	Ach	Temp	IERange	Over
	#	s	V	A	V	W	V	V	deg C	#	bits
	0	0.013333	6.47973E-001	5.99351E-003	0.00000E+000	3.88363E-003	3.59960E-001	-1.16167E+000	3.57670E+000	10	...........
	1	0.026667	6.57127E-001	5.99224E-003	0.00000E+000	3.93766E-003	3.59960E-001	-1.16075E+000	3.57670E+000	10	...........
	2	0.04	6.65568E-001	5.99259E-003	0.00000E+000	3.98848E-003	3.59960E-001	-1.17146E+000	3.57670E+000	10	...........
	3	0.053333	6.73593E-001	5.99125E-003	0.00000E+000	4.03566E-003	3.59960E-001	-1.16112E+000	3.57670E+000	10	...........
	4	0.066667	6.81299E-001	5.99321E-003	0.00000E+000	4.08316E-003	3.59960E-001	-1.15991E+000	3.57670E+000	10	...........
	5	0.08	6.88845E-001	5.99302E-003	0.00000E+000	4.12826E-003	3.59960E-001	-1.17074E+000	3.57670E+000	10	...........
	6	0.093333	6.96187E-001	5.99065E-003	0.00000E+000	4.17061E-003	3.59960E-001	-1.16094E+000	3.57715E+000	10	...........
	7	0.106667	7.03428E-001	5.99256E-003	0.00000E+000	4.21534E-003	3.59960E-001	-1.16023E+000	3.57730E+000	10	...........
	8	0.12	7.10544E-001	5.99470E-003	0.00000E+000	4.25950E-003	3.59960E-001	-1.17072E+000	3.57730E+000	10	...........
	9	0.133333	7.17662E-001	5.98853E-003	0.00000E+000	4.29774E-003	3.59960E-001	-1.16059E+000	3.57730E+000	10	...........
	10	0.146667	7.24690E-001	5.99627E-003	0.00000E+000	4.34544E-003	3.59960E-001	-1.16029E+000	3.57730E+000	10	...........
	11	0.16	7.31636E-001	5.99841E-003	0.00000E+000	4.38865E-003	3.59960E-001	-1.17098E+000	3.57730E+000	10	...........
	12	0.173333	7.38576E-001	5.99692E-003	0.00000E+000	4.42918E-003	3.59960E-001	-1.16081E+000	3.57730E+000	10	...........
	13	0.186667	7.45509E-001	5.99530E-003	0.00000E+000	4.46955E-003	3.59960E-001	-1.15975E+000	3.57730E+000	10	...........
	14	0.2	7.52341E-001	5.99932E-003	0.00000E+000	4.51354E-003	3.59960E-001	-1.17036E+000	3.57730E+000	10	...........
	15	0.213333	7.59175E-001	5.99554E-003	0.00000E+000	4.55167E-003	3.59960E-001	-1.16046E+000	3.57730E+000	10	...........
	16	0.226667	7.65914E-001	5.99258E-003	0.00000E+000	4.58980E-003	3.59960E-001	-1.16011E+000	3.57730E+000	10	...........
	17	0.24	7.72699E-001	5.99288E-003	0.00000E+000	4.63069E-003	3.59960E-001	-1.17065E+000	3.57730E+000	10	...........
	18	0.253333	7.79430E-001	5.98959E-003	0.00000E+000	4.66846E-003	3.59960E-001	-1.16013E+000	3.57730E+000	10	...........
	19	0.266667	7.86146E-001	5.99672E-003	0.00000E+000	4.71430E-003	3.59960E-001	-1.15970E+000	3.57730E+000	10	...........
	20	0.28	7.92870E-001	5.99721E-003	0.00000E+000	4.75501E-003	3.59960E-001	-1.17061E+000	3.57730E+000	10	...........
	21	0.293333	7.99526E-001	5.98986E-003	0.00000E+000	4.78905E-003	3.59960E-001	-1.16082E+000	3.57730E+000	10	...........
	22	0.306667	8.06131E-001	5.99437E-003	0.00000E+000	4.83224E-003	3.59960E-001	-1.16056E+000	3.57730E+000	10	...........
	23	0.32	8.12719E-001	5.99296E-003	0.00000E+000	4.87059E-003	3.59960E-001	-1.17068E+000	3.57730E+000	10	...........
	24	0.333333	8.19340E-001	5.99207E-003	0.00000E+000	4.90954E-003	3.59960E-001	-1.16053E+000	3.57730E+000	10	...........
	25	0.346667	8.25911E-001	5.99445E-003	0.00000E+000	4.95088E-003	3.59960E-001	-1.16058E+000	3.57730E+000	10	...........
	26	0.36	8.32438E-001	5.99806E-003	0.00000E+000	4.99301E-003	3.59960E-001	-1.17117E+000	3.57730E+000	10	...........
	27	0.373333	8.38992E-001	5.99345E-003	0.00000E+000	5.02845E-003	3.59960E-001	-1.16073E+000	3.57730E+000	10	...........
	28	0.386667	8.45503E-001	5.99260E-003	0.00000E+000	5.06676E-003	3.59960E-001	-1.16031E+000	3.57730E+000	10	...........
	29	0.4	8.51991E-001	5.99192E-003	0.00000E+000	5.10506E-003	3.59960E-001	-1.17071E+000	3.57730E+000	10	...........
	30	0.413333	8.58459E-001	5.99950E-003	0.00000E+000	5.15032E-003	3.59960E-001	-1.16013E+000	3.57730E+000	10	...........
	31	0.426667	8.64912E-001	5.99223E-003	0.00000E+000	5.18275E-003	3.59960E-001	-1.16037E+000	3.57730E+000	10	...........
	32	0.44	8.71324E-001	5.99059E-003	0.00000E+000	5.21974E-003	3.59960E-001	-1.17054E+000	3.57730E+000	10	...........
	33	0.453333	8.77700E-001	5.99302E-003	0.00000E+000	5.26007E-003	3.59960E-001	-1.16003E+000	3.57730E+000	10	...........
	34	0.466667	8.84070E-001	5.99367E-003	0.00000E+000	5.29882E-003	3.59960E-001	-1.16028E+000	3.57730E+000	10	...........
	35	0.48	8.90371E-001	5.99599E-003	0.00000E+000	5.33866E-003	3.59960E-001	-1.17075E+000	3.57730E+000	10	...........
	36	0.493333	8.96643E-001	5.99530E-003	0.00000E+000	5.37565E-003	3.59960E-001	-1.16022E+000	3.57730E+000	10	...........
	37	0.506667	9.02894E-001	5.99346E-003	0.00000E+000	5.41146E-003	3.59960E-001	-1.16054E+000	3.57730E+000	10	...........
	38	0.52	9.09100E-001	5.99487E-003	0.00000E+000	5.44993E-003	3.59960E-001	-1.17055E+000	3.57730E+000	10	...........
	39	0.533333	9.15274E-001	5.99352E-003	0.00000E+000	5.48571E-003	3.59960E-001	-1.15991E+000	3.57730E+000	10	...........
	40	0.546667	9.21462E-001	5.99431E-003	0.00000E+000	5.52353E-003	3.59960E-001	-1.16061E+000	3.57730E+000	10	...........
	41	0.56	9.27576E-001	5.99175E-003	0.00000E+000	5.55780E-003	3.59960E-001	-1.17081E+000	3.57730E+000	10	...........
	42	0.573333	9.33651E-001	5.99670E-003	0.00000E+000	5.59882E-003	3.59960E-001	-1.15986E+000	3.57730E+000	10	...........
	43	0.586667	9.39634E-001	5.99142E-003	0.00000E+000	5.62975E-003	3.59960E-001	-1.16048E+000	3.57730E+000	10	...........
	44	0.6	9.45636E-001	5.99308E-003	0.00000E+000	5.66728E-003	3.59960E-001	-1.17055E+000	3.57730E+000	10	...........
	45	0.613333	9.51574E-001	5.99241E-003	0.00000E+000	5.70222E-003	3.59960E-001	-1.16023E+000	3.57730E+000	10	...........
	46	0.626667	9.57467E-001	5.99507E-003	0.00000E+000	5.74009E-003	3.59960E-001	-1.16109E+000	3.57730E+000	10	...........
	47	0.64	9.63293E-001	5.99367E-003	0.00000E+000	5.77366E-003	3.59960E-001	-1.17078E+000	3.57730E+000	10	...........
	48	0.653333	9.69094E-001	5.99266E-003	0.00000E+000	5.80745E-003	3.59960E-001	-1.16027E+000	3.57730E+000	10	...........
	49	0.666667	9.74847E-001	5.99238E-003	0.00000E+000	5.84166E-003	3.59960E-001	-1.16096E+000	3.57730E+000	10	...........
	50	0.68	9.80508E-001	5.99702E-003	0.00000E+000	5.88013E-003	3.59960E-001	-1.17074E+000	3.57730E+000	10	...........
	51	0.693333	9.86128E-001	5.99323E-003	0.00000E+000	5.91009E-003	3.59960E-001	-1.16044E+000	3.57730E+000	10	...........
	52	0.706667	9.91710E-001	5.99487E-003	0.00000E+000	5.94517E-003	3.59960E-001	-1.16100E+000	3.57730E+000	10	...........
	53	0.72	9.97218E-001	5.99545E-003	0.00000E+000	5.97877E-003	3.59960E-001	-1.17023E+000	3.57730E+000	10	...........
	54	0.721667	1.00031E+000	5.99287E-003	0.00000E+000	5.99475E-003	3.59960E-001	-1.15650E+000	3.57730E+000	10	...........
STARTTIMEOFFSET	QUANT	1279.708	Start Time Offset (s)