File: Data/CV_CRGO300517_1/PWRCCD_CRGO300517_1/CHARGE_DISCHARGE/CHARGE_#742.DTA
EXPLAIN
TAG	PWR800_CHARGE
TITLE	LABEL	PWR Cyclic Charge Discharge (Cell) - Charge Step	Test &Identifier
DATE	LABEL	22-6-2017	Date
TIME	LABEL	16:05:07	Time
NOTES	NOTES	3	&Notes...
	supercap test cell
	0.6mg
	6M KOH
PSTAT	PSTAT	IFC5000-01520	Potentiostat
CAPACITY	QUANT	1.00000E-003	Capacity (A-hr)
CELLTYPE	SELECTOR	1	&Cell Type
WORKINGCONNECTION	SELECTOR	0	&Working Lead
MAXCHARGETIME	VARIABLEANDUNITS	1.00000E+002	s	1.00000E+002	second(s)	Max &Charge Time
CHARGECURRENT	QUANT	6.00000E-003	&Charge Current (A)
VOLTAGEFINISH	TWOPARAM	F	1.00000E-003	3.60000E+003	&Voltage Finish	 I (A) < 	Max Time(s)
SAMPLETIME	QUANT	1.00000E-002	Sa&mple Period (s)
CHARGESTOPAT1	MULTIPARAM	4	1.00000E+000	Charge Stop At &1	Voltage > Limit	V
CHARGESTOPAT2	MULTIPARAM	0	0.00000E+000	Charge Stop At &2	None	N/A
AESBHCSELECTOR	TOGGLE	F	Save Both Half Cells
IRCOMP	TOGGLE	F	IR &Measure
EOC	QUANT	0	Open Circuit (V)
SEQUENCER	TOGGLE	TRUE	Run as Sequence
PSTATMODEL	IQUANT	53	Pstat Model
PSTATSECTION	LABEL	IFC5000-01520	Pstat Section
PSTATSERIALNO	LABEL	01520	Pstat Serial Number
CTRLMODE	IQUANT	0	Control Mode
ELECTROMETER	IQUANT	1	RE=0 or CS=1
IESTAB	IQUANT	0	I/E Stability
CASPEED	IQUANT	4	Control Amp Speed
CONVENTION	IQUANT	1	Current Convention
ICHRANGE	IQUANT	2	Ich Range
ICHRANGEMODE	TOGGLE	T	Ich Auto Range
ICHOFFSETENABLE	TOGGLE	F	Ich Offset Enable
ICHOFFSET	QUANT	0	Ich Offset (V)
ICHFILTER	IQUANT	1	Ich Filter
VCHRANGE	IQUANT	2	Vch Range
VCHRANGEMODE	TOGGLE	T	Vch Auto Range
VCHOFFSETENABLE	TOGGLE	F	Vch Offset Enable
VCHOFFSET	QUANT	0	Vch Offset (V)
VCHFILTER	IQUANT	1	Vch Filter
IERANGELOWERLIMIT	IQUANT	9	I/E Range Lower Limit
IERANGEMODE	TOGGLE	F	I/E AutoRange
IERANGE	IQUANT	10	I/E Range
ACHSELECT	IQUANT	1	Ach Select
ACHRANGE	IQUANT	2	Ach Range
ACHOFFSETENABLE	TOGGLE	F	Ach Offset Enable
ACHOFFSET	QUANT	0	Ach Offset (V)
ACHFILTER	IQUANT	1	Ach Filter
CABLEID	IQUANT	14	Cable ID
DCCALDATE	LABEL	20-10-2016	DC Calibration Date
ACCALDATE	LABEL	12/3/2015	AC Calibration Date
FRAMEWORKVERSION	QUANT	7.01	Framework Version
INSTRUMENTVERSION	LABEL	4.00	Instrument Version
CURVE	TABLE	55
	Pt	T	Vf	Im	Vu	Pwr	Sig	Ach	Temp	IERange	Over
	#	s	V	A	V	W	V	V	deg C	#	bits
	0	0.013333	6.45235E-001	5.98889E-003	0.00000E+000	3.86424E-003	3.59960E-001	-1.15325E+000	3.57660E+000	10	...........
	1	0.026667	6.54410E-001	5.99516E-003	0.00000E+000	3.92329E-003	3.59960E-001	-1.15589E+000	3.57660E+000	10	...........
	2	0.04	6.62811E-001	5.99441E-003	0.00000E+000	3.97316E-003	3.59960E-001	-1.16329E+000	3.57660E+000	10	...........
	3	0.053333	6.70820E-001	5.99424E-003	0.00000E+000	4.02105E-003	3.59960E-001	-1.15270E+000	3.57660E+000	10	...........
	4	0.066667	6.78520E-001	5.98891E-003	0.00000E+000	4.06360E-003	3.59960E-001	-1.15552E+000	3.57660E+000	10	...........
	5	0.08	6.85988E-001	5.99249E-003	0.00000E+000	4.11077E-003	3.59960E-001	-1.16303E+000	3.57660E+000	10	...........
	6	0.093333	6.93349E-001	5.99104E-003	0.00000E+000	4.15388E-003	3.59960E-001	-1.15251E+000	3.57660E+000	10	...........
	7	0.106667	7.00623E-001	5.99733E-003	0.00000E+000	4.20187E-003	3.59960E-001	-1.15546E+000	3.57660E+000	10	...........
	8	0.12	7.07711E-001	5.99128E-003	0.00000E+000	4.24009E-003	3.59960E-001	-1.16290E+000	3.57660E+000	10	...........
	9	0.133333	7.14771E-001	5.99384E-003	0.00000E+000	4.28423E-003	3.59960E-001	-1.15238E+000	3.57660E+000	10	...........
	10	0.146667	7.21737E-001	5.99212E-003	0.00000E+000	4.32474E-003	3.59960E-001	-1.15546E+000	3.57660E+000	10	...........
	11	0.16	7.28674E-001	5.99090E-003	0.00000E+000	4.36541E-003	3.59960E-001	-1.16280E+000	3.57660E+000	10	...........
	12	0.173333	7.35552E-001	5.99552E-003	0.00000E+000	4.41002E-003	3.59960E-001	-1.15235E+000	3.57660E+000	10	...........
	13	0.186667	7.42411E-001	5.98835E-003	0.00000E+000	4.44582E-003	3.59960E-001	-1.15523E+000	3.57660E+000	10	...........
	14	0.2	7.49198E-001	5.99403E-003	0.00000E+000	4.49071E-003	3.59960E-001	-1.16256E+000	3.57660E+000	10	...........
	15	0.213333	7.56009E-001	5.99499E-003	0.00000E+000	4.53227E-003	3.59960E-001	-1.15208E+000	3.57660E+000	10	...........
	16	0.226667	7.62791E-001	5.99647E-003	0.00000E+000	4.57406E-003	3.59960E-001	-1.15555E+000	3.57660E+000	10	...........
	17	0.24	7.69523E-001	5.99726E-003	0.00000E+000	4.61503E-003	3.59960E-001	-1.16246E+000	3.57660E+000	10	...........
	18	0.253333	7.76200E-001	5.99554E-003	0.00000E+000	4.65374E-003	3.59960E-001	-1.15211E+000	3.57660E+000	10	...........
	19	0.266667	7.82912E-001	5.99377E-003	0.00000E+000	4.69260E-003	3.59960E-001	-1.15555E+000	3.57660E+000	10	...........
	20	0.28	7.89579E-001	5.99352E-003	0.00000E+000	4.73236E-003	3.59960E-001	-1.16243E+000	3.57660E+000	10	...........
	21	0.293333	7.96227E-001	5.99045E-003	0.00000E+000	4.76976E-003	3.59960E-001	-1.15221E+000	3.57660E+000	10	...........
	22	0.306667	8.02841E-001	5.99816E-003	0.00000E+000	4.81557E-003	3.59960E-001	-1.15568E+000	3.57660E+000	10	...........
	23	0.32	8.09452E-001	5.98973E-003	0.00000E+000	4.84840E-003	3.59960E-001	-1.16205E+000	3.57660E+000	10	...........
	24	0.333333	8.15992E-001	5.99726E-003	0.00000E+000	4.89372E-003	3.59960E-001	-1.15200E+000	3.57660E+000	10	...........
	25	0.346667	8.22590E-001	5.99592E-003	0.00000E+000	4.93218E-003	3.59960E-001	-1.15565E+000	3.57660E+000	10	...........
	26	0.36	8.29093E-001	5.99335E-003	0.00000E+000	4.96905E-003	3.59960E-001	-1.16179E+000	3.57660E+000	10	...........
	27	0.373333	8.35611E-001	5.99437E-003	0.00000E+000	5.00896E-003	3.59960E-001	-1.15164E+000	3.57660E+000	10	...........
	28	0.386667	8.42072E-001	5.99575E-003	0.00000E+000	5.04885E-003	3.59960E-001	-1.15539E+000	3.57660E+000	10	...........
	29	0.4	8.48577E-001	5.99508E-003	0.00000E+000	5.08729E-003	3.59960E-001	-1.16126E+000	3.57660E+000	10	...........
	30	0.413333	8.55020E-001	5.99437E-003	0.00000E+000	5.12530E-003	3.59960E-001	-1.15155E+000	3.57660E+000	10	...........
	31	0.426667	8.61424E-001	5.99531E-003	0.00000E+000	5.16451E-003	3.59960E-001	-1.15560E+000	3.57660E+000	10	...........
	32	0.44	8.67816E-001	5.98923E-003	0.00000E+000	5.19755E-003	3.59960E-001	-1.16125E+000	3.57660E+000	10	...........
	33	0.453333	8.74221E-001	5.99279E-003	0.00000E+000	5.23902E-003	3.59960E-001	-1.15158E+000	3.57660E+000	10	...........
	34	0.466667	8.80556E-001	5.99163E-003	0.00000E+000	5.27597E-003	3.59960E-001	-1.15552E+000	3.57660E+000	10	...........
	35	0.48	8.86872E-001	5.99391E-003	0.00000E+000	5.31583E-003	3.59960E-001	-1.16114E+000	3.57660E+000	10	...........
	36	0.493333	8.93172E-001	5.99043E-003	0.00000E+000	5.35049E-003	3.59960E-001	-1.15154E+000	3.57660E+000	10	...........
	37	0.506667	8.99403E-001	5.99323E-003	0.00000E+000	5.39033E-003	3.59960E-001	-1.15567E+000	3.57660E+000	10	...........
	38	0.52	9.05615E-001	5.99347E-003	0.00000E+000	5.42778E-003	3.59960E-001	-1.16088E+000	3.57660E+000	10	...........
	39	0.533333	9.11820E-001	5.99844E-003	0.00000E+000	5.46950E-003	3.59960E-001	-1.15141E+000	3.57660E+000	10	...........
	40	0.546667	9.17966E-001	5.99547E-003	0.00000E+000	5.50364E-003	3.59960E-001	-1.15567E+000	3.57660E+000	10	...........
	41	0.56	9.24112E-001	5.99497E-003	0.00000E+000	5.54002E-003	3.59960E-001	-1.16106E+000	3.57660E+000	10	...........
	42	0.573333	9.30164E-001	5.99723E-003	0.00000E+000	5.57841E-003	3.59960E-001	-1.15150E+000	3.57660E+000	10	...........
	43	0.586667	9.36182E-001	5.99304E-003	0.00000E+000	5.61057E-003	3.59960E-001	-1.15603E+000	3.57660E+000	10	...........
	44	0.6	9.42186E-001	5.99621E-003	0.00000E+000	5.64955E-003	3.59960E-001	-1.16092E+000	3.57660E+000	10	...........
	45	0.613333	9.48190E-001	5.99720E-003	0.00000E+000	5.68649E-003	3.59960E-001	-1.15160E+000	3.57660E+000	10	...........
	46	0.626667	9.54052E-001	5.99201E-003	0.00000E+000	5.71669E-003	3.59960E-001	-1.15611E+000	3.57660E+000	10	...........
	47	0.64	9.59897E-001	5.99488E-003	0.00000E+000	5.75446E-003	3.59960E-001	-1.16099E+000	3.57660E+000	10	...........
	48	0.653333	9.65698E-001	5.99528E-003	0.00000E+000	5.78963E-003	3.59960E-001	-1.15142E+000	3.57660E+000	10	...........
	49	0.666667	9.71415E-001	5.98887E-003	0.00000E+000	5.81767E-003	3.59960E-001	-1.15604E+000	3.57660E+000	10	...........
	50	0.68	9.77152E-001	5.99333E-003	0.00000E+000	5.85640E-003	3.59960E-001	-1.16052E+000	3.57660E+000	10	...........
	51	0.693333	9.82776E-001	5.99475E-003	0.00000E+000	5.89150E-003	3.59960E-001	-1.15124E+000	3.57660E+000	10	...........
	52	0.706667	9.88330E-001	5.98870E-003	0.00000E+000	5.91881E-003	3.59960E-001	-1.15597E+000	3.57660E+000	10	...........
	53	0.72	9.93958E-001	5.99970E-003	0.00000E+000	5.96345E-003	3.59960E-001	-1.16004E+000	3.57660E+000	10	...........
	54	0.73	9.98817E-001	5.98834E-003	0.00000E+000	5.98125E-003	3.59960E-001	-1.14692E+000	3.57660E+000	10	...........
STARTTIMEOFFSET	QUANT	1220.489	Start Time Offset (s)