File: Data/CV_CRGO300517_1/PWRCCD_CRGO300517_1/CHARGE_DISCHARGE/CHARGE_#491.DTA
EXPLAIN
TAG	PWR800_CHARGE
TITLE	LABEL	PWR Cyclic Charge Discharge (Cell) - Charge Step	Test &Identifier
DATE	LABEL	22-6-2017	Date
TIME	LABEL	15:55:34	Time
NOTES	NOTES	3	&Notes...
	supercap test cell
	0.6mg
	6M KOH
PSTAT	PSTAT	IFC5000-01520	Potentiostat
CAPACITY	QUANT	1.00000E-003	Capacity (A-hr)
CELLTYPE	SELECTOR	1	&Cell Type
WORKINGCONNECTION	SELECTOR	0	&Working Lead
MAXCHARGETIME	VARIABLEANDUNITS	1.00000E+002	s	1.00000E+002	second(s)	Max &Charge Time
CHARGECURRENT	QUANT	6.00000E-003	&Charge Current (A)
VOLTAGEFINISH	TWOPARAM	F	1.00000E-003	3.60000E+003	&Voltage Finish	 I (A) < 	Max Time(s)
SAMPLETIME	QUANT	1.00000E-002	Sa&mple Period (s)
CHARGESTOPAT1	MULTIPARAM	4	1.00000E+000	Charge Stop At &1	Voltage > Limit	V
CHARGESTOPAT2	MULTIPARAM	0	0.00000E+000	Charge Stop At &2	None	N/A
AESBHCSELECTOR	TOGGLE	F	Save Both Half Cells
IRCOMP	TOGGLE	F	IR &Measure
EOC	QUANT	0	Open Circuit (V)
SEQUENCER	TOGGLE	TRUE	Run as Sequence
PSTATMODEL	IQUANT	53	Pstat Model
PSTATSECTION	LABEL	IFC5000-01520	Pstat Section
PSTATSERIALNO	LABEL	01520	Pstat Serial Number
CTRLMODE	IQUANT	0	Control Mode
ELECTROMETER	IQUANT	1	RE=0 or CS=1
IESTAB	IQUANT	0	I/E Stability
CASPEED	IQUANT	4	Control Amp Speed
CONVENTION	IQUANT	1	Current Convention
ICHRANGE	IQUANT	2	Ich Range
ICHRANGEMODE	TOGGLE	T	Ich Auto Range
ICHOFFSETENABLE	TOGGLE	F	Ich Offset Enable
ICHOFFSET	QUANT	0	Ich Offset (V)
ICHFILTER	IQUANT	1	Ich Filter
VCHRANGE	IQUANT	2	Vch Range
VCHRANGEMODE	TOGGLE	T	Vch Auto Range
VCHOFFSETENABLE	TOGGLE	F	Vch Offset Enable
VCHOFFSET	QUANT	0	Vch Offset (V)
VCHFILTER	IQUANT	1	Vch Filter
IERANGELOWERLIMIT	IQUANT	9	I/E Range Lower Limit
IERANGEMODE	TOGGLE	F	I/E AutoRange
IERANGE	IQUANT	10	I/E Range
ACHSELECT	IQUANT	1	Ach Select
ACHRANGE	IQUANT	2	Ach Range
ACHOFFSETENABLE	TOGGLE	F	Ach Offset Enable
ACHOFFSET	QUANT	0	Ach Offset (V)
ACHFILTER	IQUANT	1	Ach Filter
CABLEID	IQUANT	14	Cable ID
DCCALDATE	LABEL	20-10-2016	DC Calibration Date
ACCALDATE	LABEL	12/3/2015	AC Calibration Date
FRAMEWORKVERSION	QUANT	7.01	Framework Version
INSTRUMENTVERSION	LABEL	4.00	Instrument Version
CURVE	TABLE	59
	Pt	T	Vf	Im	Vu	Pwr	Sig	Ach	Temp	IERange	Over
	#	s	V	A	V	W	V	V	deg C	#	bits
	0	0.013333	6.31285E-001	5.99476E-003	0.00000E+000	3.78440E-003	3.59960E-001	-1.13837E+000	3.57780E+000	10	...........
	1	0.026667	6.40150E-001	5.99457E-003	0.00000E+000	3.83742E-003	3.59960E-001	-1.13097E+000	3.57780E+000	10	...........
	2	0.04	6.48309E-001	5.99442E-003	0.00000E+000	3.88623E-003	3.59960E-001	-1.13763E+000	3.57780E+000	10	...........
	3	0.053333	6.56054E-001	5.99193E-003	0.00000E+000	3.93103E-003	3.59960E-001	-1.13856E+000	3.57780E+000	10	...........
	4	0.066667	6.63525E-001	5.99092E-003	0.00000E+000	3.97513E-003	3.59960E-001	-1.13120E+000	3.57780E+000	10	...........
	5	0.08	6.70815E-001	5.99404E-003	0.00000E+000	4.02089E-003	3.59960E-001	-1.13785E+000	3.57780E+000	10	...........
	6	0.093333	6.77879E-001	5.99627E-003	0.00000E+000	4.06475E-003	3.59960E-001	-1.13863E+000	3.57780E+000	10	...........
	7	0.106667	6.84854E-001	5.99468E-003	0.00000E+000	4.10548E-003	3.59960E-001	-1.13138E+000	3.57780E+000	10	...........
	8	0.12	6.91803E-001	5.99656E-003	0.00000E+000	4.14843E-003	3.59960E-001	-1.13791E+000	3.57780E+000	10	...........
	9	0.133333	6.98670E-001	5.98881E-003	0.00000E+000	4.18420E-003	3.59960E-001	-1.13883E+000	3.57780E+000	10	...........
	10	0.146667	7.05444E-001	5.99418E-003	0.00000E+000	4.22856E-003	3.59960E-001	-1.13118E+000	3.57780E+000	10	...........
	11	0.16	7.12184E-001	5.99416E-003	0.00000E+000	4.26894E-003	3.59960E-001	-1.13725E+000	3.57780E+000	10	...........
	12	0.173333	7.18939E-001	5.99469E-003	0.00000E+000	4.30981E-003	3.59960E-001	-1.13860E+000	3.57780E+000	10	...........
	13	0.186667	7.25586E-001	5.99226E-003	0.00000E+000	4.34790E-003	3.59960E-001	-1.13106E+000	3.57780E+000	10	...........
	14	0.2	7.32200E-001	5.99313E-003	0.00000E+000	4.38817E-003	3.59960E-001	-1.13747E+000	3.57780E+000	10	...........
	15	0.213333	7.38805E-001	5.99713E-003	0.00000E+000	4.43071E-003	3.59960E-001	-1.13836E+000	3.57780E+000	10	...........
	16	0.226667	7.45381E-001	5.99503E-003	0.00000E+000	4.46858E-003	3.59960E-001	-1.13073E+000	3.57780E+000	10	...........
	17	0.24	7.51897E-001	5.99345E-003	0.00000E+000	4.50646E-003	3.59960E-001	-1.13730E+000	3.57780E+000	10	...........
	18	0.253333	7.58458E-001	5.99584E-003	0.00000E+000	4.54759E-003	3.59960E-001	-1.13852E+000	3.57780E+000	10	...........
	19	0.266667	7.64940E-001	5.99181E-003	0.00000E+000	4.58337E-003	3.59960E-001	-1.13106E+000	3.57780E+000	10	...........
	20	0.28	7.71492E-001	5.99128E-003	0.00000E+000	4.62222E-003	3.59960E-001	-1.13711E+000	3.57780E+000	10	...........
	21	0.293333	7.77957E-001	5.99241E-003	0.00000E+000	4.66184E-003	3.59960E-001	-1.13843E+000	3.57780E+000	10	...........
	22	0.306667	7.84372E-001	5.99344E-003	0.00000E+000	4.70108E-003	3.59960E-001	-1.13101E+000	3.57780E+000	10	...........
	23	0.32	7.90819E-001	5.99528E-003	0.00000E+000	4.74118E-003	3.59960E-001	-1.13714E+000	3.57780E+000	10	...........
	24	0.333333	7.97242E-001	5.99573E-003	0.00000E+000	4.78005E-003	3.59960E-001	-1.13861E+000	3.57780E+000	10	...........
	25	0.346667	8.03671E-001	5.99258E-003	0.00000E+000	4.81607E-003	3.59960E-001	-1.13076E+000	3.57780E+000	10	...........
	26	0.36	8.10079E-001	5.99193E-003	0.00000E+000	4.85394E-003	3.59960E-001	-1.13684E+000	3.57780E+000	10	...........
	27	0.373333	8.16487E-001	5.99285E-003	0.00000E+000	4.89309E-003	3.59960E-001	-1.13859E+000	3.57780E+000	10	...........
	28	0.386667	8.22863E-001	5.99346E-003	0.00000E+000	4.93180E-003	3.59960E-001	-1.13103E+000	3.57780E+000	10	...........
	29	0.4	8.29202E-001	5.99417E-003	0.00000E+000	4.97038E-003	3.59960E-001	-1.13701E+000	3.57780E+000	10	...........
	30	0.413333	8.35536E-001	5.99191E-003	0.00000E+000	5.00646E-003	3.59960E-001	-1.13848E+000	3.57780E+000	10	...........
	31	0.426667	8.41863E-001	5.99217E-003	0.00000E+000	5.04459E-003	3.59960E-001	-1.13085E+000	3.57780E+000	10	...........
	32	0.44	8.48154E-001	5.99264E-003	0.00000E+000	5.08269E-003	3.59960E-001	-1.13691E+000	3.57780E+000	10	...........
	33	0.453333	8.54416E-001	5.99250E-003	0.00000E+000	5.12009E-003	3.59960E-001	-1.13868E+000	3.57780E+000	10	...........
	34	0.466667	8.60716E-001	5.98793E-003	0.00000E+000	5.15391E-003	3.59960E-001	-1.13083E+000	3.57780E+000	10	...........
	35	0.48	8.66974E-001	5.99088E-003	0.00000E+000	5.19394E-003	3.59960E-001	-1.13636E+000	3.57780E+000	10	...........
	36	0.493333	8.73211E-001	5.99789E-003	0.00000E+000	5.23742E-003	3.59960E-001	-1.13828E+000	3.57780E+000	10	...........
	37	0.506667	8.79432E-001	5.98987E-003	0.00000E+000	5.26768E-003	3.59960E-001	-1.13074E+000	3.57780E+000	10	...........
	38	0.52	8.85624E-001	5.99212E-003	0.00000E+000	5.30677E-003	3.59960E-001	-1.13645E+000	3.57780E+000	10	...........
	39	0.533333	8.91750E-001	5.98798E-003	0.00000E+000	5.33978E-003	3.59960E-001	-1.13859E+000	3.57730E+000	10	...........
	40	0.546667	8.97936E-001	5.99955E-003	0.00000E+000	5.38721E-003	3.59960E-001	-1.13062E+000	3.57680E+000	10	...........
	41	0.56	9.04052E-001	5.99402E-003	0.00000E+000	5.41891E-003	3.59960E-001	-1.13607E+000	3.57680E+000	10	...........
	42	0.573333	9.10136E-001	5.99403E-003	0.00000E+000	5.45538E-003	3.59960E-001	-1.13840E+000	3.57680E+000	10	...........
	43	0.586667	9.16152E-001	5.99310E-003	0.00000E+000	5.49059E-003	3.59960E-001	-1.13060E+000	3.57680E+000	10	...........
	44	0.6	9.22199E-001	5.99245E-003	0.00000E+000	5.52623E-003	3.59960E-001	-1.13610E+000	3.57680E+000	10	...........
	45	0.613333	9.28162E-001	5.99198E-003	0.00000E+000	5.56153E-003	3.59960E-001	-1.13840E+000	3.57680E+000	10	...........
	46	0.626667	9.34067E-001	5.99892E-003	0.00000E+000	5.60340E-003	3.59960E-001	-1.13064E+000	3.57680E+000	10	...........
	47	0.64	9.39946E-001	5.99659E-003	0.00000E+000	5.63646E-003	3.59960E-001	-1.13632E+000	3.57680E+000	10	...........
	48	0.653333	9.45848E-001	5.99324E-003	0.00000E+000	5.66869E-003	3.59960E-001	-1.13857E+000	3.57680E+000	10	...........
	49	0.666667	9.51710E-001	5.99686E-003	0.00000E+000	5.70727E-003	3.59960E-001	-1.13046E+000	3.57680E+000	10	...........
	50	0.68	9.57501E-001	5.99728E-003	0.00000E+000	5.74240E-003	3.59960E-001	-1.13594E+000	3.57680E+000	10	...........
	51	0.693333	9.63252E-001	5.99817E-003	0.00000E+000	5.77775E-003	3.59960E-001	-1.13856E+000	3.57680E+000	10	...........
	52	0.706667	9.68939E-001	5.99148E-003	0.00000E+000	5.80537E-003	3.59960E-001	-1.13071E+000	3.57680E+000	10	...........
	53	0.72	9.74665E-001	5.99240E-003	0.00000E+000	5.84058E-003	3.59960E-001	-1.13598E+000	3.57680E+000	10	...........
	54	0.733333	9.80297E-001	5.99550E-003	0.00000E+000	5.87737E-003	3.59960E-001	-1.13865E+000	3.57680E+000	10	...........
	55	0.746667	9.85862E-001	5.99255E-003	0.00000E+000	5.90783E-003	3.59960E-001	-1.13044E+000	3.57680E+000	10	...........
	56	0.76	9.91387E-001	5.98981E-003	0.00000E+000	5.93822E-003	3.59960E-001	-1.13574E+000	3.57680E+000	10	...........
	57	0.773333	9.96868E-001	5.99656E-003	0.00000E+000	5.97777E-003	3.59960E-001	-1.13886E+000	3.57680E+000	10	...........
	58	0.776667	1.00030E+000	5.99846E-003	0.00000E+000	6.00029E-003	3.59960E-001	-1.13606E+000	3.57680E+000	10	...........
STARTTIMEOFFSET	QUANT	845.1536	Start Time Offset (s)