File: Data/CV_CRGO300517_1/PWRCCD_CRGO300517_1/CHARGE_DISCHARGE/CHARGE_#841.DTA
EXPLAIN
TAG	PWR800_CHARGE
TITLE	LABEL	PWR Cyclic Charge Discharge (Cell) - Charge Step	Test &Identifier
DATE	LABEL	22-6-2017	Date
TIME	LABEL	16:08:48	Time
NOTES	NOTES	3	&Notes...
	supercap test cell
	0.6mg
	6M KOH
PSTAT	PSTAT	IFC5000-01520	Potentiostat
CAPACITY	QUANT	1.00000E-003	Capacity (A-hr)
CELLTYPE	SELECTOR	1	&Cell Type
WORKINGCONNECTION	SELECTOR	0	&Working Lead
MAXCHARGETIME	VARIABLEANDUNITS	1.00000E+002	s	1.00000E+002	second(s)	Max &Charge Time
CHARGECURRENT	QUANT	6.00000E-003	&Charge Current (A)
VOLTAGEFINISH	TWOPARAM	F	1.00000E-003	3.60000E+003	&Voltage Finish	 I (A) < 	Max Time(s)
SAMPLETIME	QUANT	1.00000E-002	Sa&mple Period (s)
CHARGESTOPAT1	MULTIPARAM	4	1.00000E+000	Charge Stop At &1	Voltage > Limit	V
CHARGESTOPAT2	MULTIPARAM	0	0.00000E+000	Charge Stop At &2	None	N/A
AESBHCSELECTOR	TOGGLE	F	Save Both Half Cells
IRCOMP	TOGGLE	F	IR &Measure
EOC	QUANT	0	Open Circuit (V)
SEQUENCER	TOGGLE	TRUE	Run as Sequence
PSTATMODEL	IQUANT	53	Pstat Model
PSTATSECTION	LABEL	IFC5000-01520	Pstat Section
PSTATSERIALNO	LABEL	01520	Pstat Serial Number
CTRLMODE	IQUANT	0	Control Mode
ELECTROMETER	IQUANT	1	RE=0 or CS=1
IESTAB	IQUANT	0	I/E Stability
CASPEED	IQUANT	4	Control Amp Speed
CONVENTION	IQUANT	1	Current Convention
ICHRANGE	IQUANT	2	Ich Range
ICHRANGEMODE	TOGGLE	T	Ich Auto Range
ICHOFFSETENABLE	TOGGLE	F	Ich Offset Enable
ICHOFFSET	QUANT	0	Ich Offset (V)
ICHFILTER	IQUANT	1	Ich Filter
VCHRANGE	IQUANT	2	Vch Range
VCHRANGEMODE	TOGGLE	T	Vch Auto Range
VCHOFFSETENABLE	TOGGLE	F	Vch Offset Enable
VCHOFFSET	QUANT	0	Vch Offset (V)
VCHFILTER	IQUANT	1	Vch Filter
IERANGELOWERLIMIT	IQUANT	9	I/E Range Lower Limit
IERANGEMODE	TOGGLE	F	I/E AutoRange
IERANGE	IQUANT	10	I/E Range
ACHSELECT	IQUANT	1	Ach Select
ACHRANGE	IQUANT	2	Ach Range
ACHOFFSETENABLE	TOGGLE	F	Ach Offset Enable
ACHOFFSET	QUANT	0	Ach Offset (V)
ACHFILTER	IQUANT	1	Ach Filter
CABLEID	IQUANT	14	Cable ID
DCCALDATE	LABEL	20-10-2016	DC Calibration Date
ACCALDATE	LABEL	12/3/2015	AC Calibration Date
FRAMEWORKVERSION	QUANT	7.01	Framework Version
INSTRUMENTVERSION	LABEL	4.00	Instrument Version
CURVE	TABLE	54
	Pt	T	Vf	Im	Vu	Pwr	Sig	Ach	Temp	IERange	Over
	#	s	V	A	V	W	V	V	deg C	#	bits
	0	0.013333	6.50577E-001	5.99553E-003	0.00000E+000	3.90056E-003	3.59960E-001	-1.16784E+000	3.57780E+000	10	...........
	1	0.026667	6.59787E-001	5.99069E-003	0.00000E+000	3.95258E-003	3.59960E-001	-1.16841E+000	3.57780E+000	10	...........
	2	0.04	6.68290E-001	5.99289E-003	0.00000E+000	4.00499E-003	3.59960E-001	-1.16084E+000	3.57780E+000	10	...........
	3	0.053333	6.76309E-001	5.99302E-003	0.00000E+000	4.05313E-003	3.59960E-001	-1.16772E+000	3.57780E+000	10	...........
	4	0.066667	6.84035E-001	5.98983E-003	0.00000E+000	4.09725E-003	3.59960E-001	-1.16832E+000	3.57780E+000	10	...........
	5	0.08	6.91638E-001	5.99653E-003	0.00000E+000	4.14743E-003	3.59960E-001	-1.16085E+000	3.57780E+000	10	...........
	6	0.093333	6.99035E-001	5.99430E-003	0.00000E+000	4.19023E-003	3.59960E-001	-1.16780E+000	3.57780E+000	10	...........
	7	0.106667	7.06329E-001	5.99265E-003	0.00000E+000	4.23279E-003	3.59960E-001	-1.16800E+000	3.57780E+000	10	...........
	8	0.12	7.13509E-001	5.98746E-003	0.00000E+000	4.27211E-003	3.59960E-001	-1.16038E+000	3.57780E+000	10	...........
	9	0.133333	7.20707E-001	5.99466E-003	0.00000E+000	4.32039E-003	3.59960E-001	-1.16771E+000	3.57780E+000	10	...........
	10	0.146667	7.27746E-001	5.98919E-003	0.00000E+000	4.35861E-003	3.59960E-001	-1.16772E+000	3.57780E+000	10	...........
	11	0.16	7.34750E-001	5.99182E-003	0.00000E+000	4.40249E-003	3.59960E-001	-1.16075E+000	3.57780E+000	10	...........
	12	0.173333	7.41725E-001	5.99456E-003	0.00000E+000	4.44632E-003	3.59960E-001	-1.16756E+000	3.57780E+000	10	...........
	13	0.186667	7.48637E-001	5.99216E-003	0.00000E+000	4.48596E-003	3.59960E-001	-1.16759E+000	3.57780E+000	10	...........
	14	0.2	7.55529E-001	5.99251E-003	0.00000E+000	4.52751E-003	3.59960E-001	-1.16038E+000	3.57780E+000	10	...........
	15	0.213333	7.62335E-001	5.99256E-003	0.00000E+000	4.56834E-003	3.59960E-001	-1.16807E+000	3.57780E+000	10	...........
	16	0.226667	7.69166E-001	5.99437E-003	0.00000E+000	4.61066E-003	3.59960E-001	-1.16735E+000	3.57780E+000	10	...........
	17	0.24	7.75919E-001	5.99455E-003	0.00000E+000	4.65129E-003	3.59960E-001	-1.15978E+000	3.57780E+000	10	...........
	18	0.253333	7.82677E-001	5.99383E-003	0.00000E+000	4.69124E-003	3.59960E-001	-1.16725E+000	3.57780E+000	10	...........
	19	0.266667	7.89386E-001	5.98824E-003	0.00000E+000	4.72704E-003	3.59960E-001	-1.16653E+000	3.57780E+000	10	...........
	20	0.28	7.96169E-001	5.99307E-003	0.00000E+000	4.77150E-003	3.59960E-001	-1.15984E+000	3.57780E+000	10	...........
	21	0.293333	8.02836E-001	5.99397E-003	0.00000E+000	4.81217E-003	3.59960E-001	-1.16744E+000	3.57780E+000	10	...........
	22	0.306667	8.09475E-001	5.99230E-003	0.00000E+000	4.85062E-003	3.59960E-001	-1.16641E+000	3.57780E+000	10	...........
	23	0.32	8.16121E-001	5.99038E-003	0.00000E+000	4.88887E-003	3.59960E-001	-1.15934E+000	3.57780E+000	10	...........
	24	0.333333	8.22746E-001	5.99450E-003	0.00000E+000	4.93195E-003	3.59960E-001	-1.16723E+000	3.57780E+000	10	...........
	25	0.346667	8.29297E-001	5.99175E-003	0.00000E+000	4.96894E-003	3.59960E-001	-1.16640E+000	3.57780E+000	10	...........
	26	0.36	8.35860E-001	5.99229E-003	0.00000E+000	5.00871E-003	3.59960E-001	-1.15986E+000	3.57780E+000	10	...........
	27	0.373333	8.42412E-001	5.99478E-003	0.00000E+000	5.05008E-003	3.59960E-001	-1.16739E+000	3.57780E+000	10	...........
	28	0.386667	8.48934E-001	5.99628E-003	0.00000E+000	5.09045E-003	3.59960E-001	-1.16570E+000	3.57780E+000	10	...........
	29	0.4	8.55466E-001	5.99391E-003	0.00000E+000	5.12758E-003	3.59960E-001	-1.15941E+000	3.57780E+000	10	...........
	30	0.413333	8.61933E-001	5.99572E-003	0.00000E+000	5.16791E-003	3.59960E-001	-1.16750E+000	3.57780E+000	10	...........
	31	0.426667	8.68393E-001	5.99757E-003	0.00000E+000	5.20824E-003	3.59960E-001	-1.16579E+000	3.57780E+000	10	...........
	32	0.44	8.74795E-001	5.99370E-003	0.00000E+000	5.24326E-003	3.59960E-001	-1.15915E+000	3.57780E+000	10	...........
	33	0.453333	8.81190E-001	5.99526E-003	0.00000E+000	5.28297E-003	3.59960E-001	-1.16729E+000	3.57780E+000	10	...........
	34	0.466667	8.87511E-001	5.99564E-003	0.00000E+000	5.32120E-003	3.59960E-001	-1.16579E+000	3.57780E+000	10	...........
	35	0.48	8.93857E-001	5.99134E-003	0.00000E+000	5.35540E-003	3.59960E-001	-1.15948E+000	3.57780E+000	10	...........
	36	0.493333	9.00196E-001	5.99208E-003	0.00000E+000	5.39405E-003	3.59960E-001	-1.16769E+000	3.57780E+000	10	...........
	37	0.506667	9.06447E-001	5.99371E-003	0.00000E+000	5.43298E-003	3.59960E-001	-1.16539E+000	3.57780E+000	10	...........
	38	0.52	9.12650E-001	5.99303E-003	0.00000E+000	5.46954E-003	3.59960E-001	-1.15917E+000	3.57780E+000	10	...........
	39	0.533333	9.18834E-001	5.99534E-003	0.00000E+000	5.50872E-003	3.59960E-001	-1.16747E+000	3.57780E+000	10	...........
	40	0.546667	9.25015E-001	5.99203E-003	0.00000E+000	5.54272E-003	3.59960E-001	-1.16545E+000	3.57780E+000	10	...........
	41	0.56	9.31082E-001	5.99257E-003	0.00000E+000	5.57958E-003	3.59960E-001	-1.15886E+000	3.57780E+000	10	...........
	42	0.573333	9.37126E-001	5.99202E-003	0.00000E+000	5.61527E-003	3.59960E-001	-1.16703E+000	3.57780E+000	10	...........
	43	0.586667	9.43119E-001	5.99611E-003	0.00000E+000	5.65504E-003	3.59960E-001	-1.16448E+000	3.57780E+000	10	...........
	44	0.6	9.49106E-001	5.99422E-003	0.00000E+000	5.68915E-003	3.59960E-001	-1.15863E+000	3.57780E+000	10	...........
	45	0.613333	9.55020E-001	5.99515E-003	0.00000E+000	5.72548E-003	3.59960E-001	-1.16765E+000	3.57780E+000	10	...........
	46	0.626667	9.60894E-001	5.99639E-003	0.00000E+000	5.76190E-003	3.59960E-001	-1.16453E+000	3.57780E+000	10	...........
	47	0.64	9.66667E-001	5.99219E-003	0.00000E+000	5.79245E-003	3.59960E-001	-1.15849E+000	3.57780E+000	10	...........
	48	0.653333	9.72418E-001	5.99760E-003	0.00000E+000	5.83217E-003	3.59960E-001	-1.16723E+000	3.57780E+000	10	...........
	49	0.666667	9.78211E-001	5.99439E-003	0.00000E+000	5.86377E-003	3.59960E-001	-1.16465E+000	3.57780E+000	10	...........
	50	0.68	9.83881E-001	5.99315E-003	0.00000E+000	5.89654E-003	3.59960E-001	-1.15894E+000	3.57780E+000	10	...........
	51	0.693333	9.89448E-001	5.99373E-003	0.00000E+000	5.93048E-003	3.59960E-001	-1.16750E+000	3.57780E+000	10	...........
	52	0.706667	9.95002E-001	5.99710E-003	0.00000E+000	5.96713E-003	3.59960E-001	-1.16396E+000	3.57780E+000	10	...........
	53	0.713333	9.99196E-001	5.99219E-003	0.00000E+000	5.98737E-003	3.59960E-001	-1.16151E+000	3.57780E+000	10	...........
STARTTIMEOFFSET	QUANT	1362.659	Start Time Offset (s)