File: Data/CV_CRGO300517_1/PWRCCD_CRGO300517_1/CHARGE_DISCHARGE/CHARGE_#775.DTA
EXPLAIN
TAG	PWR800_CHARGE
TITLE	LABEL	PWR Cyclic Charge Discharge (Cell) - Charge Step	Test &Identifier
DATE	LABEL	22-6-2017	Date
TIME	LABEL	16:06:21	Time
NOTES	NOTES	3	&Notes...
	supercap test cell
	0.6mg
	6M KOH
PSTAT	PSTAT	IFC5000-01520	Potentiostat
CAPACITY	QUANT	1.00000E-003	Capacity (A-hr)
CELLTYPE	SELECTOR	1	&Cell Type
WORKINGCONNECTION	SELECTOR	0	&Working Lead
MAXCHARGETIME	VARIABLEANDUNITS	1.00000E+002	s	1.00000E+002	second(s)	Max &Charge Time
CHARGECURRENT	QUANT	6.00000E-003	&Charge Current (A)
VOLTAGEFINISH	TWOPARAM	F	1.00000E-003	3.60000E+003	&Voltage Finish	 I (A) < 	Max Time(s)
SAMPLETIME	QUANT	1.00000E-002	Sa&mple Period (s)
CHARGESTOPAT1	MULTIPARAM	4	1.00000E+000	Charge Stop At &1	Voltage > Limit	V
CHARGESTOPAT2	MULTIPARAM	0	0.00000E+000	Charge Stop At &2	None	N/A
AESBHCSELECTOR	TOGGLE	F	Save Both Half Cells
IRCOMP	TOGGLE	F	IR &Measure
EOC	QUANT	0	Open Circuit (V)
SEQUENCER	TOGGLE	TRUE	Run as Sequence
PSTATMODEL	IQUANT	53	Pstat Model
PSTATSECTION	LABEL	IFC5000-01520	Pstat Section
PSTATSERIALNO	LABEL	01520	Pstat Serial Number
CTRLMODE	IQUANT	0	Control Mode
ELECTROMETER	IQUANT	1	RE=0 or CS=1
IESTAB	IQUANT	0	I/E Stability
CASPEED	IQUANT	4	Control Amp Speed
CONVENTION	IQUANT	1	Current Convention
ICHRANGE	IQUANT	2	Ich Range
ICHRANGEMODE	TOGGLE	T	Ich Auto Range
ICHOFFSETENABLE	TOGGLE	F	Ich Offset Enable
ICHOFFSET	QUANT	0	Ich Offset (V)
ICHFILTER	IQUANT	1	Ich Filter
VCHRANGE	IQUANT	2	Vch Range
VCHRANGEMODE	TOGGLE	T	Vch Auto Range
VCHOFFSETENABLE	TOGGLE	F	Vch Offset Enable
VCHOFFSET	QUANT	0	Vch Offset (V)
VCHFILTER	IQUANT	1	Vch Filter
IERANGELOWERLIMIT	IQUANT	9	I/E Range Lower Limit
IERANGEMODE	TOGGLE	F	I/E AutoRange
IERANGE	IQUANT	10	I/E Range
ACHSELECT	IQUANT	1	Ach Select
ACHRANGE	IQUANT	2	Ach Range
ACHOFFSETENABLE	TOGGLE	F	Ach Offset Enable
ACHOFFSET	QUANT	0	Ach Offset (V)
ACHFILTER	IQUANT	1	Ach Filter
CABLEID	IQUANT	14	Cable ID
DCCALDATE	LABEL	20-10-2016	DC Calibration Date
ACCALDATE	LABEL	12/3/2015	AC Calibration Date
FRAMEWORKVERSION	QUANT	7.01	Framework Version
INSTRUMENTVERSION	LABEL	4.00	Instrument Version
CURVE	TABLE	55
	Pt	T	Vf	Im	Vu	Pwr	Sig	Ach	Temp	IERange	Over
	#	s	V	A	V	W	V	V	deg C	#	bits
	0	0.013333	6.47197E-001	5.99721E-003	0.00000E+000	3.88138E-003	3.59960E-001	-1.16368E+000	3.57680E+000	10	...........
	1	0.026667	6.56309E-001	5.99382E-003	0.00000E+000	3.93380E-003	3.59960E-001	-1.17098E+000	3.57680E+000	10	...........
	2	0.04	6.64719E-001	5.98878E-003	0.00000E+000	3.98086E-003	3.59960E-001	-1.16027E+000	3.57680E+000	10	...........
	3	0.053333	6.72708E-001	5.99241E-003	0.00000E+000	4.03115E-003	3.59960E-001	-1.16338E+000	3.57680E+000	10	...........
	4	0.066667	6.80415E-001	5.98941E-003	0.00000E+000	4.07528E-003	3.59960E-001	-1.17055E+000	3.57680E+000	10	...........
	5	0.08	6.87897E-001	5.99193E-003	0.00000E+000	4.12184E-003	3.59960E-001	-1.16027E+000	3.57680E+000	10	...........
	6	0.093333	6.95271E-001	5.99488E-003	0.00000E+000	4.16807E-003	3.59960E-001	-1.16363E+000	3.57680E+000	10	...........
	7	0.106667	7.02515E-001	5.99143E-003	0.00000E+000	4.20907E-003	3.59960E-001	-1.17039E+000	3.57680E+000	10	...........
	8	0.12	7.09654E-001	5.99266E-003	0.00000E+000	4.25272E-003	3.59960E-001	-1.15987E+000	3.57680E+000	10	...........
	9	0.133333	7.16818E-001	5.99361E-003	0.00000E+000	4.29633E-003	3.59960E-001	-1.16361E+000	3.57680E+000	10	...........
	10	0.146667	7.23804E-001	5.99414E-003	0.00000E+000	4.33858E-003	3.59960E-001	-1.17046E+000	3.57680E+000	10	...........
	11	0.16	7.30767E-001	5.99057E-003	0.00000E+000	4.37771E-003	3.59960E-001	-1.16015E+000	3.57680E+000	10	...........
	12	0.173333	7.37667E-001	5.99618E-003	0.00000E+000	4.42318E-003	3.59960E-001	-1.16312E+000	3.57680E+000	10	...........
	13	0.186667	7.44570E-001	5.99092E-003	0.00000E+000	4.46066E-003	3.59960E-001	-1.17001E+000	3.57680E+000	10	...........
	14	0.2	7.51386E-001	5.99467E-003	0.00000E+000	4.50431E-003	3.59960E-001	-1.15957E+000	3.57680E+000	10	...........
	15	0.213333	7.58238E-001	5.99274E-003	0.00000E+000	4.54392E-003	3.59960E-001	-1.16306E+000	3.57680E+000	10	...........
	16	0.226667	7.65007E-001	5.99614E-003	0.00000E+000	4.58709E-003	3.59960E-001	-1.16966E+000	3.57680E+000	10	...........
	17	0.24	7.71823E-001	5.99433E-003	0.00000E+000	4.62657E-003	3.59960E-001	-1.15929E+000	3.57680E+000	10	...........
	18	0.253333	7.78510E-001	5.99340E-003	0.00000E+000	4.66592E-003	3.59960E-001	-1.16288E+000	3.57680E+000	10	...........
	19	0.266667	7.85205E-001	5.99560E-003	0.00000E+000	4.70777E-003	3.59960E-001	-1.16950E+000	3.57680E+000	10	...........
	20	0.28	7.91875E-001	5.99090E-003	0.00000E+000	4.74404E-003	3.59960E-001	-1.15953E+000	3.57680E+000	10	...........
	21	0.293333	7.98563E-001	5.99905E-003	0.00000E+000	4.79062E-003	3.59960E-001	-1.16292E+000	3.57680E+000	10	...........
	22	0.306667	8.05211E-001	5.99811E-003	0.00000E+000	4.82974E-003	3.59960E-001	-1.16927E+000	3.57680E+000	10	...........
	23	0.32	8.11763E-001	5.99096E-003	0.00000E+000	4.86324E-003	3.59960E-001	-1.15925E+000	3.57680E+000	10	...........
	24	0.333333	8.18368E-001	5.99183E-003	0.00000E+000	4.90352E-003	3.59960E-001	-1.16281E+000	3.57680E+000	10	...........
	25	0.346667	8.24962E-001	5.99313E-003	0.00000E+000	4.94411E-003	3.59960E-001	-1.16922E+000	3.57680E+000	10	...........
	26	0.36	8.31488E-001	5.99326E-003	0.00000E+000	4.98332E-003	3.59960E-001	-1.15915E+000	3.57680E+000	10	...........
	27	0.373333	8.38019E-001	5.99541E-003	0.00000E+000	5.02427E-003	3.59960E-001	-1.16269E+000	3.57680E+000	10	...........
	28	0.386667	8.44531E-001	5.99140E-003	0.00000E+000	5.05993E-003	3.59960E-001	-1.16883E+000	3.57680E+000	10	...........
	29	0.4	8.51034E-001	5.98966E-003	0.00000E+000	5.09740E-003	3.59960E-001	-1.15910E+000	3.57680E+000	10	...........
	30	0.413333	8.57464E-001	5.99082E-003	0.00000E+000	5.13691E-003	3.59960E-001	-1.16319E+000	3.57680E+000	10	...........
	31	0.426667	8.63919E-001	5.99959E-003	0.00000E+000	5.18316E-003	3.59960E-001	-1.16923E+000	3.57680E+000	10	...........
	32	0.44	8.70333E-001	5.99531E-003	0.00000E+000	5.21792E-003	3.59960E-001	-1.15919E+000	3.57680E+000	10	...........
	33	0.453333	8.76703E-001	5.99285E-003	0.00000E+000	5.25395E-003	3.59960E-001	-1.16309E+000	3.57680E+000	10	...........
	34	0.466667	8.83042E-001	5.99366E-003	0.00000E+000	5.29265E-003	3.59960E-001	-1.16930E+000	3.57680E+000	10	...........
	35	0.48	8.89373E-001	5.99299E-003	0.00000E+000	5.33000E-003	3.59960E-001	-1.15929E+000	3.57680E+000	10	...........
	36	0.493333	8.95664E-001	5.99304E-003	0.00000E+000	5.36775E-003	3.59960E-001	-1.16299E+000	3.57680E+000	10	...........
	37	0.506667	9.01901E-001	5.99336E-003	0.00000E+000	5.40542E-003	3.59960E-001	-1.16882E+000	3.57680E+000	10	...........
	38	0.52	9.08134E-001	5.99466E-003	0.00000E+000	5.44395E-003	3.59960E-001	-1.15860E+000	3.57680E+000	10	...........
	39	0.533333	9.14305E-001	5.99373E-003	0.00000E+000	5.48010E-003	3.59960E-001	-1.16264E+000	3.57680E+000	10	...........
	40	0.546667	9.20483E-001	5.99309E-003	0.00000E+000	5.51654E-003	3.59960E-001	-1.16870E+000	3.57680E+000	10	...........
	41	0.56	9.26598E-001	5.99143E-003	0.00000E+000	5.55165E-003	3.59960E-001	-1.15881E+000	3.57680E+000	10	...........
	42	0.573333	9.32683E-001	5.99479E-003	0.00000E+000	5.59124E-003	3.59960E-001	-1.16257E+000	3.57680E+000	10	...........
	43	0.586667	9.38669E-001	5.99130E-003	0.00000E+000	5.62384E-003	3.59960E-001	-1.16857E+000	3.57680E+000	10	...........
	44	0.6	9.44646E-001	5.99458E-003	0.00000E+000	5.66276E-003	3.59960E-001	-1.15903E+000	3.57680E+000	10	...........
	45	0.613333	9.50603E-001	5.99375E-003	0.00000E+000	5.69768E-003	3.59960E-001	-1.16298E+000	3.57680E+000	10	...........
	46	0.626667	9.56492E-001	5.99473E-003	0.00000E+000	5.73391E-003	3.59960E-001	-1.16835E+000	3.57680E+000	10	...........
	47	0.64	9.62358E-001	5.99543E-003	0.00000E+000	5.76975E-003	3.59960E-001	-1.15859E+000	3.57680E+000	10	...........
	48	0.653333	9.68143E-001	5.99424E-003	0.00000E+000	5.80328E-003	3.59960E-001	-1.16297E+000	3.57680E+000	10	...........
	49	0.666667	9.73896E-001	5.99395E-003	0.00000E+000	5.83748E-003	3.59960E-001	-1.16856E+000	3.57680E+000	10	...........
	50	0.68	9.79565E-001	5.99285E-003	0.00000E+000	5.87039E-003	3.59960E-001	-1.15873E+000	3.57680E+000	10	...........
	51	0.693333	9.85206E-001	5.99400E-003	0.00000E+000	5.90532E-003	3.59960E-001	-1.16302E+000	3.57680E+000	10	...........
	52	0.706667	9.90808E-001	5.99454E-003	0.00000E+000	5.93944E-003	3.59960E-001	-1.16842E+000	3.57680E+000	10	...........
	53	0.72	9.96341E-001	5.99303E-003	0.00000E+000	5.97110E-003	3.59960E-001	-1.15883E+000	3.57680E+000	10	...........
	54	0.723333	9.99769E-001	5.99392E-003	0.00000E+000	5.99253E-003	3.59960E-001	-1.17407E+000	3.57680E+000	10	...........
STARTTIMEOFFSET	QUANT	1268.191	Start Time Offset (s)