File: Data/CV_CRGO300517_1/PWRCCD_CRGO300517_1/CHARGE_DISCHARGE/CHARGE_#140.DTA
EXPLAIN
TAG	PWR800_CHARGE
TITLE	LABEL	PWR Cyclic Charge Discharge (Cell) - Charge Step	Test &Identifier
DATE	LABEL	22-6-2017	Date
TIME	LABEL	15:41:15	Time
NOTES	NOTES	3	&Notes...
	supercap test cell
	0.6mg
	6M KOH
PSTAT	PSTAT	IFC5000-01520	Potentiostat
CAPACITY	QUANT	1.00000E-003	Capacity (A-hr)
CELLTYPE	SELECTOR	1	&Cell Type
WORKINGCONNECTION	SELECTOR	0	&Working Lead
MAXCHARGETIME	VARIABLEANDUNITS	1.00000E+002	s	1.00000E+002	second(s)	Max &Charge Time
CHARGECURRENT	QUANT	6.00000E-003	&Charge Current (A)
VOLTAGEFINISH	TWOPARAM	F	1.00000E-003	3.60000E+003	&Voltage Finish	 I (A) < 	Max Time(s)
SAMPLETIME	QUANT	1.00000E-002	Sa&mple Period (s)
CHARGESTOPAT1	MULTIPARAM	4	1.00000E+000	Charge Stop At &1	Voltage > Limit	V
CHARGESTOPAT2	MULTIPARAM	0	0.00000E+000	Charge Stop At &2	None	N/A
AESBHCSELECTOR	TOGGLE	F	Save Both Half Cells
IRCOMP	TOGGLE	F	IR &Measure
EOC	QUANT	0	Open Circuit (V)
SEQUENCER	TOGGLE	TRUE	Run as Sequence
PSTATMODEL	IQUANT	53	Pstat Model
PSTATSECTION	LABEL	IFC5000-01520	Pstat Section
PSTATSERIALNO	LABEL	01520	Pstat Serial Number
CTRLMODE	IQUANT	0	Control Mode
ELECTROMETER	IQUANT	1	RE=0 or CS=1
IESTAB	IQUANT	0	I/E Stability
CASPEED	IQUANT	4	Control Amp Speed
CONVENTION	IQUANT	1	Current Convention
ICHRANGE	IQUANT	2	Ich Range
ICHRANGEMODE	TOGGLE	T	Ich Auto Range
ICHOFFSETENABLE	TOGGLE	F	Ich Offset Enable
ICHOFFSET	QUANT	0	Ich Offset (V)
ICHFILTER	IQUANT	1	Ich Filter
VCHRANGE	IQUANT	2	Vch Range
VCHRANGEMODE	TOGGLE	T	Vch Auto Range
VCHOFFSETENABLE	TOGGLE	F	Vch Offset Enable
VCHOFFSET	QUANT	0	Vch Offset (V)
VCHFILTER	IQUANT	1	Vch Filter
IERANGELOWERLIMIT	IQUANT	9	I/E Range Lower Limit
IERANGEMODE	TOGGLE	F	I/E AutoRange
IERANGE	IQUANT	10	I/E Range
ACHSELECT	IQUANT	1	Ach Select
ACHRANGE	IQUANT	2	Ach Range
ACHOFFSETENABLE	TOGGLE	F	Ach Offset Enable
ACHOFFSET	QUANT	0	Ach Offset (V)
ACHFILTER	IQUANT	1	Ach Filter
CABLEID	IQUANT	14	Cable ID
DCCALDATE	LABEL	20-10-2016	DC Calibration Date
ACCALDATE	LABEL	12/3/2015	AC Calibration Date
FRAMEWORKVERSION	QUANT	7.01	Framework Version
INSTRUMENTVERSION	LABEL	4.00	Instrument Version
CURVE	TABLE	68
	Pt	T	Vf	Im	Vu	Pwr	Sig	Ach	Temp	IERange	Over
	#	s	V	A	V	W	V	V	deg C	#	bits
	0	0.013333	5.96764E-001	5.99490E-003	0.00000E+000	3.57754E-003	3.59960E-001	-1.07230E+000	3.57830E+000	10	...........
	1	0.026667	6.05052E-001	5.99744E-003	0.00000E+000	3.62876E-003	3.59960E-001	-1.08276E+000	3.57830E+000	10	...........
	2	0.04	6.12705E-001	5.99301E-003	0.00000E+000	3.67194E-003	3.59960E-001	-1.07276E+000	3.57830E+000	10	...........
	3	0.053333	6.19970E-001	5.99335E-003	0.00000E+000	3.71570E-003	3.59960E-001	-1.07220E+000	3.57830E+000	10	...........
	4	0.066667	6.26935E-001	5.99506E-003	0.00000E+000	3.75851E-003	3.59960E-001	-1.08270E+000	3.57830E+000	10	...........
	5	0.08	6.33709E-001	5.99589E-003	0.00000E+000	3.79965E-003	3.59960E-001	-1.07296E+000	3.57830E+000	10	...........
	6	0.093333	6.40365E-001	5.99786E-003	0.00000E+000	3.84082E-003	3.59960E-001	-1.07173E+000	3.57830E+000	10	...........
	7	0.106667	6.46887E-001	5.99642E-003	0.00000E+000	3.87901E-003	3.59960E-001	-1.08202E+000	3.57830E+000	10	...........
	8	0.12	6.53388E-001	5.99724E-003	0.00000E+000	3.91853E-003	3.59960E-001	-1.07248E+000	3.57830E+000	10	...........
	9	0.133333	6.59753E-001	5.99615E-003	0.00000E+000	3.95598E-003	3.59960E-001	-1.07161E+000	3.57830E+000	10	...........
	10	0.146667	6.66097E-001	5.99610E-003	0.00000E+000	3.99398E-003	3.59960E-001	-1.08218E+000	3.57830E+000	10	...........
	11	0.16	6.72374E-001	5.99281E-003	0.00000E+000	4.02941E-003	3.59960E-001	-1.07252E+000	3.57830E+000	10	...........
	12	0.173333	6.78605E-001	5.99214E-003	0.00000E+000	4.06630E-003	3.59960E-001	-1.07108E+000	3.57830E+000	10	...........
	13	0.186667	6.84796E-001	5.99156E-003	0.00000E+000	4.10300E-003	3.59960E-001	-1.08217E+000	3.57830E+000	10	...........
	14	0.2	6.90972E-001	5.99330E-003	0.00000E+000	4.14120E-003	3.59960E-001	-1.07249E+000	3.57830E+000	10	...........
	15	0.213333	6.97077E-001	5.99071E-003	0.00000E+000	4.17599E-003	3.59960E-001	-1.07133E+000	3.57830E+000	10	...........
	16	0.226667	7.03219E-001	5.99127E-003	0.00000E+000	4.21317E-003	3.59960E-001	-1.08191E+000	3.57830E+000	10	...........
	17	0.24	7.09311E-001	5.99299E-003	0.00000E+000	4.25090E-003	3.59960E-001	-1.07244E+000	3.57830E+000	10	...........
	18	0.253333	7.15428E-001	5.99466E-003	0.00000E+000	4.28874E-003	3.59960E-001	-1.07116E+000	3.57830E+000	10	...........
	19	0.266667	7.21514E-001	5.99419E-003	0.00000E+000	4.32489E-003	3.59960E-001	-1.08203E+000	3.57830E+000	10	...........
	20	0.28	7.27594E-001	5.99647E-003	0.00000E+000	4.36300E-003	3.59960E-001	-1.07254E+000	3.57830E+000	10	...........
	21	0.293333	7.33618E-001	5.99391E-003	0.00000E+000	4.39724E-003	3.59960E-001	-1.07085E+000	3.57830E+000	10	...........
	22	0.306667	7.39684E-001	5.99286E-003	0.00000E+000	4.43282E-003	3.59960E-001	-1.08181E+000	3.57830E+000	10	...........
	23	0.32	7.45746E-001	5.99687E-003	0.00000E+000	4.47214E-003	3.59960E-001	-1.07257E+000	3.57830E+000	10	...........
	24	0.333333	7.51713E-001	5.99454E-003	0.00000E+000	4.50618E-003	3.59960E-001	-1.07122E+000	3.57830E+000	10	...........
	25	0.346667	7.57802E-001	5.99444E-003	0.00000E+000	4.54260E-003	3.59960E-001	-1.08202E+000	3.57830E+000	10	...........
	26	0.36	7.63795E-001	5.99184E-003	0.00000E+000	4.57654E-003	3.59960E-001	-1.07255E+000	3.57830E+000	10	...........
	27	0.373333	7.69816E-001	5.99143E-003	0.00000E+000	4.61230E-003	3.59960E-001	-1.07094E+000	3.57830E+000	10	...........
	28	0.386667	7.75817E-001	5.99004E-003	0.00000E+000	4.64717E-003	3.59960E-001	-1.08205E+000	3.57830E+000	10	...........
	29	0.4	7.81792E-001	5.99196E-003	0.00000E+000	4.68446E-003	3.59960E-001	-1.07300E+000	3.57830E+000	10	...........
	30	0.413333	7.87826E-001	5.99223E-003	0.00000E+000	4.72083E-003	3.59960E-001	-1.07090E+000	3.57830E+000	10	...........
	31	0.426667	7.93832E-001	5.99184E-003	0.00000E+000	4.75651E-003	3.59960E-001	-1.08134E+000	3.57830E+000	10	...........
	32	0.44	7.99823E-001	5.99363E-003	0.00000E+000	4.79384E-003	3.59960E-001	-1.07218E+000	3.57830E+000	10	...........
	33	0.453333	8.05832E-001	5.99437E-003	0.00000E+000	4.83045E-003	3.59960E-001	-1.07076E+000	3.57725E+000	10	...........
	34	0.466667	8.11809E-001	5.98923E-003	0.00000E+000	4.86212E-003	3.59960E-001	-1.08159E+000	3.57710E+000	10	...........
	35	0.48	8.17788E-001	5.99060E-003	0.00000E+000	4.89904E-003	3.59960E-001	-1.07246E+000	3.57710E+000	10	...........
	36	0.493333	8.23725E-001	5.99169E-003	0.00000E+000	4.93551E-003	3.59960E-001	-1.07065E+000	3.57710E+000	10	...........
	37	0.506667	8.29692E-001	5.99314E-003	0.00000E+000	4.97247E-003	3.59960E-001	-1.08125E+000	3.57710E+000	10	...........
	38	0.52	8.35602E-001	5.99178E-003	0.00000E+000	5.00674E-003	3.59960E-001	-1.07267E+000	3.57710E+000	10	...........
	39	0.533333	8.41538E-001	5.99457E-003	0.00000E+000	5.04466E-003	3.59960E-001	-1.07069E+000	3.57710E+000	10	...........
	40	0.546667	8.47520E-001	5.99062E-003	0.00000E+000	5.07717E-003	3.59960E-001	-1.08126E+000	3.57710E+000	10	...........
	41	0.56	8.53416E-001	5.99524E-003	0.00000E+000	5.11643E-003	3.59960E-001	-1.07251E+000	3.57710E+000	10	...........
	42	0.573333	8.59354E-001	5.99798E-003	0.00000E+000	5.15440E-003	3.59960E-001	-1.07028E+000	3.57710E+000	10	...........
	43	0.586667	8.65222E-001	5.99230E-003	0.00000E+000	5.18467E-003	3.59960E-001	-1.08118E+000	3.57710E+000	10	...........
	44	0.6	8.71139E-001	5.99135E-003	0.00000E+000	5.21930E-003	3.59960E-001	-1.07279E+000	3.57710E+000	10	...........
	45	0.613333	8.76987E-001	5.99054E-003	0.00000E+000	5.25363E-003	3.59960E-001	-1.07050E+000	3.57710E+000	10	...........
	46	0.626667	8.82877E-001	5.99384E-003	0.00000E+000	5.29183E-003	3.59960E-001	-1.08113E+000	3.57710E+000	10	...........
	47	0.64	8.88735E-001	5.99564E-003	0.00000E+000	5.32853E-003	3.59960E-001	-1.07253E+000	3.57710E+000	10	...........
	48	0.653333	8.94609E-001	5.99746E-003	0.00000E+000	5.36538E-003	3.59960E-001	-1.07049E+000	3.57710E+000	10	...........
	49	0.666667	9.00465E-001	5.99524E-003	0.00000E+000	5.39850E-003	3.59960E-001	-1.08157E+000	3.57710E+000	10	...........
	50	0.68	9.06282E-001	5.99466E-003	0.00000E+000	5.43285E-003	3.59960E-001	-1.07289E+000	3.57710E+000	10	...........
	51	0.693333	9.12064E-001	5.99863E-003	0.00000E+000	5.47114E-003	3.59960E-001	-1.07040E+000	3.57710E+000	10	...........
	52	0.706667	9.17857E-001	5.99394E-003	0.00000E+000	5.50158E-003	3.59960E-001	-1.08097E+000	3.57710E+000	10	...........
	53	0.72	9.23644E-001	5.99158E-003	0.00000E+000	5.53409E-003	3.59960E-001	-1.07307E+000	3.57710E+000	10	...........
	54	0.733333	9.29353E-001	5.99061E-003	0.00000E+000	5.56739E-003	3.59960E-001	-1.07033E+000	3.57710E+000	10	...........
	55	0.746667	9.35106E-001	5.98848E-003	0.00000E+000	5.59987E-003	3.59960E-001	-1.08075E+000	3.57710E+000	10	...........
	56	0.76	9.40773E-001	5.99826E-003	0.00000E+000	5.64300E-003	3.59960E-001	-1.07249E+000	3.57710E+000	10	...........
	57	0.773333	9.46455E-001	5.99236E-003	0.00000E+000	5.67150E-003	3.59960E-001	-1.06978E+000	3.57710E+000	10	...........
	58	0.786667	9.52095E-001	5.99185E-003	0.00000E+000	5.70481E-003	3.59960E-001	-1.08058E+000	3.57710E+000	10	...........
	59	0.8	9.57710E-001	5.99588E-003	0.00000E+000	5.74231E-003	3.59960E-001	-1.07276E+000	3.57710E+000	10	...........
	60	0.813333	9.63252E-001	5.99731E-003	0.00000E+000	5.77692E-003	3.59960E-001	-1.06989E+000	3.57710E+000	10	...........
	61	0.826667	9.68756E-001	5.99013E-003	0.00000E+000	5.80298E-003	3.59960E-001	-1.08044E+000	3.57710E+000	10	...........
	62	0.84	9.74292E-001	5.99846E-003	0.00000E+000	5.84426E-003	3.59960E-001	-1.07253E+000	3.57710E+000	10	...........
	63	0.853333	9.79756E-001	5.99221E-003	0.00000E+000	5.87090E-003	3.59960E-001	-1.06990E+000	3.57710E+000	10	...........
	64	0.866667	9.85204E-001	5.99115E-003	0.00000E+000	5.90250E-003	3.59960E-001	-1.08084E+000	3.57710E+000	10	...........
	65	0.88	9.90652E-001	5.99576E-003	0.00000E+000	5.93971E-003	3.59960E-001	-1.07281E+000	3.57710E+000	10	...........
	66	0.893333	9.95963E-001	5.99126E-003	0.00000E+000	5.96707E-003	3.59960E-001	-1.06981E+000	3.57710E+000	10	...........
	67	0.898333	9.99644E-001	5.99321E-003	0.00000E+000	5.99107E-003	3.59960E-001	-1.08311E+000	3.57710E+000	10	...........
STARTTIMEOFFSET	QUANT	267.79	Start Time Offset (s)