File: Data/CV_CRGO300517_1/PWRCCD_CRGO300517_1/CHARGE_DISCHARGE/CHARGE_#310.DTA
EXPLAIN
TAG	PWR800_CHARGE
TITLE	LABEL	PWR Cyclic Charge Discharge (Cell) - Charge Step	Test &Identifier
DATE	LABEL	22-6-2017	Date
TIME	LABEL	15:48:20	Time
NOTES	NOTES	3	&Notes...
	supercap test cell
	0.6mg
	6M KOH
PSTAT	PSTAT	IFC5000-01520	Potentiostat
CAPACITY	QUANT	1.00000E-003	Capacity (A-hr)
CELLTYPE	SELECTOR	1	&Cell Type
WORKINGCONNECTION	SELECTOR	0	&Working Lead
MAXCHARGETIME	VARIABLEANDUNITS	1.00000E+002	s	1.00000E+002	second(s)	Max &Charge Time
CHARGECURRENT	QUANT	6.00000E-003	&Charge Current (A)
VOLTAGEFINISH	TWOPARAM	F	1.00000E-003	3.60000E+003	&Voltage Finish	 I (A) < 	Max Time(s)
SAMPLETIME	QUANT	1.00000E-002	Sa&mple Period (s)
CHARGESTOPAT1	MULTIPARAM	4	1.00000E+000	Charge Stop At &1	Voltage > Limit	V
CHARGESTOPAT2	MULTIPARAM	0	0.00000E+000	Charge Stop At &2	None	N/A
AESBHCSELECTOR	TOGGLE	F	Save Both Half Cells
IRCOMP	TOGGLE	F	IR &Measure
EOC	QUANT	0	Open Circuit (V)
SEQUENCER	TOGGLE	TRUE	Run as Sequence
PSTATMODEL	IQUANT	53	Pstat Model
PSTATSECTION	LABEL	IFC5000-01520	Pstat Section
PSTATSERIALNO	LABEL	01520	Pstat Serial Number
CTRLMODE	IQUANT	0	Control Mode
ELECTROMETER	IQUANT	1	RE=0 or CS=1
IESTAB	IQUANT	0	I/E Stability
CASPEED	IQUANT	4	Control Amp Speed
CONVENTION	IQUANT	1	Current Convention
ICHRANGE	IQUANT	2	Ich Range
ICHRANGEMODE	TOGGLE	T	Ich Auto Range
ICHOFFSETENABLE	TOGGLE	F	Ich Offset Enable
ICHOFFSET	QUANT	0	Ich Offset (V)
ICHFILTER	IQUANT	1	Ich Filter
VCHRANGE	IQUANT	2	Vch Range
VCHRANGEMODE	TOGGLE	T	Vch Auto Range
VCHOFFSETENABLE	TOGGLE	F	Vch Offset Enable
VCHOFFSET	QUANT	0	Vch Offset (V)
VCHFILTER	IQUANT	1	Vch Filter
IERANGELOWERLIMIT	IQUANT	9	I/E Range Lower Limit
IERANGEMODE	TOGGLE	F	I/E AutoRange
IERANGE	IQUANT	10	I/E Range
ACHSELECT	IQUANT	1	Ach Select
ACHRANGE	IQUANT	2	Ach Range
ACHOFFSETENABLE	TOGGLE	F	Ach Offset Enable
ACHOFFSET	QUANT	0	Ach Offset (V)
ACHFILTER	IQUANT	1	Ach Filter
CABLEID	IQUANT	14	Cable ID
DCCALDATE	LABEL	20-10-2016	DC Calibration Date
ACCALDATE	LABEL	12/3/2015	AC Calibration Date
FRAMEWORKVERSION	QUANT	7.01	Framework Version
INSTRUMENTVERSION	LABEL	4.00	Instrument Version
CURVE	TABLE	62
	Pt	T	Vf	Im	Vu	Pwr	Sig	Ach	Temp	IERange	Over
	#	s	V	A	V	W	V	V	deg C	#	bits
	0	0.013333	6.17653E-001	5.99344E-003	0.00000E+000	3.70186E-003	3.59960E-001	-1.11710E+000	3.57810E+000	10	...........
	1	0.026667	6.26243E-001	5.99760E-003	0.00000E+000	3.75596E-003	3.59960E-001	-1.11137E+000	3.57810E+000	10	...........
	2	0.04	6.34141E-001	5.99207E-003	0.00000E+000	3.79982E-003	3.59960E-001	-1.10706E+000	3.57810E+000	10	...........
	3	0.053333	6.41695E-001	5.99571E-003	0.00000E+000	3.84742E-003	3.59960E-001	-1.11726E+000	3.57810E+000	10	...........
	4	0.066667	6.48944E-001	5.99241E-003	0.00000E+000	3.88874E-003	3.59960E-001	-1.11101E+000	3.57810E+000	10	...........
	5	0.08	6.55987E-001	5.99392E-003	0.00000E+000	3.93193E-003	3.59960E-001	-1.10726E+000	3.57810E+000	10	...........
	6	0.093333	6.62914E-001	5.99916E-003	0.00000E+000	3.97693E-003	3.59960E-001	-1.11708E+000	3.57810E+000	10	...........
	7	0.106667	6.69682E-001	5.99495E-003	0.00000E+000	4.01471E-003	3.59960E-001	-1.11093E+000	3.57810E+000	10	...........
	8	0.12	6.76439E-001	5.99032E-003	0.00000E+000	4.05209E-003	3.59960E-001	-1.10702E+000	3.57810E+000	10	...........
	9	0.133333	6.83089E-001	5.99565E-003	0.00000E+000	4.09556E-003	3.59960E-001	-1.11654E+000	3.57810E+000	10	...........
	10	0.146667	6.89644E-001	5.99572E-003	0.00000E+000	4.13491E-003	3.59960E-001	-1.11059E+000	3.57810E+000	10	...........
	11	0.16	6.96194E-001	5.98900E-003	0.00000E+000	4.16951E-003	3.59960E-001	-1.10661E+000	3.57810E+000	10	...........
	12	0.173333	7.02714E-001	5.99551E-003	0.00000E+000	4.21313E-003	3.59960E-001	-1.11651E+000	3.57810E+000	10	...........
	13	0.186667	7.09141E-001	5.99056E-003	0.00000E+000	4.24815E-003	3.59960E-001	-1.11038E+000	3.57810E+000	10	...........
	14	0.2	7.15565E-001	5.99275E-003	0.00000E+000	4.28820E-003	3.59960E-001	-1.10630E+000	3.57810E+000	10	...........
	15	0.213333	7.22006E-001	5.99280E-003	0.00000E+000	4.32684E-003	3.59960E-001	-1.11627E+000	3.57810E+000	10	...........
	16	0.226667	7.28379E-001	5.99046E-003	0.00000E+000	4.36333E-003	3.59960E-001	-1.11041E+000	3.57810E+000	10	...........
	17	0.24	7.34766E-001	6.00022E-003	0.00000E+000	4.40876E-003	3.59960E-001	-1.10664E+000	3.57810E+000	10	...........
	18	0.253333	7.41096E-001	5.99089E-003	0.00000E+000	4.43982E-003	3.59960E-001	-1.11621E+000	3.57810E+000	10	...........
	19	0.266667	7.47443E-001	5.99335E-003	0.00000E+000	4.47969E-003	3.59960E-001	-1.11046E+000	3.57810E+000	10	...........
	20	0.28	7.53768E-001	5.99621E-003	0.00000E+000	4.51975E-003	3.59960E-001	-1.10656E+000	3.57810E+000	10	...........
	21	0.293333	7.60048E-001	5.99209E-003	0.00000E+000	4.55428E-003	3.59960E-001	-1.11629E+000	3.57810E+000	10	...........
	22	0.306667	7.66341E-001	5.99637E-003	0.00000E+000	4.59526E-003	3.59960E-001	-1.11041E+000	3.57810E+000	10	...........
	23	0.32	7.72665E-001	5.98962E-003	0.00000E+000	4.62797E-003	3.59960E-001	-1.10635E+000	3.57810E+000	10	...........
	24	0.333333	7.78916E-001	5.99273E-003	0.00000E+000	4.66783E-003	3.59960E-001	-1.11619E+000	3.57810E+000	10	...........
	25	0.346667	7.85167E-001	5.99540E-003	0.00000E+000	4.70739E-003	3.59960E-001	-1.11049E+000	3.57810E+000	10	...........
	26	0.36	7.91376E-001	5.99343E-003	0.00000E+000	4.74305E-003	3.59960E-001	-1.10662E+000	3.57810E+000	10	...........
	27	0.373333	7.97665E-001	5.99631E-003	0.00000E+000	4.78305E-003	3.59960E-001	-1.11633E+000	3.57810E+000	10	...........
	28	0.386667	8.03920E-001	5.99548E-003	0.00000E+000	4.81989E-003	3.59960E-001	-1.11047E+000	3.57810E+000	10	...........
	29	0.4	8.10110E-001	5.99847E-003	0.00000E+000	4.85942E-003	3.59960E-001	-1.10631E+000	3.57810E+000	10	...........
	30	0.413333	8.16334E-001	5.99202E-003	0.00000E+000	4.89149E-003	3.59960E-001	-1.11630E+000	3.57810E+000	10	...........
	31	0.426667	8.22583E-001	6.00025E-003	0.00000E+000	4.93570E-003	3.59960E-001	-1.11042E+000	3.57810E+000	10	...........
	32	0.44	8.28738E-001	5.99075E-003	0.00000E+000	4.96476E-003	3.59960E-001	-1.10661E+000	3.57810E+000	10	...........
	33	0.453333	8.34892E-001	5.99430E-003	0.00000E+000	5.00459E-003	3.59960E-001	-1.11637E+000	3.57810E+000	10	...........
	34	0.466667	8.41044E-001	5.99236E-003	0.00000E+000	5.03984E-003	3.59960E-001	-1.11011E+000	3.57810E+000	10	...........
	35	0.48	8.47197E-001	5.99497E-003	0.00000E+000	5.07892E-003	3.59960E-001	-1.10625E+000	3.57810E+000	10	...........
	36	0.493333	8.53331E-001	5.99749E-003	0.00000E+000	5.11785E-003	3.59960E-001	-1.11607E+000	3.57810E+000	10	...........
	37	0.506667	8.59465E-001	5.99179E-003	0.00000E+000	5.14973E-003	3.59960E-001	-1.11006E+000	3.57810E+000	10	...........
	38	0.52	8.65576E-001	5.99662E-003	0.00000E+000	5.19053E-003	3.59960E-001	-1.10623E+000	3.57810E+000	10	...........
	39	0.533333	8.71708E-001	5.98973E-003	0.00000E+000	5.22130E-003	3.59960E-001	-1.11608E+000	3.57810E+000	10	...........
	40	0.546667	8.77805E-001	5.99729E-003	0.00000E+000	5.26445E-003	3.59960E-001	-1.10995E+000	3.57810E+000	10	...........
	41	0.56	8.83875E-001	5.98999E-003	0.00000E+000	5.29441E-003	3.59960E-001	-1.10607E+000	3.57810E+000	10	...........
	42	0.573333	8.89876E-001	5.99585E-003	0.00000E+000	5.33556E-003	3.59960E-001	-1.11588E+000	3.57810E+000	10	...........
	43	0.586667	8.95924E-001	5.99725E-003	0.00000E+000	5.37308E-003	3.59960E-001	-1.10992E+000	3.57810E+000	10	...........
	44	0.6	9.01889E-001	5.99265E-003	0.00000E+000	5.40471E-003	3.59960E-001	-1.10579E+000	3.57810E+000	10	...........
	45	0.613333	9.07835E-001	5.98959E-003	0.00000E+000	5.43756E-003	3.59960E-001	-1.11603E+000	3.57810E+000	10	...........
	46	0.626667	9.13797E-001	5.99503E-003	0.00000E+000	5.47824E-003	3.59960E-001	-1.10981E+000	3.57810E+000	10	...........
	47	0.64	9.19761E-001	5.99665E-003	0.00000E+000	5.51548E-003	3.59960E-001	-1.10612E+000	3.57810E+000	10	...........
	48	0.653333	9.25694E-001	5.99454E-003	0.00000E+000	5.54911E-003	3.59960E-001	-1.11591E+000	3.57810E+000	10	...........
	49	0.666667	9.31521E-001	5.99577E-003	0.00000E+000	5.58519E-003	3.59960E-001	-1.10993E+000	3.57810E+000	10	...........
	50	0.68	9.37350E-001	5.99330E-003	0.00000E+000	5.61782E-003	3.59960E-001	-1.10594E+000	3.57810E+000	10	...........
	51	0.693333	9.43147E-001	5.99332E-003	0.00000E+000	5.65258E-003	3.59960E-001	-1.11608E+000	3.57810E+000	10	...........
	52	0.706667	9.48948E-001	5.99258E-003	0.00000E+000	5.68665E-003	3.59960E-001	-1.11017E+000	3.57810E+000	10	...........
	53	0.72	9.54671E-001	5.99191E-003	0.00000E+000	5.72031E-003	3.59960E-001	-1.10629E+000	3.57810E+000	10	...........
	54	0.733333	9.60352E-001	5.99103E-003	0.00000E+000	5.75349E-003	3.59960E-001	-1.11614E+000	3.57810E+000	10	...........
	55	0.746667	9.66011E-001	5.99539E-003	0.00000E+000	5.79161E-003	3.59960E-001	-1.11026E+000	3.57810E+000	10	...........
	56	0.76	9.71655E-001	5.99404E-003	0.00000E+000	5.82414E-003	3.59960E-001	-1.10636E+000	3.57810E+000	10	...........
	57	0.773333	9.77252E-001	5.99464E-003	0.00000E+000	5.85827E-003	3.59960E-001	-1.11629E+000	3.57810E+000	10	...........
	58	0.786667	9.82814E-001	5.99084E-003	0.00000E+000	5.88788E-003	3.59960E-001	-1.10973E+000	3.57810E+000	10	...........
	59	0.8	9.88307E-001	5.98885E-003	0.00000E+000	5.91882E-003	3.59960E-001	-1.10583E+000	3.57810E+000	10	...........
	60	0.813333	9.93745E-001	5.99588E-003	0.00000E+000	5.95838E-003	3.59960E-001	-1.11589E+000	3.57810E+000	10	...........
	61	0.823333	9.98515E-001	5.99080E-003	0.00000E+000	5.98191E-003	3.59960E-001	-1.10630E+000	3.57810E+000	10	...........
STARTTIMEOFFSET	QUANT	557.5699	Start Time Offset (s)