File: Data/CV_CRGO300517_1/PWRCCD_CRGO300517_1/CHARGE_DISCHARGE/CHARGE_#293.DTA
EXPLAIN
TAG	PWR800_CHARGE
TITLE	LABEL	PWR Cyclic Charge Discharge (Cell) - Charge Step	Test &Identifier
DATE	LABEL	22-6-2017	Date
TIME	LABEL	15:47:38	Time
NOTES	NOTES	3	&Notes...
	supercap test cell
	0.6mg
	6M KOH
PSTAT	PSTAT	IFC5000-01520	Potentiostat
CAPACITY	QUANT	1.00000E-003	Capacity (A-hr)
CELLTYPE	SELECTOR	1	&Cell Type
WORKINGCONNECTION	SELECTOR	0	&Working Lead
MAXCHARGETIME	VARIABLEANDUNITS	1.00000E+002	s	1.00000E+002	second(s)	Max &Charge Time
CHARGECURRENT	QUANT	6.00000E-003	&Charge Current (A)
VOLTAGEFINISH	TWOPARAM	F	1.00000E-003	3.60000E+003	&Voltage Finish	 I (A) < 	Max Time(s)
SAMPLETIME	QUANT	1.00000E-002	Sa&mple Period (s)
CHARGESTOPAT1	MULTIPARAM	4	1.00000E+000	Charge Stop At &1	Voltage > Limit	V
CHARGESTOPAT2	MULTIPARAM	0	0.00000E+000	Charge Stop At &2	None	N/A
AESBHCSELECTOR	TOGGLE	F	Save Both Half Cells
IRCOMP	TOGGLE	F	IR &Measure
EOC	QUANT	0	Open Circuit (V)
SEQUENCER	TOGGLE	TRUE	Run as Sequence
PSTATMODEL	IQUANT	53	Pstat Model
PSTATSECTION	LABEL	IFC5000-01520	Pstat Section
PSTATSERIALNO	LABEL	01520	Pstat Serial Number
CTRLMODE	IQUANT	0	Control Mode
ELECTROMETER	IQUANT	1	RE=0 or CS=1
IESTAB	IQUANT	0	I/E Stability
CASPEED	IQUANT	4	Control Amp Speed
CONVENTION	IQUANT	1	Current Convention
ICHRANGE	IQUANT	2	Ich Range
ICHRANGEMODE	TOGGLE	T	Ich Auto Range
ICHOFFSETENABLE	TOGGLE	F	Ich Offset Enable
ICHOFFSET	QUANT	0	Ich Offset (V)
ICHFILTER	IQUANT	1	Ich Filter
VCHRANGE	IQUANT	2	Vch Range
VCHRANGEMODE	TOGGLE	T	Vch Auto Range
VCHOFFSETENABLE	TOGGLE	F	Vch Offset Enable
VCHOFFSET	QUANT	0	Vch Offset (V)
VCHFILTER	IQUANT	1	Vch Filter
IERANGELOWERLIMIT	IQUANT	9	I/E Range Lower Limit
IERANGEMODE	TOGGLE	F	I/E AutoRange
IERANGE	IQUANT	10	I/E Range
ACHSELECT	IQUANT	1	Ach Select
ACHRANGE	IQUANT	2	Ach Range
ACHOFFSETENABLE	TOGGLE	F	Ach Offset Enable
ACHOFFSET	QUANT	0	Ach Offset (V)
ACHFILTER	IQUANT	1	Ach Filter
CABLEID	IQUANT	14	Cable ID
DCCALDATE	LABEL	20-10-2016	DC Calibration Date
ACCALDATE	LABEL	12/3/2015	AC Calibration Date
FRAMEWORKVERSION	QUANT	7.01	Framework Version
INSTRUMENTVERSION	LABEL	4.00	Instrument Version
CURVE	TABLE	63
	Pt	T	Vf	Im	Vu	Pwr	Sig	Ach	Temp	IERange	Over
	#	s	V	A	V	W	V	V	deg C	#	bits
	0	0.013333	6.15739E-001	5.99498E-003	0.00000E+000	3.69135E-003	3.59960E-001	-1.11004E+000	3.57710E+000	10	...........
	1	0.026667	6.24354E-001	5.99093E-003	0.00000E+000	3.74046E-003	3.59960E-001	-1.10524E+000	3.57710E+000	10	...........
	2	0.04	6.32241E-001	5.99171E-003	0.00000E+000	3.78820E-003	3.59960E-001	-1.11396E+000	3.57710E+000	10	...........
	3	0.053333	6.39795E-001	5.99325E-003	0.00000E+000	3.83445E-003	3.59960E-001	-1.10926E+000	3.57710E+000	10	...........
	4	0.066667	6.46981E-001	5.99782E-003	0.00000E+000	3.88047E-003	3.59960E-001	-1.10448E+000	3.57710E+000	10	...........
	5	0.08	6.54049E-001	5.99403E-003	0.00000E+000	3.92039E-003	3.59960E-001	-1.11343E+000	3.57710E+000	10	...........
	6	0.093333	6.60932E-001	5.99125E-003	0.00000E+000	3.95981E-003	3.59960E-001	-1.10965E+000	3.57710E+000	10	...........
	7	0.106667	6.67750E-001	5.99143E-003	0.00000E+000	4.00078E-003	3.59960E-001	-1.10453E+000	3.57710E+000	10	...........
	8	0.12	6.74442E-001	5.99223E-003	0.00000E+000	4.04141E-003	3.59960E-001	-1.11315E+000	3.57710E+000	10	...........
	9	0.133333	6.81050E-001	5.99518E-003	0.00000E+000	4.08302E-003	3.59960E-001	-1.10934E+000	3.57710E+000	10	...........
	10	0.146667	6.87631E-001	5.99295E-003	0.00000E+000	4.12094E-003	3.59960E-001	-1.10434E+000	3.57710E+000	10	...........
	11	0.16	6.94212E-001	5.99554E-003	0.00000E+000	4.16218E-003	3.59960E-001	-1.11321E+000	3.57710E+000	10	...........
	12	0.173333	7.00667E-001	5.99566E-003	0.00000E+000	4.20096E-003	3.59960E-001	-1.10953E+000	3.57710E+000	10	...........
	13	0.186667	7.07083E-001	5.99271E-003	0.00000E+000	4.23734E-003	3.59960E-001	-1.10438E+000	3.57710E+000	10	...........
	14	0.2	7.13508E-001	5.99495E-003	0.00000E+000	4.27744E-003	3.59960E-001	-1.11271E+000	3.57710E+000	10	...........
	15	0.213333	7.19960E-001	5.99713E-003	0.00000E+000	4.31770E-003	3.59960E-001	-1.10950E+000	3.57710E+000	10	...........
	16	0.226667	7.26320E-001	5.98914E-003	0.00000E+000	4.35003E-003	3.59960E-001	-1.10434E+000	3.57710E+000	10	...........
	17	0.24	7.32711E-001	5.99383E-003	0.00000E+000	4.39175E-003	3.59960E-001	-1.11282E+000	3.57710E+000	10	...........
	18	0.253333	7.39026E-001	5.99335E-003	0.00000E+000	4.42925E-003	3.59960E-001	-1.10955E+000	3.57698E+000	10	...........
	19	0.266667	7.45384E-001	5.99508E-003	0.00000E+000	4.46864E-003	3.59960E-001	-1.10428E+000	3.57690E+000	10	...........
	20	0.28	7.51692E-001	5.99245E-003	0.00000E+000	4.50447E-003	3.59960E-001	-1.11279E+000	3.57690E+000	10	...........
	21	0.293333	7.58027E-001	5.99506E-003	0.00000E+000	4.54442E-003	3.59960E-001	-1.10965E+000	3.57690E+000	10	...........
	22	0.306667	7.64258E-001	5.99855E-003	0.00000E+000	4.58444E-003	3.59960E-001	-1.10438E+000	3.57690E+000	10	...........
	23	0.32	7.70518E-001	5.99579E-003	0.00000E+000	4.61987E-003	3.59960E-001	-1.11251E+000	3.57690E+000	10	...........
	24	0.333333	7.76779E-001	5.99328E-003	0.00000E+000	4.65545E-003	3.59960E-001	-1.10967E+000	3.57690E+000	10	...........
	25	0.346667	7.83045E-001	5.99241E-003	0.00000E+000	4.69233E-003	3.59960E-001	-1.10438E+000	3.57690E+000	10	...........
	26	0.36	7.89249E-001	5.99541E-003	0.00000E+000	4.73187E-003	3.59960E-001	-1.11232E+000	3.57690E+000	10	...........
	27	0.373333	7.95518E-001	5.99273E-003	0.00000E+000	4.76733E-003	3.59960E-001	-1.10943E+000	3.57690E+000	10	...........
	28	0.386667	8.01734E-001	5.99656E-003	0.00000E+000	4.80764E-003	3.59960E-001	-1.10368E+000	3.57690E+000	10	...........
	29	0.4	8.07889E-001	5.99608E-003	0.00000E+000	4.84416E-003	3.59960E-001	-1.11202E+000	3.57690E+000	10	...........
	30	0.413333	8.14059E-001	5.99633E-003	0.00000E+000	4.88136E-003	3.59960E-001	-1.10922E+000	3.57690E+000	10	...........
	31	0.426667	8.20267E-001	5.99260E-003	0.00000E+000	4.91554E-003	3.59960E-001	-1.10392E+000	3.57690E+000	10	...........
	32	0.44	8.26465E-001	5.99584E-003	0.00000E+000	4.95535E-003	3.59960E-001	-1.11188E+000	3.57690E+000	10	...........
	33	0.453333	8.32616E-001	5.99228E-003	0.00000E+000	4.98927E-003	3.59960E-001	-1.10923E+000	3.57690E+000	10	...........
	34	0.466667	8.38764E-001	5.99411E-003	0.00000E+000	5.02765E-003	3.59960E-001	-1.10351E+000	3.57690E+000	10	...........
	35	0.48	8.44887E-001	5.99486E-003	0.00000E+000	5.06497E-003	3.59960E-001	-1.11156E+000	3.57690E+000	10	...........
	36	0.493333	8.51028E-001	5.99368E-003	0.00000E+000	5.10078E-003	3.59960E-001	-1.10945E+000	3.57690E+000	10	...........
	37	0.506667	8.57140E-001	5.99540E-003	0.00000E+000	5.13889E-003	3.59960E-001	-1.10359E+000	3.57690E+000	10	...........
	38	0.52	8.63208E-001	5.99589E-003	0.00000E+000	5.17570E-003	3.59960E-001	-1.11117E+000	3.57690E+000	10	...........
	39	0.533333	8.69329E-001	5.99699E-003	0.00000E+000	5.21336E-003	3.59960E-001	-1.10922E+000	3.57690E+000	10	...........
	40	0.546667	8.75455E-001	5.99585E-003	0.00000E+000	5.24910E-003	3.59960E-001	-1.10351E+000	3.57690E+000	10	...........
	41	0.56	8.81531E-001	5.99494E-003	0.00000E+000	5.28473E-003	3.59960E-001	-1.11141E+000	3.57690E+000	10	...........
	42	0.573333	8.87516E-001	5.99901E-003	0.00000E+000	5.32422E-003	3.59960E-001	-1.10939E+000	3.57690E+000	10	...........
	43	0.586667	8.93507E-001	5.99367E-003	0.00000E+000	5.35538E-003	3.59960E-001	-1.10338E+000	3.57690E+000	10	...........
	44	0.6	8.99508E-001	5.99309E-003	0.00000E+000	5.39083E-003	3.59960E-001	-1.11114E+000	3.57690E+000	10	...........
	45	0.613333	9.05470E-001	5.99031E-003	0.00000E+000	5.42405E-003	3.59960E-001	-1.10964E+000	3.57690E+000	10	...........
	46	0.626667	9.11457E-001	5.99249E-003	0.00000E+000	5.46190E-003	3.59960E-001	-1.10377E+000	3.57690E+000	10	...........
	47	0.64	9.17337E-001	5.99523E-003	0.00000E+000	5.49965E-003	3.59960E-001	-1.11125E+000	3.57690E+000	10	...........
	48	0.653333	9.23286E-001	5.99495E-003	0.00000E+000	5.53505E-003	3.59960E-001	-1.10939E+000	3.57690E+000	10	...........
	49	0.666667	9.29124E-001	5.99373E-003	0.00000E+000	5.56892E-003	3.59960E-001	-1.10326E+000	3.57690E+000	10	...........
	50	0.68	9.34942E-001	5.99762E-003	0.00000E+000	5.60743E-003	3.59960E-001	-1.11097E+000	3.57690E+000	10	...........
	51	0.693333	9.40737E-001	5.98923E-003	0.00000E+000	5.63429E-003	3.59960E-001	-1.10929E+000	3.57690E+000	10	...........
	52	0.706667	9.46528E-001	5.99058E-003	0.00000E+000	5.67025E-003	3.59960E-001	-1.10310E+000	3.57690E+000	10	...........
	53	0.72	9.52271E-001	5.99737E-003	0.00000E+000	5.71112E-003	3.59960E-001	-1.11032E+000	3.57690E+000	10	...........
	54	0.733333	9.57930E-001	5.99426E-003	0.00000E+000	5.74208E-003	3.59960E-001	-1.10934E+000	3.57690E+000	10	...........
	55	0.746667	9.63573E-001	5.99495E-003	0.00000E+000	5.77657E-003	3.59960E-001	-1.10320E+000	3.57690E+000	10	...........
	56	0.76	9.69208E-001	5.99564E-003	0.00000E+000	5.81102E-003	3.59960E-001	-1.11064E+000	3.57690E+000	10	...........
	57	0.773333	9.74862E-001	5.99472E-003	0.00000E+000	5.84403E-003	3.59960E-001	-1.10938E+000	3.57690E+000	10	...........
	58	0.786667	9.80432E-001	5.99163E-003	0.00000E+000	5.87439E-003	3.59960E-001	-1.10296E+000	3.57690E+000	10	...........
	59	0.8	9.85939E-001	5.99552E-003	0.00000E+000	5.91122E-003	3.59960E-001	-1.11039E+000	3.57690E+000	10	...........
	60	0.813333	9.91411E-001	5.99714E-003	0.00000E+000	5.94563E-003	3.59960E-001	-1.10954E+000	3.57690E+000	10	...........
	61	0.826667	9.96835E-001	5.99508E-003	0.00000E+000	5.97611E-003	3.59960E-001	-1.10319E+000	3.57690E+000	10	...........
	62	0.83	1.00017E+000	5.98645E-003	0.00000E+000	5.98746E-003	3.59960E-001	-1.11769E+000	3.57690E+000	10	...........
STARTTIMEOFFSET	QUANT	529.5933	Start Time Offset (s)