File: Data/CV_CRGO300517_1/PWRCCD_CRGO300517_1/CHARGE_DISCHARGE/CHARGE_#421.DTA
EXPLAIN
TAG	PWR800_CHARGE
TITLE	LABEL	PWR Cyclic Charge Discharge (Cell) - Charge Step	Test &Identifier
DATE	LABEL	22-6-2017	Date
TIME	LABEL	15:52:48	Time
NOTES	NOTES	3	&Notes...
	supercap test cell
	0.6mg
	6M KOH
PSTAT	PSTAT	IFC5000-01520	Potentiostat
CAPACITY	QUANT	1.00000E-003	Capacity (A-hr)
CELLTYPE	SELECTOR	1	&Cell Type
WORKINGCONNECTION	SELECTOR	0	&Working Lead
MAXCHARGETIME	VARIABLEANDUNITS	1.00000E+002	s	1.00000E+002	second(s)	Max &Charge Time
CHARGECURRENT	QUANT	6.00000E-003	&Charge Current (A)
VOLTAGEFINISH	TWOPARAM	F	1.00000E-003	3.60000E+003	&Voltage Finish	 I (A) < 	Max Time(s)
SAMPLETIME	QUANT	1.00000E-002	Sa&mple Period (s)
CHARGESTOPAT1	MULTIPARAM	4	1.00000E+000	Charge Stop At &1	Voltage > Limit	V
CHARGESTOPAT2	MULTIPARAM	0	0.00000E+000	Charge Stop At &2	None	N/A
AESBHCSELECTOR	TOGGLE	F	Save Both Half Cells
IRCOMP	TOGGLE	F	IR &Measure
EOC	QUANT	0	Open Circuit (V)
SEQUENCER	TOGGLE	TRUE	Run as Sequence
PSTATMODEL	IQUANT	53	Pstat Model
PSTATSECTION	LABEL	IFC5000-01520	Pstat Section
PSTATSERIALNO	LABEL	01520	Pstat Serial Number
CTRLMODE	IQUANT	0	Control Mode
ELECTROMETER	IQUANT	1	RE=0 or CS=1
IESTAB	IQUANT	0	I/E Stability
CASPEED	IQUANT	4	Control Amp Speed
CONVENTION	IQUANT	1	Current Convention
ICHRANGE	IQUANT	2	Ich Range
ICHRANGEMODE	TOGGLE	T	Ich Auto Range
ICHOFFSETENABLE	TOGGLE	F	Ich Offset Enable
ICHOFFSET	QUANT	0	Ich Offset (V)
ICHFILTER	IQUANT	1	Ich Filter
VCHRANGE	IQUANT	2	Vch Range
VCHRANGEMODE	TOGGLE	T	Vch Auto Range
VCHOFFSETENABLE	TOGGLE	F	Vch Offset Enable
VCHOFFSET	QUANT	0	Vch Offset (V)
VCHFILTER	IQUANT	1	Vch Filter
IERANGELOWERLIMIT	IQUANT	9	I/E Range Lower Limit
IERANGEMODE	TOGGLE	F	I/E AutoRange
IERANGE	IQUANT	10	I/E Range
ACHSELECT	IQUANT	1	Ach Select
ACHRANGE	IQUANT	2	Ach Range
ACHOFFSETENABLE	TOGGLE	F	Ach Offset Enable
ACHOFFSET	QUANT	0	Ach Offset (V)
ACHFILTER	IQUANT	1	Ach Filter
CABLEID	IQUANT	14	Cable ID
DCCALDATE	LABEL	20-10-2016	DC Calibration Date
ACCALDATE	LABEL	12/3/2015	AC Calibration Date
FRAMEWORKVERSION	QUANT	7.01	Framework Version
INSTRUMENTVERSION	LABEL	4.00	Instrument Version
CURVE	TABLE	60
	Pt	T	Vf	Im	Vu	Pwr	Sig	Ach	Temp	IERange	Over
	#	s	V	A	V	W	V	V	deg C	#	bits
	0	0.013333	6.26495E-001	5.99293E-003	0.00000E+000	3.75454E-003	3.59960E-001	-1.12946E+000	3.57790E+000	10	...........
	1	0.026667	6.35249E-001	5.99663E-003	0.00000E+000	3.80935E-003	3.59960E-001	-1.13759E+000	3.57790E+000	10	...........
	2	0.04	6.43353E-001	5.99386E-003	0.00000E+000	3.85617E-003	3.59960E-001	-1.13519E+000	3.57790E+000	10	...........
	3	0.053333	6.51004E-001	5.99489E-003	0.00000E+000	3.90269E-003	3.59960E-001	-1.12932E+000	3.57790E+000	10	...........
	4	0.066667	6.58370E-001	5.99602E-003	0.00000E+000	3.94760E-003	3.59960E-001	-1.13752E+000	3.57790E+000	10	...........
	5	0.08	6.65558E-001	5.99472E-003	0.00000E+000	3.98983E-003	3.59960E-001	-1.13490E+000	3.57790E+000	10	...........
	6	0.093333	6.72628E-001	5.99470E-003	0.00000E+000	4.03220E-003	3.59960E-001	-1.12915E+000	3.57790E+000	10	...........
	7	0.106667	6.79541E-001	5.99542E-003	0.00000E+000	4.07413E-003	3.59960E-001	-1.13753E+000	3.57790E+000	10	...........
	8	0.12	6.86398E-001	5.99687E-003	0.00000E+000	4.11624E-003	3.59960E-001	-1.13513E+000	3.57790E+000	10	...........
	9	0.133333	6.93172E-001	5.99495E-003	0.00000E+000	4.15553E-003	3.59960E-001	-1.12938E+000	3.57790E+000	10	...........
	10	0.146667	6.99912E-001	5.99669E-003	0.00000E+000	4.19715E-003	3.59960E-001	-1.13751E+000	3.57790E+000	10	...........
	11	0.16	7.06533E-001	5.99525E-003	0.00000E+000	4.23584E-003	3.59960E-001	-1.13488E+000	3.57790E+000	10	...........
	12	0.173333	7.13148E-001	5.99549E-003	0.00000E+000	4.27567E-003	3.59960E-001	-1.12931E+000	3.57790E+000	10	...........
	13	0.186667	7.19783E-001	5.99674E-003	0.00000E+000	4.31635E-003	3.59960E-001	-1.13774E+000	3.57790E+000	10	...........
	14	0.2	7.26308E-001	5.99427E-003	0.00000E+000	4.35369E-003	3.59960E-001	-1.13498E+000	3.57790E+000	10	...........
	15	0.213333	7.32830E-001	5.99539E-003	0.00000E+000	4.39360E-003	3.59960E-001	-1.12920E+000	3.57790E+000	10	...........
	16	0.226667	7.39366E-001	5.99917E-003	0.00000E+000	4.43559E-003	3.59960E-001	-1.13780E+000	3.57790E+000	10	...........
	17	0.24	7.45841E-001	5.99603E-003	0.00000E+000	4.47209E-003	3.59960E-001	-1.13497E+000	3.57790E+000	10	...........
	18	0.253333	7.52281E-001	5.99394E-003	0.00000E+000	4.50913E-003	3.59960E-001	-1.12945E+000	3.57790E+000	10	...........
	19	0.266667	7.58756E-001	5.99108E-003	0.00000E+000	4.54577E-003	3.59960E-001	-1.13789E+000	3.57790E+000	10	...........
	20	0.28	7.65173E-001	5.99125E-003	0.00000E+000	4.58434E-003	3.59960E-001	-1.13439E+000	3.57790E+000	10	...........
	21	0.293333	7.71613E-001	5.99332E-003	0.00000E+000	4.62453E-003	3.59960E-001	-1.12884E+000	3.57790E+000	10	...........
	22	0.306667	7.78013E-001	5.99976E-003	0.00000E+000	4.66789E-003	3.59960E-001	-1.13754E+000	3.57790E+000	10	...........
	23	0.32	7.84411E-001	5.99496E-003	0.00000E+000	4.70251E-003	3.59960E-001	-1.13436E+000	3.57790E+000	10	...........
	24	0.333333	7.90775E-001	5.99455E-003	0.00000E+000	4.74034E-003	3.59960E-001	-1.12888E+000	3.57790E+000	10	...........
	25	0.346667	7.97225E-001	5.98921E-003	0.00000E+000	4.77475E-003	3.59960E-001	-1.13744E+000	3.57790E+000	10	...........
	26	0.36	8.03589E-001	5.99650E-003	0.00000E+000	4.81872E-003	3.59960E-001	-1.13420E+000	3.57790E+000	10	...........
	27	0.373333	8.09891E-001	5.99458E-003	0.00000E+000	4.85496E-003	3.59960E-001	-1.12896E+000	3.57790E+000	10	...........
	28	0.386667	8.16211E-001	5.99446E-003	0.00000E+000	4.89274E-003	3.59960E-001	-1.13764E+000	3.57790E+000	10	...........
	29	0.4	8.22551E-001	5.99568E-003	0.00000E+000	4.93175E-003	3.59960E-001	-1.13416E+000	3.57790E+000	10	...........
	30	0.413333	8.28848E-001	5.99793E-003	0.00000E+000	4.97138E-003	3.59960E-001	-1.12874E+000	3.57790E+000	10	...........
	31	0.426667	8.35127E-001	5.99577E-003	0.00000E+000	5.00723E-003	3.59960E-001	-1.13766E+000	3.57790E+000	10	...........
	32	0.44	8.41398E-001	5.99366E-003	0.00000E+000	5.04305E-003	3.59960E-001	-1.13402E+000	3.57790E+000	10	...........
	33	0.453333	8.47666E-001	5.99407E-003	0.00000E+000	5.08097E-003	3.59960E-001	-1.12882E+000	3.57790E+000	10	...........
	34	0.466667	8.53882E-001	5.99248E-003	0.00000E+000	5.11687E-003	3.59960E-001	-1.13761E+000	3.57790E+000	10	...........
	35	0.48	8.60105E-001	5.99422E-003	0.00000E+000	5.15566E-003	3.59960E-001	-1.13385E+000	3.57790E+000	10	...........
	36	0.493333	8.66318E-001	5.99863E-003	0.00000E+000	5.19672E-003	3.59960E-001	-1.12874E+000	3.57790E+000	10	...........
	37	0.506667	8.72499E-001	5.99444E-003	0.00000E+000	5.23014E-003	3.59960E-001	-1.13797E+000	3.57790E+000	10	...........
	38	0.52	8.78640E-001	5.99962E-003	0.00000E+000	5.27151E-003	3.59960E-001	-1.13413E+000	3.57790E+000	10	...........
	39	0.533333	8.84791E-001	5.99614E-003	0.00000E+000	5.30533E-003	3.59960E-001	-1.12881E+000	3.57790E+000	10	...........
	40	0.546667	8.90915E-001	6.00166E-003	0.00000E+000	5.34696E-003	3.59960E-001	-1.13809E+000	3.57790E+000	10	...........
	41	0.56	8.97021E-001	5.99359E-003	0.00000E+000	5.37638E-003	3.59960E-001	-1.13381E+000	3.57790E+000	10	...........
	42	0.573333	9.03094E-001	5.99648E-003	0.00000E+000	5.41539E-003	3.59960E-001	-1.12893E+000	3.57790E+000	10	...........
	43	0.586667	9.09153E-001	5.99314E-003	0.00000E+000	5.44868E-003	3.59960E-001	-1.13786E+000	3.57790E+000	10	...........
	44	0.6	9.15123E-001	5.99525E-003	0.00000E+000	5.48639E-003	3.59960E-001	-1.13356E+000	3.57790E+000	10	...........
	45	0.613333	9.21225E-001	5.99605E-003	0.00000E+000	5.52371E-003	3.59960E-001	-1.12841E+000	3.57790E+000	10	...........
	46	0.626667	9.27190E-001	5.99197E-003	0.00000E+000	5.55569E-003	3.59960E-001	-1.13764E+000	3.57790E+000	10	...........
	47	0.64	9.33065E-001	5.99447E-003	0.00000E+000	5.59323E-003	3.59960E-001	-1.13334E+000	3.57790E+000	10	...........
	48	0.653333	9.38924E-001	5.99266E-003	0.00000E+000	5.62666E-003	3.59960E-001	-1.12837E+000	3.57790E+000	10	...........
	49	0.666667	9.44761E-001	5.99397E-003	0.00000E+000	5.66287E-003	3.59960E-001	-1.13786E+000	3.57790E+000	10	...........
	50	0.68	9.50607E-001	5.99447E-003	0.00000E+000	5.69838E-003	3.59960E-001	-1.13330E+000	3.57790E+000	10	...........
	51	0.693333	9.56368E-001	5.99535E-003	0.00000E+000	5.73376E-003	3.59960E-001	-1.12827E+000	3.57790E+000	10	...........
	52	0.706667	9.62100E-001	6.00000E-003	0.00000E+000	5.77260E-003	3.59960E-001	-1.13787E+000	3.57790E+000	10	...........
	53	0.72	9.67783E-001	5.99205E-003	0.00000E+000	5.79901E-003	3.59960E-001	-1.13324E+000	3.57790E+000	10	...........
	54	0.733333	9.73468E-001	5.99840E-003	0.00000E+000	5.83925E-003	3.59960E-001	-1.12842E+000	3.57790E+000	10	...........
	55	0.746667	9.79091E-001	5.99450E-003	0.00000E+000	5.86916E-003	3.59960E-001	-1.13786E+000	3.57790E+000	10	...........
	56	0.76	9.84619E-001	5.99133E-003	0.00000E+000	5.89918E-003	3.59960E-001	-1.13296E+000	3.57790E+000	10	...........
	57	0.773333	9.90147E-001	5.99246E-003	0.00000E+000	5.93341E-003	3.59960E-001	-1.12825E+000	3.57790E+000	10	...........
	58	0.786667	9.95621E-001	5.99207E-003	0.00000E+000	5.96583E-003	3.59960E-001	-1.13790E+000	3.57790E+000	10	...........
	59	0.791667	9.99384E-001	5.99034E-003	0.00000E+000	5.98665E-003	3.59960E-001	-1.11909E+000	3.57790E+000	10	...........
STARTTIMEOFFSET	QUANT	735.9034	Start Time Offset (s)