File: Data/CV_CRGO300517_1/PWRCCD_CRGO300517_1/CHARGE_DISCHARGE/CHARGE_#562.DTA
EXPLAIN
TAG	PWR800_CHARGE
TITLE	LABEL	PWR Cyclic Charge Discharge (Cell) - Charge Step	Test &Identifier
DATE	LABEL	22-6-2017	Date
TIME	LABEL	15:58:18	Time
NOTES	NOTES	3	&Notes...
	supercap test cell
	0.6mg
	6M KOH
PSTAT	PSTAT	IFC5000-01520	Potentiostat
CAPACITY	QUANT	1.00000E-003	Capacity (A-hr)
CELLTYPE	SELECTOR	1	&Cell Type
WORKINGCONNECTION	SELECTOR	0	&Working Lead
MAXCHARGETIME	VARIABLEANDUNITS	1.00000E+002	s	1.00000E+002	second(s)	Max &Charge Time
CHARGECURRENT	QUANT	6.00000E-003	&Charge Current (A)
VOLTAGEFINISH	TWOPARAM	F	1.00000E-003	3.60000E+003	&Voltage Finish	 I (A) < 	Max Time(s)
SAMPLETIME	QUANT	1.00000E-002	Sa&mple Period (s)
CHARGESTOPAT1	MULTIPARAM	4	1.00000E+000	Charge Stop At &1	Voltage > Limit	V
CHARGESTOPAT2	MULTIPARAM	0	0.00000E+000	Charge Stop At &2	None	N/A
AESBHCSELECTOR	TOGGLE	F	Save Both Half Cells
IRCOMP	TOGGLE	F	IR &Measure
EOC	QUANT	0	Open Circuit (V)
SEQUENCER	TOGGLE	TRUE	Run as Sequence
PSTATMODEL	IQUANT	53	Pstat Model
PSTATSECTION	LABEL	IFC5000-01520	Pstat Section
PSTATSERIALNO	LABEL	01520	Pstat Serial Number
CTRLMODE	IQUANT	0	Control Mode
ELECTROMETER	IQUANT	1	RE=0 or CS=1
IESTAB	IQUANT	0	I/E Stability
CASPEED	IQUANT	4	Control Amp Speed
CONVENTION	IQUANT	1	Current Convention
ICHRANGE	IQUANT	2	Ich Range
ICHRANGEMODE	TOGGLE	T	Ich Auto Range
ICHOFFSETENABLE	TOGGLE	F	Ich Offset Enable
ICHOFFSET	QUANT	0	Ich Offset (V)
ICHFILTER	IQUANT	1	Ich Filter
VCHRANGE	IQUANT	2	Vch Range
VCHRANGEMODE	TOGGLE	T	Vch Auto Range
VCHOFFSETENABLE	TOGGLE	F	Vch Offset Enable
VCHOFFSET	QUANT	0	Vch Offset (V)
VCHFILTER	IQUANT	1	Vch Filter
IERANGELOWERLIMIT	IQUANT	9	I/E Range Lower Limit
IERANGEMODE	TOGGLE	F	I/E AutoRange
IERANGE	IQUANT	10	I/E Range
ACHSELECT	IQUANT	1	Ach Select
ACHRANGE	IQUANT	2	Ach Range
ACHOFFSETENABLE	TOGGLE	F	Ach Offset Enable
ACHOFFSET	QUANT	0	Ach Offset (V)
ACHFILTER	IQUANT	1	Ach Filter
CABLEID	IQUANT	14	Cable ID
DCCALDATE	LABEL	20-10-2016	DC Calibration Date
ACCALDATE	LABEL	12/3/2015	AC Calibration Date
FRAMEWORKVERSION	QUANT	7.01	Framework Version
INSTRUMENTVERSION	LABEL	4.00	Instrument Version
CURVE	TABLE	57
	Pt	T	Vf	Im	Vu	Pwr	Sig	Ach	Temp	IERange	Over
	#	s	V	A	V	W	V	V	deg C	#	bits
	0	0.013333	6.36181E-001	5.98925E-003	0.00000E+000	3.81025E-003	3.59960E-001	-1.14601E+000	3.57720E+000	10	...........
	1	0.026667	6.45066E-001	5.98888E-003	0.00000E+000	3.86322E-003	3.59960E-001	-1.14043E+000	3.57720E+000	10	...........
	2	0.04	6.53267E-001	5.99106E-003	0.00000E+000	3.91376E-003	3.59960E-001	-1.14920E+000	3.57720E+000	10	...........
	3	0.053333	6.61066E-001	5.99047E-003	0.00000E+000	3.96010E-003	3.59960E-001	-1.14540E+000	3.57720E+000	10	...........
	4	0.066667	6.68619E-001	5.99078E-003	0.00000E+000	4.00555E-003	3.59960E-001	-1.14004E+000	3.57720E+000	10	...........
	5	0.08	6.75908E-001	5.99705E-003	0.00000E+000	4.05345E-003	3.59960E-001	-1.14892E+000	3.57720E+000	10	...........
	6	0.093333	6.83063E-001	5.99707E-003	0.00000E+000	4.09637E-003	3.59960E-001	-1.14542E+000	3.57720E+000	10	...........
	7	0.106667	6.90118E-001	5.99402E-003	0.00000E+000	4.13658E-003	3.59960E-001	-1.14007E+000	3.57720E+000	10	...........
	8	0.12	6.97134E-001	5.99338E-003	0.00000E+000	4.17820E-003	3.59960E-001	-1.14911E+000	3.57720E+000	10	...........
	9	0.133333	7.04051E-001	5.98815E-003	0.00000E+000	4.21596E-003	3.59960E-001	-1.14537E+000	3.57720E+000	10	...........
	10	0.146667	7.10897E-001	5.99338E-003	0.00000E+000	4.26068E-003	3.59960E-001	-1.14009E+000	3.57720E+000	10	...........
	11	0.16	7.17728E-001	5.99683E-003	0.00000E+000	4.30409E-003	3.59960E-001	-1.14904E+000	3.57720E+000	10	...........
	12	0.173333	7.24446E-001	5.99647E-003	0.00000E+000	4.34412E-003	3.59960E-001	-1.14532E+000	3.57720E+000	10	...........
	13	0.186667	7.31143E-001	5.99454E-003	0.00000E+000	4.38287E-003	3.59960E-001	-1.14003E+000	3.57720E+000	10	...........
	14	0.2	7.37842E-001	5.99322E-003	0.00000E+000	4.42205E-003	3.59960E-001	-1.14932E+000	3.57720E+000	10	...........
	15	0.213333	7.44526E-001	5.99027E-003	0.00000E+000	4.45991E-003	3.59960E-001	-1.14531E+000	3.57720E+000	10	...........
	16	0.226667	7.51137E-001	5.99472E-003	0.00000E+000	4.50286E-003	3.59960E-001	-1.14007E+000	3.57720E+000	10	...........
	17	0.24	7.57761E-001	5.99085E-003	0.00000E+000	4.53963E-003	3.59960E-001	-1.14915E+000	3.57720E+000	10	...........
	18	0.253333	7.64353E-001	5.99183E-003	0.00000E+000	4.57987E-003	3.59960E-001	-1.14531E+000	3.57720E+000	10	...........
	19	0.266667	7.70924E-001	5.99319E-003	0.00000E+000	4.62029E-003	3.59960E-001	-1.13996E+000	3.57720E+000	10	...........
	20	0.28	7.77453E-001	5.99300E-003	0.00000E+000	4.65927E-003	3.59960E-001	-1.14929E+000	3.57720E+000	10	...........
	21	0.293333	7.83973E-001	5.99330E-003	0.00000E+000	4.69859E-003	3.59960E-001	-1.14515E+000	3.57720E+000	10	...........
	22	0.306667	7.90498E-001	5.98962E-003	0.00000E+000	4.73478E-003	3.59960E-001	-1.13985E+000	3.57720E+000	10	...........
	23	0.32	7.97019E-001	5.99100E-003	0.00000E+000	4.77494E-003	3.59960E-001	-1.14921E+000	3.57720E+000	10	...........
	24	0.333333	8.03521E-001	5.99608E-003	0.00000E+000	4.81797E-003	3.59960E-001	-1.14497E+000	3.57720E+000	10	...........
	25	0.346667	8.09926E-001	5.99235E-003	0.00000E+000	4.85336E-003	3.59960E-001	-1.13958E+000	3.57720E+000	10	...........
	26	0.36	8.16425E-001	5.99410E-003	0.00000E+000	4.89374E-003	3.59960E-001	-1.14867E+000	3.57720E+000	10	...........
	27	0.373333	8.22833E-001	5.99318E-003	0.00000E+000	4.93139E-003	3.59960E-001	-1.14436E+000	3.57720E+000	10	...........
	28	0.386667	8.29236E-001	5.99391E-003	0.00000E+000	4.97036E-003	3.59960E-001	-1.13929E+000	3.57720E+000	10	...........
	29	0.4	8.35596E-001	5.99753E-003	0.00000E+000	5.01151E-003	3.59960E-001	-1.14867E+000	3.57720E+000	10	...........
	30	0.413333	8.42032E-001	5.99467E-003	0.00000E+000	5.04770E-003	3.59960E-001	-1.14419E+000	3.57720E+000	10	...........
	31	0.426667	8.48414E-001	5.99305E-003	0.00000E+000	5.08459E-003	3.59960E-001	-1.13903E+000	3.57720E+000	10	...........
	32	0.44	8.54705E-001	5.99481E-003	0.00000E+000	5.12380E-003	3.59960E-001	-1.14858E+000	3.57720E+000	10	...........
	33	0.453333	8.61009E-001	5.99597E-003	0.00000E+000	5.16258E-003	3.59960E-001	-1.14422E+000	3.57720E+000	10	...........
	34	0.466667	8.67315E-001	5.99717E-003	0.00000E+000	5.20144E-003	3.59960E-001	-1.13899E+000	3.57720E+000	10	...........
	35	0.48	8.73605E-001	5.98954E-003	0.00000E+000	5.23249E-003	3.59960E-001	-1.14840E+000	3.57720E+000	10	...........
	36	0.493333	8.79853E-001	5.99728E-003	0.00000E+000	5.27672E-003	3.59960E-001	-1.14363E+000	3.57720E+000	10	...........
	37	0.506667	8.86059E-001	5.99162E-003	0.00000E+000	5.30893E-003	3.59960E-001	-1.13859E+000	3.57720E+000	10	...........
	38	0.52	8.92257E-001	5.99226E-003	0.00000E+000	5.34663E-003	3.59960E-001	-1.14834E+000	3.57720E+000	10	...........
	39	0.533333	8.98459E-001	5.99233E-003	0.00000E+000	5.38386E-003	3.59960E-001	-1.14376E+000	3.57720E+000	10	...........
	40	0.546667	9.04597E-001	5.98959E-003	0.00000E+000	5.41817E-003	3.59960E-001	-1.13872E+000	3.57720E+000	10	...........
	41	0.56	9.10726E-001	5.99780E-003	0.00000E+000	5.46235E-003	3.59960E-001	-1.14822E+000	3.57720E+000	10	...........
	42	0.573333	9.16826E-001	5.99548E-003	0.00000E+000	5.49681E-003	3.59960E-001	-1.14359E+000	3.57720E+000	10	...........
	43	0.586667	9.22920E-001	5.99574E-003	0.00000E+000	5.53359E-003	3.59960E-001	-1.13889E+000	3.57720E+000	10	...........
	44	0.6	9.28923E-001	5.99193E-003	0.00000E+000	5.56604E-003	3.59960E-001	-1.14842E+000	3.57720E+000	10	...........
	45	0.613333	9.34874E-001	5.99083E-003	0.00000E+000	5.60067E-003	3.59960E-001	-1.14354E+000	3.57720E+000	10	...........
	46	0.626667	9.40813E-001	5.99122E-003	0.00000E+000	5.63662E-003	3.59960E-001	-1.13851E+000	3.57720E+000	10	...........
	47	0.64	9.46748E-001	5.99377E-003	0.00000E+000	5.67459E-003	3.59960E-001	-1.14832E+000	3.57720E+000	10	...........
	48	0.653333	9.52574E-001	5.99016E-003	0.00000E+000	5.70607E-003	3.59960E-001	-1.14334E+000	3.57720E+000	10	...........
	49	0.666667	9.58370E-001	5.99316E-003	0.00000E+000	5.74366E-003	3.59960E-001	-1.13864E+000	3.57720E+000	10	...........
	50	0.68	9.64162E-001	5.99892E-003	0.00000E+000	5.78393E-003	3.59960E-001	-1.14824E+000	3.57720E+000	10	...........
	51	0.693333	9.69867E-001	5.99453E-003	0.00000E+000	5.81390E-003	3.59960E-001	-1.14288E+000	3.57720E+000	10	...........
	52	0.706667	9.75579E-001	5.99471E-003	0.00000E+000	5.84831E-003	3.59960E-001	-1.13812E+000	3.57720E+000	10	...........
	53	0.72	9.81220E-001	5.99567E-003	0.00000E+000	5.88307E-003	3.59960E-001	-1.14800E+000	3.57720E+000	10	...........
	54	0.733333	9.86782E-001	5.99469E-003	0.00000E+000	5.91545E-003	3.59960E-001	-1.14278E+000	3.57720E+000	10	...........
	55	0.746667	9.92372E-001	5.99056E-003	0.00000E+000	5.94486E-003	3.59960E-001	-1.13788E+000	3.57720E+000	10	...........
	56	0.76	9.97883E-001	5.99884E-003	0.00000E+000	5.98614E-003	3.59960E-001	-1.14754E+000	3.57720E+000	10	...........
STARTTIMEOFFSET	QUANT	953.688	Start Time Offset (s)