File: Data/CV_CRGO300517_1/PWRCCD_CRGO300517_1/CHARGE_DISCHARGE/CHARGE_#651.DTA
EXPLAIN
TAG	PWR800_CHARGE
TITLE	LABEL	PWR Cyclic Charge Discharge (Cell) - Charge Step	Test &Identifier
DATE	LABEL	22-6-2017	Date
TIME	LABEL	16:01:42	Time
NOTES	NOTES	3	&Notes...
	supercap test cell
	0.6mg
	6M KOH
PSTAT	PSTAT	IFC5000-01520	Potentiostat
CAPACITY	QUANT	1.00000E-003	Capacity (A-hr)
CELLTYPE	SELECTOR	1	&Cell Type
WORKINGCONNECTION	SELECTOR	0	&Working Lead
MAXCHARGETIME	VARIABLEANDUNITS	1.00000E+002	s	1.00000E+002	second(s)	Max &Charge Time
CHARGECURRENT	QUANT	6.00000E-003	&Charge Current (A)
VOLTAGEFINISH	TWOPARAM	F	1.00000E-003	3.60000E+003	&Voltage Finish	 I (A) < 	Max Time(s)
SAMPLETIME	QUANT	1.00000E-002	Sa&mple Period (s)
CHARGESTOPAT1	MULTIPARAM	4	1.00000E+000	Charge Stop At &1	Voltage > Limit	V
CHARGESTOPAT2	MULTIPARAM	0	0.00000E+000	Charge Stop At &2	None	N/A
AESBHCSELECTOR	TOGGLE	F	Save Both Half Cells
IRCOMP	TOGGLE	F	IR &Measure
EOC	QUANT	0	Open Circuit (V)
SEQUENCER	TOGGLE	TRUE	Run as Sequence
PSTATMODEL	IQUANT	53	Pstat Model
PSTATSECTION	LABEL	IFC5000-01520	Pstat Section
PSTATSERIALNO	LABEL	01520	Pstat Serial Number
CTRLMODE	IQUANT	0	Control Mode
ELECTROMETER	IQUANT	1	RE=0 or CS=1
IESTAB	IQUANT	0	I/E Stability
CASPEED	IQUANT	4	Control Amp Speed
CONVENTION	IQUANT	1	Current Convention
ICHRANGE	IQUANT	2	Ich Range
ICHRANGEMODE	TOGGLE	T	Ich Auto Range
ICHOFFSETENABLE	TOGGLE	F	Ich Offset Enable
ICHOFFSET	QUANT	0	Ich Offset (V)
ICHFILTER	IQUANT	1	Ich Filter
VCHRANGE	IQUANT	2	Vch Range
VCHRANGEMODE	TOGGLE	T	Vch Auto Range
VCHOFFSETENABLE	TOGGLE	F	Vch Offset Enable
VCHOFFSET	QUANT	0	Vch Offset (V)
VCHFILTER	IQUANT	1	Vch Filter
IERANGELOWERLIMIT	IQUANT	9	I/E Range Lower Limit
IERANGEMODE	TOGGLE	F	I/E AutoRange
IERANGE	IQUANT	10	I/E Range
ACHSELECT	IQUANT	1	Ach Select
ACHRANGE	IQUANT	2	Ach Range
ACHOFFSETENABLE	TOGGLE	F	Ach Offset Enable
ACHOFFSET	QUANT	0	Ach Offset (V)
ACHFILTER	IQUANT	1	Ach Filter
CABLEID	IQUANT	14	Cable ID
DCCALDATE	LABEL	20-10-2016	DC Calibration Date
ACCALDATE	LABEL	12/3/2015	AC Calibration Date
FRAMEWORKVERSION	QUANT	7.01	Framework Version
INSTRUMENTVERSION	LABEL	4.00	Instrument Version
CURVE	TABLE	56
	Pt	T	Vf	Im	Vu	Pwr	Sig	Ach	Temp	IERange	Over
	#	s	V	A	V	W	V	V	deg C	#	bits
	0	0.013333	6.40604E-001	5.99099E-003	0.00000E+000	3.83785E-003	3.59960E-001	-1.15612E+000	3.57640E+000	10	...........
	1	0.026667	6.49642E-001	5.99266E-003	0.00000E+000	3.89309E-003	3.59960E-001	-1.15012E+000	3.57640E+000	10	...........
	2	0.04	6.57976E-001	5.99133E-003	0.00000E+000	3.94215E-003	3.59960E-001	-1.15862E+000	3.57640E+000	10	...........
	3	0.053333	6.65907E-001	6.00085E-003	0.00000E+000	3.99601E-003	3.59960E-001	-1.15610E+000	3.57640E+000	10	...........
	4	0.066667	6.73481E-001	5.98815E-003	0.00000E+000	4.03290E-003	3.59960E-001	-1.15017E+000	3.57640E+000	10	...........
	5	0.08	6.80887E-001	5.99003E-003	0.00000E+000	4.07853E-003	3.59960E-001	-1.15832E+000	3.57640E+000	10	...........
	6	0.093333	6.88135E-001	5.99366E-003	0.00000E+000	4.12444E-003	3.59960E-001	-1.15560E+000	3.57640E+000	10	...........
	7	0.106667	6.95279E-001	5.99743E-003	0.00000E+000	4.16989E-003	3.59960E-001	-1.14953E+000	3.57640E+000	10	...........
	8	0.12	7.02303E-001	5.99479E-003	0.00000E+000	4.21016E-003	3.59960E-001	-1.15831E+000	3.57640E+000	10	...........
	9	0.133333	7.09244E-001	5.98885E-003	0.00000E+000	4.24755E-003	3.59960E-001	-1.15546E+000	3.57640E+000	10	...........
	10	0.146667	7.16189E-001	5.99503E-003	0.00000E+000	4.29358E-003	3.59960E-001	-1.14976E+000	3.57640E+000	10	...........
	11	0.16	7.23092E-001	5.99718E-003	0.00000E+000	4.33651E-003	3.59960E-001	-1.15824E+000	3.57640E+000	10	...........
	12	0.173333	7.29902E-001	5.99547E-003	0.00000E+000	4.37610E-003	3.59960E-001	-1.15529E+000	3.57640E+000	10	...........
	13	0.186667	7.36647E-001	5.98938E-003	0.00000E+000	4.41206E-003	3.59960E-001	-1.14971E+000	3.57640E+000	10	...........
	14	0.2	7.43395E-001	5.99593E-003	0.00000E+000	4.45735E-003	3.59960E-001	-1.15827E+000	3.57640E+000	10	...........
	15	0.213333	7.50112E-001	5.99272E-003	0.00000E+000	4.49521E-003	3.59960E-001	-1.15541E+000	3.57640E+000	10	...........
	16	0.226667	7.56825E-001	5.98959E-003	0.00000E+000	4.53307E-003	3.59960E-001	-1.14958E+000	3.57640E+000	10	...........
	17	0.24	7.63515E-001	5.99390E-003	0.00000E+000	4.57643E-003	3.59960E-001	-1.15803E+000	3.57640E+000	10	...........
	18	0.253333	7.70184E-001	5.99318E-003	0.00000E+000	4.61585E-003	3.59960E-001	-1.15527E+000	3.57640E+000	10	...........
	19	0.266667	7.76818E-001	5.98997E-003	0.00000E+000	4.65312E-003	3.59960E-001	-1.14953E+000	3.57640E+000	10	...........
	20	0.28	7.83398E-001	5.98894E-003	0.00000E+000	4.69172E-003	3.59960E-001	-1.15822E+000	3.57640E+000	10	...........
	21	0.293333	7.89983E-001	6.00044E-003	0.00000E+000	4.74024E-003	3.59960E-001	-1.15539E+000	3.57640E+000	10	...........
	22	0.306667	7.96566E-001	5.99860E-003	0.00000E+000	4.77828E-003	3.59960E-001	-1.14935E+000	3.57640E+000	10	...........
	23	0.32	8.03092E-001	5.99589E-003	0.00000E+000	4.81525E-003	3.59960E-001	-1.15827E+000	3.57640E+000	10	...........
	24	0.333333	8.09612E-001	5.99454E-003	0.00000E+000	4.85326E-003	3.59960E-001	-1.15540E+000	3.57640E+000	10	...........
	25	0.346667	8.16137E-001	5.99265E-003	0.00000E+000	4.89083E-003	3.59960E-001	-1.14968E+000	3.57640E+000	10	...........
	26	0.36	8.22666E-001	5.99698E-003	0.00000E+000	4.93351E-003	3.59960E-001	-1.15815E+000	3.57640E+000	10	...........
	27	0.373333	8.29116E-001	5.99107E-003	0.00000E+000	4.96729E-003	3.59960E-001	-1.15534E+000	3.57650E+000	10	...........
	28	0.386667	8.35534E-001	5.99455E-003	0.00000E+000	5.00866E-003	3.59960E-001	-1.14935E+000	3.57660E+000	10	...........
	29	0.4	8.41968E-001	5.99487E-003	0.00000E+000	5.04749E-003	3.59960E-001	-1.15792E+000	3.57660E+000	10	...........
	30	0.413333	8.48410E-001	5.99510E-003	0.00000E+000	5.08630E-003	3.59960E-001	-1.15496E+000	3.57660E+000	10	...........
	31	0.426667	8.54779E-001	5.99913E-003	0.00000E+000	5.12793E-003	3.59960E-001	-1.14918E+000	3.57660E+000	10	...........
	32	0.44	8.61145E-001	5.99376E-003	0.00000E+000	5.16150E-003	3.59960E-001	-1.15770E+000	3.57660E+000	10	...........
	33	0.453333	8.67485E-001	5.99235E-003	0.00000E+000	5.19828E-003	3.59960E-001	-1.15498E+000	3.57660E+000	10	...........
	34	0.466667	8.73866E-001	5.99264E-003	0.00000E+000	5.23677E-003	3.59960E-001	-1.14926E+000	3.57660E+000	10	...........
	35	0.48	8.80122E-001	5.99270E-003	0.00000E+000	5.27430E-003	3.59960E-001	-1.15779E+000	3.57660E+000	10	...........
	36	0.493333	8.86366E-001	5.99844E-003	0.00000E+000	5.31681E-003	3.59960E-001	-1.15494E+000	3.57660E+000	10	...........
	37	0.506667	8.92583E-001	5.99559E-003	0.00000E+000	5.35156E-003	3.59960E-001	-1.14934E+000	3.57660E+000	10	...........
	38	0.52	8.98804E-001	5.99220E-003	0.00000E+000	5.38581E-003	3.59960E-001	-1.15776E+000	3.57660E+000	10	...........
	39	0.533333	9.04981E-001	5.99607E-003	0.00000E+000	5.42633E-003	3.59960E-001	-1.15478E+000	3.57660E+000	10	...........
	40	0.546667	9.11145E-001	5.99093E-003	0.00000E+000	5.45861E-003	3.59960E-001	-1.14913E+000	3.57660E+000	10	...........
	41	0.56	9.17257E-001	5.98974E-003	0.00000E+000	5.49414E-003	3.59960E-001	-1.15769E+000	3.57660E+000	10	...........
	42	0.573333	9.23394E-001	5.99404E-003	0.00000E+000	5.53486E-003	3.59960E-001	-1.15443E+000	3.57660E+000	10	...........
	43	0.586667	9.29429E-001	5.99551E-003	0.00000E+000	5.57240E-003	3.59960E-001	-1.14892E+000	3.57660E+000	10	...........
	44	0.6	9.35398E-001	5.99102E-003	0.00000E+000	5.60398E-003	3.59960E-001	-1.15797E+000	3.57660E+000	10	...........
	45	0.613333	9.41357E-001	5.99295E-003	0.00000E+000	5.64150E-003	3.59960E-001	-1.15496E+000	3.57660E+000	10	...........
	46	0.626667	9.47304E-001	5.99143E-003	0.00000E+000	5.67571E-003	3.59960E-001	-1.14915E+000	3.57660E+000	10	...........
	47	0.64	9.53173E-001	5.99427E-003	0.00000E+000	5.71358E-003	3.59960E-001	-1.15777E+000	3.57660E+000	10	...........
	48	0.653333	9.58964E-001	5.99930E-003	0.00000E+000	5.75311E-003	3.59960E-001	-1.15477E+000	3.57660E+000	10	...........
	49	0.666667	9.64716E-001	5.99366E-003	0.00000E+000	5.78218E-003	3.59960E-001	-1.14918E+000	3.57660E+000	10	...........
	50	0.68	9.70541E-001	5.99588E-003	0.00000E+000	5.81924E-003	3.59960E-001	-1.15797E+000	3.57660E+000	10	...........
	51	0.693333	9.76281E-001	5.99069E-003	0.00000E+000	5.84860E-003	3.59960E-001	-1.15450E+000	3.57660E+000	10	...........
	52	0.706667	9.81898E-001	5.99273E-003	0.00000E+000	5.88425E-003	3.59960E-001	-1.14880E+000	3.57660E+000	10	...........
	53	0.72	9.87499E-001	5.99030E-003	0.00000E+000	5.91542E-003	3.59960E-001	-1.15719E+000	3.57660E+000	10	...........
	54	0.733333	9.93050E-001	5.99463E-003	0.00000E+000	5.95296E-003	3.59960E-001	-1.15458E+000	3.57660E+000	10	...........
	55	0.745	9.98219E-001	5.99422E-003	0.00000E+000	5.98354E-003	3.59960E-001	-1.14724E+000	3.57660E+000	10	...........
STARTTIMEOFFSET	QUANT	1086.97	Start Time Offset (s)