File: Data/CV_CRGO300517_1/PWRCCD_CRGO300517_1/CHARGE_DISCHARGE/CHARGE_#131.DTA
EXPLAIN
TAG	PWR800_CHARGE
TITLE	LABEL	PWR Cyclic Charge Discharge (Cell) - Charge Step	Test &Identifier
DATE	LABEL	22-6-2017	Date
TIME	LABEL	15:40:52	Time
NOTES	NOTES	3	&Notes...
	supercap test cell
	0.6mg
	6M KOH
PSTAT	PSTAT	IFC5000-01520	Potentiostat
CAPACITY	QUANT	1.00000E-003	Capacity (A-hr)
CELLTYPE	SELECTOR	1	&Cell Type
WORKINGCONNECTION	SELECTOR	0	&Working Lead
MAXCHARGETIME	VARIABLEANDUNITS	1.00000E+002	s	1.00000E+002	second(s)	Max &Charge Time
CHARGECURRENT	QUANT	6.00000E-003	&Charge Current (A)
VOLTAGEFINISH	TWOPARAM	F	1.00000E-003	3.60000E+003	&Voltage Finish	 I (A) < 	Max Time(s)
SAMPLETIME	QUANT	1.00000E-002	Sa&mple Period (s)
CHARGESTOPAT1	MULTIPARAM	4	1.00000E+000	Charge Stop At &1	Voltage > Limit	V
CHARGESTOPAT2	MULTIPARAM	0	0.00000E+000	Charge Stop At &2	None	N/A
AESBHCSELECTOR	TOGGLE	F	Save Both Half Cells
IRCOMP	TOGGLE	F	IR &Measure
EOC	QUANT	0	Open Circuit (V)
SEQUENCER	TOGGLE	TRUE	Run as Sequence
PSTATMODEL	IQUANT	53	Pstat Model
PSTATSECTION	LABEL	IFC5000-01520	Pstat Section
PSTATSERIALNO	LABEL	01520	Pstat Serial Number
CTRLMODE	IQUANT	0	Control Mode
ELECTROMETER	IQUANT	1	RE=0 or CS=1
IESTAB	IQUANT	0	I/E Stability
CASPEED	IQUANT	4	Control Amp Speed
CONVENTION	IQUANT	1	Current Convention
ICHRANGE	IQUANT	2	Ich Range
ICHRANGEMODE	TOGGLE	T	Ich Auto Range
ICHOFFSETENABLE	TOGGLE	F	Ich Offset Enable
ICHOFFSET	QUANT	0	Ich Offset (V)
ICHFILTER	IQUANT	1	Ich Filter
VCHRANGE	IQUANT	2	Vch Range
VCHRANGEMODE	TOGGLE	T	Vch Auto Range
VCHOFFSETENABLE	TOGGLE	F	Vch Offset Enable
VCHOFFSET	QUANT	0	Vch Offset (V)
VCHFILTER	IQUANT	1	Vch Filter
IERANGELOWERLIMIT	IQUANT	9	I/E Range Lower Limit
IERANGEMODE	TOGGLE	F	I/E AutoRange
IERANGE	IQUANT	10	I/E Range
ACHSELECT	IQUANT	1	Ach Select
ACHRANGE	IQUANT	2	Ach Range
ACHOFFSETENABLE	TOGGLE	F	Ach Offset Enable
ACHOFFSET	QUANT	0	Ach Offset (V)
ACHFILTER	IQUANT	1	Ach Filter
CABLEID	IQUANT	14	Cable ID
DCCALDATE	LABEL	20-10-2016	DC Calibration Date
ACCALDATE	LABEL	12/3/2015	AC Calibration Date
FRAMEWORKVERSION	QUANT	7.01	Framework Version
INSTRUMENTVERSION	LABEL	4.00	Instrument Version
CURVE	TABLE	68
	Pt	T	Vf	Im	Vu	Pwr	Sig	Ach	Temp	IERange	Over
	#	s	V	A	V	W	V	V	deg C	#	bits
	0	0.013333	5.94945E-001	5.99456E-003	0.00000E+000	3.56644E-003	3.59960E-001	-1.07455E+000	3.57840E+000	10	...........
	1	0.026667	6.03220E-001	5.99463E-003	0.00000E+000	3.61608E-003	3.59960E-001	-1.08367E+000	3.57840E+000	10	...........
	2	0.04	6.10904E-001	5.99407E-003	0.00000E+000	3.66180E-003	3.59960E-001	-1.07301E+000	3.57840E+000	10	...........
	3	0.053333	6.18212E-001	5.99296E-003	0.00000E+000	3.70492E-003	3.59960E-001	-1.07447E+000	3.57840E+000	10	...........
	4	0.066667	6.25169E-001	5.99571E-003	0.00000E+000	3.74833E-003	3.59960E-001	-1.08338E+000	3.57840E+000	10	...........
	5	0.08	6.31915E-001	5.99234E-003	0.00000E+000	3.78665E-003	3.59960E-001	-1.07336E+000	3.57840E+000	10	...........
	6	0.093333	6.38573E-001	5.99756E-003	0.00000E+000	3.82988E-003	3.59960E-001	-1.07449E+000	3.57840E+000	10	...........
	7	0.106667	6.45118E-001	5.99215E-003	0.00000E+000	3.86565E-003	3.59960E-001	-1.08353E+000	3.57840E+000	10	...........
	8	0.12	6.51570E-001	5.99538E-003	0.00000E+000	3.90641E-003	3.59960E-001	-1.07319E+000	3.57840E+000	10	...........
	9	0.133333	6.57921E-001	5.99166E-003	0.00000E+000	3.94204E-003	3.59960E-001	-1.07431E+000	3.57840E+000	10	...........
	10	0.146667	6.64230E-001	5.99499E-003	0.00000E+000	3.98205E-003	3.59960E-001	-1.08357E+000	3.57840E+000	10	...........
	11	0.16	6.70491E-001	5.99184E-003	0.00000E+000	4.01747E-003	3.59960E-001	-1.07307E+000	3.57840E+000	10	...........
	12	0.173333	6.76718E-001	5.99389E-003	0.00000E+000	4.05617E-003	3.59960E-001	-1.07382E+000	3.57840E+000	10	...........
	13	0.186667	6.82888E-001	5.99278E-003	0.00000E+000	4.09240E-003	3.59960E-001	-1.08293E+000	3.57840E+000	10	...........
	14	0.2	6.89007E-001	5.99208E-003	0.00000E+000	4.12858E-003	3.59960E-001	-1.07266E+000	3.57840E+000	10	...........
	15	0.213333	6.95195E-001	5.99093E-003	0.00000E+000	4.16487E-003	3.59960E-001	-1.07388E+000	3.57840E+000	10	...........
	16	0.226667	7.01310E-001	5.99717E-003	0.00000E+000	4.20587E-003	3.59960E-001	-1.08321E+000	3.57840E+000	10	...........
	17	0.24	7.07370E-001	5.98946E-003	0.00000E+000	4.23676E-003	3.59960E-001	-1.07270E+000	3.57840E+000	10	...........
	18	0.253333	7.13437E-001	5.99577E-003	0.00000E+000	4.27761E-003	3.59960E-001	-1.07341E+000	3.57840E+000	10	...........
	19	0.266667	7.19525E-001	5.99539E-003	0.00000E+000	4.31383E-003	3.59960E-001	-1.08295E+000	3.57840E+000	10	...........
	20	0.28	7.25575E-001	5.99566E-003	0.00000E+000	4.35030E-003	3.59960E-001	-1.07260E+000	3.57840E+000	10	...........
	21	0.293333	7.31616E-001	5.99092E-003	0.00000E+000	4.38306E-003	3.59960E-001	-1.07367E+000	3.57840E+000	10	...........
	22	0.306667	7.37650E-001	5.99948E-003	0.00000E+000	4.42551E-003	3.59960E-001	-1.08297E+000	3.57840E+000	10	...........
	23	0.32	7.43698E-001	5.99462E-003	0.00000E+000	4.45818E-003	3.59960E-001	-1.07236E+000	3.57840E+000	10	...........
	24	0.333333	7.49688E-001	5.99304E-003	0.00000E+000	4.49291E-003	3.59960E-001	-1.07336E+000	3.57840E+000	10	...........
	25	0.346667	7.55695E-001	5.99520E-003	0.00000E+000	4.53054E-003	3.59960E-001	-1.08299E+000	3.57840E+000	10	...........
	26	0.36	7.61656E-001	5.99175E-003	0.00000E+000	4.56365E-003	3.59960E-001	-1.07248E+000	3.57840E+000	10	...........
	27	0.373333	7.67672E-001	6.00141E-003	0.00000E+000	4.60711E-003	3.59960E-001	-1.07328E+000	3.57840E+000	10	...........
	28	0.386667	7.73679E-001	5.99464E-003	0.00000E+000	4.63792E-003	3.59960E-001	-1.08273E+000	3.57840E+000	10	...........
	29	0.4	7.79655E-001	5.99494E-003	0.00000E+000	4.67398E-003	3.59960E-001	-1.07232E+000	3.57840E+000	10	...........
	30	0.413333	7.85651E-001	5.99419E-003	0.00000E+000	4.70934E-003	3.59960E-001	-1.07340E+000	3.57840E+000	10	...........
	31	0.426667	7.91673E-001	5.99494E-003	0.00000E+000	4.74603E-003	3.59960E-001	-1.08310E+000	3.57840E+000	10	...........
	32	0.44	7.97625E-001	5.99485E-003	0.00000E+000	4.78164E-003	3.59960E-001	-1.07249E+000	3.57840E+000	10	...........
	33	0.453333	8.03555E-001	5.99281E-003	0.00000E+000	4.81555E-003	3.59960E-001	-1.07301E+000	3.57840E+000	10	...........
	34	0.466667	8.09479E-001	5.99656E-003	0.00000E+000	4.85408E-003	3.59960E-001	-1.08291E+000	3.57840E+000	10	...........
	35	0.48	8.15422E-001	5.99214E-003	0.00000E+000	4.88613E-003	3.59960E-001	-1.07254E+000	3.57840E+000	10	...........
	36	0.493333	8.21364E-001	5.99260E-003	0.00000E+000	4.92211E-003	3.59960E-001	-1.07284E+000	3.57840E+000	10	...........
	37	0.506667	8.27330E-001	5.99260E-003	0.00000E+000	4.95786E-003	3.59960E-001	-1.08234E+000	3.57840E+000	10	...........
	38	0.52	8.33227E-001	5.99643E-003	0.00000E+000	4.99639E-003	3.59960E-001	-1.07198E+000	3.57840E+000	10	...........
	39	0.533333	8.39178E-001	5.99349E-003	0.00000E+000	5.02961E-003	3.59960E-001	-1.07247E+000	3.57840E+000	10	...........
	40	0.546667	8.45132E-001	5.99542E-003	0.00000E+000	5.06692E-003	3.59960E-001	-1.08252E+000	3.57840E+000	10	...........
	41	0.56	8.51053E-001	5.99510E-003	0.00000E+000	5.10214E-003	3.59960E-001	-1.07216E+000	3.57840E+000	10	...........
	42	0.573333	8.56944E-001	5.99402E-003	0.00000E+000	5.13654E-003	3.59960E-001	-1.07259E+000	3.57840E+000	10	...........
	43	0.586667	8.62855E-001	6.00052E-003	0.00000E+000	5.17757E-003	3.59960E-001	-1.08232E+000	3.57840E+000	10	...........
	44	0.6	8.68748E-001	5.99722E-003	0.00000E+000	5.21008E-003	3.59960E-001	-1.07204E+000	3.57840E+000	10	...........
	45	0.613333	8.74593E-001	5.99704E-003	0.00000E+000	5.24496E-003	3.59960E-001	-1.07259E+000	3.57870E+000	10	...........
	46	0.626667	8.80435E-001	5.99349E-003	0.00000E+000	5.27688E-003	3.59960E-001	-1.08253E+000	3.57900E+000	10	...........
	47	0.64	8.86314E-001	5.99077E-003	0.00000E+000	5.30970E-003	3.59960E-001	-1.07208E+000	3.57900E+000	10	...........
	48	0.653333	8.92137E-001	5.99041E-003	0.00000E+000	5.34427E-003	3.59960E-001	-1.07241E+000	3.57900E+000	10	...........
	49	0.666667	8.97972E-001	5.99636E-003	0.00000E+000	5.38456E-003	3.59960E-001	-1.08216E+000	3.57900E+000	10	...........
	50	0.68	9.03775E-001	5.99039E-003	0.00000E+000	5.41396E-003	3.59960E-001	-1.07218E+000	3.57900E+000	10	...........
	51	0.693333	9.09571E-001	5.99626E-003	0.00000E+000	5.45402E-003	3.59960E-001	-1.07224E+000	3.57900E+000	10	...........
	52	0.706667	9.15333E-001	5.99648E-003	0.00000E+000	5.48878E-003	3.59960E-001	-1.08229E+000	3.57900E+000	10	...........
	53	0.72	9.21149E-001	5.99312E-003	0.00000E+000	5.52056E-003	3.59960E-001	-1.07197E+000	3.57900E+000	10	...........
	54	0.733333	9.26868E-001	5.99603E-003	0.00000E+000	5.55753E-003	3.59960E-001	-1.07208E+000	3.57900E+000	10	...........
	55	0.746667	9.32555E-001	5.99536E-003	0.00000E+000	5.59100E-003	3.59960E-001	-1.08230E+000	3.57900E+000	10	...........
	56	0.76	9.38255E-001	5.99315E-003	0.00000E+000	5.62310E-003	3.59960E-001	-1.07204E+000	3.57900E+000	10	...........
	57	0.773333	9.43917E-001	5.99478E-003	0.00000E+000	5.65858E-003	3.59960E-001	-1.07194E+000	3.57900E+000	10	...........
	58	0.786667	9.49564E-001	5.99015E-003	0.00000E+000	5.68803E-003	3.59960E-001	-1.08175E+000	3.57900E+000	10	...........
	59	0.8	9.55151E-001	5.99781E-003	0.00000E+000	5.72881E-003	3.59960E-001	-1.07169E+000	3.57900E+000	10	...........
	60	0.813333	9.60717E-001	5.99559E-003	0.00000E+000	5.76006E-003	3.59960E-001	-1.07150E+000	3.57900E+000	10	...........
	61	0.826667	9.66255E-001	5.99328E-003	0.00000E+000	5.79104E-003	3.59960E-001	-1.08149E+000	3.57900E+000	10	...........
	62	0.84	9.71810E-001	5.99255E-003	0.00000E+000	5.82362E-003	3.59960E-001	-1.07125E+000	3.57900E+000	10	...........
	63	0.853333	9.77334E-001	5.99444E-003	0.00000E+000	5.85857E-003	3.59960E-001	-1.07089E+000	3.57900E+000	10	...........
	64	0.866667	9.82786E-001	5.99541E-003	0.00000E+000	5.89221E-003	3.59960E-001	-1.08103E+000	3.57900E+000	10	...........
	65	0.88	9.88170E-001	5.99244E-003	0.00000E+000	5.92154E-003	3.59960E-001	-1.07087E+000	3.57900E+000	10	...........
	66	0.893333	9.93530E-001	5.99418E-003	0.00000E+000	5.95540E-003	3.59960E-001	-1.07096E+000	3.57900E+000	10	...........
	67	0.905	9.98608E-001	5.99566E-003	0.00000E+000	5.98731E-003	3.59960E-001	-1.08150E+000	3.57900E+000	10	...........
STARTTIMEOFFSET	QUANT	251.6467	Start Time Offset (s)