File: Data/CV_CRGO300517_1/PWRCCD_CRGO300517_1/CHARGE_DISCHARGE/CHARGE_#806.DTA
EXPLAIN
TAG	PWR800_CHARGE
TITLE	LABEL	PWR Cyclic Charge Discharge (Cell) - Charge Step	Test &Identifier
DATE	LABEL	22-6-2017	Date
TIME	LABEL	16:07:30	Time
NOTES	NOTES	3	&Notes...
	supercap test cell
	0.6mg
	6M KOH
PSTAT	PSTAT	IFC5000-01520	Potentiostat
CAPACITY	QUANT	1.00000E-003	Capacity (A-hr)
CELLTYPE	SELECTOR	1	&Cell Type
WORKINGCONNECTION	SELECTOR	0	&Working Lead
MAXCHARGETIME	VARIABLEANDUNITS	1.00000E+002	s	1.00000E+002	second(s)	Max &Charge Time
CHARGECURRENT	QUANT	6.00000E-003	&Charge Current (A)
VOLTAGEFINISH	TWOPARAM	F	1.00000E-003	3.60000E+003	&Voltage Finish	 I (A) < 	Max Time(s)
SAMPLETIME	QUANT	1.00000E-002	Sa&mple Period (s)
CHARGESTOPAT1	MULTIPARAM	4	1.00000E+000	Charge Stop At &1	Voltage > Limit	V
CHARGESTOPAT2	MULTIPARAM	0	0.00000E+000	Charge Stop At &2	None	N/A
AESBHCSELECTOR	TOGGLE	F	Save Both Half Cells
IRCOMP	TOGGLE	F	IR &Measure
EOC	QUANT	0	Open Circuit (V)
SEQUENCER	TOGGLE	TRUE	Run as Sequence
PSTATMODEL	IQUANT	53	Pstat Model
PSTATSECTION	LABEL	IFC5000-01520	Pstat Section
PSTATSERIALNO	LABEL	01520	Pstat Serial Number
CTRLMODE	IQUANT	0	Control Mode
ELECTROMETER	IQUANT	1	RE=0 or CS=1
IESTAB	IQUANT	0	I/E Stability
CASPEED	IQUANT	4	Control Amp Speed
CONVENTION	IQUANT	1	Current Convention
ICHRANGE	IQUANT	2	Ich Range
ICHRANGEMODE	TOGGLE	T	Ich Auto Range
ICHOFFSETENABLE	TOGGLE	F	Ich Offset Enable
ICHOFFSET	QUANT	0	Ich Offset (V)
ICHFILTER	IQUANT	1	Ich Filter
VCHRANGE	IQUANT	2	Vch Range
VCHRANGEMODE	TOGGLE	T	Vch Auto Range
VCHOFFSETENABLE	TOGGLE	F	Vch Offset Enable
VCHOFFSET	QUANT	0	Vch Offset (V)
VCHFILTER	IQUANT	1	Vch Filter
IERANGELOWERLIMIT	IQUANT	9	I/E Range Lower Limit
IERANGEMODE	TOGGLE	F	I/E AutoRange
IERANGE	IQUANT	10	I/E Range
ACHSELECT	IQUANT	1	Ach Select
ACHRANGE	IQUANT	2	Ach Range
ACHOFFSETENABLE	TOGGLE	F	Ach Offset Enable
ACHOFFSET	QUANT	0	Ach Offset (V)
ACHFILTER	IQUANT	1	Ach Filter
CABLEID	IQUANT	14	Cable ID
DCCALDATE	LABEL	20-10-2016	DC Calibration Date
ACCALDATE	LABEL	12/3/2015	AC Calibration Date
FRAMEWORKVERSION	QUANT	7.01	Framework Version
INSTRUMENTVERSION	LABEL	4.00	Instrument Version
CURVE	TABLE	54
	Pt	T	Vf	Im	Vu	Pwr	Sig	Ach	Temp	IERange	Over
	#	s	V	A	V	W	V	V	deg C	#	bits
	0	0.013333	6.48547E-001	5.99024E-003	0.00000E+000	3.88495E-003	3.59960E-001	-1.16602E+000	3.57640E+000	10	...........
	1	0.026667	6.57760E-001	5.98790E-003	0.00000E+000	3.93860E-003	3.59960E-001	-1.17065E+000	3.57640E+000	10	...........
	2	0.04	6.66196E-001	5.99354E-003	0.00000E+000	3.99287E-003	3.59960E-001	-1.16132E+000	3.57640E+000	10	...........
	3	0.053333	6.74267E-001	5.99671E-003	0.00000E+000	4.04339E-003	3.59960E-001	-1.16617E+000	3.57640E+000	10	...........
	4	0.066667	6.82004E-001	5.99207E-003	0.00000E+000	4.08662E-003	3.59960E-001	-1.17091E+000	3.57640E+000	10	...........
	5	0.08	6.89518E-001	5.99414E-003	0.00000E+000	4.13306E-003	3.59960E-001	-1.16145E+000	3.57640E+000	10	...........
	6	0.093333	6.96883E-001	5.99585E-003	0.00000E+000	4.17840E-003	3.59960E-001	-1.16594E+000	3.57640E+000	10	...........
	7	0.106667	7.04176E-001	5.99036E-003	0.00000E+000	4.21827E-003	3.59960E-001	-1.17074E+000	3.57640E+000	10	...........
	8	0.12	7.11334E-001	5.99035E-003	0.00000E+000	4.26114E-003	3.59960E-001	-1.16151E+000	3.57640E+000	10	...........
	9	0.133333	7.18486E-001	5.99723E-003	0.00000E+000	4.30893E-003	3.59960E-001	-1.16604E+000	3.57640E+000	10	...........
	10	0.146667	7.25526E-001	5.99223E-003	0.00000E+000	4.34752E-003	3.59960E-001	-1.17094E+000	3.57640E+000	10	...........
	11	0.16	7.32441E-001	5.99243E-003	0.00000E+000	4.38910E-003	3.59960E-001	-1.16143E+000	3.57640E+000	10	...........
	12	0.173333	7.39388E-001	5.99343E-003	0.00000E+000	4.43147E-003	3.59960E-001	-1.16626E+000	3.57640E+000	10	...........
	13	0.186667	7.46324E-001	5.99599E-003	0.00000E+000	4.47495E-003	3.59960E-001	-1.17130E+000	3.57640E+000	10	...........
	14	0.2	7.53171E-001	5.99393E-003	0.00000E+000	4.51445E-003	3.59960E-001	-1.16191E+000	3.57640E+000	10	...........
	15	0.213333	7.59964E-001	5.99090E-003	0.00000E+000	4.55287E-003	3.59960E-001	-1.16626E+000	3.57640E+000	10	...........
	16	0.226667	7.66758E-001	5.99438E-003	0.00000E+000	4.59623E-003	3.59960E-001	-1.17126E+000	3.57640E+000	10	...........
	17	0.24	7.73502E-001	5.99108E-003	0.00000E+000	4.63411E-003	3.59960E-001	-1.16171E+000	3.57640E+000	10	...........
	18	0.253333	7.80226E-001	5.99393E-003	0.00000E+000	4.67662E-003	3.59960E-001	-1.16623E+000	3.57640E+000	10	...........
	19	0.266667	7.86925E-001	5.99520E-003	0.00000E+000	4.71777E-003	3.59960E-001	-1.17088E+000	3.57640E+000	10	...........
	20	0.28	7.93658E-001	5.99014E-003	0.00000E+000	4.75412E-003	3.59960E-001	-1.16152E+000	3.57640E+000	10	...........
	21	0.293333	8.00346E-001	5.99745E-003	0.00000E+000	4.80004E-003	3.59960E-001	-1.16580E+000	3.57640E+000	10	...........
	22	0.306667	8.06981E-001	5.99289E-003	0.00000E+000	4.83615E-003	3.59960E-001	-1.17083E+000	3.57640E+000	10	...........
	23	0.32	8.13584E-001	5.99241E-003	0.00000E+000	4.87533E-003	3.59960E-001	-1.16128E+000	3.57640E+000	10	...........
	24	0.333333	8.20127E-001	5.99531E-003	0.00000E+000	4.91692E-003	3.59960E-001	-1.16583E+000	3.57640E+000	10	...........
	25	0.346667	8.26702E-001	5.99168E-003	0.00000E+000	4.95334E-003	3.59960E-001	-1.17091E+000	3.57647E+000	10	...........
	26	0.36	8.33267E-001	5.99541E-003	0.00000E+000	4.99578E-003	3.59960E-001	-1.16155E+000	3.57660E+000	10	...........
	27	0.373333	8.39790E-001	5.99770E-003	0.00000E+000	5.03681E-003	3.59960E-001	-1.16585E+000	3.57660E+000	10	...........
	28	0.386667	8.46330E-001	5.99474E-003	0.00000E+000	5.07353E-003	3.59960E-001	-1.17114E+000	3.57660E+000	10	...........
	29	0.4	8.52822E-001	5.99153E-003	0.00000E+000	5.10971E-003	3.59960E-001	-1.16168E+000	3.57660E+000	10	...........
	30	0.413333	8.59291E-001	5.99575E-003	0.00000E+000	5.15209E-003	3.59960E-001	-1.16599E+000	3.57660E+000	10	...........
	31	0.426667	8.65713E-001	5.99361E-003	0.00000E+000	5.18875E-003	3.59960E-001	-1.17110E+000	3.57660E+000	10	...........
	32	0.44	8.72138E-001	5.99517E-003	0.00000E+000	5.22861E-003	3.59960E-001	-1.16138E+000	3.57660E+000	10	...........
	33	0.453333	8.78538E-001	5.99432E-003	0.00000E+000	5.26624E-003	3.59960E-001	-1.16593E+000	3.57660E+000	10	...........
	34	0.466667	8.84873E-001	5.99820E-003	0.00000E+000	5.30765E-003	3.59960E-001	-1.17128E+000	3.57660E+000	10	...........
	35	0.48	8.91222E-001	5.99433E-003	0.00000E+000	5.34229E-003	3.59960E-001	-1.16156E+000	3.57660E+000	10	...........
	36	0.493333	8.97491E-001	5.99210E-003	0.00000E+000	5.37786E-003	3.59960E-001	-1.16593E+000	3.57660E+000	10	...........
	37	0.506667	9.03765E-001	5.99651E-003	0.00000E+000	5.41944E-003	3.59960E-001	-1.17110E+000	3.57660E+000	10	...........
	38	0.52	9.09961E-001	5.99208E-003	0.00000E+000	5.45256E-003	3.59960E-001	-1.16165E+000	3.57660E+000	10	...........
	39	0.533333	9.16135E-001	5.99375E-003	0.00000E+000	5.49109E-003	3.59960E-001	-1.16615E+000	3.57660E+000	10	...........
	40	0.546667	9.22321E-001	5.99550E-003	0.00000E+000	5.52978E-003	3.59960E-001	-1.17125E+000	3.57660E+000	10	...........
	41	0.56	9.28460E-001	5.99086E-003	0.00000E+000	5.56227E-003	3.59960E-001	-1.16138E+000	3.57660E+000	10	...........
	42	0.573333	9.34527E-001	5.99233E-003	0.00000E+000	5.60000E-003	3.59960E-001	-1.16585E+000	3.57660E+000	10	...........
	43	0.586667	9.40499E-001	5.99280E-003	0.00000E+000	5.63623E-003	3.59960E-001	-1.17089E+000	3.57660E+000	10	...........
	44	0.6	9.46500E-001	5.99030E-003	0.00000E+000	5.66982E-003	3.59960E-001	-1.16139E+000	3.57660E+000	10	...........
	45	0.613333	9.52423E-001	5.99186E-003	0.00000E+000	5.70678E-003	3.59960E-001	-1.16552E+000	3.57660E+000	10	...........
	46	0.626667	9.58295E-001	5.99833E-003	0.00000E+000	5.74817E-003	3.59960E-001	-1.17068E+000	3.57660E+000	10	...........
	47	0.64	9.64123E-001	5.99376E-003	0.00000E+000	5.77872E-003	3.59960E-001	-1.16127E+000	3.57660E+000	10	...........
	48	0.653333	9.69912E-001	5.99944E-003	0.00000E+000	5.81893E-003	3.59960E-001	-1.16560E+000	3.57660E+000	10	...........
	49	0.666667	9.75704E-001	5.98881E-003	0.00000E+000	5.84330E-003	3.59960E-001	-1.17090E+000	3.57660E+000	10	...........
	50	0.68	9.81412E-001	5.99224E-003	0.00000E+000	5.88085E-003	3.59960E-001	-1.16122E+000	3.57660E+000	10	...........
	51	0.693333	9.87025E-001	5.99382E-003	0.00000E+000	5.91606E-003	3.59960E-001	-1.16509E+000	3.57660E+000	10	...........
	52	0.706667	9.92597E-001	5.99747E-003	0.00000E+000	5.95308E-003	3.59960E-001	-1.17056E+000	3.57660E+000	10	...........
	53	0.72	9.98127E-001	5.99386E-003	0.00000E+000	5.98264E-003	3.59960E-001	-1.16105E+000	3.57660E+000	10	...........
STARTTIMEOFFSET	QUANT	1312.715	Start Time Offset (s)