File: Data/CV_CRGO300517_1/PWRCCD_CRGO300517_1/CHARGE_DISCHARGE/CHARGE_#985.DTA
EXPLAIN
TAG	PWR800_CHARGE
TITLE	LABEL	PWR Cyclic Charge Discharge (Cell) - Charge Step	Test &Identifier
DATE	LABEL	22-6-2017	Date
TIME	LABEL	16:14:05	Time
NOTES	NOTES	3	&Notes...
	supercap test cell
	0.6mg
	6M KOH
PSTAT	PSTAT	IFC5000-01520	Potentiostat
CAPACITY	QUANT	1.00000E-003	Capacity (A-hr)
CELLTYPE	SELECTOR	1	&Cell Type
WORKINGCONNECTION	SELECTOR	0	&Working Lead
MAXCHARGETIME	VARIABLEANDUNITS	1.00000E+002	s	1.00000E+002	second(s)	Max &Charge Time
CHARGECURRENT	QUANT	6.00000E-003	&Charge Current (A)
VOLTAGEFINISH	TWOPARAM	F	1.00000E-003	3.60000E+003	&Voltage Finish	 I (A) < 	Max Time(s)
SAMPLETIME	QUANT	1.00000E-002	Sa&mple Period (s)
CHARGESTOPAT1	MULTIPARAM	4	1.00000E+000	Charge Stop At &1	Voltage > Limit	V
CHARGESTOPAT2	MULTIPARAM	0	0.00000E+000	Charge Stop At &2	None	N/A
AESBHCSELECTOR	TOGGLE	F	Save Both Half Cells
IRCOMP	TOGGLE	F	IR &Measure
EOC	QUANT	0	Open Circuit (V)
SEQUENCER	TOGGLE	TRUE	Run as Sequence
PSTATMODEL	IQUANT	53	Pstat Model
PSTATSECTION	LABEL	IFC5000-01520	Pstat Section
PSTATSERIALNO	LABEL	01520	Pstat Serial Number
CTRLMODE	IQUANT	0	Control Mode
ELECTROMETER	IQUANT	1	RE=0 or CS=1
IESTAB	IQUANT	0	I/E Stability
CASPEED	IQUANT	4	Control Amp Speed
CONVENTION	IQUANT	1	Current Convention
ICHRANGE	IQUANT	2	Ich Range
ICHRANGEMODE	TOGGLE	T	Ich Auto Range
ICHOFFSETENABLE	TOGGLE	F	Ich Offset Enable
ICHOFFSET	QUANT	0	Ich Offset (V)
ICHFILTER	IQUANT	1	Ich Filter
VCHRANGE	IQUANT	2	Vch Range
VCHRANGEMODE	TOGGLE	T	Vch Auto Range
VCHOFFSETENABLE	TOGGLE	F	Vch Offset Enable
VCHOFFSET	QUANT	0	Vch Offset (V)
VCHFILTER	IQUANT	1	Vch Filter
IERANGELOWERLIMIT	IQUANT	9	I/E Range Lower Limit
IERANGEMODE	TOGGLE	F	I/E AutoRange
IERANGE	IQUANT	10	I/E Range
ACHSELECT	IQUANT	1	Ach Select
ACHRANGE	IQUANT	2	Ach Range
ACHOFFSETENABLE	TOGGLE	F	Ach Offset Enable
ACHOFFSET	QUANT	0	Ach Offset (V)
ACHFILTER	IQUANT	1	Ach Filter
CABLEID	IQUANT	14	Cable ID
DCCALDATE	LABEL	20-10-2016	DC Calibration Date
ACCALDATE	LABEL	12/3/2015	AC Calibration Date
FRAMEWORKVERSION	QUANT	7.01	Framework Version
INSTRUMENTVERSION	LABEL	4.00	Instrument Version
CURVE	TABLE	53
	Pt	T	Vf	Im	Vu	Pwr	Sig	Ach	Temp	IERange	Over
	#	s	V	A	V	W	V	V	deg C	#	bits
	0	0.013333	6.56184E-001	5.99196E-003	0.00000E+000	3.93183E-003	3.59960E-001	-1.18116E+000	3.57660E+000	10	...........
	1	0.026667	6.65565E-001	5.99232E-003	0.00000E+000	3.98828E-003	3.59960E-001	-1.18235E+000	3.57660E+000	10	...........
	2	0.04	6.74150E-001	5.98998E-003	0.00000E+000	4.03815E-003	3.59960E-001	-1.17448E+000	3.57660E+000	10	...........
	3	0.053333	6.82313E-001	5.99300E-003	0.00000E+000	4.08910E-003	3.59960E-001	-1.18090E+000	3.57660E+000	10	...........
	4	0.066667	6.90187E-001	5.99553E-003	0.00000E+000	4.13804E-003	3.59960E-001	-1.18191E+000	3.57660E+000	10	...........
	5	0.08	6.97849E-001	5.99351E-003	0.00000E+000	4.18256E-003	3.59960E-001	-1.17422E+000	3.57660E+000	10	...........
	6	0.093333	7.05319E-001	5.99501E-003	0.00000E+000	4.22839E-003	3.59960E-001	-1.18094E+000	3.57660E+000	10	...........
	7	0.106667	7.12722E-001	5.99457E-003	0.00000E+000	4.27246E-003	3.59960E-001	-1.18175E+000	3.57660E+000	10	...........
	8	0.12	7.20032E-001	5.99495E-003	0.00000E+000	4.31655E-003	3.59960E-001	-1.17406E+000	3.57660E+000	10	...........
	9	0.133333	7.27246E-001	5.99215E-003	0.00000E+000	4.35777E-003	3.59960E-001	-1.18078E+000	3.57660E+000	10	...........
	10	0.146667	7.34367E-001	5.99480E-003	0.00000E+000	4.40239E-003	3.59960E-001	-1.18134E+000	3.57660E+000	10	...........
	11	0.16	7.41427E-001	5.99550E-003	0.00000E+000	4.44523E-003	3.59960E-001	-1.17402E+000	3.57660E+000	10	...........
	12	0.173333	7.48466E-001	5.99261E-003	0.00000E+000	4.48527E-003	3.59960E-001	-1.18100E+000	3.57660E+000	10	...........
	13	0.186667	7.55477E-001	5.99235E-003	0.00000E+000	4.52709E-003	3.59960E-001	-1.18122E+000	3.57660E+000	10	...........
	14	0.2	7.62427E-001	5.99052E-003	0.00000E+000	4.56733E-003	3.59960E-001	-1.17377E+000	3.57660E+000	10	...........
	15	0.213333	7.69396E-001	5.99851E-003	0.00000E+000	4.61523E-003	3.59960E-001	-1.18103E+000	3.57660E+000	10	...........
	16	0.226667	7.76295E-001	5.99536E-003	0.00000E+000	4.65417E-003	3.59960E-001	-1.18095E+000	3.57660E+000	10	...........
	17	0.24	7.83154E-001	5.99838E-003	0.00000E+000	4.69765E-003	3.59960E-001	-1.17382E+000	3.57660E+000	10	...........
	18	0.253333	7.89996E-001	5.99483E-003	0.00000E+000	4.73590E-003	3.59960E-001	-1.18103E+000	3.57660E+000	10	...........
	19	0.266667	7.96845E-001	5.99236E-003	0.00000E+000	4.77498E-003	3.59960E-001	-1.18116E+000	3.57660E+000	10	...........
	20	0.28	8.03619E-001	5.99161E-003	0.00000E+000	4.81497E-003	3.59960E-001	-1.17380E+000	3.57660E+000	10	...........
	21	0.293333	8.10359E-001	5.99116E-003	0.00000E+000	4.85499E-003	3.59960E-001	-1.18103E+000	3.57660E+000	10	...........
	22	0.306667	8.17088E-001	5.99164E-003	0.00000E+000	4.89570E-003	3.59960E-001	-1.18099E+000	3.57660E+000	10	...........
	23	0.32	8.23806E-001	5.99248E-003	0.00000E+000	4.93664E-003	3.59960E-001	-1.17386E+000	3.57660E+000	10	...........
	24	0.333333	8.30449E-001	5.99272E-003	0.00000E+000	4.97664E-003	3.59960E-001	-1.18126E+000	3.57660E+000	10	...........
	25	0.346667	8.37075E-001	5.99650E-003	0.00000E+000	5.01952E-003	3.59960E-001	-1.18064E+000	3.57660E+000	10	...........
	26	0.36	8.43722E-001	5.99392E-003	0.00000E+000	5.05720E-003	3.59960E-001	-1.17346E+000	3.57660E+000	10	...........
	27	0.373333	8.50300E-001	5.99444E-003	0.00000E+000	5.09707E-003	3.59960E-001	-1.18104E+000	3.57660E+000	10	...........
	28	0.386667	8.56827E-001	5.99154E-003	0.00000E+000	5.13371E-003	3.59960E-001	-1.18031E+000	3.57660E+000	10	...........
	29	0.4	8.63372E-001	5.99250E-003	0.00000E+000	5.17376E-003	3.59960E-001	-1.17339E+000	3.57659E+000	10	...........
	30	0.413333	8.69920E-001	5.99617E-003	0.00000E+000	5.21619E-003	3.59960E-001	-1.18104E+000	3.57650E+000	10	...........
	31	0.426667	8.76398E-001	5.99961E-003	0.00000E+000	5.25805E-003	3.59960E-001	-1.18000E+000	3.57650E+000	10	...........
	32	0.44	8.82848E-001	5.99290E-003	0.00000E+000	5.29082E-003	3.59960E-001	-1.17349E+000	3.57650E+000	10	...........
	33	0.453333	8.89256E-001	5.99203E-003	0.00000E+000	5.32844E-003	3.59960E-001	-1.18110E+000	3.57650E+000	10	...........
	34	0.466667	8.95630E-001	5.99229E-003	0.00000E+000	5.36688E-003	3.59960E-001	-1.18002E+000	3.57650E+000	10	...........
	35	0.48	9.01943E-001	5.99637E-003	0.00000E+000	5.40838E-003	3.59960E-001	-1.17329E+000	3.57650E+000	10	...........
	36	0.493333	9.08248E-001	5.99737E-003	0.00000E+000	5.44710E-003	3.59960E-001	-1.18111E+000	3.57650E+000	10	...........
	37	0.506667	9.14514E-001	5.99361E-003	0.00000E+000	5.48124E-003	3.59960E-001	-1.17988E+000	3.57650E+000	10	...........
	38	0.52	9.20776E-001	5.99520E-003	0.00000E+000	5.52024E-003	3.59960E-001	-1.17347E+000	3.57650E+000	10	...........
	39	0.533333	9.26928E-001	5.99362E-003	0.00000E+000	5.55566E-003	3.59960E-001	-1.18128E+000	3.57650E+000	10	...........
	40	0.546667	9.33018E-001	5.98789E-003	0.00000E+000	5.58681E-003	3.59960E-001	-1.17945E+000	3.57650E+000	10	...........
	41	0.56	9.39105E-001	5.99524E-003	0.00000E+000	5.63016E-003	3.59960E-001	-1.17311E+000	3.57650E+000	10	...........
	42	0.573333	9.45162E-001	5.99236E-003	0.00000E+000	5.66376E-003	3.59960E-001	-1.18141E+000	3.57650E+000	10	...........
	43	0.586667	9.51158E-001	5.99301E-003	0.00000E+000	5.70030E-003	3.59960E-001	-1.17966E+000	3.57650E+000	10	...........
	44	0.6	9.57099E-001	5.99445E-003	0.00000E+000	5.73728E-003	3.59960E-001	-1.17332E+000	3.57650E+000	10	...........
	45	0.613333	9.62969E-001	5.99965E-003	0.00000E+000	5.77748E-003	3.59960E-001	-1.18148E+000	3.57650E+000	10	...........
	46	0.626667	9.68785E-001	5.99468E-003	0.00000E+000	5.80755E-003	3.59960E-001	-1.17934E+000	3.57650E+000	10	...........
	47	0.64	9.74578E-001	5.98992E-003	0.00000E+000	5.83765E-003	3.59960E-001	-1.17350E+000	3.57650E+000	10	...........
	48	0.653333	9.80267E-001	5.99020E-003	0.00000E+000	5.87200E-003	3.59960E-001	-1.18167E+000	3.57650E+000	10	...........
	49	0.666667	9.85931E-001	5.99478E-003	0.00000E+000	5.91044E-003	3.59960E-001	-1.17927E+000	3.57650E+000	10	...........
	50	0.68	9.91540E-001	5.99590E-003	0.00000E+000	5.94517E-003	3.59960E-001	-1.17316E+000	3.57650E+000	10	...........
	51	0.693333	9.97169E-001	5.99299E-003	0.00000E+000	5.97602E-003	3.59960E-001	-1.18123E+000	3.57650E+000	10	...........
	52	0.695	1.00031E+000	6.00522E-003	0.00000E+000	6.00711E-003	3.59960E-001	-1.16018E+000	3.57650E+000	10	...........
STARTTIMEOFFSET	QUANT	1564.544	Start Time Offset (s)