File: Data/CV_CRGO300517_1/PWRCCD_CRGO300517_1/CHARGE_DISCHARGE/CHARGE_#708.DTA
EXPLAIN
TAG	PWR800_CHARGE
TITLE	LABEL	PWR Cyclic Charge Discharge (Cell) - Charge Step	Test &Identifier
DATE	LABEL	22-6-2017	Date
TIME	LABEL	16:03:51	Time
NOTES	NOTES	3	&Notes...
	supercap test cell
	0.6mg
	6M KOH
PSTAT	PSTAT	IFC5000-01520	Potentiostat
CAPACITY	QUANT	1.00000E-003	Capacity (A-hr)
CELLTYPE	SELECTOR	1	&Cell Type
WORKINGCONNECTION	SELECTOR	0	&Working Lead
MAXCHARGETIME	VARIABLEANDUNITS	1.00000E+002	s	1.00000E+002	second(s)	Max &Charge Time
CHARGECURRENT	QUANT	6.00000E-003	&Charge Current (A)
VOLTAGEFINISH	TWOPARAM	F	1.00000E-003	3.60000E+003	&Voltage Finish	 I (A) < 	Max Time(s)
SAMPLETIME	QUANT	1.00000E-002	Sa&mple Period (s)
CHARGESTOPAT1	MULTIPARAM	4	1.00000E+000	Charge Stop At &1	Voltage > Limit	V
CHARGESTOPAT2	MULTIPARAM	0	0.00000E+000	Charge Stop At &2	None	N/A
AESBHCSELECTOR	TOGGLE	F	Save Both Half Cells
IRCOMP	TOGGLE	F	IR &Measure
EOC	QUANT	0	Open Circuit (V)
SEQUENCER	TOGGLE	TRUE	Run as Sequence
PSTATMODEL	IQUANT	53	Pstat Model
PSTATSECTION	LABEL	IFC5000-01520	Pstat Section
PSTATSERIALNO	LABEL	01520	Pstat Serial Number
CTRLMODE	IQUANT	0	Control Mode
ELECTROMETER	IQUANT	1	RE=0 or CS=1
IESTAB	IQUANT	0	I/E Stability
CASPEED	IQUANT	4	Control Amp Speed
CONVENTION	IQUANT	1	Current Convention
ICHRANGE	IQUANT	2	Ich Range
ICHRANGEMODE	TOGGLE	T	Ich Auto Range
ICHOFFSETENABLE	TOGGLE	F	Ich Offset Enable
ICHOFFSET	QUANT	0	Ich Offset (V)
ICHFILTER	IQUANT	1	Ich Filter
VCHRANGE	IQUANT	2	Vch Range
VCHRANGEMODE	TOGGLE	T	Vch Auto Range
VCHOFFSETENABLE	TOGGLE	F	Vch Offset Enable
VCHOFFSET	QUANT	0	Vch Offset (V)
VCHFILTER	IQUANT	1	Vch Filter
IERANGELOWERLIMIT	IQUANT	9	I/E Range Lower Limit
IERANGEMODE	TOGGLE	F	I/E AutoRange
IERANGE	IQUANT	10	I/E Range
ACHSELECT	IQUANT	1	Ach Select
ACHRANGE	IQUANT	2	Ach Range
ACHOFFSETENABLE	TOGGLE	F	Ach Offset Enable
ACHOFFSET	QUANT	0	Ach Offset (V)
ACHFILTER	IQUANT	1	Ach Filter
CABLEID	IQUANT	14	Cable ID
DCCALDATE	LABEL	20-10-2016	DC Calibration Date
ACCALDATE	LABEL	12/3/2015	AC Calibration Date
FRAMEWORKVERSION	QUANT	7.01	Framework Version
INSTRUMENTVERSION	LABEL	4.00	Instrument Version
CURVE	TABLE	56
	Pt	T	Vf	Im	Vu	Pwr	Sig	Ach	Temp	IERange	Over
	#	s	V	A	V	W	V	V	deg C	#	bits
	0	0.013333	6.43506E-001	5.99193E-003	0.00000E+000	3.85585E-003	3.59960E-001	-1.15095E+000	3.57780E+000	10	...........
	1	0.026667	6.52638E-001	5.99508E-003	0.00000E+000	3.91262E-003	3.59960E-001	-1.15247E+000	3.57780E+000	10	...........
	2	0.04	6.60949E-001	5.99126E-003	0.00000E+000	3.95991E-003	3.59960E-001	-1.14449E+000	3.57780E+000	10	...........
	3	0.053333	6.68922E-001	5.98805E-003	0.00000E+000	4.00554E-003	3.59960E-001	-1.15112E+000	3.57780E+000	10	...........
	4	0.066667	6.76599E-001	5.99441E-003	0.00000E+000	4.05581E-003	3.59960E-001	-1.15258E+000	3.57780E+000	10	...........
	5	0.08	6.84003E-001	5.99230E-003	0.00000E+000	4.09875E-003	3.59960E-001	-1.14462E+000	3.57780E+000	10	...........
	6	0.093333	6.91309E-001	5.99771E-003	0.00000E+000	4.14627E-003	3.59960E-001	-1.15114E+000	3.57780E+000	10	...........
	7	0.106667	6.98515E-001	5.98944E-003	0.00000E+000	4.18372E-003	3.59960E-001	-1.15239E+000	3.57780E+000	10	...........
	8	0.12	7.05588E-001	5.99372E-003	0.00000E+000	4.22909E-003	3.59960E-001	-1.14431E+000	3.57780E+000	10	...........
	9	0.133333	7.12605E-001	5.99535E-003	0.00000E+000	4.27231E-003	3.59960E-001	-1.15098E+000	3.57780E+000	10	...........
	10	0.146667	7.19605E-001	5.99483E-003	0.00000E+000	4.31392E-003	3.59960E-001	-1.15208E+000	3.57780E+000	10	...........
	11	0.16	7.26517E-001	5.99609E-003	0.00000E+000	4.35626E-003	3.59960E-001	-1.14419E+000	3.57780E+000	10	...........
	12	0.173333	7.33345E-001	5.99249E-003	0.00000E+000	4.39456E-003	3.59960E-001	-1.15126E+000	3.57780E+000	10	...........
	13	0.186667	7.40172E-001	5.98998E-003	0.00000E+000	4.43362E-003	3.59960E-001	-1.15221E+000	3.57780E+000	10	...........
	14	0.2	7.47000E-001	5.99434E-003	0.00000E+000	4.47778E-003	3.59960E-001	-1.14463E+000	3.57780E+000	10	...........
	15	0.213333	7.53785E-001	5.99245E-003	0.00000E+000	4.51702E-003	3.59960E-001	-1.15152E+000	3.57780E+000	10	...........
	16	0.226667	7.60504E-001	5.99617E-003	0.00000E+000	4.56011E-003	3.59960E-001	-1.15239E+000	3.57780E+000	10	...........
	17	0.24	7.67225E-001	5.99059E-003	0.00000E+000	4.59613E-003	3.59960E-001	-1.14453E+000	3.57780E+000	10	...........
	18	0.253333	7.73909E-001	5.99081E-003	0.00000E+000	4.63634E-003	3.59960E-001	-1.15186E+000	3.57780E+000	10	...........
	19	0.266667	7.80588E-001	5.99276E-003	0.00000E+000	4.67787E-003	3.59960E-001	-1.15253E+000	3.57780E+000	10	...........
	20	0.28	7.87199E-001	5.99353E-003	0.00000E+000	4.71810E-003	3.59960E-001	-1.14467E+000	3.57780E+000	10	...........
	21	0.293333	7.93841E-001	5.99118E-003	0.00000E+000	4.75605E-003	3.59960E-001	-1.15175E+000	3.57780E+000	10	...........
	22	0.306667	8.00473E-001	5.99473E-003	0.00000E+000	4.79862E-003	3.59960E-001	-1.15233E+000	3.57780E+000	10	...........
	23	0.32	8.07029E-001	5.99722E-003	0.00000E+000	4.83993E-003	3.59960E-001	-1.14476E+000	3.57780E+000	10	...........
	24	0.333333	8.13543E-001	5.98845E-003	0.00000E+000	4.87186E-003	3.59960E-001	-1.15221E+000	3.57780E+000	10	...........
	25	0.346667	8.20127E-001	5.99528E-003	0.00000E+000	4.91690E-003	3.59960E-001	-1.15216E+000	3.57780E+000	10	...........
	26	0.36	8.26651E-001	5.99546E-003	0.00000E+000	4.95615E-003	3.59960E-001	-1.14481E+000	3.57780E+000	10	...........
	27	0.373333	8.33120E-001	5.99033E-003	0.00000E+000	4.99066E-003	3.59960E-001	-1.15220E+000	3.57780E+000	10	...........
	28	0.386667	8.39555E-001	5.98641E-003	0.00000E+000	5.02592E-003	3.59960E-001	-1.15222E+000	3.57780E+000	10	...........
	29	0.4	8.46070E-001	5.99270E-003	0.00000E+000	5.07024E-003	3.59960E-001	-1.14500E+000	3.57780E+000	10	...........
	30	0.413333	8.52511E-001	6.00006E-003	0.00000E+000	5.11512E-003	3.59960E-001	-1.15216E+000	3.57780E+000	10	...........
	31	0.426667	8.58943E-001	5.99525E-003	0.00000E+000	5.14958E-003	3.59960E-001	-1.15180E+000	3.57780E+000	10	...........
	32	0.44	8.65292E-001	5.99410E-003	0.00000E+000	5.18665E-003	3.59960E-001	-1.14470E+000	3.57780E+000	10	...........
	33	0.453333	8.71675E-001	5.99392E-003	0.00000E+000	5.22475E-003	3.59960E-001	-1.15223E+000	3.57780E+000	10	...........
	34	0.466667	8.78004E-001	5.99387E-003	0.00000E+000	5.26265E-003	3.59960E-001	-1.15166E+000	3.57780E+000	10	...........
	35	0.48	8.84337E-001	5.99253E-003	0.00000E+000	5.29942E-003	3.59960E-001	-1.14434E+000	3.57780E+000	10	...........
	36	0.493333	8.90609E-001	5.99475E-003	0.00000E+000	5.33898E-003	3.59960E-001	-1.15216E+000	3.57780E+000	10	...........
	37	0.506667	8.96883E-001	5.98899E-003	0.00000E+000	5.37143E-003	3.59960E-001	-1.15169E+000	3.57780E+000	10	...........
	38	0.52	9.03056E-001	5.99646E-003	0.00000E+000	5.41514E-003	3.59960E-001	-1.14482E+000	3.57730E+000	10	...........
	39	0.533333	9.09214E-001	5.98897E-003	0.00000E+000	5.44526E-003	3.59960E-001	-1.15248E+000	3.57680E+000	10	...........
	40	0.546667	9.15385E-001	5.99040E-003	0.00000E+000	5.48352E-003	3.59960E-001	-1.15150E+000	3.57680E+000	10	...........
	41	0.56	9.21540E-001	5.99044E-003	0.00000E+000	5.52043E-003	3.59960E-001	-1.14454E+000	3.57680E+000	10	...........
	42	0.573333	9.27613E-001	5.99731E-003	0.00000E+000	5.56318E-003	3.59960E-001	-1.15258E+000	3.57680E+000	10	...........
	43	0.586667	9.33613E-001	5.99496E-003	0.00000E+000	5.59697E-003	3.59960E-001	-1.15160E+000	3.57680E+000	10	...........
	44	0.6	9.39639E-001	5.99373E-003	0.00000E+000	5.63194E-003	3.59960E-001	-1.14483E+000	3.57680E+000	10	...........
	45	0.613333	9.45563E-001	5.98731E-003	0.00000E+000	5.66138E-003	3.59960E-001	-1.15248E+000	3.57680E+000	10	...........
	46	0.626667	9.51475E-001	5.98803E-003	0.00000E+000	5.69746E-003	3.59960E-001	-1.15119E+000	3.57680E+000	10	...........
	47	0.64	9.57329E-001	5.99365E-003	0.00000E+000	5.73789E-003	3.59960E-001	-1.14476E+000	3.57680E+000	10	...........
	48	0.653333	9.63130E-001	5.99307E-003	0.00000E+000	5.77211E-003	3.59960E-001	-1.15289E+000	3.57680E+000	10	...........
	49	0.666667	9.68910E-001	5.99283E-003	0.00000E+000	5.80651E-003	3.59960E-001	-1.15147E+000	3.57680E+000	10	...........
	50	0.68	9.74680E-001	5.99972E-003	0.00000E+000	5.84780E-003	3.59960E-001	-1.14471E+000	3.57680E+000	10	...........
	51	0.693333	9.80332E-001	5.99425E-003	0.00000E+000	5.87635E-003	3.59960E-001	-1.15286E+000	3.57680E+000	10	...........
	52	0.706667	9.85966E-001	5.98989E-003	0.00000E+000	5.90583E-003	3.59960E-001	-1.15127E+000	3.57680E+000	10	...........
	53	0.72	9.91511E-001	5.99972E-003	0.00000E+000	5.94878E-003	3.59960E-001	-1.14490E+000	3.57680E+000	10	...........
	54	0.733333	9.97053E-001	5.98945E-003	0.00000E+000	5.97180E-003	3.59960E-001	-1.15301E+000	3.57680E+000	10	...........
	55	0.735	1.00017E+000	5.99304E-003	0.00000E+000	5.99408E-003	3.59960E-001	-1.13173E+000	3.57680E+000	10	...........
STARTTIMEOFFSET	QUANT	1170.949	Start Time Offset (s)