File: Data/CV_CRGO300517_1/PWRCCD_CRGO300517_1/CHARGE_DISCHARGE/CHARGE_#493.DTA
EXPLAIN
TAG	PWR800_CHARGE
TITLE	LABEL	PWR Cyclic Charge Discharge (Cell) - Charge Step	Test &Identifier
DATE	LABEL	22-6-2017	Date
TIME	LABEL	15:55:39	Time
NOTES	NOTES	3	&Notes...
	supercap test cell
	0.6mg
	6M KOH
PSTAT	PSTAT	IFC5000-01520	Potentiostat
CAPACITY	QUANT	1.00000E-003	Capacity (A-hr)
CELLTYPE	SELECTOR	1	&Cell Type
WORKINGCONNECTION	SELECTOR	0	&Working Lead
MAXCHARGETIME	VARIABLEANDUNITS	1.00000E+002	s	1.00000E+002	second(s)	Max &Charge Time
CHARGECURRENT	QUANT	6.00000E-003	&Charge Current (A)
VOLTAGEFINISH	TWOPARAM	F	1.00000E-003	3.60000E+003	&Voltage Finish	 I (A) < 	Max Time(s)
SAMPLETIME	QUANT	1.00000E-002	Sa&mple Period (s)
CHARGESTOPAT1	MULTIPARAM	4	1.00000E+000	Charge Stop At &1	Voltage > Limit	V
CHARGESTOPAT2	MULTIPARAM	0	0.00000E+000	Charge Stop At &2	None	N/A
AESBHCSELECTOR	TOGGLE	F	Save Both Half Cells
IRCOMP	TOGGLE	F	IR &Measure
EOC	QUANT	0	Open Circuit (V)
SEQUENCER	TOGGLE	TRUE	Run as Sequence
PSTATMODEL	IQUANT	53	Pstat Model
PSTATSECTION	LABEL	IFC5000-01520	Pstat Section
PSTATSERIALNO	LABEL	01520	Pstat Serial Number
CTRLMODE	IQUANT	0	Control Mode
ELECTROMETER	IQUANT	1	RE=0 or CS=1
IESTAB	IQUANT	0	I/E Stability
CASPEED	IQUANT	4	Control Amp Speed
CONVENTION	IQUANT	1	Current Convention
ICHRANGE	IQUANT	2	Ich Range
ICHRANGEMODE	TOGGLE	T	Ich Auto Range
ICHOFFSETENABLE	TOGGLE	F	Ich Offset Enable
ICHOFFSET	QUANT	0	Ich Offset (V)
ICHFILTER	IQUANT	1	Ich Filter
VCHRANGE	IQUANT	2	Vch Range
VCHRANGEMODE	TOGGLE	T	Vch Auto Range
VCHOFFSETENABLE	TOGGLE	F	Vch Offset Enable
VCHOFFSET	QUANT	0	Vch Offset (V)
VCHFILTER	IQUANT	1	Vch Filter
IERANGELOWERLIMIT	IQUANT	9	I/E Range Lower Limit
IERANGEMODE	TOGGLE	F	I/E AutoRange
IERANGE	IQUANT	10	I/E Range
ACHSELECT	IQUANT	1	Ach Select
ACHRANGE	IQUANT	2	Ach Range
ACHOFFSETENABLE	TOGGLE	F	Ach Offset Enable
ACHOFFSET	QUANT	0	Ach Offset (V)
ACHFILTER	IQUANT	1	Ach Filter
CABLEID	IQUANT	14	Cable ID
DCCALDATE	LABEL	20-10-2016	DC Calibration Date
ACCALDATE	LABEL	12/3/2015	AC Calibration Date
FRAMEWORKVERSION	QUANT	7.01	Framework Version
INSTRUMENTVERSION	LABEL	4.00	Instrument Version
CURVE	TABLE	59
	Pt	T	Vf	Im	Vu	Pwr	Sig	Ach	Temp	IERange	Over
	#	s	V	A	V	W	V	V	deg C	#	bits
	0	0.013333	6.31226E-001	5.99438E-003	0.00000E+000	3.78381E-003	3.59960E-001	-1.11358E+000	3.57740E+000	10	...........
	1	0.026667	6.40115E-001	5.99196E-003	0.00000E+000	3.83554E-003	3.59960E-001	-1.11732E+000	3.57740E+000	10	...........
	2	0.04	6.48264E-001	5.99566E-003	0.00000E+000	3.88677E-003	3.59960E-001	-1.12253E+000	3.57740E+000	10	...........
	3	0.053333	6.56014E-001	5.99146E-003	0.00000E+000	3.93048E-003	3.59960E-001	-1.11376E+000	3.57740E+000	10	...........
	4	0.066667	6.63440E-001	5.99530E-003	0.00000E+000	3.97752E-003	3.59960E-001	-1.11756E+000	3.57740E+000	10	...........
	5	0.08	6.70710E-001	5.99039E-003	0.00000E+000	4.01781E-003	3.59960E-001	-1.12266E+000	3.57740E+000	10	...........
	6	0.093333	6.77815E-001	5.99812E-003	0.00000E+000	4.06562E-003	3.59960E-001	-1.11384E+000	3.57740E+000	10	...........
	7	0.106667	6.84822E-001	5.99106E-003	0.00000E+000	4.10281E-003	3.59960E-001	-1.11736E+000	3.57740E+000	10	...........
	8	0.12	6.91758E-001	5.99456E-003	0.00000E+000	4.14678E-003	3.59960E-001	-1.12306E+000	3.57740E+000	10	...........
	9	0.133333	6.98591E-001	5.99692E-003	0.00000E+000	4.18940E-003	3.59960E-001	-1.11440E+000	3.57740E+000	10	...........
	10	0.146667	7.05359E-001	5.99614E-003	0.00000E+000	4.22943E-003	3.59960E-001	-1.11764E+000	3.57740E+000	10	...........
	11	0.16	7.12105E-001	5.99408E-003	0.00000E+000	4.26842E-003	3.59960E-001	-1.12309E+000	3.57740E+000	10	...........
	12	0.173333	7.18835E-001	5.99259E-003	0.00000E+000	4.30768E-003	3.59960E-001	-1.11445E+000	3.57740E+000	10	...........
	13	0.186667	7.25501E-001	5.99146E-003	0.00000E+000	4.34681E-003	3.59960E-001	-1.11833E+000	3.57740E+000	10	...........
	14	0.2	7.32099E-001	5.99237E-003	0.00000E+000	4.38701E-003	3.59960E-001	-1.12395E+000	3.57740E+000	10	...........
	15	0.213333	7.38706E-001	5.99303E-003	0.00000E+000	4.42709E-003	3.59960E-001	-1.11498E+000	3.57740E+000	10	...........
	16	0.226667	7.45297E-001	6.00056E-003	0.00000E+000	4.47220E-003	3.59960E-001	-1.11834E+000	3.57740E+000	10	...........
	17	0.24	7.51861E-001	5.99517E-003	0.00000E+000	4.50753E-003	3.59960E-001	-1.12426E+000	3.57740E+000	10	...........
	18	0.253333	7.58387E-001	5.99001E-003	0.00000E+000	4.54274E-003	3.59960E-001	-1.11544E+000	3.57740E+000	10	...........
	19	0.266667	7.64898E-001	5.99206E-003	0.00000E+000	4.58332E-003	3.59960E-001	-1.11894E+000	3.57740E+000	10	...........
	20	0.28	7.71438E-001	5.99333E-003	0.00000E+000	4.62349E-003	3.59960E-001	-1.12464E+000	3.57740E+000	10	...........
	21	0.293333	7.77882E-001	5.99440E-003	0.00000E+000	4.66293E-003	3.59960E-001	-1.11547E+000	3.57740E+000	10	...........
	22	0.306667	7.84361E-001	5.99621E-003	0.00000E+000	4.70319E-003	3.59960E-001	-1.11882E+000	3.57740E+000	10	...........
	23	0.32	7.90864E-001	5.99289E-003	0.00000E+000	4.73957E-003	3.59960E-001	-1.12512E+000	3.57740E+000	10	...........
	24	0.333333	7.97323E-001	5.99778E-003	0.00000E+000	4.78216E-003	3.59960E-001	-1.11601E+000	3.57740E+000	10	...........
	25	0.346667	8.03704E-001	5.99420E-003	0.00000E+000	4.81756E-003	3.59960E-001	-1.11911E+000	3.57740E+000	10	...........
	26	0.36	8.10095E-001	5.98967E-003	0.00000E+000	4.85220E-003	3.59960E-001	-1.12534E+000	3.57740E+000	10	...........
	27	0.373333	8.16484E-001	5.99368E-003	0.00000E+000	4.89374E-003	3.59960E-001	-1.11652E+000	3.57740E+000	10	...........
	28	0.386667	8.22870E-001	5.99423E-003	0.00000E+000	4.93247E-003	3.59960E-001	-1.11946E+000	3.57740E+000	10	...........
	29	0.4	8.29223E-001	5.99351E-003	0.00000E+000	4.96996E-003	3.59960E-001	-1.12576E+000	3.57740E+000	10	...........
	30	0.413333	8.35583E-001	5.99646E-003	0.00000E+000	5.01054E-003	3.59960E-001	-1.11682E+000	3.57740E+000	10	...........
	31	0.426667	8.41874E-001	5.99777E-003	0.00000E+000	5.04936E-003	3.59960E-001	-1.11967E+000	3.57740E+000	10	...........
	32	0.44	8.48170E-001	5.99465E-003	0.00000E+000	5.08448E-003	3.59960E-001	-1.12602E+000	3.57740E+000	10	...........
	33	0.453333	8.54504E-001	5.99736E-003	0.00000E+000	5.12477E-003	3.59960E-001	-1.11724E+000	3.57740E+000	10	...........
	34	0.466667	8.60775E-001	5.99540E-003	0.00000E+000	5.16069E-003	3.59960E-001	-1.12006E+000	3.57740E+000	10	...........
	35	0.48	8.67006E-001	5.99251E-003	0.00000E+000	5.19554E-003	3.59960E-001	-1.12619E+000	3.57740E+000	10	...........
	36	0.493333	8.73281E-001	5.99998E-003	0.00000E+000	5.23967E-003	3.59960E-001	-1.11741E+000	3.57740E+000	10	...........
	37	0.506667	8.79486E-001	5.99731E-003	0.00000E+000	5.27455E-003	3.59960E-001	-1.12042E+000	3.57740E+000	10	...........
	38	0.52	8.85649E-001	5.99167E-003	0.00000E+000	5.30652E-003	3.59960E-001	-1.12703E+000	3.57740E+000	10	...........
	39	0.533333	8.91793E-001	5.99667E-003	0.00000E+000	5.34779E-003	3.59960E-001	-1.11799E+000	3.57740E+000	10	...........
	40	0.546667	8.97927E-001	5.99409E-003	0.00000E+000	5.38226E-003	3.59960E-001	-1.12057E+000	3.57740E+000	10	...........
	41	0.56	9.04011E-001	5.99347E-003	0.00000E+000	5.41816E-003	3.59960E-001	-1.12716E+000	3.57740E+000	10	...........
	42	0.573333	9.10111E-001	5.99487E-003	0.00000E+000	5.45599E-003	3.59960E-001	-1.11817E+000	3.57740E+000	10	...........
	43	0.586667	9.16148E-001	5.99234E-003	0.00000E+000	5.48987E-003	3.59960E-001	-1.12096E+000	3.57740E+000	10	...........
	44	0.6	9.22205E-001	5.99292E-003	0.00000E+000	5.52670E-003	3.59960E-001	-1.12749E+000	3.57740E+000	10	...........
	45	0.613333	9.28210E-001	5.99434E-003	0.00000E+000	5.56401E-003	3.59960E-001	-1.11802E+000	3.57740E+000	10	...........
	46	0.626667	9.34185E-001	5.99607E-003	0.00000E+000	5.60143E-003	3.59960E-001	-1.12040E+000	3.57740E+000	10	...........
	47	0.64	9.40056E-001	5.99467E-003	0.00000E+000	5.63532E-003	3.59960E-001	-1.12745E+000	3.57740E+000	10	...........
	48	0.653333	9.45942E-001	5.99514E-003	0.00000E+000	5.67105E-003	3.59960E-001	-1.11854E+000	3.57740E+000	10	...........
	49	0.666667	9.51811E-001	5.99936E-003	0.00000E+000	5.71026E-003	3.59960E-001	-1.12105E+000	3.57740E+000	10	...........
	50	0.68	9.57582E-001	5.99185E-003	0.00000E+000	5.73769E-003	3.59960E-001	-1.12790E+000	3.57740E+000	10	...........
	51	0.693333	9.63287E-001	5.98830E-003	0.00000E+000	5.76845E-003	3.59960E-001	-1.11874E+000	3.57740E+000	10	...........
	52	0.706667	9.68961E-001	5.99754E-003	0.00000E+000	5.81138E-003	3.59960E-001	-1.12144E+000	3.57740E+000	10	...........
	53	0.72	9.74712E-001	5.98939E-003	0.00000E+000	5.83793E-003	3.59960E-001	-1.12840E+000	3.57740E+000	10	...........
	54	0.733333	9.80339E-001	5.99268E-003	0.00000E+000	5.87485E-003	3.59960E-001	-1.11929E+000	3.57740E+000	10	...........
	55	0.746667	9.85923E-001	5.99334E-003	0.00000E+000	5.90897E-003	3.59960E-001	-1.12124E+000	3.57740E+000	10	...........
	56	0.76	9.91467E-001	5.98985E-003	0.00000E+000	5.93874E-003	3.59960E-001	-1.12853E+000	3.57740E+000	10	...........
	57	0.773333	9.96995E-001	5.99374E-003	0.00000E+000	5.97573E-003	3.59960E-001	-1.11948E+000	3.57740E+000	10	...........
	58	0.775	1.00009E+000	5.99029E-003	0.00000E+000	5.99085E-003	3.59960E-001	-1.13312E+000	3.57740E+000	10	...........
STARTTIMEOFFSET	QUANT	848.2419	Start Time Offset (s)