File: Data/CV_CRGO300517_1/PWRCCD_CRGO300517_1/CHARGE_DISCHARGE/CHARGE_#793.DTA
EXPLAIN
TAG	PWR800_CHARGE
TITLE	LABEL	PWR Cyclic Charge Discharge (Cell) - Charge Step	Test &Identifier
DATE	LABEL	22-6-2017	Date
TIME	LABEL	16:07:01	Time
NOTES	NOTES	3	&Notes...
	supercap test cell
	0.6mg
	6M KOH
PSTAT	PSTAT	IFC5000-01520	Potentiostat
CAPACITY	QUANT	1.00000E-003	Capacity (A-hr)
CELLTYPE	SELECTOR	1	&Cell Type
WORKINGCONNECTION	SELECTOR	0	&Working Lead
MAXCHARGETIME	VARIABLEANDUNITS	1.00000E+002	s	1.00000E+002	second(s)	Max &Charge Time
CHARGECURRENT	QUANT	6.00000E-003	&Charge Current (A)
VOLTAGEFINISH	TWOPARAM	F	1.00000E-003	3.60000E+003	&Voltage Finish	 I (A) < 	Max Time(s)
SAMPLETIME	QUANT	1.00000E-002	Sa&mple Period (s)
CHARGESTOPAT1	MULTIPARAM	4	1.00000E+000	Charge Stop At &1	Voltage > Limit	V
CHARGESTOPAT2	MULTIPARAM	0	0.00000E+000	Charge Stop At &2	None	N/A
AESBHCSELECTOR	TOGGLE	F	Save Both Half Cells
IRCOMP	TOGGLE	F	IR &Measure
EOC	QUANT	0	Open Circuit (V)
SEQUENCER	TOGGLE	TRUE	Run as Sequence
PSTATMODEL	IQUANT	53	Pstat Model
PSTATSECTION	LABEL	IFC5000-01520	Pstat Section
PSTATSERIALNO	LABEL	01520	Pstat Serial Number
CTRLMODE	IQUANT	0	Control Mode
ELECTROMETER	IQUANT	1	RE=0 or CS=1
IESTAB	IQUANT	0	I/E Stability
CASPEED	IQUANT	4	Control Amp Speed
CONVENTION	IQUANT	1	Current Convention
ICHRANGE	IQUANT	2	Ich Range
ICHRANGEMODE	TOGGLE	T	Ich Auto Range
ICHOFFSETENABLE	TOGGLE	F	Ich Offset Enable
ICHOFFSET	QUANT	0	Ich Offset (V)
ICHFILTER	IQUANT	1	Ich Filter
VCHRANGE	IQUANT	2	Vch Range
VCHRANGEMODE	TOGGLE	T	Vch Auto Range
VCHOFFSETENABLE	TOGGLE	F	Vch Offset Enable
VCHOFFSET	QUANT	0	Vch Offset (V)
VCHFILTER	IQUANT	1	Vch Filter
IERANGELOWERLIMIT	IQUANT	9	I/E Range Lower Limit
IERANGEMODE	TOGGLE	F	I/E AutoRange
IERANGE	IQUANT	10	I/E Range
ACHSELECT	IQUANT	1	Ach Select
ACHRANGE	IQUANT	2	Ach Range
ACHOFFSETENABLE	TOGGLE	F	Ach Offset Enable
ACHOFFSET	QUANT	0	Ach Offset (V)
ACHFILTER	IQUANT	1	Ach Filter
CABLEID	IQUANT	14	Cable ID
DCCALDATE	LABEL	20-10-2016	DC Calibration Date
ACCALDATE	LABEL	12/3/2015	AC Calibration Date
FRAMEWORKVERSION	QUANT	7.01	Framework Version
INSTRUMENTVERSION	LABEL	4.00	Instrument Version
CURVE	TABLE	54
	Pt	T	Vf	Im	Vu	Pwr	Sig	Ach	Temp	IERange	Over
	#	s	V	A	V	W	V	V	deg C	#	bits
	0	0.013333	6.48422E-001	5.99354E-003	0.00000E+000	3.88634E-003	3.59960E-001	-1.17260E+000	3.57730E+000	10	...........
	1	0.026667	6.57506E-001	5.99442E-003	0.00000E+000	3.94137E-003	3.59960E-001	-1.16217E+000	3.57730E+000	10	...........
	2	0.04	6.65915E-001	5.99449E-003	0.00000E+000	3.99182E-003	3.59960E-001	-1.16402E+000	3.57730E+000	10	...........
	3	0.053333	6.73930E-001	5.99322E-003	0.00000E+000	4.03901E-003	3.59960E-001	-1.17276E+000	3.57730E+000	10	...........
	4	0.066667	6.81619E-001	5.99091E-003	0.00000E+000	4.08352E-003	3.59960E-001	-1.16200E+000	3.57730E+000	10	...........
	5	0.08	6.89109E-001	5.99564E-003	0.00000E+000	4.13165E-003	3.59960E-001	-1.16400E+000	3.57730E+000	10	...........
	6	0.093333	6.96487E-001	5.99309E-003	0.00000E+000	4.17411E-003	3.59960E-001	-1.17267E+000	3.57730E+000	10	...........
	7	0.106667	7.03758E-001	5.99826E-003	0.00000E+000	4.22132E-003	3.59960E-001	-1.16189E+000	3.57730E+000	10	...........
	8	0.12	7.10897E-001	5.99668E-003	0.00000E+000	4.26302E-003	3.59960E-001	-1.16392E+000	3.57730E+000	10	...........
	9	0.133333	7.18006E-001	5.99300E-003	0.00000E+000	4.30301E-003	3.59960E-001	-1.17246E+000	3.57730E+000	10	...........
	10	0.146667	7.25064E-001	5.99247E-003	0.00000E+000	4.34492E-003	3.59960E-001	-1.16147E+000	3.57730E+000	10	...........
	11	0.16	7.32010E-001	5.99749E-003	0.00000E+000	4.39023E-003	3.59960E-001	-1.16399E+000	3.57730E+000	10	...........
	12	0.173333	7.38924E-001	5.99266E-003	0.00000E+000	4.42812E-003	3.59960E-001	-1.17254E+000	3.57730E+000	10	...........
	13	0.186667	7.45849E-001	5.99511E-003	0.00000E+000	4.47144E-003	3.59960E-001	-1.16202E+000	3.57730E+000	10	...........
	14	0.2	7.52689E-001	5.98964E-003	0.00000E+000	4.50834E-003	3.59960E-001	-1.16387E+000	3.57730E+000	10	...........
	15	0.213333	7.59515E-001	5.99758E-003	0.00000E+000	4.55525E-003	3.59960E-001	-1.17249E+000	3.57730E+000	10	...........
	16	0.226667	7.66295E-001	5.99930E-003	0.00000E+000	4.59723E-003	3.59960E-001	-1.16196E+000	3.57730E+000	10	...........
	17	0.24	7.73055E-001	5.99421E-003	0.00000E+000	4.63385E-003	3.59960E-001	-1.16422E+000	3.57730E+000	10	...........
	18	0.253333	7.79806E-001	5.99567E-003	0.00000E+000	4.67546E-003	3.59960E-001	-1.17240E+000	3.57730E+000	10	...........
	19	0.266667	7.86525E-001	5.99285E-003	0.00000E+000	4.71353E-003	3.59960E-001	-1.16161E+000	3.57730E+000	10	...........
	20	0.28	7.93204E-001	5.99450E-003	0.00000E+000	4.75486E-003	3.59960E-001	-1.16343E+000	3.57730E+000	10	...........
	21	0.293333	7.99869E-001	5.99369E-003	0.00000E+000	4.79416E-003	3.59960E-001	-1.17201E+000	3.57730E+000	10	...........
	22	0.306667	8.06482E-001	5.99389E-003	0.00000E+000	4.83396E-003	3.59960E-001	-1.16164E+000	3.57730E+000	10	...........
	23	0.32	8.13120E-001	5.99673E-003	0.00000E+000	4.87606E-003	3.59960E-001	-1.16385E+000	3.57730E+000	10	...........
	24	0.333333	8.19737E-001	5.99902E-003	0.00000E+000	4.91762E-003	3.59960E-001	-1.17205E+000	3.57730E+000	10	...........
	25	0.346667	8.26297E-001	5.98752E-003	0.00000E+000	4.94747E-003	3.59960E-001	-1.16148E+000	3.57730E+000	10	...........
	26	0.36	8.32846E-001	5.99171E-003	0.00000E+000	4.99017E-003	3.59960E-001	-1.16402E+000	3.57730E+000	10	...........
	27	0.373333	8.39371E-001	5.99127E-003	0.00000E+000	5.02890E-003	3.59960E-001	-1.17207E+000	3.57730E+000	10	...........
	28	0.386667	8.45908E-001	5.99716E-003	0.00000E+000	5.07305E-003	3.59960E-001	-1.16134E+000	3.57730E+000	10	...........
	29	0.4	8.52401E-001	5.99685E-003	0.00000E+000	5.11172E-003	3.59960E-001	-1.16407E+000	3.57730E+000	10	...........
	30	0.413333	8.58871E-001	5.99594E-003	0.00000E+000	5.14974E-003	3.59960E-001	-1.17194E+000	3.57730E+000	10	...........
	31	0.426667	8.65294E-001	5.99616E-003	0.00000E+000	5.18844E-003	3.59960E-001	-1.16145E+000	3.57730E+000	10	...........
	32	0.44	8.71709E-001	5.99375E-003	0.00000E+000	5.22481E-003	3.59960E-001	-1.16389E+000	3.57730E+000	10	...........
	33	0.453333	8.78078E-001	5.99146E-003	0.00000E+000	5.26096E-003	3.59960E-001	-1.17221E+000	3.57730E+000	10	...........
	34	0.466667	8.84390E-001	5.99790E-003	0.00000E+000	5.30448E-003	3.59960E-001	-1.16152E+000	3.57730E+000	10	...........
	35	0.48	8.90711E-001	5.99286E-003	0.00000E+000	5.33791E-003	3.59960E-001	-1.16402E+000	3.57730E+000	10	...........
	36	0.493333	8.97041E-001	5.99262E-003	0.00000E+000	5.37563E-003	3.59960E-001	-1.17205E+000	3.57730E+000	10	...........
	37	0.506667	9.03267E-001	5.99381E-003	0.00000E+000	5.41401E-003	3.59960E-001	-1.16177E+000	3.57730E+000	10	...........
	38	0.52	9.09505E-001	5.98940E-003	0.00000E+000	5.44739E-003	3.59960E-001	-1.16424E+000	3.57730E+000	10	...........
	39	0.533333	9.15688E-001	5.99398E-003	0.00000E+000	5.48861E-003	3.59960E-001	-1.17236E+000	3.57730E+000	10	...........
	40	0.546667	9.21868E-001	5.99655E-003	0.00000E+000	5.52802E-003	3.59960E-001	-1.16165E+000	3.57730E+000	10	...........
	41	0.56	9.27965E-001	5.99190E-003	0.00000E+000	5.56028E-003	3.59960E-001	-1.16422E+000	3.57730E+000	10	...........
	42	0.573333	9.33995E-001	5.99214E-003	0.00000E+000	5.59663E-003	3.59960E-001	-1.17241E+000	3.57730E+000	10	...........
	43	0.586667	9.39984E-001	5.99545E-003	0.00000E+000	5.63563E-003	3.59960E-001	-1.16165E+000	3.57730E+000	10	...........
	44	0.6	9.45948E-001	5.99297E-003	0.00000E+000	5.66903E-003	3.59960E-001	-1.16386E+000	3.57730E+000	10	...........
	45	0.613333	9.51901E-001	5.99362E-003	0.00000E+000	5.70534E-003	3.59960E-001	-1.17186E+000	3.57730E+000	10	...........
	46	0.626667	9.57778E-001	5.99223E-003	0.00000E+000	5.73923E-003	3.59960E-001	-1.16139E+000	3.57730E+000	10	...........
	47	0.64	9.63614E-001	5.99590E-003	0.00000E+000	5.77773E-003	3.59960E-001	-1.16424E+000	3.57730E+000	10	...........
	48	0.653333	9.69415E-001	5.99405E-003	0.00000E+000	5.81073E-003	3.59960E-001	-1.17211E+000	3.57730E+000	10	...........
	49	0.666667	9.75217E-001	5.99600E-003	0.00000E+000	5.84741E-003	3.59960E-001	-1.16137E+000	3.57730E+000	10	...........
	50	0.68	9.80898E-001	5.99722E-003	0.00000E+000	5.88267E-003	3.59960E-001	-1.16401E+000	3.57730E+000	10	...........
	51	0.693333	9.86534E-001	5.99059E-003	0.00000E+000	5.90992E-003	3.59960E-001	-1.17201E+000	3.57730E+000	10	...........
	52	0.706667	9.92124E-001	5.99704E-003	0.00000E+000	5.94980E-003	3.59960E-001	-1.16154E+000	3.57730E+000	10	...........
	53	0.72	9.97634E-001	5.99156E-003	0.00000E+000	5.97739E-003	3.59960E-001	-1.16436E+000	3.57730E+000	10	...........
STARTTIMEOFFSET	QUANT	1294.077	Start Time Offset (s)