File: Data/CV_CRGO300517_1/PWRCCD_CRGO300517_1/CHARGE_DISCHARGE/CHARGE_#603.DTA
EXPLAIN
TAG	PWR800_CHARGE
TITLE	LABEL	PWR Cyclic Charge Discharge (Cell) - Charge Step	Test &Identifier
DATE	LABEL	22-6-2017	Date
TIME	LABEL	15:59:53	Time
NOTES	NOTES	3	&Notes...
	supercap test cell
	0.6mg
	6M KOH
PSTAT	PSTAT	IFC5000-01520	Potentiostat
CAPACITY	QUANT	1.00000E-003	Capacity (A-hr)
CELLTYPE	SELECTOR	1	&Cell Type
WORKINGCONNECTION	SELECTOR	0	&Working Lead
MAXCHARGETIME	VARIABLEANDUNITS	1.00000E+002	s	1.00000E+002	second(s)	Max &Charge Time
CHARGECURRENT	QUANT	6.00000E-003	&Charge Current (A)
VOLTAGEFINISH	TWOPARAM	F	1.00000E-003	3.60000E+003	&Voltage Finish	 I (A) < 	Max Time(s)
SAMPLETIME	QUANT	1.00000E-002	Sa&mple Period (s)
CHARGESTOPAT1	MULTIPARAM	4	1.00000E+000	Charge Stop At &1	Voltage > Limit	V
CHARGESTOPAT2	MULTIPARAM	0	0.00000E+000	Charge Stop At &2	None	N/A
AESBHCSELECTOR	TOGGLE	F	Save Both Half Cells
IRCOMP	TOGGLE	F	IR &Measure
EOC	QUANT	0	Open Circuit (V)
SEQUENCER	TOGGLE	TRUE	Run as Sequence
PSTATMODEL	IQUANT	53	Pstat Model
PSTATSECTION	LABEL	IFC5000-01520	Pstat Section
PSTATSERIALNO	LABEL	01520	Pstat Serial Number
CTRLMODE	IQUANT	0	Control Mode
ELECTROMETER	IQUANT	1	RE=0 or CS=1
IESTAB	IQUANT	0	I/E Stability
CASPEED	IQUANT	4	Control Amp Speed
CONVENTION	IQUANT	1	Current Convention
ICHRANGE	IQUANT	2	Ich Range
ICHRANGEMODE	TOGGLE	T	Ich Auto Range
ICHOFFSETENABLE	TOGGLE	F	Ich Offset Enable
ICHOFFSET	QUANT	0	Ich Offset (V)
ICHFILTER	IQUANT	1	Ich Filter
VCHRANGE	IQUANT	2	Vch Range
VCHRANGEMODE	TOGGLE	T	Vch Auto Range
VCHOFFSETENABLE	TOGGLE	F	Vch Offset Enable
VCHOFFSET	QUANT	0	Vch Offset (V)
VCHFILTER	IQUANT	1	Vch Filter
IERANGELOWERLIMIT	IQUANT	9	I/E Range Lower Limit
IERANGEMODE	TOGGLE	F	I/E AutoRange
IERANGE	IQUANT	10	I/E Range
ACHSELECT	IQUANT	1	Ach Select
ACHRANGE	IQUANT	2	Ach Range
ACHOFFSETENABLE	TOGGLE	F	Ach Offset Enable
ACHOFFSET	QUANT	0	Ach Offset (V)
ACHFILTER	IQUANT	1	Ach Filter
CABLEID	IQUANT	14	Cable ID
DCCALDATE	LABEL	20-10-2016	DC Calibration Date
ACCALDATE	LABEL	12/3/2015	AC Calibration Date
FRAMEWORKVERSION	QUANT	7.01	Framework Version
INSTRUMENTVERSION	LABEL	4.00	Instrument Version
CURVE	TABLE	57
	Pt	T	Vf	Im	Vu	Pwr	Sig	Ach	Temp	IERange	Over
	#	s	V	A	V	W	V	V	deg C	#	bits
	0	0.013333	6.38384E-001	5.99318E-003	0.00000E+000	3.82595E-003	3.59960E-001	-1.14723E+000	3.57640E+000	10	...........
	1	0.026667	6.47350E-001	5.99124E-003	0.00000E+000	3.87843E-003	3.59960E-001	-1.15019E+000	3.57640E+000	10	...........
	2	0.04	6.55668E-001	5.99570E-003	0.00000E+000	3.93119E-003	3.59960E-001	-1.15703E+000	3.57640E+000	10	...........
	3	0.053333	6.63536E-001	5.99396E-003	0.00000E+000	3.97721E-003	3.59960E-001	-1.14694E+000	3.57660E+000	10	...........
	4	0.066667	6.71114E-001	5.99665E-003	0.00000E+000	4.02443E-003	3.59960E-001	-1.14990E+000	3.57660E+000	10	...........
	5	0.08	6.78490E-001	5.99494E-003	0.00000E+000	4.06751E-003	3.59960E-001	-1.15700E+000	3.57660E+000	10	...........
	6	0.093333	6.85688E-001	5.99587E-003	0.00000E+000	4.11129E-003	3.59960E-001	-1.14679E+000	3.57660E+000	10	...........
	7	0.106667	6.92793E-001	5.99423E-003	0.00000E+000	4.15276E-003	3.59960E-001	-1.14931E+000	3.57660E+000	10	...........
	8	0.12	6.99811E-001	5.99408E-003	0.00000E+000	4.19472E-003	3.59960E-001	-1.15648E+000	3.57660E+000	10	...........
	9	0.133333	7.06752E-001	5.99127E-003	0.00000E+000	4.23434E-003	3.59960E-001	-1.14650E+000	3.57660E+000	10	...........
	10	0.146667	7.13597E-001	5.99494E-003	0.00000E+000	4.27797E-003	3.59960E-001	-1.14950E+000	3.57660E+000	10	...........
	11	0.16	7.20491E-001	5.99276E-003	0.00000E+000	4.31773E-003	3.59960E-001	-1.15663E+000	3.57660E+000	10	...........
	12	0.173333	7.27258E-001	5.98979E-003	0.00000E+000	4.35612E-003	3.59960E-001	-1.14637E+000	3.57660E+000	10	...........
	13	0.186667	7.33978E-001	5.99786E-003	0.00000E+000	4.40230E-003	3.59960E-001	-1.14906E+000	3.57660E+000	10	...........
	14	0.2	7.40671E-001	5.99490E-003	0.00000E+000	4.44024E-003	3.59960E-001	-1.15669E+000	3.57660E+000	10	...........
	15	0.213333	7.47398E-001	5.99262E-003	0.00000E+000	4.47888E-003	3.59960E-001	-1.14639E+000	3.57660E+000	10	...........
	16	0.226667	7.54072E-001	5.99669E-003	0.00000E+000	4.52194E-003	3.59960E-001	-1.14888E+000	3.57660E+000	10	...........
	17	0.24	7.60732E-001	5.99139E-003	0.00000E+000	4.55784E-003	3.59960E-001	-1.15651E+000	3.57660E+000	10	...........
	18	0.253333	7.67350E-001	5.99088E-003	0.00000E+000	4.59711E-003	3.59960E-001	-1.14609E+000	3.57660E+000	10	...........
	19	0.266667	7.73948E-001	5.99683E-003	0.00000E+000	4.64123E-003	3.59960E-001	-1.14879E+000	3.57660E+000	10	...........
	20	0.28	7.80549E-001	5.99178E-003	0.00000E+000	4.67688E-003	3.59960E-001	-1.15652E+000	3.57660E+000	10	...........
	21	0.293333	7.87067E-001	5.99728E-003	0.00000E+000	4.72025E-003	3.59960E-001	-1.14617E+000	3.57660E+000	10	...........
	22	0.306667	7.93634E-001	5.99374E-003	0.00000E+000	4.75683E-003	3.59960E-001	-1.14861E+000	3.57660E+000	10	...........
	23	0.32	8.00169E-001	5.99328E-003	0.00000E+000	4.79564E-003	3.59960E-001	-1.15645E+000	3.57660E+000	10	...........
	24	0.333333	8.06661E-001	5.99181E-003	0.00000E+000	4.83336E-003	3.59960E-001	-1.14629E+000	3.57660E+000	10	...........
	25	0.346667	8.13141E-001	5.99268E-003	0.00000E+000	4.87289E-003	3.59960E-001	-1.14866E+000	3.57660E+000	10	...........
	26	0.36	8.19622E-001	5.99357E-003	0.00000E+000	4.91247E-003	3.59960E-001	-1.15653E+000	3.57660E+000	10	...........
	27	0.373333	8.26080E-001	5.99366E-003	0.00000E+000	4.95124E-003	3.59960E-001	-1.14629E+000	3.57660E+000	10	...........
	28	0.386667	8.32535E-001	6.00155E-003	0.00000E+000	4.99650E-003	3.59960E-001	-1.14866E+000	3.57660E+000	10	...........
	29	0.4	8.38961E-001	5.99357E-003	0.00000E+000	5.02837E-003	3.59960E-001	-1.15654E+000	3.57660E+000	10	...........
	30	0.413333	8.45356E-001	5.99597E-003	0.00000E+000	5.06873E-003	3.59960E-001	-1.14594E+000	3.57660E+000	10	...........
	31	0.426667	8.51739E-001	5.99853E-003	0.00000E+000	5.10918E-003	3.59960E-001	-1.14802E+000	3.57660E+000	10	...........
	32	0.44	8.58069E-001	5.99776E-003	0.00000E+000	5.14649E-003	3.59960E-001	-1.15644E+000	3.57660E+000	10	...........
	33	0.453333	8.64394E-001	5.99340E-003	0.00000E+000	5.18065E-003	3.59960E-001	-1.14582E+000	3.57660E+000	10	...........
	34	0.466667	8.70714E-001	5.99328E-003	0.00000E+000	5.21843E-003	3.59960E-001	-1.14789E+000	3.57660E+000	10	...........
	35	0.48	8.77014E-001	5.99747E-003	0.00000E+000	5.25986E-003	3.59960E-001	-1.15630E+000	3.57660E+000	10	...........
	36	0.493333	8.83251E-001	5.99251E-003	0.00000E+000	5.29289E-003	3.59960E-001	-1.14599E+000	3.57660E+000	10	...........
	37	0.506667	8.89478E-001	5.99101E-003	0.00000E+000	5.32887E-003	3.59960E-001	-1.14755E+000	3.57660E+000	10	...........
	38	0.52	8.95693E-001	5.99421E-003	0.00000E+000	5.36897E-003	3.59960E-001	-1.15620E+000	3.57660E+000	10	...........
	39	0.533333	9.01884E-001	5.99756E-003	0.00000E+000	5.40910E-003	3.59960E-001	-1.14587E+000	3.57660E+000	10	...........
	40	0.546667	9.08031E-001	5.99052E-003	0.00000E+000	5.43958E-003	3.59960E-001	-1.14770E+000	3.57660E+000	10	...........
	41	0.56	9.14127E-001	5.99714E-003	0.00000E+000	5.48215E-003	3.59960E-001	-1.15615E+000	3.57660E+000	10	...........
	42	0.573333	9.20201E-001	5.99413E-003	0.00000E+000	5.51580E-003	3.59960E-001	-1.14567E+000	3.57660E+000	10	...........
	43	0.586667	9.26283E-001	5.99608E-003	0.00000E+000	5.55406E-003	3.59960E-001	-1.14733E+000	3.57660E+000	10	...........
	44	0.6	9.32268E-001	5.99459E-003	0.00000E+000	5.58857E-003	3.59960E-001	-1.15626E+000	3.57660E+000	10	...........
	45	0.613333	9.38251E-001	5.99475E-003	0.00000E+000	5.62458E-003	3.59960E-001	-1.14579E+000	3.57660E+000	10	...........
	46	0.626667	9.44153E-001	5.99942E-003	0.00000E+000	5.66438E-003	3.59960E-001	-1.14791E+000	3.57660E+000	10	...........
	47	0.64	9.50063E-001	5.99444E-003	0.00000E+000	5.69509E-003	3.59960E-001	-1.15635E+000	3.57660E+000	10	...........
	48	0.653333	9.55878E-001	5.99275E-003	0.00000E+000	5.72833E-003	3.59960E-001	-1.14606E+000	3.57660E+000	10	...........
	49	0.666667	9.61659E-001	5.98904E-003	0.00000E+000	5.75941E-003	3.59960E-001	-1.14754E+000	3.57660E+000	10	...........
	50	0.68	9.67468E-001	5.99242E-003	0.00000E+000	5.79748E-003	3.59960E-001	-1.15659E+000	3.57660E+000	10	...........
	51	0.693333	9.73149E-001	5.99384E-003	0.00000E+000	5.83290E-003	3.59960E-001	-1.14598E+000	3.57660E+000	10	...........
	52	0.706667	9.78861E-001	6.00032E-003	0.00000E+000	5.87348E-003	3.59960E-001	-1.14765E+000	3.57660E+000	10	...........
	53	0.72	9.84434E-001	5.99527E-003	0.00000E+000	5.90195E-003	3.59960E-001	-1.15618E+000	3.57660E+000	10	...........
	54	0.733333	9.89967E-001	5.99246E-003	0.00000E+000	5.93233E-003	3.59960E-001	-1.14558E+000	3.57660E+000	10	...........
	55	0.746667	9.95491E-001	5.99418E-003	0.00000E+000	5.96715E-003	3.59960E-001	-1.14709E+000	3.57660E+000	10	...........
	56	0.753333	9.99614E-001	5.99586E-003	0.00000E+000	5.99354E-003	3.59960E-001	-1.15487E+000	3.57660E+000	10	...........
STARTTIMEOFFSET	QUANT	1015.434	Start Time Offset (s)