File: Data/CV_CRGO300517_1/PWRCCD_CRGO300517_1/CHARGE_DISCHARGE/CHARGE_#940.DTA
EXPLAIN
TAG	PWR800_CHARGE
TITLE	LABEL	PWR Cyclic Charge Discharge (Cell) - Charge Step	Test &Identifier
DATE	LABEL	22-6-2017	Date
TIME	LABEL	16:12:27	Time
NOTES	NOTES	3	&Notes...
	supercap test cell
	0.6mg
	6M KOH
PSTAT	PSTAT	IFC5000-01520	Potentiostat
CAPACITY	QUANT	1.00000E-003	Capacity (A-hr)
CELLTYPE	SELECTOR	1	&Cell Type
WORKINGCONNECTION	SELECTOR	0	&Working Lead
MAXCHARGETIME	VARIABLEANDUNITS	1.00000E+002	s	1.00000E+002	second(s)	Max &Charge Time
CHARGECURRENT	QUANT	6.00000E-003	&Charge Current (A)
VOLTAGEFINISH	TWOPARAM	F	1.00000E-003	3.60000E+003	&Voltage Finish	 I (A) < 	Max Time(s)
SAMPLETIME	QUANT	1.00000E-002	Sa&mple Period (s)
CHARGESTOPAT1	MULTIPARAM	4	1.00000E+000	Charge Stop At &1	Voltage > Limit	V
CHARGESTOPAT2	MULTIPARAM	0	0.00000E+000	Charge Stop At &2	None	N/A
AESBHCSELECTOR	TOGGLE	F	Save Both Half Cells
IRCOMP	TOGGLE	F	IR &Measure
EOC	QUANT	0	Open Circuit (V)
SEQUENCER	TOGGLE	TRUE	Run as Sequence
PSTATMODEL	IQUANT	53	Pstat Model
PSTATSECTION	LABEL	IFC5000-01520	Pstat Section
PSTATSERIALNO	LABEL	01520	Pstat Serial Number
CTRLMODE	IQUANT	0	Control Mode
ELECTROMETER	IQUANT	1	RE=0 or CS=1
IESTAB	IQUANT	0	I/E Stability
CASPEED	IQUANT	4	Control Amp Speed
CONVENTION	IQUANT	1	Current Convention
ICHRANGE	IQUANT	2	Ich Range
ICHRANGEMODE	TOGGLE	T	Ich Auto Range
ICHOFFSETENABLE	TOGGLE	F	Ich Offset Enable
ICHOFFSET	QUANT	0	Ich Offset (V)
ICHFILTER	IQUANT	1	Ich Filter
VCHRANGE	IQUANT	2	Vch Range
VCHRANGEMODE	TOGGLE	T	Vch Auto Range
VCHOFFSETENABLE	TOGGLE	F	Vch Offset Enable
VCHOFFSET	QUANT	0	Vch Offset (V)
VCHFILTER	IQUANT	1	Vch Filter
IERANGELOWERLIMIT	IQUANT	9	I/E Range Lower Limit
IERANGEMODE	TOGGLE	F	I/E AutoRange
IERANGE	IQUANT	10	I/E Range
ACHSELECT	IQUANT	1	Ach Select
ACHRANGE	IQUANT	2	Ach Range
ACHOFFSETENABLE	TOGGLE	F	Ach Offset Enable
ACHOFFSET	QUANT	0	Ach Offset (V)
ACHFILTER	IQUANT	1	Ach Filter
CABLEID	IQUANT	14	Cable ID
DCCALDATE	LABEL	20-10-2016	DC Calibration Date
ACCALDATE	LABEL	12/3/2015	AC Calibration Date
FRAMEWORKVERSION	QUANT	7.01	Framework Version
INSTRUMENTVERSION	LABEL	4.00	Instrument Version
CURVE	TABLE	53
	Pt	T	Vf	Im	Vu	Pwr	Sig	Ach	Temp	IERange	Over
	#	s	V	A	V	W	V	V	deg C	#	bits
	0	0.013333	6.54826E-001	5.99086E-003	0.00000E+000	3.92297E-003	3.59960E-001	-1.17500E+000	3.57720E+000	10	...........
	1	0.026667	6.64195E-001	5.99440E-003	0.00000E+000	3.98145E-003	3.59960E-001	-1.17630E+000	3.57720E+000	10	...........
	2	0.04	6.72752E-001	5.99151E-003	0.00000E+000	4.03080E-003	3.59960E-001	-1.18504E+000	3.57720E+000	10	...........
	3	0.053333	6.80872E-001	5.99762E-003	0.00000E+000	4.08361E-003	3.59960E-001	-1.17466E+000	3.57720E+000	10	...........
	4	0.066667	6.88713E-001	5.99414E-003	0.00000E+000	4.12824E-003	3.59960E-001	-1.17623E+000	3.57720E+000	10	...........
	5	0.08	6.96340E-001	5.99474E-003	0.00000E+000	4.17438E-003	3.59960E-001	-1.18512E+000	3.57720E+000	10	...........
	6	0.093333	7.03825E-001	5.99169E-003	0.00000E+000	4.21710E-003	3.59960E-001	-1.17454E+000	3.57720E+000	10	...........
	7	0.106667	7.11249E-001	5.99360E-003	0.00000E+000	4.26294E-003	3.59960E-001	-1.17601E+000	3.57720E+000	10	...........
	8	0.12	7.18541E-001	5.99625E-003	0.00000E+000	4.30856E-003	3.59960E-001	-1.18514E+000	3.57720E+000	10	...........
	9	0.133333	7.25773E-001	5.99419E-003	0.00000E+000	4.35042E-003	3.59960E-001	-1.17462E+000	3.57720E+000	10	...........
	10	0.146667	7.32853E-001	5.99117E-003	0.00000E+000	4.39065E-003	3.59960E-001	-1.17587E+000	3.57720E+000	10	...........
	11	0.16	7.39944E-001	5.99155E-003	0.00000E+000	4.43341E-003	3.59960E-001	-1.18470E+000	3.57720E+000	10	...........
	12	0.173333	7.46965E-001	5.99605E-003	0.00000E+000	4.47885E-003	3.59960E-001	-1.17437E+000	3.57720E+000	10	...........
	13	0.186667	7.53924E-001	5.99554E-003	0.00000E+000	4.52019E-003	3.59960E-001	-1.17569E+000	3.57720E+000	10	...........
	14	0.2	7.60863E-001	5.99342E-003	0.00000E+000	4.56017E-003	3.59960E-001	-1.18491E+000	3.57720E+000	10	...........
	15	0.213333	7.67737E-001	5.99274E-003	0.00000E+000	4.60085E-003	3.59960E-001	-1.17436E+000	3.57720E+000	10	...........
	16	0.226667	7.74606E-001	5.99380E-003	0.00000E+000	4.64283E-003	3.59960E-001	-1.17593E+000	3.57720E+000	10	...........
	17	0.24	7.81456E-001	5.99463E-003	0.00000E+000	4.68453E-003	3.59960E-001	-1.18487E+000	3.57720E+000	10	...........
	18	0.253333	7.88223E-001	5.99214E-003	0.00000E+000	4.72315E-003	3.59960E-001	-1.17450E+000	3.57720E+000	10	...........
	19	0.266667	7.95057E-001	5.99706E-003	0.00000E+000	4.76800E-003	3.59960E-001	-1.17599E+000	3.57720E+000	10	...........
	20	0.28	8.01854E-001	5.99211E-003	0.00000E+000	4.80480E-003	3.59960E-001	-1.18507E+000	3.57720E+000	10	...........
	21	0.293333	8.08558E-001	5.99040E-003	0.00000E+000	4.84359E-003	3.59960E-001	-1.17428E+000	3.57720E+000	10	...........
	22	0.306667	8.15261E-001	5.99682E-003	0.00000E+000	4.88897E-003	3.59960E-001	-1.17572E+000	3.57720E+000	10	...........
	23	0.32	8.21972E-001	5.99454E-003	0.00000E+000	4.92735E-003	3.59960E-001	-1.18481E+000	3.57720E+000	10	...........
	24	0.333333	8.28621E-001	5.99129E-003	0.00000E+000	4.96451E-003	3.59960E-001	-1.17429E+000	3.57720E+000	10	...........
	25	0.346667	8.35251E-001	5.99563E-003	0.00000E+000	5.00785E-003	3.59960E-001	-1.17523E+000	3.57720E+000	10	...........
	26	0.36	8.41846E-001	5.99472E-003	0.00000E+000	5.04663E-003	3.59960E-001	-1.18435E+000	3.57720E+000	10	...........
	27	0.373333	8.48417E-001	5.99312E-003	0.00000E+000	5.08467E-003	3.59960E-001	-1.17369E+000	3.57720E+000	10	...........
	28	0.386667	8.54923E-001	5.99083E-003	0.00000E+000	5.12170E-003	3.59960E-001	-1.17518E+000	3.57720E+000	10	...........
	29	0.4	8.61454E-001	5.99834E-003	0.00000E+000	5.16729E-003	3.59960E-001	-1.18440E+000	3.57720E+000	10	...........
	30	0.413333	8.67944E-001	5.99151E-003	0.00000E+000	5.20029E-003	3.59960E-001	-1.17377E+000	3.57720E+000	10	...........
	31	0.426667	8.74419E-001	5.99424E-003	0.00000E+000	5.24148E-003	3.59960E-001	-1.17502E+000	3.57720E+000	10	...........
	32	0.44	8.80860E-001	5.99265E-003	0.00000E+000	5.27869E-003	3.59960E-001	-1.18419E+000	3.57720E+000	10	...........
	33	0.453333	8.87322E-001	5.99216E-003	0.00000E+000	5.31698E-003	3.59960E-001	-1.17378E+000	3.57720E+000	10	...........
	34	0.466667	8.93653E-001	5.99547E-003	0.00000E+000	5.35787E-003	3.59960E-001	-1.17522E+000	3.57720E+000	10	...........
	35	0.48	8.99991E-001	5.99331E-003	0.00000E+000	5.39393E-003	3.59960E-001	-1.18456E+000	3.57720E+000	10	...........
	36	0.493333	9.06292E-001	5.99486E-003	0.00000E+000	5.43309E-003	3.59960E-001	-1.17373E+000	3.57720E+000	10	...........
	37	0.506667	9.12494E-001	5.99500E-003	0.00000E+000	5.47040E-003	3.59960E-001	-1.17498E+000	3.57670E+000	10	...........
	38	0.52	9.18759E-001	5.99137E-003	0.00000E+000	5.50463E-003	3.59960E-001	-1.18420E+000	3.57670E+000	10	...........
	39	0.533333	9.24985E-001	5.99279E-003	0.00000E+000	5.54324E-003	3.59960E-001	-1.17385E+000	3.57670E+000	10	...........
	40	0.546667	9.31092E-001	5.99430E-003	0.00000E+000	5.58125E-003	3.59960E-001	-1.17503E+000	3.57670E+000	10	...........
	41	0.56	9.37113E-001	5.99626E-003	0.00000E+000	5.61918E-003	3.59960E-001	-1.18425E+000	3.57670E+000	10	...........
	42	0.573333	9.43169E-001	5.99505E-003	0.00000E+000	5.65435E-003	3.59960E-001	-1.17369E+000	3.57670E+000	10	...........
	43	0.586667	9.49219E-001	5.99528E-003	0.00000E+000	5.69084E-003	3.59960E-001	-1.17514E+000	3.57670E+000	10	...........
	44	0.6	9.55161E-001	5.99516E-003	0.00000E+000	5.72634E-003	3.59960E-001	-1.18440E+000	3.57670E+000	10	...........
	45	0.613333	9.61018E-001	5.99259E-003	0.00000E+000	5.75899E-003	3.59960E-001	-1.17370E+000	3.57670E+000	10	...........
	46	0.626667	9.66824E-001	5.99006E-003	0.00000E+000	5.79133E-003	3.59960E-001	-1.17473E+000	3.57670E+000	10	...........
	47	0.64	9.72616E-001	5.99071E-003	0.00000E+000	5.82667E-003	3.59960E-001	-1.18410E+000	3.57670E+000	10	...........
	48	0.653333	9.78340E-001	5.99507E-003	0.00000E+000	5.86522E-003	3.59960E-001	-1.17360E+000	3.57670E+000	10	...........
	49	0.666667	9.84021E-001	5.99570E-003	0.00000E+000	5.89989E-003	3.59960E-001	-1.17477E+000	3.57670E+000	10	...........
	50	0.68	9.89633E-001	5.99302E-003	0.00000E+000	5.93089E-003	3.59960E-001	-1.18403E+000	3.57670E+000	10	...........
	51	0.693333	9.95226E-001	5.99342E-003	0.00000E+000	5.96480E-003	3.59960E-001	-1.17304E+000	3.57670E+000	10	...........
	52	0.7	9.99396E-001	6.00020E-003	0.00000E+000	5.99657E-003	3.59960E-001	-1.18498E+000	3.57670E+000	10	...........
STARTTIMEOFFSET	QUANT	1502.032	Start Time Offset (s)