File: Data/CV_CRGO300517_1/PWRCCD_CRGO300517_1/CHARGE_DISCHARGE/CHARGE_#25.DTA
EXPLAIN
TAG	PWR800_CHARGE
TITLE	LABEL	PWR Cyclic Charge Discharge (Cell) - Charge Step	Test &Identifier
DATE	LABEL	22-6-2017	Date
TIME	LABEL	15:36:06	Time
NOTES	NOTES	3	&Notes...
	supercap test cell
	0.6mg
	6M KOH
PSTAT	PSTAT	IFC5000-01520	Potentiostat
CAPACITY	QUANT	1.00000E-003	Capacity (A-hr)
CELLTYPE	SELECTOR	1	&Cell Type
WORKINGCONNECTION	SELECTOR	0	&Working Lead
MAXCHARGETIME	VARIABLEANDUNITS	1.00000E+002	s	1.00000E+002	second(s)	Max &Charge Time
CHARGECURRENT	QUANT	6.00000E-003	&Charge Current (A)
VOLTAGEFINISH	TWOPARAM	F	1.00000E-003	3.60000E+003	&Voltage Finish	 I (A) < 	Max Time(s)
SAMPLETIME	QUANT	1.00000E-002	Sa&mple Period (s)
CHARGESTOPAT1	MULTIPARAM	4	1.00000E+000	Charge Stop At &1	Voltage > Limit	V
CHARGESTOPAT2	MULTIPARAM	0	0.00000E+000	Charge Stop At &2	None	N/A
AESBHCSELECTOR	TOGGLE	F	Save Both Half Cells
IRCOMP	TOGGLE	F	IR &Measure
EOC	QUANT	0	Open Circuit (V)
SEQUENCER	TOGGLE	TRUE	Run as Sequence
PSTATMODEL	IQUANT	53	Pstat Model
PSTATSECTION	LABEL	IFC5000-01520	Pstat Section
PSTATSERIALNO	LABEL	01520	Pstat Serial Number
CTRLMODE	IQUANT	0	Control Mode
ELECTROMETER	IQUANT	1	RE=0 or CS=1
IESTAB	IQUANT	0	I/E Stability
CASPEED	IQUANT	4	Control Amp Speed
CONVENTION	IQUANT	1	Current Convention
ICHRANGE	IQUANT	2	Ich Range
ICHRANGEMODE	TOGGLE	T	Ich Auto Range
ICHOFFSETENABLE	TOGGLE	F	Ich Offset Enable
ICHOFFSET	QUANT	0	Ich Offset (V)
ICHFILTER	IQUANT	1	Ich Filter
VCHRANGE	IQUANT	2	Vch Range
VCHRANGEMODE	TOGGLE	T	Vch Auto Range
VCHOFFSETENABLE	TOGGLE	F	Vch Offset Enable
VCHOFFSET	QUANT	0	Vch Offset (V)
VCHFILTER	IQUANT	1	Vch Filter
IERANGELOWERLIMIT	IQUANT	9	I/E Range Lower Limit
IERANGEMODE	TOGGLE	F	I/E AutoRange
IERANGE	IQUANT	10	I/E Range
ACHSELECT	IQUANT	1	Ach Select
ACHRANGE	IQUANT	2	Ach Range
ACHOFFSETENABLE	TOGGLE	F	Ach Offset Enable
ACHOFFSET	QUANT	0	Ach Offset (V)
ACHFILTER	IQUANT	1	Ach Filter
CABLEID	IQUANT	14	Cable ID
DCCALDATE	LABEL	20-10-2016	DC Calibration Date
ACCALDATE	LABEL	12/3/2015	AC Calibration Date
FRAMEWORKVERSION	QUANT	7.01	Framework Version
INSTRUMENTVERSION	LABEL	4.00	Instrument Version
CURVE	TABLE	77
	Pt	T	Vf	Im	Vu	Pwr	Sig	Ach	Temp	IERange	Over
	#	s	V	A	V	W	V	V	deg C	#	bits
	0	0.013333	5.63356E-001	5.99441E-003	0.00000E+000	3.37699E-003	3.59960E-001	-1.01942E+000	3.57770E+000	10	...........
	1	0.026667	5.71373E-001	5.99789E-003	0.00000E+000	3.42703E-003	3.59960E-001	-1.02908E+000	3.57770E+000	10	...........
	2	0.04	5.78663E-001	5.99816E-003	0.00000E+000	3.47092E-003	3.59960E-001	-1.02644E+000	3.57770E+000	10	...........
	3	0.053333	5.85611E-001	5.99708E-003	0.00000E+000	3.51195E-003	3.59960E-001	-1.01981E+000	3.57770E+000	10	...........
	4	0.066667	5.92335E-001	5.99681E-003	0.00000E+000	3.55212E-003	3.59960E-001	-1.02924E+000	3.57770E+000	10	...........
	5	0.08	5.98788E-001	5.99452E-003	0.00000E+000	3.58945E-003	3.59960E-001	-1.02645E+000	3.57770E+000	10	...........
	6	0.093333	6.05099E-001	5.99310E-003	0.00000E+000	3.62642E-003	3.59960E-001	-1.01974E+000	3.57770E+000	10	...........
	7	0.106667	6.11305E-001	5.99040E-003	0.00000E+000	3.66196E-003	3.59960E-001	-1.02916E+000	3.57770E+000	10	...........
	8	0.12	6.17494E-001	5.99560E-003	0.00000E+000	3.70224E-003	3.59960E-001	-1.02663E+000	3.57770E+000	10	...........
	9	0.133333	6.23495E-001	5.99397E-003	0.00000E+000	3.73721E-003	3.59960E-001	-1.01972E+000	3.57770E+000	10	...........
	10	0.146667	6.29483E-001	5.99433E-003	0.00000E+000	3.77333E-003	3.59960E-001	-1.02896E+000	3.57770E+000	10	...........
	11	0.16	6.35403E-001	5.99239E-003	0.00000E+000	3.80758E-003	3.59960E-001	-1.02647E+000	3.57770E+000	10	...........
	12	0.173333	6.41289E-001	5.98997E-003	0.00000E+000	3.84130E-003	3.59960E-001	-1.01940E+000	3.57770E+000	10	...........
	13	0.186667	6.47141E-001	5.99574E-003	0.00000E+000	3.88009E-003	3.59960E-001	-1.02877E+000	3.57770E+000	10	...........
	14	0.2	6.52922E-001	5.99422E-003	0.00000E+000	3.91376E-003	3.59960E-001	-1.02575E+000	3.57770E+000	10	...........
	15	0.213333	6.58707E-001	5.99572E-003	0.00000E+000	3.94942E-003	3.59960E-001	-1.01903E+000	3.57770E+000	10	...........
	16	0.226667	6.64511E-001	5.99746E-003	0.00000E+000	3.98538E-003	3.59960E-001	-1.02850E+000	3.57770E+000	10	...........
	17	0.24	6.70292E-001	5.99564E-003	0.00000E+000	4.01883E-003	3.59960E-001	-1.02594E+000	3.57770E+000	10	...........
	18	0.253333	6.76027E-001	5.99319E-003	0.00000E+000	4.05155E-003	3.59960E-001	-1.01926E+000	3.57770E+000	10	...........
	19	0.266667	6.81721E-001	5.99586E-003	0.00000E+000	4.08750E-003	3.59960E-001	-1.02859E+000	3.57770E+000	10	...........
	20	0.28	6.87381E-001	5.99367E-003	0.00000E+000	4.11993E-003	3.59960E-001	-1.02555E+000	3.57770E+000	10	...........
	21	0.293333	6.93062E-001	5.99570E-003	0.00000E+000	4.15539E-003	3.59960E-001	-1.01913E+000	3.57770E+000	10	...........
	22	0.306667	6.98663E-001	5.99540E-003	0.00000E+000	4.18876E-003	3.59960E-001	-1.02881E+000	3.57770E+000	10	...........
	23	0.32	7.04337E-001	5.99381E-003	0.00000E+000	4.22166E-003	3.59960E-001	-1.02572E+000	3.57770E+000	10	...........
	24	0.333333	7.09923E-001	5.99139E-003	0.00000E+000	4.25343E-003	3.59960E-001	-1.01908E+000	3.57770E+000	10	...........
	25	0.346667	7.15551E-001	5.99459E-003	0.00000E+000	4.28944E-003	3.59960E-001	-1.02840E+000	3.57770E+000	10	...........
	26	0.36	7.21198E-001	5.99849E-003	0.00000E+000	4.32610E-003	3.59960E-001	-1.02544E+000	3.57770E+000	10	...........
	27	0.373333	7.26807E-001	5.99312E-003	0.00000E+000	4.35584E-003	3.59960E-001	-1.01920E+000	3.57770E+000	10	...........
	28	0.386667	7.32426E-001	5.99712E-003	0.00000E+000	4.39245E-003	3.59960E-001	-1.02884E+000	3.57770E+000	10	...........
	29	0.4	7.38023E-001	5.99456E-003	0.00000E+000	4.42413E-003	3.59960E-001	-1.02592E+000	3.57770E+000	10	...........
	30	0.413333	7.43675E-001	5.99486E-003	0.00000E+000	4.45823E-003	3.59960E-001	-1.01906E+000	3.57770E+000	10	...........
	31	0.426667	7.49303E-001	5.99596E-003	0.00000E+000	4.49279E-003	3.59960E-001	-1.02858E+000	3.57770E+000	10	...........
	32	0.44	7.54885E-001	5.99068E-003	0.00000E+000	4.52227E-003	3.59960E-001	-1.02587E+000	3.57770E+000	10	...........
	33	0.453333	7.60494E-001	5.99183E-003	0.00000E+000	4.55675E-003	3.59960E-001	-1.01935E+000	3.57770E+000	10	...........
	34	0.466667	7.66156E-001	5.99731E-003	0.00000E+000	4.59487E-003	3.59960E-001	-1.02864E+000	3.57770E+000	10	...........
	35	0.48	7.71757E-001	5.99254E-003	0.00000E+000	4.62479E-003	3.59960E-001	-1.02559E+000	3.57770E+000	10	...........
	36	0.493333	7.77350E-001	5.99487E-003	0.00000E+000	4.66011E-003	3.59960E-001	-1.01864E+000	3.57770E+000	10	...........
	37	0.506667	7.82954E-001	5.99546E-003	0.00000E+000	4.69417E-003	3.59960E-001	-1.02831E+000	3.57770E+000	10	...........
	38	0.52	7.88510E-001	5.99168E-003	0.00000E+000	4.72450E-003	3.59960E-001	-1.02513E+000	3.57770E+000	10	...........
	39	0.533333	7.94167E-001	5.99413E-003	0.00000E+000	4.76033E-003	3.59960E-001	-1.01858E+000	3.57770E+000	10	...........
	40	0.546667	7.99775E-001	5.99541E-003	0.00000E+000	4.79498E-003	3.59960E-001	-1.02820E+000	3.57770E+000	10	...........
	41	0.56	8.05391E-001	5.99280E-003	0.00000E+000	4.82655E-003	3.59960E-001	-1.02511E+000	3.57770E+000	10	...........
	42	0.573333	8.10973E-001	5.99300E-003	0.00000E+000	4.86016E-003	3.59960E-001	-1.01881E+000	3.57770E+000	10	...........
	43	0.586667	8.16579E-001	5.99457E-003	0.00000E+000	4.89504E-003	3.59960E-001	-1.02838E+000	3.57770E+000	10	...........
	44	0.6	8.22207E-001	5.99544E-003	0.00000E+000	4.92949E-003	3.59960E-001	-1.02519E+000	3.57770E+000	10	...........
	45	0.613333	8.27824E-001	5.99486E-003	0.00000E+000	4.96269E-003	3.59960E-001	-1.01836E+000	3.57770E+000	10	...........
	46	0.626667	8.33449E-001	5.99424E-003	0.00000E+000	4.99589E-003	3.59960E-001	-1.02796E+000	3.57770E+000	10	...........
	47	0.64	8.39088E-001	5.99612E-003	0.00000E+000	5.03127E-003	3.59960E-001	-1.02529E+000	3.57770E+000	10	...........
	48	0.653333	8.44728E-001	5.99442E-003	0.00000E+000	5.06365E-003	3.59960E-001	-1.01880E+000	3.57770E+000	10	...........
	49	0.666667	8.50305E-001	5.99882E-003	0.00000E+000	5.10082E-003	3.59960E-001	-1.02820E+000	3.57770E+000	10	...........
	50	0.68	8.55908E-001	5.99757E-003	0.00000E+000	5.13337E-003	3.59960E-001	-1.02491E+000	3.57770E+000	10	...........
	51	0.693333	8.61522E-001	5.99500E-003	0.00000E+000	5.16482E-003	3.59960E-001	-1.01860E+000	3.57770E+000	10	...........
	52	0.706667	8.67069E-001	5.99385E-003	0.00000E+000	5.19708E-003	3.59960E-001	-1.02857E+000	3.57770E+000	10	...........
	53	0.72	8.72693E-001	5.99492E-003	0.00000E+000	5.23172E-003	3.59960E-001	-1.02540E+000	3.57770E+000	10	...........
	54	0.733333	8.78270E-001	5.99235E-003	0.00000E+000	5.26290E-003	3.59960E-001	-1.01876E+000	3.57770E+000	10	...........
	55	0.746667	8.83852E-001	5.99595E-003	0.00000E+000	5.29953E-003	3.59960E-001	-1.02829E+000	3.57770E+000	10	...........
	56	0.76	8.89389E-001	5.99213E-003	0.00000E+000	5.32934E-003	3.59960E-001	-1.02513E+000	3.57770E+000	10	...........
	57	0.773333	8.94940E-001	5.99390E-003	0.00000E+000	5.36418E-003	3.59960E-001	-1.01875E+000	3.57770E+000	10	...........
	58	0.786667	9.00527E-001	5.99837E-003	0.00000E+000	5.40170E-003	3.59960E-001	-1.02861E+000	3.57770E+000	10	...........
	59	0.8	9.06074E-001	5.99359E-003	0.00000E+000	5.43064E-003	3.59960E-001	-1.02494E+000	3.57770E+000	10	...........
	60	0.813333	9.11635E-001	5.99309E-003	0.00000E+000	5.46351E-003	3.59960E-001	-1.01818E+000	3.57770E+000	10	...........
	61	0.826667	9.17156E-001	5.99546E-003	0.00000E+000	5.49877E-003	3.59960E-001	-1.02769E+000	3.57770E+000	10	...........
	62	0.84	9.22744E-001	5.99375E-003	0.00000E+000	5.53070E-003	3.59960E-001	-1.02474E+000	3.57770E+000	10	...........
	63	0.853333	9.28227E-001	5.99666E-003	0.00000E+000	5.56626E-003	3.59960E-001	-1.01849E+000	3.57770E+000	10	...........
	64	0.866667	9.33697E-001	5.99660E-003	0.00000E+000	5.59900E-003	3.59960E-001	-1.02802E+000	3.57770E+000	10	...........
	65	0.88	9.39171E-001	5.99594E-003	0.00000E+000	5.63122E-003	3.59960E-001	-1.02469E+000	3.57770E+000	10	...........
	66	0.893333	9.44598E-001	5.99418E-003	0.00000E+000	5.66209E-003	3.59960E-001	-1.01842E+000	3.57770E+000	10	...........
	67	0.906667	9.50086E-001	5.99327E-003	0.00000E+000	5.69412E-003	3.59960E-001	-1.02801E+000	3.57770E+000	10	...........
	68	0.92	9.55516E-001	5.99108E-003	0.00000E+000	5.72457E-003	3.59960E-001	-1.02483E+000	3.57770E+000	10	...........
	69	0.933333	9.60913E-001	5.99201E-003	0.00000E+000	5.75780E-003	3.59960E-001	-1.01828E+000	3.57770E+000	10	...........
	70	0.946667	9.66294E-001	5.99374E-003	0.00000E+000	5.79171E-003	3.59960E-001	-1.02777E+000	3.57770E+000	10	...........
	71	0.96	9.71671E-001	5.99548E-003	0.00000E+000	5.82564E-003	3.59960E-001	-1.02466E+000	3.57772E+000	10	...........
	72	0.97333	9.77018E-001	5.99536E-003	0.00000E+000	5.85757E-003	3.59960E-001	-1.01843E+000	3.57790E+000	10	...........
	73	0.98667	9.82326E-001	5.99585E-003	0.00000E+000	5.88988E-003	3.59960E-001	-1.02810E+000	3.57790E+000	10	...........
	74	1	9.87592E-001	5.99340E-003	0.00000E+000	5.91903E-003	3.59960E-001	-1.02475E+000	3.57790E+000	10	...........
	75	1.01333	9.92824E-001	5.99637E-003	0.00000E+000	5.95334E-003	3.59960E-001	-1.01817E+000	3.57790E+000	10	...........
	76	1.02667	9.98072E-001	5.99930E-003	0.00000E+000	5.98773E-003	3.59960E-001	-1.02809E+000	3.57790E+000	10	...........
STARTTIMEOFFSET	QUANT	50.75666	Start Time Offset (s)