File: Data/CV_CRGO300517_1/PWRCCD_CRGO300517_1/CHARGE_DISCHARGE/CHARGE_#773.DTA
EXPLAIN
TAG	PWR800_CHARGE
TITLE	LABEL	PWR Cyclic Charge Discharge (Cell) - Charge Step	Test &Identifier
DATE	LABEL	22-6-2017	Date
TIME	LABEL	16:06:16	Time
NOTES	NOTES	3	&Notes...
	supercap test cell
	0.6mg
	6M KOH
PSTAT	PSTAT	IFC5000-01520	Potentiostat
CAPACITY	QUANT	1.00000E-003	Capacity (A-hr)
CELLTYPE	SELECTOR	1	&Cell Type
WORKINGCONNECTION	SELECTOR	0	&Working Lead
MAXCHARGETIME	VARIABLEANDUNITS	1.00000E+002	s	1.00000E+002	second(s)	Max &Charge Time
CHARGECURRENT	QUANT	6.00000E-003	&Charge Current (A)
VOLTAGEFINISH	TWOPARAM	F	1.00000E-003	3.60000E+003	&Voltage Finish	 I (A) < 	Max Time(s)
SAMPLETIME	QUANT	1.00000E-002	Sa&mple Period (s)
CHARGESTOPAT1	MULTIPARAM	4	1.00000E+000	Charge Stop At &1	Voltage > Limit	V
CHARGESTOPAT2	MULTIPARAM	0	0.00000E+000	Charge Stop At &2	None	N/A
AESBHCSELECTOR	TOGGLE	F	Save Both Half Cells
IRCOMP	TOGGLE	F	IR &Measure
EOC	QUANT	0	Open Circuit (V)
SEQUENCER	TOGGLE	TRUE	Run as Sequence
PSTATMODEL	IQUANT	53	Pstat Model
PSTATSECTION	LABEL	IFC5000-01520	Pstat Section
PSTATSERIALNO	LABEL	01520	Pstat Serial Number
CTRLMODE	IQUANT	0	Control Mode
ELECTROMETER	IQUANT	1	RE=0 or CS=1
IESTAB	IQUANT	0	I/E Stability
CASPEED	IQUANT	4	Control Amp Speed
CONVENTION	IQUANT	1	Current Convention
ICHRANGE	IQUANT	2	Ich Range
ICHRANGEMODE	TOGGLE	T	Ich Auto Range
ICHOFFSETENABLE	TOGGLE	F	Ich Offset Enable
ICHOFFSET	QUANT	0	Ich Offset (V)
ICHFILTER	IQUANT	1	Ich Filter
VCHRANGE	IQUANT	2	Vch Range
VCHRANGEMODE	TOGGLE	T	Vch Auto Range
VCHOFFSETENABLE	TOGGLE	F	Vch Offset Enable
VCHOFFSET	QUANT	0	Vch Offset (V)
VCHFILTER	IQUANT	1	Vch Filter
IERANGELOWERLIMIT	IQUANT	9	I/E Range Lower Limit
IERANGEMODE	TOGGLE	F	I/E AutoRange
IERANGE	IQUANT	10	I/E Range
ACHSELECT	IQUANT	1	Ach Select
ACHRANGE	IQUANT	2	Ach Range
ACHOFFSETENABLE	TOGGLE	F	Ach Offset Enable
ACHOFFSET	QUANT	0	Ach Offset (V)
ACHFILTER	IQUANT	1	Ach Filter
CABLEID	IQUANT	14	Cable ID
DCCALDATE	LABEL	20-10-2016	DC Calibration Date
ACCALDATE	LABEL	12/3/2015	AC Calibration Date
FRAMEWORKVERSION	QUANT	7.01	Framework Version
INSTRUMENTVERSION	LABEL	4.00	Instrument Version
CURVE	TABLE	55
	Pt	T	Vf	Im	Vu	Pwr	Sig	Ach	Temp	IERange	Over
	#	s	V	A	V	W	V	V	deg C	#	bits
	0	0.013333	6.47440E-001	5.99219E-003	0.00000E+000	3.87958E-003	3.59960E-001	-1.16782E+000	3.57640E+000	10	...........
	1	0.026667	6.56572E-001	5.99178E-003	0.00000E+000	3.93403E-003	3.59960E-001	-1.15743E+000	3.57640E+000	10	...........
	2	0.04	6.65008E-001	5.99266E-003	0.00000E+000	3.98517E-003	3.59960E-001	-1.16030E+000	3.57640E+000	10	...........
	3	0.053333	6.73006E-001	5.99469E-003	0.00000E+000	4.03446E-003	3.59960E-001	-1.16797E+000	3.57640E+000	10	...........
	4	0.066667	6.80740E-001	5.98969E-003	0.00000E+000	4.07742E-003	3.59960E-001	-1.15704E+000	3.57640E+000	10	...........
	5	0.08	6.88250E-001	5.99826E-003	0.00000E+000	4.12830E-003	3.59960E-001	-1.15996E+000	3.57640E+000	10	...........
	6	0.093333	6.95630E-001	5.98881E-003	0.00000E+000	4.16599E-003	3.59960E-001	-1.16776E+000	3.57640E+000	10	...........
	7	0.106667	7.02843E-001	5.99178E-003	0.00000E+000	4.21128E-003	3.59960E-001	-1.15727E+000	3.57640E+000	10	...........
	8	0.12	7.10018E-001	5.99087E-003	0.00000E+000	4.25363E-003	3.59960E-001	-1.16008E+000	3.57640E+000	10	...........
	9	0.133333	7.17151E-001	5.99810E-003	0.00000E+000	4.30154E-003	3.59960E-001	-1.16719E+000	3.57640E+000	10	...........
	10	0.146667	7.24177E-001	5.99398E-003	0.00000E+000	4.34070E-003	3.59960E-001	-1.15669E+000	3.57640E+000	10	...........
	11	0.16	7.31082E-001	5.99446E-003	0.00000E+000	4.38244E-003	3.59960E-001	-1.15981E+000	3.57640E+000	10	...........
	12	0.173333	7.37962E-001	5.99141E-003	0.00000E+000	4.42144E-003	3.59960E-001	-1.16731E+000	3.57640E+000	10	...........
	13	0.186667	7.44890E-001	5.99305E-003	0.00000E+000	4.46416E-003	3.59960E-001	-1.15664E+000	3.57640E+000	10	...........
	14	0.2	7.51723E-001	5.99193E-003	0.00000E+000	4.50428E-003	3.59960E-001	-1.15957E+000	3.57640E+000	10	...........
	15	0.213333	7.58557E-001	5.99831E-003	0.00000E+000	4.55006E-003	3.59960E-001	-1.16699E+000	3.57640E+000	10	...........
	16	0.226667	7.65323E-001	5.99380E-003	0.00000E+000	4.58720E-003	3.59960E-001	-1.15668E+000	3.57640E+000	10	...........
	17	0.24	7.72086E-001	5.99126E-003	0.00000E+000	4.62577E-003	3.59960E-001	-1.15983E+000	3.57640E+000	10	...........
	18	0.253333	7.78806E-001	5.99496E-003	0.00000E+000	4.66891E-003	3.59960E-001	-1.16686E+000	3.57640E+000	10	...........
	19	0.266667	7.85538E-001	5.99358E-003	0.00000E+000	4.70819E-003	3.59960E-001	-1.15652E+000	3.57640E+000	10	...........
	20	0.28	7.92236E-001	5.99350E-003	0.00000E+000	4.74827E-003	3.59960E-001	-1.15970E+000	3.57647E+000	10	...........
	21	0.293333	7.98876E-001	5.99482E-003	0.00000E+000	4.78912E-003	3.59960E-001	-1.16690E+000	3.57660E+000	10	...........
	22	0.306667	8.05487E-001	5.99126E-003	0.00000E+000	4.82588E-003	3.59960E-001	-1.15669E+000	3.57660E+000	10	...........
	23	0.32	8.12113E-001	5.99626E-003	0.00000E+000	4.86965E-003	3.59960E-001	-1.15980E+000	3.57660E+000	10	...........
	24	0.333333	8.18723E-001	5.99347E-003	0.00000E+000	4.90699E-003	3.59960E-001	-1.16643E+000	3.57660E+000	10	...........
	25	0.346667	8.25329E-001	5.99931E-003	0.00000E+000	4.95141E-003	3.59960E-001	-1.15641E+000	3.57660E+000	10	...........
	26	0.36	8.31849E-001	5.99412E-003	0.00000E+000	4.98620E-003	3.59960E-001	-1.15983E+000	3.57660E+000	10	...........
	27	0.373333	8.38369E-001	5.99420E-003	0.00000E+000	5.02535E-003	3.59960E-001	-1.16687E+000	3.57660E+000	10	...........
	28	0.386667	8.44943E-001	5.99246E-003	0.00000E+000	5.06328E-003	3.59960E-001	-1.15659E+000	3.57660E+000	10	...........
	29	0.4	8.51433E-001	5.99225E-003	0.00000E+000	5.10200E-003	3.59960E-001	-1.15993E+000	3.57660E+000	10	...........
	30	0.413333	8.57839E-001	5.99296E-003	0.00000E+000	5.14099E-003	3.59960E-001	-1.16651E+000	3.57660E+000	10	...........
	31	0.426667	8.64279E-001	5.99770E-003	0.00000E+000	5.18369E-003	3.59960E-001	-1.15662E+000	3.57660E+000	10	...........
	32	0.44	8.70644E-001	5.99076E-003	0.00000E+000	5.21581E-003	3.59960E-001	-1.16002E+000	3.57660E+000	10	...........
	33	0.453333	8.77022E-001	5.99480E-003	0.00000E+000	5.25758E-003	3.59960E-001	-1.16629E+000	3.57660E+000	10	...........
	34	0.466667	8.83363E-001	5.99354E-003	0.00000E+000	5.29447E-003	3.59960E-001	-1.15584E+000	3.57660E+000	10	...........
	35	0.48	8.89661E-001	5.99051E-003	0.00000E+000	5.32952E-003	3.59960E-001	-1.15957E+000	3.57660E+000	10	...........
	36	0.493333	8.95945E-001	5.99873E-003	0.00000E+000	5.37453E-003	3.59960E-001	-1.16612E+000	3.57660E+000	10	...........
	37	0.506667	9.02195E-001	5.99520E-003	0.00000E+000	5.40884E-003	3.59960E-001	-1.15605E+000	3.57660E+000	10	...........
	38	0.52	9.08433E-001	5.99585E-003	0.00000E+000	5.44682E-003	3.59960E-001	-1.15958E+000	3.57660E+000	10	...........
	39	0.533333	9.14572E-001	5.99029E-003	0.00000E+000	5.47855E-003	3.59960E-001	-1.16572E+000	3.57660E+000	10	...........
	40	0.546667	9.20757E-001	5.99511E-003	0.00000E+000	5.52004E-003	3.59960E-001	-1.15576E+000	3.57660E+000	10	...........
	41	0.56	9.26898E-001	5.99504E-003	0.00000E+000	5.55679E-003	3.59960E-001	-1.15964E+000	3.57660E+000	10	...........
	42	0.573333	9.32964E-001	5.99514E-003	0.00000E+000	5.59325E-003	3.59960E-001	-1.16593E+000	3.57660E+000	10	...........
	43	0.586667	9.38975E-001	5.99066E-003	0.00000E+000	5.62508E-003	3.59960E-001	-1.15600E+000	3.57660E+000	10	...........
	44	0.6	9.44954E-001	5.99918E-003	0.00000E+000	5.66895E-003	3.59960E-001	-1.15976E+000	3.57660E+000	10	...........
	45	0.613333	9.50951E-001	5.99491E-003	0.00000E+000	5.70086E-003	3.59960E-001	-1.16568E+000	3.57660E+000	10	...........
	46	0.626667	9.56744E-001	5.99717E-003	0.00000E+000	5.73776E-003	3.59960E-001	-1.15600E+000	3.57660E+000	10	...........
	47	0.64	9.62599E-001	5.99499E-003	0.00000E+000	5.77077E-003	3.59960E-001	-1.15973E+000	3.57660E+000	10	...........
	48	0.653333	9.68345E-001	5.99538E-003	0.00000E+000	5.80559E-003	3.59960E-001	-1.16571E+000	3.57660E+000	10	...........
	49	0.666667	9.74178E-001	5.99429E-003	0.00000E+000	5.83951E-003	3.59960E-001	-1.15602E+000	3.57660E+000	10	...........
	50	0.68	9.79856E-001	5.99152E-003	0.00000E+000	5.87083E-003	3.59960E-001	-1.15991E+000	3.57660E+000	10	...........
	51	0.693333	9.85474E-001	5.99156E-003	0.00000E+000	5.90452E-003	3.59960E-001	-1.16603E+000	3.57660E+000	10	...........
	52	0.706667	9.91103E-001	5.99946E-003	0.00000E+000	5.94608E-003	3.59960E-001	-1.15618E+000	3.57660E+000	10	...........
	53	0.72	9.96645E-001	5.99431E-003	0.00000E+000	5.97420E-003	3.59960E-001	-1.16014E+000	3.57660E+000	10	...........
	54	0.723333	1.00008E+000	6.00476E-003	0.00000E+000	6.00527E-003	3.59960E-001	-1.15429E+000	3.57660E+000	10	...........
STARTTIMEOFFSET	QUANT	1265.306	Start Time Offset (s)