File: Data/CV_CRGO300517_1/PWRCCD_CRGO300517_1/CHARGE_DISCHARGE/CHARGE_#439.DTA
EXPLAIN
TAG	PWR800_CHARGE
TITLE	LABEL	PWR Cyclic Charge Discharge (Cell) - Charge Step	Test &Identifier
DATE	LABEL	22-6-2017	Date
TIME	LABEL	15:53:31	Time
NOTES	NOTES	3	&Notes...
	supercap test cell
	0.6mg
	6M KOH
PSTAT	PSTAT	IFC5000-01520	Potentiostat
CAPACITY	QUANT	1.00000E-003	Capacity (A-hr)
CELLTYPE	SELECTOR	1	&Cell Type
WORKINGCONNECTION	SELECTOR	0	&Working Lead
MAXCHARGETIME	VARIABLEANDUNITS	1.00000E+002	s	1.00000E+002	second(s)	Max &Charge Time
CHARGECURRENT	QUANT	6.00000E-003	&Charge Current (A)
VOLTAGEFINISH	TWOPARAM	F	1.00000E-003	3.60000E+003	&Voltage Finish	 I (A) < 	Max Time(s)
SAMPLETIME	QUANT	1.00000E-002	Sa&mple Period (s)
CHARGESTOPAT1	MULTIPARAM	4	1.00000E+000	Charge Stop At &1	Voltage > Limit	V
CHARGESTOPAT2	MULTIPARAM	0	0.00000E+000	Charge Stop At &2	None	N/A
AESBHCSELECTOR	TOGGLE	F	Save Both Half Cells
IRCOMP	TOGGLE	F	IR &Measure
EOC	QUANT	0	Open Circuit (V)
SEQUENCER	TOGGLE	TRUE	Run as Sequence
PSTATMODEL	IQUANT	53	Pstat Model
PSTATSECTION	LABEL	IFC5000-01520	Pstat Section
PSTATSERIALNO	LABEL	01520	Pstat Serial Number
CTRLMODE	IQUANT	0	Control Mode
ELECTROMETER	IQUANT	1	RE=0 or CS=1
IESTAB	IQUANT	0	I/E Stability
CASPEED	IQUANT	4	Control Amp Speed
CONVENTION	IQUANT	1	Current Convention
ICHRANGE	IQUANT	2	Ich Range
ICHRANGEMODE	TOGGLE	T	Ich Auto Range
ICHOFFSETENABLE	TOGGLE	F	Ich Offset Enable
ICHOFFSET	QUANT	0	Ich Offset (V)
ICHFILTER	IQUANT	1	Ich Filter
VCHRANGE	IQUANT	2	Vch Range
VCHRANGEMODE	TOGGLE	T	Vch Auto Range
VCHOFFSETENABLE	TOGGLE	F	Vch Offset Enable
VCHOFFSET	QUANT	0	Vch Offset (V)
VCHFILTER	IQUANT	1	Vch Filter
IERANGELOWERLIMIT	IQUANT	9	I/E Range Lower Limit
IERANGEMODE	TOGGLE	F	I/E AutoRange
IERANGE	IQUANT	10	I/E Range
ACHSELECT	IQUANT	1	Ach Select
ACHRANGE	IQUANT	2	Ach Range
ACHOFFSETENABLE	TOGGLE	F	Ach Offset Enable
ACHOFFSET	QUANT	0	Ach Offset (V)
ACHFILTER	IQUANT	1	Ach Filter
CABLEID	IQUANT	14	Cable ID
DCCALDATE	LABEL	20-10-2016	DC Calibration Date
ACCALDATE	LABEL	12/3/2015	AC Calibration Date
FRAMEWORKVERSION	QUANT	7.01	Framework Version
INSTRUMENTVERSION	LABEL	4.00	Instrument Version
CURVE	TABLE	60
	Pt	T	Vf	Im	Vu	Pwr	Sig	Ach	Temp	IERange	Over
	#	s	V	A	V	W	V	V	deg C	#	bits
	0	0.013333	6.27785E-001	5.99214E-003	0.00000E+000	3.76178E-003	3.59960E-001	-1.14084E+000	3.57680E+000	10	...........
	1	0.026667	6.36573E-001	5.99438E-003	0.00000E+000	3.81586E-003	3.59960E-001	-1.13325E+000	3.57680E+000	10	...........
	2	0.04	6.44674E-001	5.99956E-003	0.00000E+000	3.86776E-003	3.59960E-001	-1.13987E+000	3.57680E+000	10	...........
	3	0.053333	6.52340E-001	5.99981E-003	0.00000E+000	3.91392E-003	3.59960E-001	-1.14030E+000	3.57680E+000	10	...........
	4	0.066667	6.59731E-001	5.99074E-003	0.00000E+000	3.95227E-003	3.59960E-001	-1.13310E+000	3.57680E+000	10	...........
	5	0.08	6.66962E-001	5.99266E-003	0.00000E+000	3.99688E-003	3.59960E-001	-1.14026E+000	3.57680E+000	10	...........
	6	0.093333	6.74026E-001	5.99393E-003	0.00000E+000	4.04006E-003	3.59960E-001	-1.14040E+000	3.57680E+000	10	...........
	7	0.106667	6.80990E-001	5.98858E-003	0.00000E+000	4.07816E-003	3.59960E-001	-1.13268E+000	3.57692E+000	10	...........
	8	0.12	6.87829E-001	5.99445E-003	0.00000E+000	4.12315E-003	3.59960E-001	-1.13970E+000	3.57730E+000	10	...........
	9	0.133333	6.94639E-001	5.99774E-003	0.00000E+000	4.16627E-003	3.59960E-001	-1.13997E+000	3.57730E+000	10	...........
	10	0.146667	7.01334E-001	5.98762E-003	0.00000E+000	4.19932E-003	3.59960E-001	-1.13264E+000	3.57730E+000	10	...........
	11	0.16	7.08051E-001	5.99309E-003	0.00000E+000	4.24342E-003	3.59960E-001	-1.13994E+000	3.57730E+000	10	...........
	12	0.173333	7.14731E-001	5.99644E-003	0.00000E+000	4.28584E-003	3.59960E-001	-1.13953E+000	3.57730E+000	10	...........
	13	0.186667	7.21326E-001	5.99158E-003	0.00000E+000	4.32188E-003	3.59960E-001	-1.13228E+000	3.57730E+000	10	...........
	14	0.2	7.27883E-001	5.99875E-003	0.00000E+000	4.36639E-003	3.59960E-001	-1.14011E+000	3.57730E+000	10	...........
	15	0.213333	7.34385E-001	5.99012E-003	0.00000E+000	4.39905E-003	3.59960E-001	-1.13977E+000	3.57730E+000	10	...........
	16	0.226667	7.40934E-001	5.99757E-003	0.00000E+000	4.44380E-003	3.59960E-001	-1.13234E+000	3.57730E+000	10	...........
	17	0.24	7.47456E-001	5.99333E-003	0.00000E+000	4.47975E-003	3.59960E-001	-1.13987E+000	3.57730E+000	10	...........
	18	0.253333	7.53941E-001	5.99707E-003	0.00000E+000	4.52143E-003	3.59960E-001	-1.13912E+000	3.57730E+000	10	...........
	19	0.266667	7.60430E-001	5.98860E-003	0.00000E+000	4.55391E-003	3.59960E-001	-1.13238E+000	3.57730E+000	10	...........
	20	0.28	7.66864E-001	5.99620E-003	0.00000E+000	4.59827E-003	3.59960E-001	-1.13968E+000	3.57730E+000	10	...........
	21	0.293333	7.73314E-001	5.99683E-003	0.00000E+000	4.63743E-003	3.59960E-001	-1.13847E+000	3.57730E+000	10	...........
	22	0.306667	7.79775E-001	5.99096E-003	0.00000E+000	4.67161E-003	3.59960E-001	-1.13162E+000	3.57730E+000	10	...........
	23	0.32	7.86204E-001	5.99747E-003	0.00000E+000	4.71524E-003	3.59960E-001	-1.13935E+000	3.57730E+000	10	...........
	24	0.333333	7.92604E-001	5.99096E-003	0.00000E+000	4.74846E-003	3.59960E-001	-1.13870E+000	3.57730E+000	10	...........
	25	0.346667	7.99031E-001	5.99418E-003	0.00000E+000	4.78953E-003	3.59960E-001	-1.13176E+000	3.57730E+000	10	...........
	26	0.36	8.05396E-001	5.98901E-003	0.00000E+000	4.82353E-003	3.59960E-001	-1.13942E+000	3.57730E+000	10	...........
	27	0.373333	8.11744E-001	5.99874E-003	0.00000E+000	4.86944E-003	3.59960E-001	-1.13807E+000	3.57730E+000	10	...........
	28	0.386667	8.18090E-001	5.99855E-003	0.00000E+000	4.90735E-003	3.59960E-001	-1.13136E+000	3.57730E+000	10	...........
	29	0.4	8.24400E-001	5.99235E-003	0.00000E+000	4.94010E-003	3.59960E-001	-1.13955E+000	3.57730E+000	10	...........
	30	0.413333	8.30699E-001	5.99387E-003	0.00000E+000	4.97910E-003	3.59960E-001	-1.13807E+000	3.57730E+000	10	...........
	31	0.426667	8.36974E-001	5.99139E-003	0.00000E+000	5.01464E-003	3.59960E-001	-1.13139E+000	3.57730E+000	10	...........
	32	0.44	8.43251E-001	5.99438E-003	0.00000E+000	5.05476E-003	3.59960E-001	-1.13936E+000	3.57730E+000	10	...........
	33	0.453333	8.49540E-001	5.99042E-003	0.00000E+000	5.08910E-003	3.59960E-001	-1.13760E+000	3.57730E+000	10	...........
	34	0.466667	8.55804E-001	5.99360E-003	0.00000E+000	5.12935E-003	3.59960E-001	-1.13147E+000	3.57730E+000	10	...........
	35	0.48	8.62048E-001	5.99761E-003	0.00000E+000	5.17023E-003	3.59960E-001	-1.13971E+000	3.57730E+000	10	...........
	36	0.493333	8.68245E-001	5.99593E-003	0.00000E+000	5.20594E-003	3.59960E-001	-1.13750E+000	3.57730E+000	10	...........
	37	0.506667	8.74434E-001	5.99181E-003	0.00000E+000	5.23944E-003	3.59960E-001	-1.13128E+000	3.57730E+000	10	...........
	38	0.52	8.80591E-001	5.99154E-003	0.00000E+000	5.27610E-003	3.59960E-001	-1.13966E+000	3.57730E+000	10	...........
	39	0.533333	8.86736E-001	5.99204E-003	0.00000E+000	5.31336E-003	3.59960E-001	-1.13767E+000	3.57730E+000	10	...........
	40	0.546667	8.92838E-001	5.99844E-003	0.00000E+000	5.35564E-003	3.59960E-001	-1.13142E+000	3.57730E+000	10	...........
	41	0.56	8.98959E-001	5.99075E-003	0.00000E+000	5.38544E-003	3.59960E-001	-1.13953E+000	3.57730E+000	10	...........
	42	0.573333	9.05026E-001	5.99619E-003	0.00000E+000	5.42671E-003	3.59960E-001	-1.13716E+000	3.57730E+000	10	...........
	43	0.586667	9.11052E-001	5.99155E-003	0.00000E+000	5.45861E-003	3.59960E-001	-1.13110E+000	3.57730E+000	10	...........
	44	0.6	9.17068E-001	5.99541E-003	0.00000E+000	5.49820E-003	3.59960E-001	-1.13968E+000	3.57730E+000	10	...........
	45	0.613333	9.23079E-001	5.99833E-003	0.00000E+000	5.53693E-003	3.59960E-001	-1.13684E+000	3.57730E+000	10	...........
	46	0.626667	9.29016E-001	5.99467E-003	0.00000E+000	5.56914E-003	3.59960E-001	-1.13087E+000	3.57730E+000	10	...........
	47	0.64	9.34931E-001	5.99033E-003	0.00000E+000	5.60055E-003	3.59960E-001	-1.13937E+000	3.57730E+000	10	...........
	48	0.653333	9.40830E-001	5.99699E-003	0.00000E+000	5.64215E-003	3.59960E-001	-1.13651E+000	3.57730E+000	10	...........
	49	0.666667	9.46640E-001	5.98971E-003	0.00000E+000	5.67011E-003	3.59960E-001	-1.13105E+000	3.57730E+000	10	...........
	50	0.68	9.52469E-001	5.99203E-003	0.00000E+000	5.70722E-003	3.59960E-001	-1.13995E+000	3.57730E+000	10	...........
	51	0.693333	9.58216E-001	5.99136E-003	0.00000E+000	5.74102E-003	3.59960E-001	-1.13654E+000	3.57730E+000	10	...........
	52	0.706667	9.63958E-001	5.99592E-003	0.00000E+000	5.77982E-003	3.59960E-001	-1.13075E+000	3.57730E+000	10	...........
	53	0.72	9.69628E-001	5.99710E-003	0.00000E+000	5.81495E-003	3.59960E-001	-1.13974E+000	3.57730E+000	10	...........
	54	0.733333	9.75317E-001	5.99394E-003	0.00000E+000	5.84599E-003	3.59960E-001	-1.13644E+000	3.57730E+000	10	...........
	55	0.746667	9.80914E-001	5.99266E-003	0.00000E+000	5.87829E-003	3.59960E-001	-1.13101E+000	3.57730E+000	10	...........
	56	0.76	9.86493E-001	5.99412E-003	0.00000E+000	5.91315E-003	3.59960E-001	-1.13958E+000	3.57730E+000	10	...........
	57	0.773333	9.92024E-001	5.99565E-003	0.00000E+000	5.94782E-003	3.59960E-001	-1.13603E+000	3.57730E+000	10	...........
	58	0.786667	9.97521E-001	5.99172E-003	0.00000E+000	5.97686E-003	3.59960E-001	-1.13063E+000	3.57730E+000	10	...........
	59	0.788333	1.00061E+000	5.98386E-003	0.00000E+000	5.98754E-003	3.59960E-001	-1.14426E+000	3.57730E+000	10	...........
STARTTIMEOFFSET	QUANT	764.2234	Start Time Offset (s)