File: Data/CV_CRGO300517_1/PWRCCD_CRGO300517_1/CHARGE_DISCHARGE/CHARGE_#573.DTA
EXPLAIN
TAG	PWR800_CHARGE
TITLE	LABEL	PWR Cyclic Charge Discharge (Cell) - Charge Step	Test &Identifier
DATE	LABEL	22-6-2017	Date
TIME	LABEL	15:58:44	Time
NOTES	NOTES	3	&Notes...
	supercap test cell
	0.6mg
	6M KOH
PSTAT	PSTAT	IFC5000-01520	Potentiostat
CAPACITY	QUANT	1.00000E-003	Capacity (A-hr)
CELLTYPE	SELECTOR	1	&Cell Type
WORKINGCONNECTION	SELECTOR	0	&Working Lead
MAXCHARGETIME	VARIABLEANDUNITS	1.00000E+002	s	1.00000E+002	second(s)	Max &Charge Time
CHARGECURRENT	QUANT	6.00000E-003	&Charge Current (A)
VOLTAGEFINISH	TWOPARAM	F	1.00000E-003	3.60000E+003	&Voltage Finish	 I (A) < 	Max Time(s)
SAMPLETIME	QUANT	1.00000E-002	Sa&mple Period (s)
CHARGESTOPAT1	MULTIPARAM	4	1.00000E+000	Charge Stop At &1	Voltage > Limit	V
CHARGESTOPAT2	MULTIPARAM	0	0.00000E+000	Charge Stop At &2	None	N/A
AESBHCSELECTOR	TOGGLE	F	Save Both Half Cells
IRCOMP	TOGGLE	F	IR &Measure
EOC	QUANT	0	Open Circuit (V)
SEQUENCER	TOGGLE	TRUE	Run as Sequence
PSTATMODEL	IQUANT	53	Pstat Model
PSTATSECTION	LABEL	IFC5000-01520	Pstat Section
PSTATSERIALNO	LABEL	01520	Pstat Serial Number
CTRLMODE	IQUANT	0	Control Mode
ELECTROMETER	IQUANT	1	RE=0 or CS=1
IESTAB	IQUANT	0	I/E Stability
CASPEED	IQUANT	4	Control Amp Speed
CONVENTION	IQUANT	1	Current Convention
ICHRANGE	IQUANT	2	Ich Range
ICHRANGEMODE	TOGGLE	T	Ich Auto Range
ICHOFFSETENABLE	TOGGLE	F	Ich Offset Enable
ICHOFFSET	QUANT	0	Ich Offset (V)
ICHFILTER	IQUANT	1	Ich Filter
VCHRANGE	IQUANT	2	Vch Range
VCHRANGEMODE	TOGGLE	T	Vch Auto Range
VCHOFFSETENABLE	TOGGLE	F	Vch Offset Enable
VCHOFFSET	QUANT	0	Vch Offset (V)
VCHFILTER	IQUANT	1	Vch Filter
IERANGELOWERLIMIT	IQUANT	9	I/E Range Lower Limit
IERANGEMODE	TOGGLE	F	I/E AutoRange
IERANGE	IQUANT	10	I/E Range
ACHSELECT	IQUANT	1	Ach Select
ACHRANGE	IQUANT	2	Ach Range
ACHOFFSETENABLE	TOGGLE	F	Ach Offset Enable
ACHOFFSET	QUANT	0	Ach Offset (V)
ACHFILTER	IQUANT	1	Ach Filter
CABLEID	IQUANT	14	Cable ID
DCCALDATE	LABEL	20-10-2016	DC Calibration Date
ACCALDATE	LABEL	12/3/2015	AC Calibration Date
FRAMEWORKVERSION	QUANT	7.01	Framework Version
INSTRUMENTVERSION	LABEL	4.00	Instrument Version
CURVE	TABLE	57
	Pt	T	Vf	Im	Vu	Pwr	Sig	Ach	Temp	IERange	Over
	#	s	V	A	V	W	V	V	deg C	#	bits
	0	0.013333	6.36315E-001	5.99275E-003	0.00000E+000	3.81327E-003	3.59960E-001	-1.14316E+000	3.57670E+000	10	...........
	1	0.026667	6.45289E-001	5.99044E-003	0.00000E+000	3.86557E-003	3.59960E-001	-1.14758E+000	3.57670E+000	10	...........
	2	0.04	6.53548E-001	5.99784E-003	0.00000E+000	3.91988E-003	3.59960E-001	-1.15174E+000	3.57670E+000	10	...........
	3	0.053333	6.61394E-001	5.99086E-003	0.00000E+000	3.96232E-003	3.59960E-001	-1.14274E+000	3.57670E+000	10	...........
	4	0.066667	6.68962E-001	5.99467E-003	0.00000E+000	4.01020E-003	3.59960E-001	-1.14750E+000	3.57670E+000	10	...........
	5	0.08	6.76212E-001	5.99520E-003	0.00000E+000	4.05402E-003	3.59960E-001	-1.15175E+000	3.57670E+000	10	...........
	6	0.093333	6.83419E-001	5.99317E-003	0.00000E+000	4.09585E-003	3.59960E-001	-1.14270E+000	3.57670E+000	10	...........
	7	0.106667	6.90502E-001	5.99446E-003	0.00000E+000	4.13919E-003	3.59960E-001	-1.14723E+000	3.57670E+000	10	...........
	8	0.12	6.97520E-001	5.99382E-003	0.00000E+000	4.18081E-003	3.59960E-001	-1.15177E+000	3.57670E+000	10	...........
	9	0.133333	7.04441E-001	5.99643E-003	0.00000E+000	4.22413E-003	3.59960E-001	-1.14254E+000	3.57670E+000	10	...........
	10	0.146667	7.11280E-001	5.99511E-003	0.00000E+000	4.26420E-003	3.59960E-001	-1.14718E+000	3.57670E+000	10	...........
	11	0.16	7.18122E-001	5.99082E-003	0.00000E+000	4.30214E-003	3.59960E-001	-1.15144E+000	3.57670E+000	10	...........
	12	0.173333	7.24910E-001	5.99052E-003	0.00000E+000	4.34258E-003	3.59960E-001	-1.14207E+000	3.57670E+000	10	...........
	13	0.186667	7.31625E-001	5.99349E-003	0.00000E+000	4.38498E-003	3.59960E-001	-1.14671E+000	3.57670E+000	10	...........
	14	0.2	7.38301E-001	5.99156E-003	0.00000E+000	4.42357E-003	3.59960E-001	-1.15146E+000	3.57670E+000	10	...........
	15	0.213333	7.44975E-001	5.99494E-003	0.00000E+000	4.46608E-003	3.59960E-001	-1.14236E+000	3.57670E+000	10	...........
	16	0.226667	7.51607E-001	5.99578E-003	0.00000E+000	4.50647E-003	3.59960E-001	-1.14674E+000	3.57670E+000	10	...........
	17	0.24	7.58231E-001	5.99082E-003	0.00000E+000	4.54242E-003	3.59960E-001	-1.15130E+000	3.57670E+000	10	...........
	18	0.253333	7.64835E-001	5.99263E-003	0.00000E+000	4.58337E-003	3.59960E-001	-1.14227E+000	3.57670E+000	10	...........
	19	0.266667	7.71374E-001	5.99359E-003	0.00000E+000	4.62331E-003	3.59960E-001	-1.14686E+000	3.57670E+000	10	...........
	20	0.28	7.77894E-001	5.98895E-003	0.00000E+000	4.65877E-003	3.59960E-001	-1.15149E+000	3.57670E+000	10	...........
	21	0.293333	7.84443E-001	5.99793E-003	0.00000E+000	4.70504E-003	3.59960E-001	-1.14212E+000	3.57670E+000	10	...........
	22	0.306667	7.90920E-001	5.98765E-003	0.00000E+000	4.73575E-003	3.59960E-001	-1.14658E+000	3.57670E+000	10	...........
	23	0.32	7.97452E-001	5.99362E-003	0.00000E+000	4.77963E-003	3.59960E-001	-1.15122E+000	3.57670E+000	10	...........
	24	0.333333	8.03893E-001	5.99252E-003	0.00000E+000	4.81734E-003	3.59960E-001	-1.14188E+000	3.57670E+000	10	...........
	25	0.346667	8.10335E-001	5.99467E-003	0.00000E+000	4.85769E-003	3.59960E-001	-1.14624E+000	3.57670E+000	10	...........
	26	0.36	8.16791E-001	5.98875E-003	0.00000E+000	4.89156E-003	3.59960E-001	-1.15078E+000	3.57670E+000	10	...........
	27	0.373333	8.23261E-001	5.99725E-003	0.00000E+000	4.93731E-003	3.59960E-001	-1.14158E+000	3.57670E+000	10	...........
	28	0.386667	8.29660E-001	5.99286E-003	0.00000E+000	4.97204E-003	3.59960E-001	-1.14638E+000	3.57670E+000	10	...........
	29	0.4	8.36030E-001	5.99189E-003	0.00000E+000	5.00940E-003	3.59960E-001	-1.15093E+000	3.57670E+000	10	...........
	30	0.413333	8.42408E-001	5.99158E-003	0.00000E+000	5.04736E-003	3.59960E-001	-1.14158E+000	3.57670E+000	10	...........
	31	0.426667	8.48817E-001	5.99441E-003	0.00000E+000	5.08815E-003	3.59960E-001	-1.14586E+000	3.57670E+000	10	...........
	32	0.44	8.55133E-001	5.99786E-003	0.00000E+000	5.12897E-003	3.59960E-001	-1.15050E+000	3.57670E+000	10	...........
	33	0.453333	8.61484E-001	5.99159E-003	0.00000E+000	5.16166E-003	3.59960E-001	-1.14144E+000	3.57670E+000	10	...........
	34	0.466667	8.67778E-001	5.99144E-003	0.00000E+000	5.19924E-003	3.59960E-001	-1.14612E+000	3.57670E+000	10	...........
	35	0.48	8.74116E-001	5.99142E-003	0.00000E+000	5.23720E-003	3.59960E-001	-1.15056E+000	3.57670E+000	10	...........
	36	0.493333	8.80356E-001	5.99139E-003	0.00000E+000	5.27456E-003	3.59960E-001	-1.14115E+000	3.57670E+000	10	...........
	37	0.506667	8.86565E-001	5.99140E-003	0.00000E+000	5.31177E-003	3.59960E-001	-1.14562E+000	3.57670E+000	10	...........
	38	0.52	8.92743E-001	5.99508E-003	0.00000E+000	5.35207E-003	3.59960E-001	-1.15048E+000	3.57670E+000	10	...........
	39	0.533333	8.98934E-001	5.99408E-003	0.00000E+000	5.38829E-003	3.59960E-001	-1.14147E+000	3.57670E+000	10	...........
	40	0.546667	9.05106E-001	5.98883E-003	0.00000E+000	5.42053E-003	3.59960E-001	-1.14576E+000	3.57670E+000	10	...........
	41	0.56	9.11225E-001	5.99524E-003	0.00000E+000	5.46301E-003	3.59960E-001	-1.15057E+000	3.57670E+000	10	...........
	42	0.573333	9.17291E-001	5.99099E-003	0.00000E+000	5.49548E-003	3.59960E-001	-1.14117E+000	3.57670E+000	10	...........
	43	0.586667	9.23383E-001	5.99256E-003	0.00000E+000	5.53343E-003	3.59960E-001	-1.14581E+000	3.57670E+000	10	...........
	44	0.6	9.29394E-001	5.99327E-003	0.00000E+000	5.57011E-003	3.59960E-001	-1.15058E+000	3.57670E+000	10	...........
	45	0.613333	9.35335E-001	5.99736E-003	0.00000E+000	5.60954E-003	3.59960E-001	-1.14159E+000	3.57670E+000	10	...........
	46	0.626667	9.41266E-001	5.99168E-003	0.00000E+000	5.63977E-003	3.59960E-001	-1.14573E+000	3.57670E+000	10	...........
	47	0.64	9.47221E-001	5.99030E-003	0.00000E+000	5.67413E-003	3.59960E-001	-1.15057E+000	3.57670E+000	10	...........
	48	0.653333	9.53078E-001	5.99373E-003	0.00000E+000	5.71249E-003	3.59960E-001	-1.14093E+000	3.57670E+000	10	...........
	49	0.666667	9.58865E-001	5.99285E-003	0.00000E+000	5.74634E-003	3.59960E-001	-1.14547E+000	3.57670E+000	10	...........
	50	0.68	9.64596E-001	5.99046E-003	0.00000E+000	5.77838E-003	3.59960E-001	-1.15031E+000	3.57670E+000	10	...........
	51	0.693333	9.70288E-001	5.99229E-003	0.00000E+000	5.81425E-003	3.59960E-001	-1.14066E+000	3.57670E+000	10	...........
	52	0.706667	9.76005E-001	5.99232E-003	0.00000E+000	5.84853E-003	3.59960E-001	-1.14522E+000	3.57670E+000	10	...........
	53	0.72	9.81640E-001	5.98936E-003	0.00000E+000	5.87939E-003	3.59960E-001	-1.15009E+000	3.57670E+000	10	...........
	54	0.733333	9.87204E-001	5.99608E-003	0.00000E+000	5.91935E-003	3.59960E-001	-1.14096E+000	3.57670E+000	10	...........
	55	0.746667	9.92726E-001	5.99547E-003	0.00000E+000	5.95186E-003	3.59960E-001	-1.14539E+000	3.57670E+000	10	...........
	56	0.76	9.98271E-001	5.99464E-003	0.00000E+000	5.98427E-003	3.59960E-001	-1.15002E+000	3.57670E+000	10	...........
STARTTIMEOFFSET	QUANT	970.32	Start Time Offset (s)