File: Data/CV_CRGO300517_1/PWRCCD_CRGO300517_1/CHARGE_DISCHARGE/CHARGE_#349.DTA
EXPLAIN
TAG	PWR800_CHARGE
TITLE	LABEL	PWR Cyclic Charge Discharge (Cell) - Charge Step	Test &Identifier
DATE	LABEL	22-6-2017	Date
TIME	LABEL	15:49:56	Time
NOTES	NOTES	3	&Notes...
	supercap test cell
	0.6mg
	6M KOH
PSTAT	PSTAT	IFC5000-01520	Potentiostat
CAPACITY	QUANT	1.00000E-003	Capacity (A-hr)
CELLTYPE	SELECTOR	1	&Cell Type
WORKINGCONNECTION	SELECTOR	0	&Working Lead
MAXCHARGETIME	VARIABLEANDUNITS	1.00000E+002	s	1.00000E+002	second(s)	Max &Charge Time
CHARGECURRENT	QUANT	6.00000E-003	&Charge Current (A)
VOLTAGEFINISH	TWOPARAM	F	1.00000E-003	3.60000E+003	&Voltage Finish	 I (A) < 	Max Time(s)
SAMPLETIME	QUANT	1.00000E-002	Sa&mple Period (s)
CHARGESTOPAT1	MULTIPARAM	4	1.00000E+000	Charge Stop At &1	Voltage > Limit	V
CHARGESTOPAT2	MULTIPARAM	0	0.00000E+000	Charge Stop At &2	None	N/A
AESBHCSELECTOR	TOGGLE	F	Save Both Half Cells
IRCOMP	TOGGLE	F	IR &Measure
EOC	QUANT	0	Open Circuit (V)
SEQUENCER	TOGGLE	TRUE	Run as Sequence
PSTATMODEL	IQUANT	53	Pstat Model
PSTATSECTION	LABEL	IFC5000-01520	Pstat Section
PSTATSERIALNO	LABEL	01520	Pstat Serial Number
CTRLMODE	IQUANT	0	Control Mode
ELECTROMETER	IQUANT	1	RE=0 or CS=1
IESTAB	IQUANT	0	I/E Stability
CASPEED	IQUANT	4	Control Amp Speed
CONVENTION	IQUANT	1	Current Convention
ICHRANGE	IQUANT	2	Ich Range
ICHRANGEMODE	TOGGLE	T	Ich Auto Range
ICHOFFSETENABLE	TOGGLE	F	Ich Offset Enable
ICHOFFSET	QUANT	0	Ich Offset (V)
ICHFILTER	IQUANT	1	Ich Filter
VCHRANGE	IQUANT	2	Vch Range
VCHRANGEMODE	TOGGLE	T	Vch Auto Range
VCHOFFSETENABLE	TOGGLE	F	Vch Offset Enable
VCHOFFSET	QUANT	0	Vch Offset (V)
VCHFILTER	IQUANT	1	Vch Filter
IERANGELOWERLIMIT	IQUANT	9	I/E Range Lower Limit
IERANGEMODE	TOGGLE	F	I/E AutoRange
IERANGE	IQUANT	10	I/E Range
ACHSELECT	IQUANT	1	Ach Select
ACHRANGE	IQUANT	2	Ach Range
ACHOFFSETENABLE	TOGGLE	F	Ach Offset Enable
ACHOFFSET	QUANT	0	Ach Offset (V)
ACHFILTER	IQUANT	1	Ach Filter
CABLEID	IQUANT	14	Cable ID
DCCALDATE	LABEL	20-10-2016	DC Calibration Date
ACCALDATE	LABEL	12/3/2015	AC Calibration Date
FRAMEWORKVERSION	QUANT	7.01	Framework Version
INSTRUMENTVERSION	LABEL	4.00	Instrument Version
CURVE	TABLE	61
	Pt	T	Vf	Im	Vu	Pwr	Sig	Ach	Temp	IERange	Over
	#	s	V	A	V	W	V	V	deg C	#	bits
	0	0.013333	6.20829E-001	5.99178E-003	0.00000E+000	3.71987E-003	3.59960E-001	-1.12379E+000	3.57750E+000	10	...........
	1	0.026667	6.29467E-001	5.99068E-003	0.00000E+000	3.77094E-003	3.59960E-001	-1.12393E+000	3.57750E+000	10	...........
	2	0.04	6.37445E-001	5.99472E-003	0.00000E+000	3.82130E-003	3.59960E-001	-1.11616E+000	3.57750E+000	10	...........
	3	0.053333	6.44989E-001	5.99019E-003	0.00000E+000	3.86361E-003	3.59960E-001	-1.12368E+000	3.57750E+000	10	...........
	4	0.066667	6.52292E-001	5.99751E-003	0.00000E+000	3.91212E-003	3.59960E-001	-1.12420E+000	3.57750E+000	10	...........
	5	0.08	6.59392E-001	5.99896E-003	0.00000E+000	3.95567E-003	3.59960E-001	-1.11633E+000	3.57750E+000	10	...........
	6	0.093333	6.66331E-001	5.99167E-003	0.00000E+000	3.99244E-003	3.59960E-001	-1.12340E+000	3.57765E+000	10	...........
	7	0.106667	6.73196E-001	5.99400E-003	0.00000E+000	4.03513E-003	3.59960E-001	-1.12389E+000	3.57790E+000	10	...........
	8	0.12	6.79953E-001	5.99548E-003	0.00000E+000	4.07665E-003	3.59960E-001	-1.11559E+000	3.57790E+000	10	...........
	9	0.133333	6.86647E-001	5.99050E-003	0.00000E+000	4.11336E-003	3.59960E-001	-1.12293E+000	3.57790E+000	10	...........
	10	0.146667	6.93256E-001	5.99188E-003	0.00000E+000	4.15391E-003	3.59960E-001	-1.12386E+000	3.57790E+000	10	...........
	11	0.16	6.99837E-001	5.99133E-003	0.00000E+000	4.19295E-003	3.59960E-001	-1.11587E+000	3.57790E+000	10	...........
	12	0.173333	7.06445E-001	5.99089E-003	0.00000E+000	4.23224E-003	3.59960E-001	-1.12267E+000	3.57790E+000	10	...........
	13	0.186667	7.12902E-001	5.99602E-003	0.00000E+000	4.27458E-003	3.59960E-001	-1.12376E+000	3.57790E+000	10	...........
	14	0.2	7.19458E-001	5.99108E-003	0.00000E+000	4.31033E-003	3.59960E-001	-1.11586E+000	3.57790E+000	10	...........
	15	0.213333	7.25876E-001	5.99162E-003	0.00000E+000	4.34918E-003	3.59960E-001	-1.12258E+000	3.57790E+000	10	...........
	16	0.226667	7.32284E-001	5.99478E-003	0.00000E+000	4.38988E-003	3.59960E-001	-1.12380E+000	3.57790E+000	10	...........
	17	0.24	7.38711E-001	5.99751E-003	0.00000E+000	4.43042E-003	3.59960E-001	-1.11553E+000	3.57790E+000	10	...........
	18	0.253333	7.45115E-001	5.99223E-003	0.00000E+000	4.46490E-003	3.59960E-001	-1.12246E+000	3.57790E+000	10	...........
	19	0.266667	7.51501E-001	5.99523E-003	0.00000E+000	4.50542E-003	3.59960E-001	-1.12373E+000	3.57790E+000	10	...........
	20	0.28	7.57876E-001	5.99380E-003	0.00000E+000	4.54256E-003	3.59960E-001	-1.11573E+000	3.57790E+000	10	...........
	21	0.293333	7.64191E-001	5.99282E-003	0.00000E+000	4.57966E-003	3.59960E-001	-1.12229E+000	3.57790E+000	10	...........
	22	0.306667	7.70534E-001	5.99277E-003	0.00000E+000	4.61763E-003	3.59960E-001	-1.12377E+000	3.57790E+000	10	...........
	23	0.32	7.76856E-001	5.99427E-003	0.00000E+000	4.65669E-003	3.59960E-001	-1.11565E+000	3.57790E+000	10	...........
	24	0.333333	7.83215E-001	5.99492E-003	0.00000E+000	4.69531E-003	3.59960E-001	-1.12243E+000	3.57790E+000	10	...........
	25	0.346667	7.89479E-001	5.99506E-003	0.00000E+000	4.73298E-003	3.59960E-001	-1.12429E+000	3.57790E+000	10	...........
	26	0.36	7.95811E-001	5.99350E-003	0.00000E+000	4.76969E-003	3.59960E-001	-1.11578E+000	3.57790E+000	10	...........
	27	0.373333	8.02118E-001	5.99173E-003	0.00000E+000	4.80607E-003	3.59960E-001	-1.12221E+000	3.57790E+000	10	...........
	28	0.386667	8.08356E-001	5.99506E-003	0.00000E+000	4.84614E-003	3.59960E-001	-1.12413E+000	3.57790E+000	10	...........
	29	0.4	8.14599E-001	5.99801E-003	0.00000E+000	4.88597E-003	3.59960E-001	-1.11583E+000	3.57790E+000	10	...........
	30	0.413333	8.20870E-001	5.99400E-003	0.00000E+000	4.92030E-003	3.59960E-001	-1.12217E+000	3.57790E+000	10	...........
	31	0.426667	8.27115E-001	5.99370E-003	0.00000E+000	4.95748E-003	3.59960E-001	-1.12418E+000	3.57790E+000	10	...........
	32	0.44	8.33315E-001	5.99394E-003	0.00000E+000	4.99484E-003	3.59960E-001	-1.11519E+000	3.57790E+000	10	...........
	33	0.453333	8.39503E-001	5.99460E-003	0.00000E+000	5.03249E-003	3.59960E-001	-1.12147E+000	3.57790E+000	10	...........
	34	0.466667	8.45719E-001	5.99483E-003	0.00000E+000	5.06995E-003	3.59960E-001	-1.12386E+000	3.57790E+000	10	...........
	35	0.48	8.51928E-001	5.99494E-003	0.00000E+000	5.10726E-003	3.59960E-001	-1.11557E+000	3.57790E+000	10	...........
	36	0.493333	8.58053E-001	5.99183E-003	0.00000E+000	5.14131E-003	3.59960E-001	-1.12135E+000	3.57790E+000	10	...........
	37	0.506667	8.64177E-001	5.99518E-003	0.00000E+000	5.18090E-003	3.59960E-001	-1.12396E+000	3.57790E+000	10	...........
	38	0.52	8.70371E-001	5.99463E-003	0.00000E+000	5.21755E-003	3.59960E-001	-1.11541E+000	3.57790E+000	10	...........
	39	0.533333	8.76482E-001	5.99173E-003	0.00000E+000	5.25164E-003	3.59960E-001	-1.12139E+000	3.57790E+000	10	...........
	40	0.546667	8.82561E-001	5.99410E-003	0.00000E+000	5.29016E-003	3.59960E-001	-1.12398E+000	3.57790E+000	10	...........
	41	0.56	8.88653E-001	5.99480E-003	0.00000E+000	5.32730E-003	3.59960E-001	-1.11521E+000	3.57790E+000	10	...........
	42	0.573333	8.94688E-001	5.99157E-003	0.00000E+000	5.36058E-003	3.59960E-001	-1.12094E+000	3.57790E+000	10	...........
	43	0.586667	9.00726E-001	5.99247E-003	0.00000E+000	5.39757E-003	3.59960E-001	-1.12404E+000	3.57790E+000	10	...........
	44	0.6	9.06703E-001	5.99244E-003	0.00000E+000	5.43336E-003	3.59960E-001	-1.11539E+000	3.57790E+000	10	...........
	45	0.613333	9.12654E-001	5.99314E-003	0.00000E+000	5.46967E-003	3.59960E-001	-1.12091E+000	3.57790E+000	10	...........
	46	0.626667	9.18639E-001	5.99244E-003	0.00000E+000	5.50488E-003	3.59960E-001	-1.12393E+000	3.57790E+000	10	...........
	47	0.64	9.24621E-001	5.99584E-003	0.00000E+000	5.54388E-003	3.59960E-001	-1.11529E+000	3.57790E+000	10	...........
	48	0.653333	9.30446E-001	5.99519E-003	0.00000E+000	5.57820E-003	3.59960E-001	-1.12092E+000	3.57790E+000	10	...........
	49	0.666667	9.36310E-001	5.99345E-003	0.00000E+000	5.61173E-003	3.59960E-001	-1.12441E+000	3.57790E+000	10	...........
	50	0.68	9.42161E-001	5.99547E-003	0.00000E+000	5.64870E-003	3.59960E-001	-1.11556E+000	3.57790E+000	10	...........
	51	0.693333	9.47978E-001	5.99759E-003	0.00000E+000	5.68558E-003	3.59960E-001	-1.12106E+000	3.57790E+000	10	...........
	52	0.706667	9.53749E-001	5.99224E-003	0.00000E+000	5.71509E-003	3.59960E-001	-1.12446E+000	3.57790E+000	10	...........
	53	0.72	9.59451E-001	5.99272E-003	0.00000E+000	5.74972E-003	3.59960E-001	-1.11547E+000	3.57790E+000	10	...........
	54	0.733333	9.65149E-001	5.99476E-003	0.00000E+000	5.78584E-003	3.59960E-001	-1.12096E+000	3.57790E+000	10	...........
	55	0.746667	9.70768E-001	5.99500E-003	0.00000E+000	5.81976E-003	3.59960E-001	-1.12443E+000	3.57790E+000	10	...........
	56	0.76	9.76412E-001	5.99206E-003	0.00000E+000	5.85072E-003	3.59960E-001	-1.11518E+000	3.57790E+000	10	...........
	57	0.773333	9.81939E-001	5.99616E-003	0.00000E+000	5.88786E-003	3.59960E-001	-1.12019E+000	3.57790E+000	10	...........
	58	0.786667	9.87466E-001	5.99318E-003	0.00000E+000	5.91806E-003	3.59960E-001	-1.12403E+000	3.57790E+000	10	...........
	59	0.8	9.92918E-001	5.99438E-003	0.00000E+000	5.95192E-003	3.59960E-001	-1.11517E+000	3.57790E+000	10	...........
	60	0.811667	9.98023E-001	5.99162E-003	0.00000E+000	5.97978E-003	3.59960E-001	-1.12318E+000	3.57790E+000	10	...........
STARTTIMEOFFSET	QUANT	621.0381	Start Time Offset (s)