File: Data/CV_CRGO300517_1/PWRCCD_CRGO300517_1/CHARGE_DISCHARGE/CHARGE_#638.DTA
EXPLAIN
TAG	PWR800_CHARGE
TITLE	LABEL	PWR Cyclic Charge Discharge (Cell) - Charge Step	Test &Identifier
DATE	LABEL	22-6-2017	Date
TIME	LABEL	16:01:13	Time
NOTES	NOTES	3	&Notes...
	supercap test cell
	0.6mg
	6M KOH
PSTAT	PSTAT	IFC5000-01520	Potentiostat
CAPACITY	QUANT	1.00000E-003	Capacity (A-hr)
CELLTYPE	SELECTOR	1	&Cell Type
WORKINGCONNECTION	SELECTOR	0	&Working Lead
MAXCHARGETIME	VARIABLEANDUNITS	1.00000E+002	s	1.00000E+002	second(s)	Max &Charge Time
CHARGECURRENT	QUANT	6.00000E-003	&Charge Current (A)
VOLTAGEFINISH	TWOPARAM	F	1.00000E-003	3.60000E+003	&Voltage Finish	 I (A) < 	Max Time(s)
SAMPLETIME	QUANT	1.00000E-002	Sa&mple Period (s)
CHARGESTOPAT1	MULTIPARAM	4	1.00000E+000	Charge Stop At &1	Voltage > Limit	V
CHARGESTOPAT2	MULTIPARAM	0	0.00000E+000	Charge Stop At &2	None	N/A
AESBHCSELECTOR	TOGGLE	F	Save Both Half Cells
IRCOMP	TOGGLE	F	IR &Measure
EOC	QUANT	0	Open Circuit (V)
SEQUENCER	TOGGLE	TRUE	Run as Sequence
PSTATMODEL	IQUANT	53	Pstat Model
PSTATSECTION	LABEL	IFC5000-01520	Pstat Section
PSTATSERIALNO	LABEL	01520	Pstat Serial Number
CTRLMODE	IQUANT	0	Control Mode
ELECTROMETER	IQUANT	1	RE=0 or CS=1
IESTAB	IQUANT	0	I/E Stability
CASPEED	IQUANT	4	Control Amp Speed
CONVENTION	IQUANT	1	Current Convention
ICHRANGE	IQUANT	2	Ich Range
ICHRANGEMODE	TOGGLE	T	Ich Auto Range
ICHOFFSETENABLE	TOGGLE	F	Ich Offset Enable
ICHOFFSET	QUANT	0	Ich Offset (V)
ICHFILTER	IQUANT	1	Ich Filter
VCHRANGE	IQUANT	2	Vch Range
VCHRANGEMODE	TOGGLE	T	Vch Auto Range
VCHOFFSETENABLE	TOGGLE	F	Vch Offset Enable
VCHOFFSET	QUANT	0	Vch Offset (V)
VCHFILTER	IQUANT	1	Vch Filter
IERANGELOWERLIMIT	IQUANT	9	I/E Range Lower Limit
IERANGEMODE	TOGGLE	F	I/E AutoRange
IERANGE	IQUANT	10	I/E Range
ACHSELECT	IQUANT	1	Ach Select
ACHRANGE	IQUANT	2	Ach Range
ACHOFFSETENABLE	TOGGLE	F	Ach Offset Enable
ACHOFFSET	QUANT	0	Ach Offset (V)
ACHFILTER	IQUANT	1	Ach Filter
CABLEID	IQUANT	14	Cable ID
DCCALDATE	LABEL	20-10-2016	DC Calibration Date
ACCALDATE	LABEL	12/3/2015	AC Calibration Date
FRAMEWORKVERSION	QUANT	7.01	Framework Version
INSTRUMENTVERSION	LABEL	4.00	Instrument Version
CURVE	TABLE	57
	Pt	T	Vf	Im	Vu	Pwr	Sig	Ach	Temp	IERange	Over
	#	s	V	A	V	W	V	V	deg C	#	bits
	0	0.013333	6.39723E-001	5.99304E-003	0.00000E+000	3.83389E-003	3.59960E-001	-1.15212E+000	3.57640E+000	10	...........
	1	0.026667	6.48765E-001	5.99665E-003	0.00000E+000	3.89042E-003	3.59960E-001	-1.14815E+000	3.57640E+000	10	...........
	2	0.04	6.57070E-001	5.99383E-003	0.00000E+000	3.93837E-003	3.59960E-001	-1.15859E+000	3.57640E+000	10	...........
	3	0.053333	6.64958E-001	5.99474E-003	0.00000E+000	3.98625E-003	3.59960E-001	-1.15235E+000	3.57640E+000	10	...........
	4	0.066667	6.72572E-001	5.99434E-003	0.00000E+000	4.03163E-003	3.59960E-001	-1.14779E+000	3.57640E+000	10	...........
	5	0.08	6.79963E-001	5.98821E-003	0.00000E+000	4.07176E-003	3.59960E-001	-1.15815E+000	3.57640E+000	10	...........
	6	0.093333	6.87166E-001	5.99050E-003	0.00000E+000	4.11646E-003	3.59960E-001	-1.15161E+000	3.57640E+000	10	...........
	7	0.106667	6.94328E-001	5.99354E-003	0.00000E+000	4.16149E-003	3.59960E-001	-1.14760E+000	3.57640E+000	10	...........
	8	0.12	7.01364E-001	5.99030E-003	0.00000E+000	4.20138E-003	3.59960E-001	-1.15808E+000	3.57640E+000	10	...........
	9	0.133333	7.08319E-001	5.98860E-003	0.00000E+000	4.24183E-003	3.59960E-001	-1.15193E+000	3.57640E+000	10	...........
	10	0.146667	7.15244E-001	5.99541E-003	0.00000E+000	4.28818E-003	3.59960E-001	-1.14761E+000	3.57640E+000	10	...........
	11	0.16	7.22134E-001	5.98865E-003	0.00000E+000	4.32461E-003	3.59960E-001	-1.15798E+000	3.57640E+000	10	...........
	12	0.173333	7.28934E-001	5.99012E-003	0.00000E+000	4.36640E-003	3.59960E-001	-1.15159E+000	3.57640E+000	10	...........
	13	0.186667	7.35701E-001	5.99006E-003	0.00000E+000	4.40689E-003	3.59960E-001	-1.14758E+000	3.57643E+000	10	...........
	14	0.2	7.42484E-001	5.99521E-003	0.00000E+000	4.45135E-003	3.59960E-001	-1.15792E+000	3.57660E+000	10	...........
	15	0.213333	7.49169E-001	5.99617E-003	0.00000E+000	4.49214E-003	3.59960E-001	-1.15133E+000	3.57660E+000	10	...........
	16	0.226667	7.55839E-001	5.99418E-003	0.00000E+000	4.53063E-003	3.59960E-001	-1.14750E+000	3.57660E+000	10	...........
	17	0.24	7.62481E-001	5.99769E-003	0.00000E+000	4.57313E-003	3.59960E-001	-1.15768E+000	3.57660E+000	10	...........
	18	0.253333	7.69134E-001	5.99198E-003	0.00000E+000	4.60863E-003	3.59960E-001	-1.15143E+000	3.57660E+000	10	...........
	19	0.266667	7.75775E-001	5.99667E-003	0.00000E+000	4.65207E-003	3.59960E-001	-1.14752E+000	3.57660E+000	10	...........
	20	0.28	7.82387E-001	5.99398E-003	0.00000E+000	4.68961E-003	3.59960E-001	-1.15781E+000	3.57660E+000	10	...........
	21	0.293333	7.88950E-001	5.99065E-003	0.00000E+000	4.72632E-003	3.59960E-001	-1.15127E+000	3.57660E+000	10	...........
	22	0.306667	7.95553E-001	5.99374E-003	0.00000E+000	4.76834E-003	3.59960E-001	-1.14746E+000	3.57660E+000	10	...........
	23	0.32	8.02110E-001	5.99804E-003	0.00000E+000	4.81108E-003	3.59960E-001	-1.15791E+000	3.57660E+000	10	...........
	24	0.333333	8.08589E-001	5.99029E-003	0.00000E+000	4.84368E-003	3.59960E-001	-1.15163E+000	3.57660E+000	10	...........
	25	0.346667	8.15083E-001	5.98992E-003	0.00000E+000	4.88228E-003	3.59960E-001	-1.14731E+000	3.57660E+000	10	...........
	26	0.36	8.21627E-001	5.99295E-003	0.00000E+000	4.92397E-003	3.59960E-001	-1.15763E+000	3.57660E+000	10	...........
	27	0.373333	8.28082E-001	5.99337E-003	0.00000E+000	4.96300E-003	3.59960E-001	-1.15149E+000	3.57660E+000	10	...........
	28	0.386667	8.34540E-001	5.99720E-003	0.00000E+000	5.00491E-003	3.59960E-001	-1.14715E+000	3.57660E+000	10	...........
	29	0.4	8.40946E-001	5.99574E-003	0.00000E+000	5.04210E-003	3.59960E-001	-1.15754E+000	3.57660E+000	10	...........
	30	0.413333	8.47389E-001	5.99572E-003	0.00000E+000	5.08071E-003	3.59960E-001	-1.15085E+000	3.57660E+000	10	...........
	31	0.426667	8.53782E-001	5.99616E-003	0.00000E+000	5.11942E-003	3.59960E-001	-1.14683E+000	3.57660E+000	10	...........
	32	0.44	8.60117E-001	5.99246E-003	0.00000E+000	5.15422E-003	3.59960E-001	-1.15741E+000	3.57660E+000	10	...........
	33	0.453333	8.66431E-001	5.98906E-003	0.00000E+000	5.18910E-003	3.59960E-001	-1.15116E+000	3.57660E+000	10	...........
	34	0.466667	8.72763E-001	5.99396E-003	0.00000E+000	5.23131E-003	3.59960E-001	-1.14706E+000	3.57660E+000	10	...........
	35	0.48	8.79082E-001	5.99674E-003	0.00000E+000	5.27163E-003	3.59960E-001	-1.15727E+000	3.57660E+000	10	...........
	36	0.493333	8.85334E-001	5.99332E-003	0.00000E+000	5.30609E-003	3.59960E-001	-1.15086E+000	3.57660E+000	10	...........
	37	0.506667	8.91535E-001	5.99217E-003	0.00000E+000	5.34223E-003	3.59960E-001	-1.14678E+000	3.57660E+000	10	...........
	38	0.52	8.97756E-001	5.99080E-003	0.00000E+000	5.37828E-003	3.59960E-001	-1.15753E+000	3.57660E+000	10	...........
	39	0.533333	9.03922E-001	5.99797E-003	0.00000E+000	5.42170E-003	3.59960E-001	-1.15114E+000	3.57660E+000	10	...........
	40	0.546667	9.10074E-001	5.99478E-003	0.00000E+000	5.45570E-003	3.59960E-001	-1.14689E+000	3.57660E+000	10	...........
	41	0.56	9.16138E-001	5.99085E-003	0.00000E+000	5.48845E-003	3.59960E-001	-1.15731E+000	3.57660E+000	10	...........
	42	0.573333	9.22292E-001	5.99216E-003	0.00000E+000	5.52652E-003	3.59960E-001	-1.15097E+000	3.57660E+000	10	...........
	43	0.586667	9.28351E-001	5.99605E-003	0.00000E+000	5.56645E-003	3.59960E-001	-1.14709E+000	3.57660E+000	10	...........
	44	0.6	9.34311E-001	5.99649E-003	0.00000E+000	5.60259E-003	3.59960E-001	-1.15762E+000	3.57660E+000	10	...........
	45	0.613333	9.40279E-001	5.99629E-003	0.00000E+000	5.63819E-003	3.59960E-001	-1.15109E+000	3.57660E+000	10	...........
	46	0.626667	9.46194E-001	5.99293E-003	0.00000E+000	5.67047E-003	3.59960E-001	-1.14694E+000	3.57660E+000	10	...........
	47	0.64	9.52085E-001	5.99105E-003	0.00000E+000	5.70399E-003	3.59960E-001	-1.15751E+000	3.57660E+000	10	...........
	48	0.653333	9.57885E-001	5.99345E-003	0.00000E+000	5.74103E-003	3.59960E-001	-1.15110E+000	3.57660E+000	10	...........
	49	0.666667	9.63681E-001	5.98850E-003	0.00000E+000	5.77100E-003	3.59960E-001	-1.14701E+000	3.57660E+000	10	...........
	50	0.68	9.69419E-001	5.99088E-003	0.00000E+000	5.80767E-003	3.59960E-001	-1.15739E+000	3.57660E+000	10	...........
	51	0.693333	9.75165E-001	5.99249E-003	0.00000E+000	5.84366E-003	3.59960E-001	-1.15097E+000	3.57660E+000	10	...........
	52	0.706667	9.80792E-001	5.99126E-003	0.00000E+000	5.87618E-003	3.59960E-001	-1.14682E+000	3.57660E+000	10	...........
	53	0.72	9.86408E-001	5.99338E-003	0.00000E+000	5.91192E-003	3.59960E-001	-1.15715E+000	3.57660E+000	10	...........
	54	0.733333	9.91961E-001	5.99241E-003	0.00000E+000	5.94424E-003	3.59960E-001	-1.15066E+000	3.57660E+000	10	...........
	55	0.746667	9.97491E-001	5.99329E-003	0.00000E+000	5.97825E-003	3.59960E-001	-1.14664E+000	3.57660E+000	10	...........
	56	0.748333	1.00054E+000	5.99680E-003	0.00000E+000	6.00006E-003	3.59960E-001	-1.15957E+000	3.57660E+000	10	...........
STARTTIMEOFFSET	QUANT	1067.655	Start Time Offset (s)