File: Data/CV_CRGO300517_1/PWRCCD_CRGO300517_1/CHARGE_DISCHARGE/CHARGE_#255.DTA
EXPLAIN
TAG	PWR800_CHARGE
TITLE	LABEL	PWR Cyclic Charge Discharge (Cell) - Charge Step	Test &Identifier
DATE	LABEL	22-6-2017	Date
TIME	LABEL	15:46:05	Time
NOTES	NOTES	3	&Notes...
	supercap test cell
	0.6mg
	6M KOH
PSTAT	PSTAT	IFC5000-01520	Potentiostat
CAPACITY	QUANT	1.00000E-003	Capacity (A-hr)
CELLTYPE	SELECTOR	1	&Cell Type
WORKINGCONNECTION	SELECTOR	0	&Working Lead
MAXCHARGETIME	VARIABLEANDUNITS	1.00000E+002	s	1.00000E+002	second(s)	Max &Charge Time
CHARGECURRENT	QUANT	6.00000E-003	&Charge Current (A)
VOLTAGEFINISH	TWOPARAM	F	1.00000E-003	3.60000E+003	&Voltage Finish	 I (A) < 	Max Time(s)
SAMPLETIME	QUANT	1.00000E-002	Sa&mple Period (s)
CHARGESTOPAT1	MULTIPARAM	4	1.00000E+000	Charge Stop At &1	Voltage > Limit	V
CHARGESTOPAT2	MULTIPARAM	0	0.00000E+000	Charge Stop At &2	None	N/A
AESBHCSELECTOR	TOGGLE	F	Save Both Half Cells
IRCOMP	TOGGLE	F	IR &Measure
EOC	QUANT	0	Open Circuit (V)
SEQUENCER	TOGGLE	TRUE	Run as Sequence
PSTATMODEL	IQUANT	53	Pstat Model
PSTATSECTION	LABEL	IFC5000-01520	Pstat Section
PSTATSERIALNO	LABEL	01520	Pstat Serial Number
CTRLMODE	IQUANT	0	Control Mode
ELECTROMETER	IQUANT	1	RE=0 or CS=1
IESTAB	IQUANT	0	I/E Stability
CASPEED	IQUANT	4	Control Amp Speed
CONVENTION	IQUANT	1	Current Convention
ICHRANGE	IQUANT	2	Ich Range
ICHRANGEMODE	TOGGLE	T	Ich Auto Range
ICHOFFSETENABLE	TOGGLE	F	Ich Offset Enable
ICHOFFSET	QUANT	0	Ich Offset (V)
ICHFILTER	IQUANT	1	Ich Filter
VCHRANGE	IQUANT	2	Vch Range
VCHRANGEMODE	TOGGLE	T	Vch Auto Range
VCHOFFSETENABLE	TOGGLE	F	Vch Offset Enable
VCHOFFSET	QUANT	0	Vch Offset (V)
VCHFILTER	IQUANT	1	Vch Filter
IERANGELOWERLIMIT	IQUANT	9	I/E Range Lower Limit
IERANGEMODE	TOGGLE	F	I/E AutoRange
IERANGE	IQUANT	10	I/E Range
ACHSELECT	IQUANT	1	Ach Select
ACHRANGE	IQUANT	2	Ach Range
ACHOFFSETENABLE	TOGGLE	F	Ach Offset Enable
ACHOFFSET	QUANT	0	Ach Offset (V)
ACHFILTER	IQUANT	1	Ach Filter
CABLEID	IQUANT	14	Cable ID
DCCALDATE	LABEL	20-10-2016	DC Calibration Date
ACCALDATE	LABEL	12/3/2015	AC Calibration Date
FRAMEWORKVERSION	QUANT	7.01	Framework Version
INSTRUMENTVERSION	LABEL	4.00	Instrument Version
CURVE	TABLE	64
	Pt	T	Vf	Im	Vu	Pwr	Sig	Ach	Temp	IERange	Over
	#	s	V	A	V	W	V	V	deg C	#	bits
	0	0.013333	6.11879E-001	5.99891E-003	0.00000E+000	3.67061E-003	3.59960E-001	-1.09982E+000	3.57680E+000	10	...........
	1	0.026667	6.20486E-001	5.99822E-003	0.00000E+000	3.72182E-003	3.59960E-001	-1.10704E+000	3.57680E+000	10	...........
	2	0.04	6.28309E-001	5.99458E-003	0.00000E+000	3.76645E-003	3.59960E-001	-1.10395E+000	3.57680E+000	10	...........
	3	0.053333	6.35764E-001	5.99809E-003	0.00000E+000	3.81337E-003	3.59960E-001	-1.09782E+000	3.57680E+000	10	...........
	4	0.066667	6.42942E-001	5.99035E-003	0.00000E+000	3.85145E-003	3.59960E-001	-1.10438E+000	3.57680E+000	10	...........
	5	0.08	6.49938E-001	5.99806E-003	0.00000E+000	3.89837E-003	3.59960E-001	-1.10147E+000	3.57680E+000	10	...........
	6	0.093333	6.56787E-001	5.99362E-003	0.00000E+000	3.93654E-003	3.59960E-001	-1.09519E+000	3.57680E+000	10	...........
	7	0.106667	6.63491E-001	5.99435E-003	0.00000E+000	3.97720E-003	3.59960E-001	-1.10118E+000	3.57680E+000	10	...........
	8	0.12	6.70178E-001	5.99545E-003	0.00000E+000	4.01802E-003	3.59960E-001	-1.09689E+000	3.57680E+000	10	...........
	9	0.133333	6.76754E-001	5.99304E-003	0.00000E+000	4.05582E-003	3.59960E-001	-1.08936E+000	3.57680E+000	10	...........
	10	0.146667	6.83277E-001	5.98996E-003	0.00000E+000	4.09280E-003	3.59960E-001	-1.09481E+000	3.57680E+000	10	...........
	11	0.16	6.89717E-001	5.98971E-003	0.00000E+000	4.13121E-003	3.59960E-001	-1.09126E+000	3.57680E+000	10	...........
	12	0.173333	6.96144E-001	5.99520E-003	0.00000E+000	4.17352E-003	3.59960E-001	-1.08427E+000	3.57680E+000	10	...........
	13	0.186667	7.02539E-001	5.99545E-003	0.00000E+000	4.21204E-003	3.59960E-001	-1.09007E+000	3.57680E+000	10	...........
	14	0.2	7.08891E-001	5.99357E-003	0.00000E+000	4.24879E-003	3.59960E-001	-1.08662E+000	3.57680E+000	10	...........
	15	0.213333	7.15252E-001	5.99202E-003	0.00000E+000	4.28581E-003	3.59960E-001	-1.07982E+000	3.57680E+000	10	...........
	16	0.226667	7.21600E-001	5.99280E-003	0.00000E+000	4.32440E-003	3.59960E-001	-1.08594E+000	3.57680E+000	10	...........
	17	0.24	7.27925E-001	5.99203E-003	0.00000E+000	4.36175E-003	3.59960E-001	-1.08246E+000	3.57680E+000	10	...........
	18	0.253333	7.34183E-001	5.99053E-003	0.00000E+000	4.39814E-003	3.59960E-001	-1.07511E+000	3.57680E+000	10	...........
	19	0.266667	7.40468E-001	5.99213E-003	0.00000E+000	4.43698E-003	3.59960E-001	-1.08137E+000	3.57680E+000	10	...........
	20	0.28	7.46769E-001	5.99662E-003	0.00000E+000	4.47809E-003	3.59960E-001	-1.07990E+000	3.57680E+000	10	...........
	21	0.293333	7.53006E-001	5.99192E-003	0.00000E+000	4.51196E-003	3.59960E-001	-1.07493E+000	3.57680E+000	10	...........
	22	0.306667	7.59232E-001	5.99440E-003	0.00000E+000	4.55114E-003	3.59960E-001	-1.08297E+000	3.57680E+000	10	...........
	23	0.32	7.65390E-001	5.99584E-003	0.00000E+000	4.58915E-003	3.59960E-001	-1.08198E+000	3.57680E+000	10	...........
	24	0.333333	7.71612E-001	5.99638E-003	0.00000E+000	4.62688E-003	3.59960E-001	-1.07652E+000	3.57680E+000	10	...........
	25	0.346667	7.77832E-001	5.99492E-003	0.00000E+000	4.66304E-003	3.59960E-001	-1.08403E+000	3.57680E+000	10	...........
	26	0.36	7.84037E-001	5.99193E-003	0.00000E+000	4.69790E-003	3.59960E-001	-1.08312E+000	3.57680E+000	10	...........
	27	0.373333	7.90210E-001	5.99012E-003	0.00000E+000	4.73345E-003	3.59960E-001	-1.07769E+000	3.57680E+000	10	...........
	28	0.386667	7.96442E-001	5.98965E-003	0.00000E+000	4.77041E-003	3.59960E-001	-1.08539E+000	3.57680E+000	10	...........
	29	0.4	8.02611E-001	5.99176E-003	0.00000E+000	4.80905E-003	3.59960E-001	-1.08431E+000	3.57680E+000	10	...........
	30	0.413333	8.08748E-001	5.99983E-003	0.00000E+000	4.85235E-003	3.59960E-001	-1.07925E+000	3.57680E+000	10	...........
	31	0.426667	8.14886E-001	5.99440E-003	0.00000E+000	4.88475E-003	3.59960E-001	-1.08706E+000	3.57680E+000	10	...........
	32	0.44	8.21008E-001	5.99679E-003	0.00000E+000	4.92341E-003	3.59960E-001	-1.08611E+000	3.57680E+000	10	...........
	33	0.453333	8.27160E-001	5.99157E-003	0.00000E+000	4.95599E-003	3.59960E-001	-1.08070E+000	3.57680E+000	10	...........
	34	0.466667	8.33232E-001	5.99270E-003	0.00000E+000	4.99331E-003	3.59960E-001	-1.08880E+000	3.57680E+000	10	...........
	35	0.48	8.39307E-001	5.99042E-003	0.00000E+000	5.02780E-003	3.59960E-001	-1.08836E+000	3.57680E+000	10	...........
	36	0.493333	8.45447E-001	5.99446E-003	0.00000E+000	5.06800E-003	3.59960E-001	-1.08342E+000	3.57680E+000	10	...........
	37	0.506667	8.51553E-001	5.99760E-003	0.00000E+000	5.10727E-003	3.59960E-001	-1.09164E+000	3.57680E+000	10	...........
	38	0.52	8.57600E-001	5.99148E-003	0.00000E+000	5.13829E-003	3.59960E-001	-1.09137E+000	3.57680E+000	10	...........
	39	0.533333	8.63716E-001	5.99358E-003	0.00000E+000	5.17675E-003	3.59960E-001	-1.08663E+000	3.57680E+000	10	...........
	40	0.546667	8.69796E-001	5.99545E-003	0.00000E+000	5.21482E-003	3.59960E-001	-1.09517E+000	3.57680E+000	10	...........
	41	0.56	8.75772E-001	5.99161E-003	0.00000E+000	5.24728E-003	3.59960E-001	-1.09599E+000	3.57680E+000	10	...........
	42	0.573333	8.81778E-001	5.99410E-003	0.00000E+000	5.28547E-003	3.59960E-001	-1.09170E+000	3.57680E+000	10	...........
	43	0.586667	8.87801E-001	5.99556E-003	0.00000E+000	5.32287E-003	3.59960E-001	-1.10037E+000	3.57680E+000	10	...........
	44	0.6	8.93765E-001	5.99361E-003	0.00000E+000	5.35688E-003	3.59960E-001	-1.10164E+000	3.57680E+000	10	...........
	45	0.613333	8.99682E-001	5.99472E-003	0.00000E+000	5.39334E-003	3.59960E-001	-1.09814E+000	3.57680E+000	10	...........
	46	0.626667	9.05605E-001	5.99334E-003	0.00000E+000	5.42760E-003	3.59960E-001	-1.10741E+000	3.57680E+000	10	...........
	47	0.64	9.11524E-001	5.99766E-003	0.00000E+000	5.46701E-003	3.59960E-001	-1.10777E+000	3.57680E+000	10	...........
	48	0.653333	9.17425E-001	5.99701E-003	0.00000E+000	5.50181E-003	3.59960E-001	-1.10282E+000	3.57680E+000	10	...........
	49	0.666667	9.23343E-001	5.99674E-003	0.00000E+000	5.53705E-003	3.59960E-001	-1.11011E+000	3.57680E+000	10	...........
	50	0.68	9.29148E-001	5.99361E-003	0.00000E+000	5.56895E-003	3.59960E-001	-1.11013E+000	3.57680E+000	10	...........
	51	0.693333	9.34927E-001	5.99407E-003	0.00000E+000	5.60402E-003	3.59960E-001	-1.10435E+000	3.57680E+000	10	...........
	52	0.706667	9.40718E-001	5.99474E-003	0.00000E+000	5.63936E-003	3.59960E-001	-1.11174E+000	3.57680E+000	10	...........
	53	0.72	9.46484E-001	5.99520E-003	0.00000E+000	5.67436E-003	3.59960E-001	-1.11180E+000	3.57680E+000	10	...........
	54	0.733333	9.52191E-001	5.99502E-003	0.00000E+000	5.70841E-003	3.59960E-001	-1.10657E+000	3.57680E+000	10	...........
	55	0.746667	9.57858E-001	5.99162E-003	0.00000E+000	5.73913E-003	3.59960E-001	-1.11455E+000	3.57680E+000	10	...........
	56	0.76	9.63477E-001	5.99349E-003	0.00000E+000	5.77459E-003	3.59960E-001	-1.11501E+000	3.57729E+000	10	...........
	57	0.773333	9.69104E-001	6.00070E-003	0.00000E+000	5.81530E-003	3.59960E-001	-1.10891E+000	3.57810E+000	10	...........
	58	0.786667	9.74715E-001	5.99362E-003	0.00000E+000	5.84207E-003	3.59960E-001	-1.11560E+000	3.57810E+000	10	...........
	59	0.8	9.80232E-001	5.99634E-003	0.00000E+000	5.87780E-003	3.59960E-001	-1.11507E+000	3.57810E+000	10	...........
	60	0.813333	9.85742E-001	5.99556E-003	0.00000E+000	5.91008E-003	3.59960E-001	-1.10889E+000	3.57810E+000	10	...........
	61	0.826667	9.91212E-001	5.99682E-003	0.00000E+000	5.94412E-003	3.59960E-001	-1.11557E+000	3.57810E+000	10	...........
	62	0.84	9.96650E-001	5.99293E-003	0.00000E+000	5.97285E-003	3.59960E-001	-1.11454E+000	3.57810E+000	10	...........
	63	0.843333	1.00001E+000	5.99834E-003	0.00000E+000	5.99839E-003	3.59960E-001	-1.11639E+000	3.57810E+000	10	...........
STARTTIMEOFFSET	QUANT	466.3618	Start Time Offset (s)