File: Data/CV_CRGO300517_1/PWRCCD_CRGO300517_1/CHARGE_DISCHARGE/CHARGE_#184.DTA
EXPLAIN
TAG	PWR800_CHARGE
TITLE	LABEL	PWR Cyclic Charge Discharge (Cell) - Charge Step	Test &Identifier
DATE	LABEL	22-6-2017	Date
TIME	LABEL	15:43:08	Time
NOTES	NOTES	3	&Notes...
	supercap test cell
	0.6mg
	6M KOH
PSTAT	PSTAT	IFC5000-01520	Potentiostat
CAPACITY	QUANT	1.00000E-003	Capacity (A-hr)
CELLTYPE	SELECTOR	1	&Cell Type
WORKINGCONNECTION	SELECTOR	0	&Working Lead
MAXCHARGETIME	VARIABLEANDUNITS	1.00000E+002	s	1.00000E+002	second(s)	Max &Charge Time
CHARGECURRENT	QUANT	6.00000E-003	&Charge Current (A)
VOLTAGEFINISH	TWOPARAM	F	1.00000E-003	3.60000E+003	&Voltage Finish	 I (A) < 	Max Time(s)
SAMPLETIME	QUANT	1.00000E-002	Sa&mple Period (s)
CHARGESTOPAT1	MULTIPARAM	4	1.00000E+000	Charge Stop At &1	Voltage > Limit	V
CHARGESTOPAT2	MULTIPARAM	0	0.00000E+000	Charge Stop At &2	None	N/A
AESBHCSELECTOR	TOGGLE	F	Save Both Half Cells
IRCOMP	TOGGLE	F	IR &Measure
EOC	QUANT	0	Open Circuit (V)
SEQUENCER	TOGGLE	TRUE	Run as Sequence
PSTATMODEL	IQUANT	53	Pstat Model
PSTATSECTION	LABEL	IFC5000-01520	Pstat Section
PSTATSERIALNO	LABEL	01520	Pstat Serial Number
CTRLMODE	IQUANT	0	Control Mode
ELECTROMETER	IQUANT	1	RE=0 or CS=1
IESTAB	IQUANT	0	I/E Stability
CASPEED	IQUANT	4	Control Amp Speed
CONVENTION	IQUANT	1	Current Convention
ICHRANGE	IQUANT	2	Ich Range
ICHRANGEMODE	TOGGLE	T	Ich Auto Range
ICHOFFSETENABLE	TOGGLE	F	Ich Offset Enable
ICHOFFSET	QUANT	0	Ich Offset (V)
ICHFILTER	IQUANT	1	Ich Filter
VCHRANGE	IQUANT	2	Vch Range
VCHRANGEMODE	TOGGLE	T	Vch Auto Range
VCHOFFSETENABLE	TOGGLE	F	Vch Offset Enable
VCHOFFSET	QUANT	0	Vch Offset (V)
VCHFILTER	IQUANT	1	Vch Filter
IERANGELOWERLIMIT	IQUANT	9	I/E Range Lower Limit
IERANGEMODE	TOGGLE	F	I/E AutoRange
IERANGE	IQUANT	10	I/E Range
ACHSELECT	IQUANT	1	Ach Select
ACHRANGE	IQUANT	2	Ach Range
ACHOFFSETENABLE	TOGGLE	F	Ach Offset Enable
ACHOFFSET	QUANT	0	Ach Offset (V)
ACHFILTER	IQUANT	1	Ach Filter
CABLEID	IQUANT	14	Cable ID
DCCALDATE	LABEL	20-10-2016	DC Calibration Date
ACCALDATE	LABEL	12/3/2015	AC Calibration Date
FRAMEWORKVERSION	QUANT	7.01	Framework Version
INSTRUMENTVERSION	LABEL	4.00	Instrument Version
CURVE	TABLE	66
	Pt	T	Vf	Im	Vu	Pwr	Sig	Ach	Temp	IERange	Over
	#	s	V	A	V	W	V	V	deg C	#	bits
	0	0.013333	6.03665E-001	5.99383E-003	0.00000E+000	3.61827E-003	3.59960E-001	-1.08257E+000	3.57760E+000	10	...........
	1	0.026667	6.12068E-001	5.99636E-003	0.00000E+000	3.67018E-003	3.59960E-001	-1.08331E+000	3.57760E+000	10	...........
	2	0.04	6.19861E-001	5.98899E-003	0.00000E+000	3.71234E-003	3.59960E-001	-1.09256E+000	3.57760E+000	10	...........
	3	0.053333	6.27185E-001	5.99762E-003	0.00000E+000	3.76162E-003	3.59960E-001	-1.08230E+000	3.57760E+000	10	...........
	4	0.066667	6.34268E-001	5.99386E-003	0.00000E+000	3.80171E-003	3.59960E-001	-1.08286E+000	3.57760E+000	10	...........
	5	0.08	6.41188E-001	5.99197E-003	0.00000E+000	3.84197E-003	3.59960E-001	-1.09267E+000	3.57760E+000	10	...........
	6	0.093333	6.47890E-001	5.99745E-003	0.00000E+000	3.88569E-003	3.59960E-001	-1.08248E+000	3.57760E+000	10	...........
	7	0.106667	6.54532E-001	5.99609E-003	0.00000E+000	3.92463E-003	3.59960E-001	-1.08289E+000	3.57760E+000	10	...........
	8	0.12	6.61041E-001	5.99370E-003	0.00000E+000	3.96208E-003	3.59960E-001	-1.09228E+000	3.57760E+000	10	...........
	9	0.133333	6.67551E-001	5.99468E-003	0.00000E+000	4.00175E-003	3.59960E-001	-1.08227E+000	3.57760E+000	10	...........
	10	0.146667	6.73962E-001	5.99343E-003	0.00000E+000	4.03934E-003	3.59960E-001	-1.08288E+000	3.57760E+000	10	...........
	11	0.16	6.80311E-001	5.99386E-003	0.00000E+000	4.07769E-003	3.59960E-001	-1.09237E+000	3.57760E+000	10	...........
	12	0.173333	6.86624E-001	5.99643E-003	0.00000E+000	4.11729E-003	3.59960E-001	-1.08199E+000	3.57760E+000	10	...........
	13	0.186667	6.92914E-001	5.99471E-003	0.00000E+000	4.15382E-003	3.59960E-001	-1.08236E+000	3.57760E+000	10	...........
	14	0.2	6.99142E-001	5.99534E-003	0.00000E+000	4.19159E-003	3.59960E-001	-1.09189E+000	3.57760E+000	10	...........
	15	0.213333	7.05388E-001	5.99657E-003	0.00000E+000	4.22990E-003	3.59960E-001	-1.08178E+000	3.57760E+000	10	...........
	16	0.226667	7.11570E-001	5.99710E-003	0.00000E+000	4.26735E-003	3.59960E-001	-1.08224E+000	3.57760E+000	10	...........
	17	0.24	7.17802E-001	5.99528E-003	0.00000E+000	4.30343E-003	3.59960E-001	-1.09172E+000	3.57760E+000	10	...........
	18	0.253333	7.23989E-001	5.99254E-003	0.00000E+000	4.33854E-003	3.59960E-001	-1.08155E+000	3.57760E+000	10	...........
	19	0.266667	7.30159E-001	5.99888E-003	0.00000E+000	4.38014E-003	3.59960E-001	-1.08221E+000	3.57760E+000	10	...........
	20	0.28	7.36254E-001	5.99277E-003	0.00000E+000	4.41220E-003	3.59960E-001	-1.09183E+000	3.57760E+000	10	...........
	21	0.293333	7.42406E-001	5.99658E-003	0.00000E+000	4.45190E-003	3.59960E-001	-1.08149E+000	3.57760E+000	10	...........
	22	0.306667	7.48555E-001	5.99686E-003	0.00000E+000	4.48898E-003	3.59960E-001	-1.08174E+000	3.57760E+000	10	...........
	23	0.32	7.54708E-001	5.99184E-003	0.00000E+000	4.52209E-003	3.59960E-001	-1.09158E+000	3.57760E+000	10	...........
	24	0.333333	7.60798E-001	5.99364E-003	0.00000E+000	4.55995E-003	3.59960E-001	-1.08160E+000	3.57760E+000	10	...........
	25	0.346667	7.66888E-001	5.99503E-003	0.00000E+000	4.59752E-003	3.59960E-001	-1.08198E+000	3.57760E+000	10	...........
	26	0.36	7.72979E-001	5.99270E-003	0.00000E+000	4.63223E-003	3.59960E-001	-1.09171E+000	3.57760E+000	10	...........
	27	0.373333	7.79014E-001	5.99584E-003	0.00000E+000	4.67084E-003	3.59960E-001	-1.08145E+000	3.57760E+000	10	...........
	28	0.386667	7.85097E-001	5.99353E-003	0.00000E+000	4.70550E-003	3.59960E-001	-1.08201E+000	3.57760E+000	10	...........
	29	0.4	7.91154E-001	5.99292E-003	0.00000E+000	4.74132E-003	3.59960E-001	-1.09167E+000	3.57760E+000	10	...........
	30	0.413333	7.97239E-001	5.99415E-003	0.00000E+000	4.77877E-003	3.59960E-001	-1.08156E+000	3.57760E+000	10	...........
	31	0.426667	8.03290E-001	5.99633E-003	0.00000E+000	4.81679E-003	3.59960E-001	-1.08207E+000	3.57760E+000	10	...........
	32	0.44	8.09337E-001	5.99283E-003	0.00000E+000	4.85022E-003	3.59960E-001	-1.09167E+000	3.57760E+000	10	...........
	33	0.453333	8.15362E-001	5.99424E-003	0.00000E+000	4.88748E-003	3.59960E-001	-1.08141E+000	3.57760E+000	10	...........
	34	0.466667	8.21448E-001	5.99383E-003	0.00000E+000	4.92362E-003	3.59960E-001	-1.08197E+000	3.57760E+000	10	...........
	35	0.48	8.27479E-001	5.99181E-003	0.00000E+000	4.95810E-003	3.59960E-001	-1.09170E+000	3.57760E+000	10	...........
	36	0.493333	8.33501E-001	5.99642E-003	0.00000E+000	4.99802E-003	3.59960E-001	-1.08146E+000	3.57760E+000	10	...........
	37	0.506667	8.39482E-001	5.99406E-003	0.00000E+000	5.03191E-003	3.59960E-001	-1.08175E+000	3.57760E+000	10	...........
	38	0.52	8.45484E-001	5.99465E-003	0.00000E+000	5.06838E-003	3.59960E-001	-1.09132E+000	3.57760E+000	10	...........
	39	0.533333	8.51487E-001	5.99014E-003	0.00000E+000	5.10052E-003	3.59960E-001	-1.08130E+000	3.57760E+000	10	...........
	40	0.546667	8.57473E-001	5.99650E-003	0.00000E+000	5.14184E-003	3.59960E-001	-1.08171E+000	3.57760E+000	10	...........
	41	0.56	8.63423E-001	5.99791E-003	0.00000E+000	5.17874E-003	3.59960E-001	-1.09127E+000	3.57760E+000	10	...........
	42	0.573333	8.69407E-001	5.99162E-003	0.00000E+000	5.20916E-003	3.59960E-001	-1.08125E+000	3.57760E+000	10	...........
	43	0.586667	8.75358E-001	5.99586E-003	0.00000E+000	5.24852E-003	3.59960E-001	-1.08153E+000	3.57760E+000	10	...........
	44	0.6	8.81313E-001	5.99268E-003	0.00000E+000	5.28142E-003	3.59960E-001	-1.09128E+000	3.57760E+000	10	...........
	45	0.613333	8.87231E-001	5.99834E-003	0.00000E+000	5.32191E-003	3.59960E-001	-1.08122E+000	3.57760E+000	10	...........
	46	0.626667	8.93103E-001	5.99324E-003	0.00000E+000	5.35258E-003	3.59960E-001	-1.08163E+000	3.57760E+000	10	...........
	47	0.64	8.98949E-001	5.99257E-003	0.00000E+000	5.38702E-003	3.59960E-001	-1.09127E+000	3.57760E+000	10	...........
	48	0.653333	9.04835E-001	5.99121E-003	0.00000E+000	5.42106E-003	3.59960E-001	-1.08106E+000	3.57760E+000	10	...........
	49	0.666667	9.10705E-001	5.98981E-003	0.00000E+000	5.45495E-003	3.59960E-001	-1.08154E+000	3.57760E+000	10	...........
	50	0.68	9.16488E-001	5.99259E-003	0.00000E+000	5.49214E-003	3.59960E-001	-1.09141E+000	3.57760E+000	10	...........
	51	0.693333	9.22360E-001	5.99067E-003	0.00000E+000	5.52556E-003	3.59960E-001	-1.08128E+000	3.57760E+000	10	...........
	52	0.706667	9.28125E-001	5.99052E-003	0.00000E+000	5.55995E-003	3.59960E-001	-1.08139E+000	3.57760E+000	10	...........
	53	0.72	9.33882E-001	5.99073E-003	0.00000E+000	5.59463E-003	3.59960E-001	-1.09141E+000	3.57760E+000	10	...........
	54	0.733333	9.39610E-001	5.99407E-003	0.00000E+000	5.63209E-003	3.59960E-001	-1.08126E+000	3.57760E+000	10	...........
	55	0.746667	9.45324E-001	5.99041E-003	0.00000E+000	5.66288E-003	3.59960E-001	-1.08170E+000	3.57760E+000	10	...........
	56	0.76	9.51007E-001	5.99110E-003	0.00000E+000	5.69758E-003	3.59960E-001	-1.09152E+000	3.57760E+000	10	...........
	57	0.773333	9.56633E-001	5.99701E-003	0.00000E+000	5.73694E-003	3.59960E-001	-1.08132E+000	3.57760E+000	10	...........
	58	0.786667	9.62247E-001	5.99253E-003	0.00000E+000	5.76630E-003	3.59960E-001	-1.08148E+000	3.57760E+000	10	...........
	59	0.8	9.67817E-001	5.99633E-003	0.00000E+000	5.80335E-003	3.59960E-001	-1.09133E+000	3.57760E+000	10	...........
	60	0.813333	9.73408E-001	5.99086E-003	0.00000E+000	5.83155E-003	3.59960E-001	-1.08130E+000	3.57760E+000	10	...........
	61	0.826667	9.78916E-001	5.99288E-003	0.00000E+000	5.86653E-003	3.59960E-001	-1.08166E+000	3.57760E+000	10	...........
	62	0.84	9.84356E-001	5.99083E-003	0.00000E+000	5.89711E-003	3.59960E-001	-1.09083E+000	3.57760E+000	10	...........
	63	0.853333	9.89819E-001	5.99333E-003	0.00000E+000	5.93231E-003	3.59960E-001	-1.08087E+000	3.57760E+000	10	...........
	64	0.866667	9.95202E-001	5.99092E-003	0.00000E+000	5.96218E-003	3.59960E-001	-1.08128E+000	3.57760E+000	10	...........
	65	0.873333	9.99249E-001	5.99131E-003	0.00000E+000	5.98681E-003	3.59960E-001	-1.09105E+000	3.57760E+000	10	...........
STARTTIMEOFFSET	QUANT	345.2918	Start Time Offset (s)