File: Data/CV_CRGO300517_1/PWRCCD_CRGO300517_1/CHARGE_DISCHARGE/CHARGE_#465.DTA
EXPLAIN
TAG	PWR800_CHARGE
TITLE	LABEL	PWR Cyclic Charge Discharge (Cell) - Charge Step	Test &Identifier
DATE	LABEL	22-6-2017	Date
TIME	LABEL	15:54:33	Time
NOTES	NOTES	3	&Notes...
	supercap test cell
	0.6mg
	6M KOH
PSTAT	PSTAT	IFC5000-01520	Potentiostat
CAPACITY	QUANT	1.00000E-003	Capacity (A-hr)
CELLTYPE	SELECTOR	1	&Cell Type
WORKINGCONNECTION	SELECTOR	0	&Working Lead
MAXCHARGETIME	VARIABLEANDUNITS	1.00000E+002	s	1.00000E+002	second(s)	Max &Charge Time
CHARGECURRENT	QUANT	6.00000E-003	&Charge Current (A)
VOLTAGEFINISH	TWOPARAM	F	1.00000E-003	3.60000E+003	&Voltage Finish	 I (A) < 	Max Time(s)
SAMPLETIME	QUANT	1.00000E-002	Sa&mple Period (s)
CHARGESTOPAT1	MULTIPARAM	4	1.00000E+000	Charge Stop At &1	Voltage > Limit	V
CHARGESTOPAT2	MULTIPARAM	0	0.00000E+000	Charge Stop At &2	None	N/A
AESBHCSELECTOR	TOGGLE	F	Save Both Half Cells
IRCOMP	TOGGLE	F	IR &Measure
EOC	QUANT	0	Open Circuit (V)
SEQUENCER	TOGGLE	TRUE	Run as Sequence
PSTATMODEL	IQUANT	53	Pstat Model
PSTATSECTION	LABEL	IFC5000-01520	Pstat Section
PSTATSERIALNO	LABEL	01520	Pstat Serial Number
CTRLMODE	IQUANT	0	Control Mode
ELECTROMETER	IQUANT	1	RE=0 or CS=1
IESTAB	IQUANT	0	I/E Stability
CASPEED	IQUANT	4	Control Amp Speed
CONVENTION	IQUANT	1	Current Convention
ICHRANGE	IQUANT	2	Ich Range
ICHRANGEMODE	TOGGLE	T	Ich Auto Range
ICHOFFSETENABLE	TOGGLE	F	Ich Offset Enable
ICHOFFSET	QUANT	0	Ich Offset (V)
ICHFILTER	IQUANT	1	Ich Filter
VCHRANGE	IQUANT	2	Vch Range
VCHRANGEMODE	TOGGLE	T	Vch Auto Range
VCHOFFSETENABLE	TOGGLE	F	Vch Offset Enable
VCHOFFSET	QUANT	0	Vch Offset (V)
VCHFILTER	IQUANT	1	Vch Filter
IERANGELOWERLIMIT	IQUANT	9	I/E Range Lower Limit
IERANGEMODE	TOGGLE	F	I/E AutoRange
IERANGE	IQUANT	10	I/E Range
ACHSELECT	IQUANT	1	Ach Select
ACHRANGE	IQUANT	2	Ach Range
ACHOFFSETENABLE	TOGGLE	F	Ach Offset Enable
ACHOFFSET	QUANT	0	Ach Offset (V)
ACHFILTER	IQUANT	1	Ach Filter
CABLEID	IQUANT	14	Cable ID
DCCALDATE	LABEL	20-10-2016	DC Calibration Date
ACCALDATE	LABEL	12/3/2015	AC Calibration Date
FRAMEWORKVERSION	QUANT	7.01	Framework Version
INSTRUMENTVERSION	LABEL	4.00	Instrument Version
CURVE	TABLE	59
	Pt	T	Vf	Im	Vu	Pwr	Sig	Ach	Temp	IERange	Over
	#	s	V	A	V	W	V	V	deg C	#	bits
	0	0.013333	6.29491E-001	5.99342E-003	0.00000E+000	3.77280E-003	3.59960E-001	-1.14323E+000	3.57640E+000	10	...........
	1	0.026667	6.38339E-001	5.99276E-003	0.00000E+000	3.82541E-003	3.59960E-001	-1.13668E+000	3.57640E+000	10	...........
	2	0.04	6.46515E-001	5.99534E-003	0.00000E+000	3.87607E-003	3.59960E-001	-1.14437E+000	3.57640E+000	10	...........
	3	0.053333	6.54196E-001	5.99391E-003	0.00000E+000	3.92119E-003	3.59960E-001	-1.14315E+000	3.57640E+000	10	...........
	4	0.066667	6.61626E-001	5.99310E-003	0.00000E+000	3.96520E-003	3.59960E-001	-1.13674E+000	3.57640E+000	10	...........
	5	0.08	6.68904E-001	5.99539E-003	0.00000E+000	4.01034E-003	3.59960E-001	-1.14478E+000	3.57640E+000	10	...........
	6	0.093333	6.75998E-001	5.99252E-003	0.00000E+000	4.05093E-003	3.59960E-001	-1.14353E+000	3.57640E+000	10	...........
	7	0.106667	6.82976E-001	5.99280E-003	0.00000E+000	4.09294E-003	3.59960E-001	-1.13687E+000	3.57640E+000	10	...........
	8	0.12	6.89877E-001	5.99422E-003	0.00000E+000	4.13527E-003	3.59960E-001	-1.14457E+000	3.57640E+000	10	...........
	9	0.133333	6.96688E-001	5.99076E-003	0.00000E+000	4.17369E-003	3.59960E-001	-1.14359E+000	3.57684E+000	10	...........
	10	0.146667	7.03459E-001	5.99151E-003	0.00000E+000	4.21478E-003	3.59960E-001	-1.13698E+000	3.57690E+000	10	...........
	11	0.16	7.10177E-001	5.99155E-003	0.00000E+000	4.25506E-003	3.59960E-001	-1.14470E+000	3.57690E+000	10	...........
	12	0.173333	7.16876E-001	5.99397E-003	0.00000E+000	4.29693E-003	3.59960E-001	-1.14346E+000	3.57690E+000	10	...........
	13	0.186667	7.23547E-001	5.99217E-003	0.00000E+000	4.33562E-003	3.59960E-001	-1.13637E+000	3.57690E+000	10	...........
	14	0.2	7.30133E-001	5.99680E-003	0.00000E+000	4.37846E-003	3.59960E-001	-1.14449E+000	3.57690E+000	10	...........
	15	0.213333	7.36704E-001	5.99179E-003	0.00000E+000	4.41418E-003	3.59960E-001	-1.14301E+000	3.57690E+000	10	...........
	16	0.226667	7.43253E-001	5.99650E-003	0.00000E+000	4.45692E-003	3.59960E-001	-1.13664E+000	3.57690E+000	10	...........
	17	0.24	7.49766E-001	5.99595E-003	0.00000E+000	4.49556E-003	3.59960E-001	-1.14445E+000	3.57690E+000	10	...........
	18	0.253333	7.56269E-001	5.99300E-003	0.00000E+000	4.53232E-003	3.59960E-001	-1.14277E+000	3.57690E+000	10	...........
	19	0.266667	7.62766E-001	5.99893E-003	0.00000E+000	4.57578E-003	3.59960E-001	-1.13638E+000	3.57690E+000	10	...........
	20	0.28	7.69221E-001	5.99098E-003	0.00000E+000	4.60838E-003	3.59960E-001	-1.14446E+000	3.57690E+000	10	...........
	21	0.293333	7.75692E-001	5.99480E-003	0.00000E+000	4.65012E-003	3.59960E-001	-1.14290E+000	3.57690E+000	10	...........
	22	0.306667	7.82145E-001	5.99592E-003	0.00000E+000	4.68968E-003	3.59960E-001	-1.13635E+000	3.57690E+000	10	...........
	23	0.32	7.88562E-001	5.99448E-003	0.00000E+000	4.72702E-003	3.59960E-001	-1.14429E+000	3.57690E+000	10	...........
	24	0.333333	7.95018E-001	5.99552E-003	0.00000E+000	4.76655E-003	3.59960E-001	-1.14295E+000	3.57690E+000	10	...........
	25	0.346667	8.01397E-001	5.99166E-003	0.00000E+000	4.80170E-003	3.59960E-001	-1.13669E+000	3.57690E+000	10	...........
	26	0.36	8.07785E-001	5.98897E-003	0.00000E+000	4.83780E-003	3.59960E-001	-1.14470E+000	3.57690E+000	10	...........
	27	0.373333	8.14159E-001	5.99019E-003	0.00000E+000	4.87697E-003	3.59960E-001	-1.14314E+000	3.57690E+000	10	...........
	28	0.386667	8.20554E-001	5.99733E-003	0.00000E+000	4.92113E-003	3.59960E-001	-1.13646E+000	3.57690E+000	10	...........
	29	0.4	8.26889E-001	5.99324E-003	0.00000E+000	4.95574E-003	3.59960E-001	-1.14469E+000	3.57690E+000	10	...........
	30	0.413333	8.33172E-001	5.99498E-003	0.00000E+000	4.99485E-003	3.59960E-001	-1.14310E+000	3.57690E+000	10	...........
	31	0.426667	8.39481E-001	5.98981E-003	0.00000E+000	5.02833E-003	3.59960E-001	-1.13673E+000	3.57690E+000	10	...........
	32	0.44	8.45826E-001	5.99112E-003	0.00000E+000	5.06744E-003	3.59960E-001	-1.14492E+000	3.57690E+000	10	...........
	33	0.453333	8.52102E-001	5.98662E-003	0.00000E+000	5.10121E-003	3.59960E-001	-1.14314E+000	3.57690E+000	10	...........
	34	0.466667	8.58363E-001	5.99236E-003	0.00000E+000	5.14362E-003	3.59960E-001	-1.13675E+000	3.57690E+000	10	...........
	35	0.48	8.64586E-001	5.99560E-003	0.00000E+000	5.18371E-003	3.59960E-001	-1.14511E+000	3.57690E+000	10	...........
	36	0.493333	8.70861E-001	5.99419E-003	0.00000E+000	5.22011E-003	3.59960E-001	-1.14326E+000	3.57690E+000	10	...........
	37	0.506667	8.77072E-001	5.99220E-003	0.00000E+000	5.25559E-003	3.59960E-001	-1.13658E+000	3.57690E+000	10	...........
	38	0.52	8.83225E-001	5.99323E-003	0.00000E+000	5.29337E-003	3.59960E-001	-1.14460E+000	3.57690E+000	10	...........
	39	0.533333	8.89402E-001	5.99604E-003	0.00000E+000	5.33289E-003	3.59960E-001	-1.14283E+000	3.57690E+000	10	...........
	40	0.546667	8.95557E-001	5.99485E-003	0.00000E+000	5.36872E-003	3.59960E-001	-1.13666E+000	3.57690E+000	10	...........
	41	0.56	9.01635E-001	5.99059E-003	0.00000E+000	5.40132E-003	3.59960E-001	-1.14478E+000	3.57690E+000	10	...........
	42	0.573333	9.07694E-001	5.99384E-003	0.00000E+000	5.44057E-003	3.59960E-001	-1.14293E+000	3.57690E+000	10	...........
	43	0.586667	9.13742E-001	5.99444E-003	0.00000E+000	5.47737E-003	3.59960E-001	-1.13680E+000	3.57690E+000	10	...........
	44	0.6	9.19827E-001	5.99031E-003	0.00000E+000	5.51005E-003	3.59960E-001	-1.14499E+000	3.57690E+000	10	...........
	45	0.613333	9.25862E-001	5.99528E-003	0.00000E+000	5.55080E-003	3.59960E-001	-1.14300E+000	3.57690E+000	10	...........
	46	0.626667	9.31780E-001	5.98732E-003	0.00000E+000	5.57887E-003	3.59960E-001	-1.13698E+000	3.57690E+000	10	...........
	47	0.64	9.37676E-001	5.99252E-003	0.00000E+000	5.61904E-003	3.59960E-001	-1.14510E+000	3.57690E+000	10	...........
	48	0.653333	9.43541E-001	5.99783E-003	0.00000E+000	5.65919E-003	3.59960E-001	-1.14285E+000	3.57690E+000	10	...........
	49	0.666667	9.49429E-001	5.99555E-003	0.00000E+000	5.69235E-003	3.59960E-001	-1.13688E+000	3.57690E+000	10	...........
	50	0.68	9.55220E-001	5.99371E-003	0.00000E+000	5.72531E-003	3.59960E-001	-1.14530E+000	3.57690E+000	10	...........
	51	0.693333	9.60973E-001	5.99492E-003	0.00000E+000	5.76096E-003	3.59960E-001	-1.14315E+000	3.57690E+000	10	...........
	52	0.706667	9.66673E-001	5.99490E-003	0.00000E+000	5.79510E-003	3.59960E-001	-1.13715E+000	3.57690E+000	10	...........
	53	0.72	9.72365E-001	5.99234E-003	0.00000E+000	5.82674E-003	3.59960E-001	-1.14541E+000	3.57690E+000	10	...........
	54	0.733333	9.78021E-001	5.99205E-003	0.00000E+000	5.86035E-003	3.59960E-001	-1.14322E+000	3.57690E+000	10	...........
	55	0.746667	9.83630E-001	5.99375E-003	0.00000E+000	5.89563E-003	3.59960E-001	-1.13726E+000	3.57690E+000	10	...........
	56	0.76	9.89151E-001	5.99680E-003	0.00000E+000	5.93174E-003	3.59960E-001	-1.14564E+000	3.57690E+000	10	...........
	57	0.773333	9.94606E-001	5.99400E-003	0.00000E+000	5.96167E-003	3.59960E-001	-1.14341E+000	3.57690E+000	10	...........
	58	0.781667	9.99054E-001	5.99344E-003	0.00000E+000	5.98777E-003	3.59960E-001	-1.13636E+000	3.57690E+000	10	...........
STARTTIMEOFFSET	QUANT	804.8501	Start Time Offset (s)