File: Data/CV_CRGO300517_1/PWRCCD_CRGO300517_1/CHARGE_DISCHARGE/CHARGE_#610.DTA
EXPLAIN
TAG	PWR800_CHARGE
TITLE	LABEL	PWR Cyclic Charge Discharge (Cell) - Charge Step	Test &Identifier
DATE	LABEL	22-6-2017	Date
TIME	LABEL	16:00:09	Time
NOTES	NOTES	3	&Notes...
	supercap test cell
	0.6mg
	6M KOH
PSTAT	PSTAT	IFC5000-01520	Potentiostat
CAPACITY	QUANT	1.00000E-003	Capacity (A-hr)
CELLTYPE	SELECTOR	1	&Cell Type
WORKINGCONNECTION	SELECTOR	0	&Working Lead
MAXCHARGETIME	VARIABLEANDUNITS	1.00000E+002	s	1.00000E+002	second(s)	Max &Charge Time
CHARGECURRENT	QUANT	6.00000E-003	&Charge Current (A)
VOLTAGEFINISH	TWOPARAM	F	1.00000E-003	3.60000E+003	&Voltage Finish	 I (A) < 	Max Time(s)
SAMPLETIME	QUANT	1.00000E-002	Sa&mple Period (s)
CHARGESTOPAT1	MULTIPARAM	4	1.00000E+000	Charge Stop At &1	Voltage > Limit	V
CHARGESTOPAT2	MULTIPARAM	0	0.00000E+000	Charge Stop At &2	None	N/A
AESBHCSELECTOR	TOGGLE	F	Save Both Half Cells
IRCOMP	TOGGLE	F	IR &Measure
EOC	QUANT	0	Open Circuit (V)
SEQUENCER	TOGGLE	TRUE	Run as Sequence
PSTATMODEL	IQUANT	53	Pstat Model
PSTATSECTION	LABEL	IFC5000-01520	Pstat Section
PSTATSERIALNO	LABEL	01520	Pstat Serial Number
CTRLMODE	IQUANT	0	Control Mode
ELECTROMETER	IQUANT	1	RE=0 or CS=1
IESTAB	IQUANT	0	I/E Stability
CASPEED	IQUANT	4	Control Amp Speed
CONVENTION	IQUANT	1	Current Convention
ICHRANGE	IQUANT	2	Ich Range
ICHRANGEMODE	TOGGLE	T	Ich Auto Range
ICHOFFSETENABLE	TOGGLE	F	Ich Offset Enable
ICHOFFSET	QUANT	0	Ich Offset (V)
ICHFILTER	IQUANT	1	Ich Filter
VCHRANGE	IQUANT	2	Vch Range
VCHRANGEMODE	TOGGLE	T	Vch Auto Range
VCHOFFSETENABLE	TOGGLE	F	Vch Offset Enable
VCHOFFSET	QUANT	0	Vch Offset (V)
VCHFILTER	IQUANT	1	Vch Filter
IERANGELOWERLIMIT	IQUANT	9	I/E Range Lower Limit
IERANGEMODE	TOGGLE	F	I/E AutoRange
IERANGE	IQUANT	10	I/E Range
ACHSELECT	IQUANT	1	Ach Select
ACHRANGE	IQUANT	2	Ach Range
ACHOFFSETENABLE	TOGGLE	F	Ach Offset Enable
ACHOFFSET	QUANT	0	Ach Offset (V)
ACHFILTER	IQUANT	1	Ach Filter
CABLEID	IQUANT	14	Cable ID
DCCALDATE	LABEL	20-10-2016	DC Calibration Date
ACCALDATE	LABEL	12/3/2015	AC Calibration Date
FRAMEWORKVERSION	QUANT	7.01	Framework Version
INSTRUMENTVERSION	LABEL	4.00	Instrument Version
CURVE	TABLE	57
	Pt	T	Vf	Im	Vu	Pwr	Sig	Ach	Temp	IERange	Over
	#	s	V	A	V	W	V	V	deg C	#	bits
	0	0.013333	6.39049E-001	5.99393E-003	0.00000E+000	3.83041E-003	3.59960E-001	-1.15390E+000	3.57680E+000	10	...........
	1	0.026667	6.48028E-001	5.99421E-003	0.00000E+000	3.88441E-003	3.59960E-001	-1.15461E+000	3.57680E+000	10	...........
	2	0.04	6.56323E-001	5.99234E-003	0.00000E+000	3.93291E-003	3.59960E-001	-1.14700E+000	3.57710E+000	10	...........
	3	0.053333	6.64180E-001	5.99233E-003	0.00000E+000	3.97999E-003	3.59960E-001	-1.15379E+000	3.57720E+000	10	...........
	4	0.066667	6.71785E-001	5.99463E-003	0.00000E+000	4.02710E-003	3.59960E-001	-1.15473E+000	3.57720E+000	10	...........
	5	0.08	6.79193E-001	5.99609E-003	0.00000E+000	4.07250E-003	3.59960E-001	-1.14697E+000	3.57720E+000	10	...........
	6	0.093333	6.86404E-001	5.99119E-003	0.00000E+000	4.11238E-003	3.59960E-001	-1.15364E+000	3.57720E+000	10	...........
	7	0.106667	6.93544E-001	5.99434E-003	0.00000E+000	4.15734E-003	3.59960E-001	-1.15429E+000	3.57720E+000	10	...........
	8	0.12	7.00557E-001	5.98819E-003	0.00000E+000	4.19507E-003	3.59960E-001	-1.14647E+000	3.57720E+000	10	...........
	9	0.133333	7.07490E-001	5.99552E-003	0.00000E+000	4.24177E-003	3.59960E-001	-1.15321E+000	3.57720E+000	10	...........
	10	0.146667	7.14388E-001	5.99577E-003	0.00000E+000	4.28331E-003	3.59960E-001	-1.15415E+000	3.57720E+000	10	...........
	11	0.16	7.21278E-001	5.99376E-003	0.00000E+000	4.32317E-003	3.59960E-001	-1.14650E+000	3.57720E+000	10	...........
	12	0.173333	7.28055E-001	5.99176E-003	0.00000E+000	4.36233E-003	3.59960E-001	-1.15292E+000	3.57720E+000	10	...........
	13	0.186667	7.34760E-001	5.99719E-003	0.00000E+000	4.40650E-003	3.59960E-001	-1.15410E+000	3.57720E+000	10	...........
	14	0.2	7.41501E-001	5.99190E-003	0.00000E+000	4.44300E-003	3.59960E-001	-1.14644E+000	3.57720E+000	10	...........
	15	0.213333	7.48196E-001	5.99467E-003	0.00000E+000	4.48519E-003	3.59960E-001	-1.15308E+000	3.57720E+000	10	...........
	16	0.226667	7.54880E-001	5.99479E-003	0.00000E+000	4.52535E-003	3.59960E-001	-1.15419E+000	3.57720E+000	10	...........
	17	0.24	7.61538E-001	5.99427E-003	0.00000E+000	4.56487E-003	3.59960E-001	-1.14636E+000	3.57720E+000	10	...........
	18	0.253333	7.68144E-001	5.99135E-003	0.00000E+000	4.60222E-003	3.59960E-001	-1.15285E+000	3.57720E+000	10	...........
	19	0.266667	7.74747E-001	5.99429E-003	0.00000E+000	4.64406E-003	3.59960E-001	-1.15422E+000	3.57720E+000	10	...........
	20	0.28	7.81296E-001	5.98959E-003	0.00000E+000	4.67964E-003	3.59960E-001	-1.14651E+000	3.57720E+000	10	...........
	21	0.293333	7.87877E-001	5.99404E-003	0.00000E+000	4.72257E-003	3.59960E-001	-1.15293E+000	3.57720E+000	10	...........
	22	0.306667	7.94433E-001	5.99042E-003	0.00000E+000	4.75899E-003	3.59960E-001	-1.15414E+000	3.57720E+000	10	...........
	23	0.32	8.00969E-001	5.99258E-003	0.00000E+000	4.79987E-003	3.59960E-001	-1.14621E+000	3.57720E+000	10	...........
	24	0.333333	8.07467E-001	5.99611E-003	0.00000E+000	4.84166E-003	3.59960E-001	-1.15273E+000	3.57720E+000	10	...........
	25	0.346667	8.13953E-001	5.99415E-003	0.00000E+000	4.87895E-003	3.59960E-001	-1.15459E+000	3.57720E+000	10	...........
	26	0.36	8.20458E-001	5.99177E-003	0.00000E+000	4.91599E-003	3.59960E-001	-1.14621E+000	3.57720E+000	10	...........
	27	0.373333	8.26898E-001	5.99148E-003	0.00000E+000	4.95434E-003	3.59960E-001	-1.15279E+000	3.57720E+000	10	...........
	28	0.386667	8.33326E-001	5.99410E-003	0.00000E+000	4.99504E-003	3.59960E-001	-1.15404E+000	3.57720E+000	10	...........
	29	0.4	8.39800E-001	5.99363E-003	0.00000E+000	5.03345E-003	3.59960E-001	-1.14627E+000	3.57720E+000	10	...........
	30	0.413333	8.46212E-001	5.99254E-003	0.00000E+000	5.07096E-003	3.59960E-001	-1.15250E+000	3.57720E+000	10	...........
	31	0.426667	8.52586E-001	5.99488E-003	0.00000E+000	5.11115E-003	3.59960E-001	-1.15392E+000	3.57720E+000	10	...........
	32	0.44	8.58969E-001	5.98959E-003	0.00000E+000	5.14487E-003	3.59960E-001	-1.14576E+000	3.57720E+000	10	...........
	33	0.453333	8.65252E-001	5.99344E-003	0.00000E+000	5.18583E-003	3.59960E-001	-1.15204E+000	3.57720E+000	10	...........
	34	0.466667	8.71610E-001	5.99431E-003	0.00000E+000	5.22470E-003	3.59960E-001	-1.15390E+000	3.57720E+000	10	...........
	35	0.48	8.77874E-001	5.99176E-003	0.00000E+000	5.26001E-003	3.59960E-001	-1.14598E+000	3.57720E+000	10	...........
	36	0.493333	8.84131E-001	5.99257E-003	0.00000E+000	5.29822E-003	3.59960E-001	-1.15224E+000	3.57720E+000	10	...........
	37	0.506667	8.90353E-001	5.99050E-003	0.00000E+000	5.33366E-003	3.59960E-001	-1.15394E+000	3.57720E+000	10	...........
	38	0.52	8.96556E-001	5.99058E-003	0.00000E+000	5.37089E-003	3.59960E-001	-1.14573E+000	3.57720E+000	10	...........
	39	0.533333	9.02722E-001	5.99842E-003	0.00000E+000	5.41491E-003	3.59960E-001	-1.15195E+000	3.57720E+000	10	...........
	40	0.546667	9.08884E-001	5.99442E-003	0.00000E+000	5.44823E-003	3.59960E-001	-1.15412E+000	3.57720E+000	10	...........
	41	0.56	9.14961E-001	5.99483E-003	0.00000E+000	5.48504E-003	3.59960E-001	-1.14574E+000	3.57720E+000	10	...........
	42	0.573333	9.21076E-001	5.98998E-003	0.00000E+000	5.51723E-003	3.59960E-001	-1.15176E+000	3.57720E+000	10	...........
	43	0.586667	9.27128E-001	5.99480E-003	0.00000E+000	5.55795E-003	3.59960E-001	-1.15405E+000	3.57720E+000	10	...........
	44	0.6	9.33123E-001	5.99781E-003	0.00000E+000	5.59669E-003	3.59960E-001	-1.14582E+000	3.57720E+000	10	...........
	45	0.613333	9.39091E-001	5.99423E-003	0.00000E+000	5.62913E-003	3.59960E-001	-1.15183E+000	3.57720E+000	10	...........
	46	0.626667	9.44995E-001	5.99425E-003	0.00000E+000	5.66454E-003	3.59960E-001	-1.15394E+000	3.57720E+000	10	...........
	47	0.64	9.50926E-001	5.99705E-003	0.00000E+000	5.70275E-003	3.59960E-001	-1.14569E+000	3.57720E+000	10	...........
	48	0.653333	9.56791E-001	6.00013E-003	0.00000E+000	5.74087E-003	3.59960E-001	-1.15168E+000	3.57720E+000	10	...........
	49	0.666667	9.62536E-001	5.99786E-003	0.00000E+000	5.77316E-003	3.59960E-001	-1.15422E+000	3.57720E+000	10	...........
	50	0.68	9.68289E-001	5.98604E-003	0.00000E+000	5.79622E-003	3.59960E-001	-1.14604E+000	3.57720E+000	10	...........
	51	0.693333	9.74046E-001	5.99389E-003	0.00000E+000	5.83832E-003	3.59960E-001	-1.15190E+000	3.57720E+000	10	...........
	52	0.706667	9.79656E-001	5.99563E-003	0.00000E+000	5.87365E-003	3.59960E-001	-1.15414E+000	3.57720E+000	10	...........
	53	0.72	9.85265E-001	5.99487E-003	0.00000E+000	5.90653E-003	3.59960E-001	-1.14588E+000	3.57720E+000	10	...........
	54	0.733333	9.90824E-001	5.99315E-003	0.00000E+000	5.93815E-003	3.59960E-001	-1.15184E+000	3.57720E+000	10	...........
	55	0.746667	9.96349E-001	5.99481E-003	0.00000E+000	5.97293E-003	3.59960E-001	-1.15408E+000	3.57720E+000	10	...........
	56	0.75	9.99784E-001	5.99362E-003	0.00000E+000	5.99233E-003	3.59960E-001	-1.15163E+000	3.57720E+000	10	...........
STARTTIMEOFFSET	QUANT	1025.914	Start Time Offset (s)