File: Data/CV_CRGO300517_1/PWRCCD_CRGO300517_1/CHARGE_DISCHARGE/CHARGE_#500.DTA
EXPLAIN
TAG	PWR800_CHARGE
TITLE	LABEL	PWR Cyclic Charge Discharge (Cell) - Charge Step	Test &Identifier
DATE	LABEL	22-6-2017	Date
TIME	LABEL	15:55:55	Time
NOTES	NOTES	3	&Notes...
	supercap test cell
	0.6mg
	6M KOH
PSTAT	PSTAT	IFC5000-01520	Potentiostat
CAPACITY	QUANT	1.00000E-003	Capacity (A-hr)
CELLTYPE	SELECTOR	1	&Cell Type
WORKINGCONNECTION	SELECTOR	0	&Working Lead
MAXCHARGETIME	VARIABLEANDUNITS	1.00000E+002	s	1.00000E+002	second(s)	Max &Charge Time
CHARGECURRENT	QUANT	6.00000E-003	&Charge Current (A)
VOLTAGEFINISH	TWOPARAM	F	1.00000E-003	3.60000E+003	&Voltage Finish	 I (A) < 	Max Time(s)
SAMPLETIME	QUANT	1.00000E-002	Sa&mple Period (s)
CHARGESTOPAT1	MULTIPARAM	4	1.00000E+000	Charge Stop At &1	Voltage > Limit	V
CHARGESTOPAT2	MULTIPARAM	0	0.00000E+000	Charge Stop At &2	None	N/A
AESBHCSELECTOR	TOGGLE	F	Save Both Half Cells
IRCOMP	TOGGLE	F	IR &Measure
EOC	QUANT	0	Open Circuit (V)
SEQUENCER	TOGGLE	TRUE	Run as Sequence
PSTATMODEL	IQUANT	53	Pstat Model
PSTATSECTION	LABEL	IFC5000-01520	Pstat Section
PSTATSERIALNO	LABEL	01520	Pstat Serial Number
CTRLMODE	IQUANT	0	Control Mode
ELECTROMETER	IQUANT	1	RE=0 or CS=1
IESTAB	IQUANT	0	I/E Stability
CASPEED	IQUANT	4	Control Amp Speed
CONVENTION	IQUANT	1	Current Convention
ICHRANGE	IQUANT	2	Ich Range
ICHRANGEMODE	TOGGLE	T	Ich Auto Range
ICHOFFSETENABLE	TOGGLE	F	Ich Offset Enable
ICHOFFSET	QUANT	0	Ich Offset (V)
ICHFILTER	IQUANT	1	Ich Filter
VCHRANGE	IQUANT	2	Vch Range
VCHRANGEMODE	TOGGLE	T	Vch Auto Range
VCHOFFSETENABLE	TOGGLE	F	Vch Offset Enable
VCHOFFSET	QUANT	0	Vch Offset (V)
VCHFILTER	IQUANT	1	Vch Filter
IERANGELOWERLIMIT	IQUANT	9	I/E Range Lower Limit
IERANGEMODE	TOGGLE	F	I/E AutoRange
IERANGE	IQUANT	10	I/E Range
ACHSELECT	IQUANT	1	Ach Select
ACHRANGE	IQUANT	2	Ach Range
ACHOFFSETENABLE	TOGGLE	F	Ach Offset Enable
ACHOFFSET	QUANT	0	Ach Offset (V)
ACHFILTER	IQUANT	1	Ach Filter
CABLEID	IQUANT	14	Cable ID
DCCALDATE	LABEL	20-10-2016	DC Calibration Date
ACCALDATE	LABEL	12/3/2015	AC Calibration Date
FRAMEWORKVERSION	QUANT	7.01	Framework Version
INSTRUMENTVERSION	LABEL	4.00	Instrument Version
CURVE	TABLE	59
	Pt	T	Vf	Im	Vu	Pwr	Sig	Ach	Temp	IERange	Over
	#	s	V	A	V	W	V	V	deg C	#	bits
	0	0.013333	6.31652E-001	5.99608E-003	0.00000E+000	3.78743E-003	3.59960E-001	-1.13191E+000	3.57790E+000	10	...........
	1	0.026667	6.40591E-001	5.99572E-003	0.00000E+000	3.84081E-003	3.59960E-001	-1.14215E+000	3.57790E+000	10	...........
	2	0.04	6.48777E-001	5.99499E-003	0.00000E+000	3.88941E-003	3.59960E-001	-1.13238E+000	3.57790E+000	10	...........
	3	0.053333	6.56523E-001	5.99363E-003	0.00000E+000	3.93496E-003	3.59960E-001	-1.13201E+000	3.57790E+000	10	...........
	4	0.066667	6.64010E-001	5.99685E-003	0.00000E+000	3.98197E-003	3.59960E-001	-1.14231E+000	3.57790E+000	10	...........
	5	0.08	6.71324E-001	5.99548E-003	0.00000E+000	4.02491E-003	3.59960E-001	-1.13193E+000	3.57790E+000	10	...........
	6	0.093333	6.78405E-001	5.99723E-003	0.00000E+000	4.06855E-003	3.59960E-001	-1.13190E+000	3.57790E+000	10	...........
	7	0.106667	6.85401E-001	5.99104E-003	0.00000E+000	4.10627E-003	3.59960E-001	-1.14244E+000	3.57790E+000	10	...........
	8	0.12	6.92330E-001	5.99619E-003	0.00000E+000	4.15134E-003	3.59960E-001	-1.13187E+000	3.57790E+000	10	...........
	9	0.133333	6.99174E-001	5.99304E-003	0.00000E+000	4.19018E-003	3.59960E-001	-1.13152E+000	3.57790E+000	10	...........
	10	0.146667	7.05962E-001	5.99337E-003	0.00000E+000	4.23109E-003	3.59960E-001	-1.14170E+000	3.57790E+000	10	...........
	11	0.16	7.12700E-001	5.99288E-003	0.00000E+000	4.27113E-003	3.59960E-001	-1.13136E+000	3.57790E+000	10	...........
	12	0.173333	7.19458E-001	5.99221E-003	0.00000E+000	4.31114E-003	3.59960E-001	-1.13125E+000	3.57790E+000	10	...........
	13	0.186667	7.26144E-001	5.99480E-003	0.00000E+000	4.35309E-003	3.59960E-001	-1.14156E+000	3.57790E+000	10	...........
	14	0.2	7.32766E-001	5.99696E-003	0.00000E+000	4.39437E-003	3.59960E-001	-1.13133E+000	3.57790E+000	10	...........
	15	0.213333	7.39356E-001	5.99372E-003	0.00000E+000	4.43149E-003	3.59960E-001	-1.13091E+000	3.57790E+000	10	...........
	16	0.226667	7.45989E-001	5.99527E-003	0.00000E+000	4.47241E-003	3.59960E-001	-1.14138E+000	3.57790E+000	10	...........
	17	0.24	7.52542E-001	5.99806E-003	0.00000E+000	4.51379E-003	3.59960E-001	-1.13132E+000	3.57790E+000	10	...........
	18	0.253333	7.59069E-001	5.99052E-003	0.00000E+000	4.54721E-003	3.59960E-001	-1.13132E+000	3.57790E+000	10	...........
	19	0.266667	7.65611E-001	5.99941E-003	0.00000E+000	4.59322E-003	3.59960E-001	-1.14111E+000	3.57790E+000	10	...........
	20	0.28	7.72128E-001	5.99071E-003	0.00000E+000	4.62560E-003	3.59960E-001	-1.13072E+000	3.57790E+000	10	...........
	21	0.293333	7.78625E-001	5.99577E-003	0.00000E+000	4.66846E-003	3.59960E-001	-1.13051E+000	3.57790E+000	10	...........
	22	0.306667	7.85110E-001	5.99828E-003	0.00000E+000	4.70930E-003	3.59960E-001	-1.14086E+000	3.57790E+000	10	...........
	23	0.32	7.91568E-001	5.99520E-003	0.00000E+000	4.74561E-003	3.59960E-001	-1.13085E+000	3.57790E+000	10	...........
	24	0.333333	7.98002E-001	5.99511E-003	0.00000E+000	4.78411E-003	3.59960E-001	-1.13033E+000	3.57790E+000	10	...........
	25	0.346667	8.04408E-001	5.99421E-003	0.00000E+000	4.82179E-003	3.59960E-001	-1.14021E+000	3.57790E+000	10	...........
	26	0.36	8.10795E-001	5.99415E-003	0.00000E+000	4.86003E-003	3.59960E-001	-1.13001E+000	3.57790E+000	10	...........
	27	0.373333	8.17198E-001	5.99254E-003	0.00000E+000	4.89709E-003	3.59960E-001	-1.12982E+000	3.57790E+000	10	...........
	28	0.386667	8.23563E-001	5.99337E-003	0.00000E+000	4.93592E-003	3.59960E-001	-1.14033E+000	3.57790E+000	10	...........
	29	0.4	8.29876E-001	5.98841E-003	0.00000E+000	4.96964E-003	3.59960E-001	-1.13025E+000	3.57790E+000	10	...........
	30	0.413333	8.36247E-001	5.99268E-003	0.00000E+000	5.01136E-003	3.59960E-001	-1.12979E+000	3.57790E+000	10	...........
	31	0.426667	8.42595E-001	5.99745E-003	0.00000E+000	5.05342E-003	3.59960E-001	-1.14014E+000	3.57790E+000	10	...........
	32	0.44	8.48928E-001	5.99360E-003	0.00000E+000	5.08814E-003	3.59960E-001	-1.13007E+000	3.57790E+000	10	...........
	33	0.453333	8.55227E-001	5.99613E-003	0.00000E+000	5.12805E-003	3.59960E-001	-1.13014E+000	3.57790E+000	10	...........
	34	0.466667	8.61494E-001	5.99431E-003	0.00000E+000	5.16406E-003	3.59960E-001	-1.13991E+000	3.57790E+000	10	...........
	35	0.48	8.67758E-001	5.99463E-003	0.00000E+000	5.20188E-003	3.59960E-001	-1.12947E+000	3.57790E+000	10	...........
	36	0.493333	8.74015E-001	5.99539E-003	0.00000E+000	5.24006E-003	3.59960E-001	-1.12948E+000	3.57790E+000	10	...........
	37	0.506667	8.80222E-001	6.00053E-003	0.00000E+000	5.28180E-003	3.59960E-001	-1.13982E+000	3.57790E+000	10	...........
	38	0.52	8.86422E-001	5.99814E-003	0.00000E+000	5.31688E-003	3.59960E-001	-1.12958E+000	3.57790E+000	10	...........
	39	0.533333	8.92583E-001	6.00038E-003	0.00000E+000	5.35584E-003	3.59960E-001	-1.12994E+000	3.57790E+000	10	...........
	40	0.546667	8.98729E-001	5.99144E-003	0.00000E+000	5.38469E-003	3.59960E-001	-1.13986E+000	3.57785E+000	10	...........
	41	0.56	9.04781E-001	5.99638E-003	0.00000E+000	5.42541E-003	3.59960E-001	-1.12968E+000	3.57750E+000	10	...........
	42	0.573333	9.10889E-001	5.99879E-003	0.00000E+000	5.46423E-003	3.59960E-001	-1.12967E+000	3.57750E+000	10	...........
	43	0.586667	9.16879E-001	5.99463E-003	0.00000E+000	5.49635E-003	3.59960E-001	-1.14009E+000	3.57750E+000	10	...........
	44	0.6	9.22989E-001	5.99176E-003	0.00000E+000	5.53033E-003	3.59960E-001	-1.12981E+000	3.57750E+000	10	...........
	45	0.613333	9.28980E-001	5.99688E-003	0.00000E+000	5.57098E-003	3.59960E-001	-1.12960E+000	3.57750E+000	10	...........
	46	0.626667	9.34890E-001	5.99660E-003	0.00000E+000	5.60616E-003	3.59960E-001	-1.13957E+000	3.57750E+000	10	...........
	47	0.64	9.40787E-001	5.99573E-003	0.00000E+000	5.64071E-003	3.59960E-001	-1.12929E+000	3.57750E+000	10	...........
	48	0.653333	9.46690E-001	5.99629E-003	0.00000E+000	5.67664E-003	3.59960E-001	-1.12919E+000	3.57750E+000	10	...........
	49	0.666667	9.52513E-001	5.99682E-003	0.00000E+000	5.71204E-003	3.59960E-001	-1.13917E+000	3.57750E+000	10	...........
	50	0.68	9.58300E-001	5.99385E-003	0.00000E+000	5.74391E-003	3.59960E-001	-1.12878E+000	3.57750E+000	10	...........
	51	0.693333	9.64017E-001	5.99186E-003	0.00000E+000	5.77626E-003	3.59960E-001	-1.12896E+000	3.57750E+000	10	...........
	52	0.706667	9.69702E-001	5.99110E-003	0.00000E+000	5.80958E-003	3.59960E-001	-1.13934E+000	3.57750E+000	10	...........
	53	0.72	9.75414E-001	5.99105E-003	0.00000E+000	5.84375E-003	3.59960E-001	-1.12911E+000	3.57750E+000	10	...........
	54	0.733333	9.81056E-001	5.99404E-003	0.00000E+000	5.88049E-003	3.59960E-001	-1.12921E+000	3.57750E+000	10	...........
	55	0.746667	9.86630E-001	5.99268E-003	0.00000E+000	5.91255E-003	3.59960E-001	-1.13909E+000	3.57750E+000	10	...........
	56	0.76	9.92115E-001	5.99345E-003	0.00000E+000	5.94619E-003	3.59960E-001	-1.12890E+000	3.57750E+000	10	...........
	57	0.773333	9.97601E-001	5.99266E-003	0.00000E+000	5.97829E-003	3.59960E-001	-1.12926E+000	3.57750E+000	10	...........
	58	0.775	1.00065E+000	6.00364E-003	0.00000E+000	6.00757E-003	3.59960E-001	-1.13070E+000	3.57750E+000	10	...........
STARTTIMEOFFSET	QUANT	859.0286	Start Time Offset (s)