File: Data/CV_CRGO300517_1/PWRCCD_CRGO300517_1/CHARGE_DISCHARGE/CHARGE_#43.DTA
EXPLAIN
TAG	PWR800_CHARGE
TITLE	LABEL	PWR Cyclic Charge Discharge (Cell) - Charge Step	Test &Identifier
DATE	LABEL	22-6-2017	Date
TIME	LABEL	15:36:57	Time
NOTES	NOTES	3	&Notes...
	supercap test cell
	0.6mg
	6M KOH
PSTAT	PSTAT	IFC5000-01520	Potentiostat
CAPACITY	QUANT	1.00000E-003	Capacity (A-hr)
CELLTYPE	SELECTOR	1	&Cell Type
WORKINGCONNECTION	SELECTOR	0	&Working Lead
MAXCHARGETIME	VARIABLEANDUNITS	1.00000E+002	s	1.00000E+002	second(s)	Max &Charge Time
CHARGECURRENT	QUANT	6.00000E-003	&Charge Current (A)
VOLTAGEFINISH	TWOPARAM	F	1.00000E-003	3.60000E+003	&Voltage Finish	 I (A) < 	Max Time(s)
SAMPLETIME	QUANT	1.00000E-002	Sa&mple Period (s)
CHARGESTOPAT1	MULTIPARAM	4	1.00000E+000	Charge Stop At &1	Voltage > Limit	V
CHARGESTOPAT2	MULTIPARAM	0	0.00000E+000	Charge Stop At &2	None	N/A
AESBHCSELECTOR	TOGGLE	F	Save Both Half Cells
IRCOMP	TOGGLE	F	IR &Measure
EOC	QUANT	0	Open Circuit (V)
SEQUENCER	TOGGLE	TRUE	Run as Sequence
PSTATMODEL	IQUANT	53	Pstat Model
PSTATSECTION	LABEL	IFC5000-01520	Pstat Section
PSTATSERIALNO	LABEL	01520	Pstat Serial Number
CTRLMODE	IQUANT	0	Control Mode
ELECTROMETER	IQUANT	1	RE=0 or CS=1
IESTAB	IQUANT	0	I/E Stability
CASPEED	IQUANT	4	Control Amp Speed
CONVENTION	IQUANT	1	Current Convention
ICHRANGE	IQUANT	2	Ich Range
ICHRANGEMODE	TOGGLE	T	Ich Auto Range
ICHOFFSETENABLE	TOGGLE	F	Ich Offset Enable
ICHOFFSET	QUANT	0	Ich Offset (V)
ICHFILTER	IQUANT	1	Ich Filter
VCHRANGE	IQUANT	2	Vch Range
VCHRANGEMODE	TOGGLE	T	Vch Auto Range
VCHOFFSETENABLE	TOGGLE	F	Vch Offset Enable
VCHOFFSET	QUANT	0	Vch Offset (V)
VCHFILTER	IQUANT	1	Vch Filter
IERANGELOWERLIMIT	IQUANT	9	I/E Range Lower Limit
IERANGEMODE	TOGGLE	F	I/E AutoRange
IERANGE	IQUANT	10	I/E Range
ACHSELECT	IQUANT	1	Ach Select
ACHRANGE	IQUANT	2	Ach Range
ACHOFFSETENABLE	TOGGLE	F	Ach Offset Enable
ACHOFFSET	QUANT	0	Ach Offset (V)
ACHFILTER	IQUANT	1	Ach Filter
CABLEID	IQUANT	14	Cable ID
DCCALDATE	LABEL	20-10-2016	DC Calibration Date
ACCALDATE	LABEL	12/3/2015	AC Calibration Date
FRAMEWORKVERSION	QUANT	7.01	Framework Version
INSTRUMENTVERSION	LABEL	4.00	Instrument Version
CURVE	TABLE	75
	Pt	T	Vf	Im	Vu	Pwr	Sig	Ach	Temp	IERange	Over
	#	s	V	A	V	W	V	V	deg C	#	bits
	0	0.013333	5.71389E-001	5.99351E-003	0.00000E+000	3.42463E-003	3.59960E-001	-1.04082E+000	3.57720E+000	10	...........
	1	0.026667	5.79442E-001	5.99545E-003	0.00000E+000	3.47402E-003	3.59960E-001	-1.03050E+000	3.57735E+000	10	...........
	2	0.04	5.86895E-001	5.99747E-003	0.00000E+000	3.51989E-003	3.59960E-001	-1.03587E+000	3.57740E+000	10	...........
	3	0.053333	5.93886E-001	5.99586E-003	0.00000E+000	3.56086E-003	3.59960E-001	-1.04087E+000	3.57740E+000	10	...........
	4	0.066667	6.00634E-001	5.99229E-003	0.00000E+000	3.59917E-003	3.59960E-001	-1.03068E+000	3.57740E+000	10	...........
	5	0.08	6.07179E-001	5.99473E-003	0.00000E+000	3.63987E-003	3.59960E-001	-1.03578E+000	3.57740E+000	10	...........
	6	0.093333	6.13616E-001	5.99627E-003	0.00000E+000	3.67941E-003	3.59960E-001	-1.04068E+000	3.57740E+000	10	...........
	7	0.106667	6.19937E-001	5.99422E-003	0.00000E+000	3.71604E-003	3.59960E-001	-1.03061E+000	3.57740E+000	10	...........
	8	0.12	6.26116E-001	5.99569E-003	0.00000E+000	3.75400E-003	3.59960E-001	-1.03576E+000	3.57740E+000	10	...........
	9	0.133333	6.32219E-001	5.99414E-003	0.00000E+000	3.78961E-003	3.59960E-001	-1.04085E+000	3.57740E+000	10	...........
	10	0.146667	6.38300E-001	5.99494E-003	0.00000E+000	3.82657E-003	3.59960E-001	-1.03057E+000	3.57740E+000	10	...........
	11	0.16	6.44345E-001	5.99712E-003	0.00000E+000	3.86421E-003	3.59960E-001	-1.03553E+000	3.57740E+000	10	...........
	12	0.173333	6.50270E-001	5.99599E-003	0.00000E+000	3.89901E-003	3.59960E-001	-1.04072E+000	3.57740E+000	10	...........
	13	0.186667	6.56152E-001	5.99056E-003	0.00000E+000	3.93072E-003	3.59960E-001	-1.03070E+000	3.57740E+000	10	...........
	14	0.2	6.62052E-001	5.99450E-003	0.00000E+000	3.96867E-003	3.59960E-001	-1.03560E+000	3.57740E+000	10	...........
	15	0.213333	6.67971E-001	5.99387E-003	0.00000E+000	4.00374E-003	3.59960E-001	-1.04075E+000	3.57740E+000	10	...........
	16	0.226667	6.73832E-001	5.99239E-003	0.00000E+000	4.03787E-003	3.59960E-001	-1.03000E+000	3.57740E+000	10	...........
	17	0.24	6.79632E-001	5.99344E-003	0.00000E+000	4.07333E-003	3.59960E-001	-1.03481E+000	3.57740E+000	10	...........
	18	0.253333	6.85440E-001	5.99523E-003	0.00000E+000	4.10937E-003	3.59960E-001	-1.04053E+000	3.57740E+000	10	...........
	19	0.266667	6.91271E-001	5.99051E-003	0.00000E+000	4.14106E-003	3.59960E-001	-1.03015E+000	3.57740E+000	10	...........
	20	0.28	6.97034E-001	5.99193E-003	0.00000E+000	4.17659E-003	3.59960E-001	-1.03490E+000	3.57740E+000	10	...........
	21	0.293333	7.02789E-001	5.99371E-003	0.00000E+000	4.21231E-003	3.59960E-001	-1.04027E+000	3.57740E+000	10	...........
	22	0.306667	7.08512E-001	5.99560E-003	0.00000E+000	4.24795E-003	3.59960E-001	-1.02977E+000	3.57740E+000	10	...........
	23	0.32	7.14261E-001	5.99407E-003	0.00000E+000	4.28133E-003	3.59960E-001	-1.03492E+000	3.57740E+000	10	...........
	24	0.333333	7.20093E-001	5.99566E-003	0.00000E+000	4.31743E-003	3.59960E-001	-1.04077E+000	3.57740E+000	10	...........
	25	0.346667	7.25793E-001	5.99175E-003	0.00000E+000	4.34877E-003	3.59960E-001	-1.03008E+000	3.57740E+000	10	...........
	26	0.36	7.31522E-001	5.99216E-003	0.00000E+000	4.38340E-003	3.59960E-001	-1.03462E+000	3.57740E+000	10	...........
	27	0.373333	7.37267E-001	5.99642E-003	0.00000E+000	4.42096E-003	3.59960E-001	-1.04057E+000	3.57740E+000	10	...........
	28	0.386667	7.43011E-001	5.99831E-003	0.00000E+000	4.45681E-003	3.59960E-001	-1.03007E+000	3.57740E+000	10	...........
	29	0.4	7.48709E-001	5.99572E-003	0.00000E+000	4.48905E-003	3.59960E-001	-1.03473E+000	3.57740E+000	10	...........
	30	0.413333	7.54433E-001	5.99229E-003	0.00000E+000	4.52078E-003	3.59960E-001	-1.04035E+000	3.57740E+000	10	...........
	31	0.426667	7.60150E-001	5.99071E-003	0.00000E+000	4.55384E-003	3.59960E-001	-1.03003E+000	3.57740E+000	10	...........
	32	0.44	7.65812E-001	5.99352E-003	0.00000E+000	4.58991E-003	3.59960E-001	-1.03448E+000	3.57740E+000	10	...........
	33	0.453333	7.71514E-001	5.99176E-003	0.00000E+000	4.62273E-003	3.59960E-001	-1.04063E+000	3.57740E+000	10	...........
	34	0.466667	7.77192E-001	5.99384E-003	0.00000E+000	4.65837E-003	3.59960E-001	-1.03006E+000	3.57740E+000	10	...........
	35	0.48	7.82899E-001	5.99382E-003	0.00000E+000	4.69256E-003	3.59960E-001	-1.03454E+000	3.57740E+000	10	...........
	36	0.493333	7.88610E-001	5.99496E-003	0.00000E+000	4.72768E-003	3.59960E-001	-1.04068E+000	3.57740E+000	10	...........
	37	0.506667	7.94367E-001	5.99748E-003	0.00000E+000	4.76420E-003	3.59960E-001	-1.02995E+000	3.57740E+000	10	...........
	38	0.52	7.99999E-001	5.99345E-003	0.00000E+000	4.79475E-003	3.59960E-001	-1.03446E+000	3.57740E+000	10	...........
	39	0.533333	8.05705E-001	5.99591E-003	0.00000E+000	4.83093E-003	3.59960E-001	-1.04067E+000	3.57740E+000	10	...........
	40	0.546667	8.11454E-001	5.99180E-003	0.00000E+000	4.86207E-003	3.59960E-001	-1.02981E+000	3.57740E+000	10	...........
	41	0.56	8.17140E-001	5.99577E-003	0.00000E+000	4.89939E-003	3.59960E-001	-1.03392E+000	3.57740E+000	10	...........
	42	0.573333	8.22820E-001	5.99361E-003	0.00000E+000	4.93166E-003	3.59960E-001	-1.04035E+000	3.57740E+000	10	...........
	43	0.586667	8.28517E-001	5.99381E-003	0.00000E+000	4.96597E-003	3.59960E-001	-1.02939E+000	3.57740E+000	10	...........
	44	0.6	8.34180E-001	5.99467E-003	0.00000E+000	5.00063E-003	3.59960E-001	-1.03401E+000	3.57740E+000	10	...........
	45	0.613333	8.39881E-001	5.99385E-003	0.00000E+000	5.03412E-003	3.59960E-001	-1.04055E+000	3.57740E+000	10	...........
	46	0.626667	8.45623E-001	5.99204E-003	0.00000E+000	5.06701E-003	3.59960E-001	-1.02957E+000	3.57740E+000	10	...........
	47	0.64	8.51315E-001	5.99107E-003	0.00000E+000	5.10029E-003	3.59960E-001	-1.03370E+000	3.57740E+000	10	...........
	48	0.653333	8.56996E-001	5.99330E-003	0.00000E+000	5.13624E-003	3.59960E-001	-1.04040E+000	3.57740E+000	10	...........
	49	0.666667	8.62654E-001	5.99596E-003	0.00000E+000	5.17244E-003	3.59960E-001	-1.02985E+000	3.57740E+000	10	...........
	50	0.68	8.68352E-001	5.99268E-003	0.00000E+000	5.20375E-003	3.59960E-001	-1.03378E+000	3.57740E+000	10	...........
	51	0.693333	8.74049E-001	5.99439E-003	0.00000E+000	5.23939E-003	3.59960E-001	-1.04012E+000	3.57740E+000	10	...........
	52	0.706667	8.79687E-001	5.99149E-003	0.00000E+000	5.27063E-003	3.59960E-001	-1.02930E+000	3.57740E+000	10	...........
	53	0.72	8.85359E-001	5.99289E-003	0.00000E+000	5.30586E-003	3.59960E-001	-1.03392E+000	3.57740E+000	10	...........
	54	0.733333	8.91001E-001	5.99590E-003	0.00000E+000	5.34235E-003	3.59960E-001	-1.04054E+000	3.57740E+000	10	...........
	55	0.746667	8.96659E-001	5.99379E-003	0.00000E+000	5.37439E-003	3.59960E-001	-1.02956E+000	3.57740E+000	10	...........
	56	0.76	9.02292E-001	5.99134E-003	0.00000E+000	5.40594E-003	3.59960E-001	-1.03363E+000	3.57740E+000	10	...........
	57	0.773333	9.07927E-001	5.99152E-003	0.00000E+000	5.43986E-003	3.59960E-001	-1.04031E+000	3.57740E+000	10	...........
	58	0.786667	9.13503E-001	5.99071E-003	0.00000E+000	5.47254E-003	3.59960E-001	-1.02976E+000	3.57740E+000	10	...........
	59	0.8	9.19140E-001	5.99535E-003	0.00000E+000	5.51056E-003	3.59960E-001	-1.03388E+000	3.57740E+000	10	...........
	60	0.813333	9.24749E-001	5.99513E-003	0.00000E+000	5.54398E-003	3.59960E-001	-1.04060E+000	3.57740E+000	10	...........
	61	0.826667	9.30356E-001	5.99190E-003	0.00000E+000	5.57460E-003	3.59960E-001	-1.02957E+000	3.57740E+000	10	...........
	62	0.84	9.35833E-001	5.99257E-003	0.00000E+000	5.60804E-003	3.59960E-001	-1.03350E+000	3.57740E+000	10	...........
	63	0.853333	9.41337E-001	5.99456E-003	0.00000E+000	5.64291E-003	3.59960E-001	-1.04052E+000	3.57740E+000	10	...........
	64	0.866667	9.46879E-001	5.99157E-003	0.00000E+000	5.67329E-003	3.59960E-001	-1.02937E+000	3.57740E+000	10	...........
	65	0.88	9.52381E-001	5.99523E-003	0.00000E+000	5.70975E-003	3.59960E-001	-1.03330E+000	3.57740E+000	10	...........
	66	0.893333	9.57852E-001	5.99321E-003	0.00000E+000	5.74061E-003	3.59960E-001	-1.04027E+000	3.57740E+000	10	...........
	67	0.906667	9.63290E-001	5.99507E-003	0.00000E+000	5.77500E-003	3.59960E-001	-1.02942E+000	3.57740E+000	10	...........
	68	0.92	9.68659E-001	5.99305E-003	0.00000E+000	5.80522E-003	3.59960E-001	-1.03341E+000	3.57740E+000	10	...........
	69	0.933333	9.74167E-001	5.99482E-003	0.00000E+000	5.83996E-003	3.59960E-001	-1.04038E+000	3.57740E+000	10	...........
	70	0.946667	9.79526E-001	5.99237E-003	0.00000E+000	5.86969E-003	3.59960E-001	-1.02924E+000	3.57740E+000	10	...........
	71	0.96	9.84883E-001	5.99851E-003	0.00000E+000	5.90783E-003	3.59960E-001	-1.03306E+000	3.57740E+000	10	...........
	72	0.97333	9.90200E-001	5.99833E-003	0.00000E+000	5.93955E-003	3.59960E-001	-1.04042E+000	3.57740E+000	10	...........
	73	0.98667	9.95445E-001	5.99414E-003	0.00000E+000	5.96683E-003	3.59960E-001	-1.02927E+000	3.57740E+000	10	...........
	74	0.99333	9.99429E-001	5.99093E-003	0.00000E+000	5.98751E-003	3.59960E-001	-1.04462E+000	3.57740E+000	10	...........
STARTTIMEOFFSET	QUANT	86.80833	Start Time Offset (s)