File: Data/CV_CRGO300517_1/PWRCCD_CRGO300517_1/CHARGE_DISCHARGE/CHARGE_#605.DTA
EXPLAIN
TAG	PWR800_CHARGE
TITLE	LABEL	PWR Cyclic Charge Discharge (Cell) - Charge Step	Test &Identifier
DATE	LABEL	22-6-2017	Date
TIME	LABEL	15:59:57	Time
NOTES	NOTES	3	&Notes...
	supercap test cell
	0.6mg
	6M KOH
PSTAT	PSTAT	IFC5000-01520	Potentiostat
CAPACITY	QUANT	1.00000E-003	Capacity (A-hr)
CELLTYPE	SELECTOR	1	&Cell Type
WORKINGCONNECTION	SELECTOR	0	&Working Lead
MAXCHARGETIME	VARIABLEANDUNITS	1.00000E+002	s	1.00000E+002	second(s)	Max &Charge Time
CHARGECURRENT	QUANT	6.00000E-003	&Charge Current (A)
VOLTAGEFINISH	TWOPARAM	F	1.00000E-003	3.60000E+003	&Voltage Finish	 I (A) < 	Max Time(s)
SAMPLETIME	QUANT	1.00000E-002	Sa&mple Period (s)
CHARGESTOPAT1	MULTIPARAM	4	1.00000E+000	Charge Stop At &1	Voltage > Limit	V
CHARGESTOPAT2	MULTIPARAM	0	0.00000E+000	Charge Stop At &2	None	N/A
AESBHCSELECTOR	TOGGLE	F	Save Both Half Cells
IRCOMP	TOGGLE	F	IR &Measure
EOC	QUANT	0	Open Circuit (V)
SEQUENCER	TOGGLE	TRUE	Run as Sequence
PSTATMODEL	IQUANT	53	Pstat Model
PSTATSECTION	LABEL	IFC5000-01520	Pstat Section
PSTATSERIALNO	LABEL	01520	Pstat Serial Number
CTRLMODE	IQUANT	0	Control Mode
ELECTROMETER	IQUANT	1	RE=0 or CS=1
IESTAB	IQUANT	0	I/E Stability
CASPEED	IQUANT	4	Control Amp Speed
CONVENTION	IQUANT	1	Current Convention
ICHRANGE	IQUANT	2	Ich Range
ICHRANGEMODE	TOGGLE	T	Ich Auto Range
ICHOFFSETENABLE	TOGGLE	F	Ich Offset Enable
ICHOFFSET	QUANT	0	Ich Offset (V)
ICHFILTER	IQUANT	1	Ich Filter
VCHRANGE	IQUANT	2	Vch Range
VCHRANGEMODE	TOGGLE	T	Vch Auto Range
VCHOFFSETENABLE	TOGGLE	F	Vch Offset Enable
VCHOFFSET	QUANT	0	Vch Offset (V)
VCHFILTER	IQUANT	1	Vch Filter
IERANGELOWERLIMIT	IQUANT	9	I/E Range Lower Limit
IERANGEMODE	TOGGLE	F	I/E AutoRange
IERANGE	IQUANT	10	I/E Range
ACHSELECT	IQUANT	1	Ach Select
ACHRANGE	IQUANT	2	Ach Range
ACHOFFSETENABLE	TOGGLE	F	Ach Offset Enable
ACHOFFSET	QUANT	0	Ach Offset (V)
ACHFILTER	IQUANT	1	Ach Filter
CABLEID	IQUANT	14	Cable ID
DCCALDATE	LABEL	20-10-2016	DC Calibration Date
ACCALDATE	LABEL	12/3/2015	AC Calibration Date
FRAMEWORKVERSION	QUANT	7.01	Framework Version
INSTRUMENTVERSION	LABEL	4.00	Instrument Version
CURVE	TABLE	57
	Pt	T	Vf	Im	Vu	Pwr	Sig	Ach	Temp	IERange	Over
	#	s	V	A	V	W	V	V	deg C	#	bits
	0	0.013333	6.38837E-001	5.99541E-003	0.00000E+000	3.83009E-003	3.59960E-001	-1.14727E+000	3.57700E+000	10	...........
	1	0.026667	6.47855E-001	5.99995E-003	0.00000E+000	3.88710E-003	3.59960E-001	-1.15809E+000	3.57700E+000	10	...........
	2	0.04	6.56097E-001	5.99030E-003	0.00000E+000	3.93021E-003	3.59960E-001	-1.14748E+000	3.57700E+000	10	...........
	3	0.053333	6.63984E-001	5.99715E-003	0.00000E+000	3.98201E-003	3.59960E-001	-1.14726E+000	3.57700E+000	10	...........
	4	0.066667	6.71541E-001	5.99198E-003	0.00000E+000	4.02386E-003	3.59960E-001	-1.15765E+000	3.57700E+000	10	...........
	5	0.08	6.78907E-001	5.99269E-003	0.00000E+000	4.06847E-003	3.59960E-001	-1.14741E+000	3.57700E+000	10	...........
	6	0.093333	6.86083E-001	5.98872E-003	0.00000E+000	4.10876E-003	3.59960E-001	-1.14710E+000	3.57700E+000	10	...........
	7	0.106667	6.93228E-001	5.99592E-003	0.00000E+000	4.15654E-003	3.59960E-001	-1.15788E+000	3.57700E+000	10	...........
	8	0.12	7.00206E-001	5.99302E-003	0.00000E+000	4.19635E-003	3.59960E-001	-1.14749E+000	3.57700E+000	10	...........
	9	0.133333	7.07147E-001	5.99561E-003	0.00000E+000	4.23977E-003	3.59960E-001	-1.14682E+000	3.57700E+000	10	...........
	10	0.146667	7.14016E-001	5.99118E-003	0.00000E+000	4.27780E-003	3.59960E-001	-1.15748E+000	3.57700E+000	10	...........
	11	0.16	7.20830E-001	5.99510E-003	0.00000E+000	4.32144E-003	3.59960E-001	-1.14744E+000	3.57700E+000	10	...........
	12	0.173333	7.27648E-001	5.98846E-003	0.00000E+000	4.35749E-003	3.59960E-001	-1.14678E+000	3.57700E+000	10	...........
	13	0.186667	7.34388E-001	5.99342E-003	0.00000E+000	4.40149E-003	3.59960E-001	-1.15751E+000	3.57700E+000	10	...........
	14	0.2	7.41160E-001	5.99117E-003	0.00000E+000	4.44042E-003	3.59960E-001	-1.14750E+000	3.57700E+000	10	...........
	15	0.213333	7.47878E-001	5.99035E-003	0.00000E+000	4.48005E-003	3.59960E-001	-1.14658E+000	3.57700E+000	10	...........
	16	0.226667	7.54528E-001	5.99136E-003	0.00000E+000	4.52065E-003	3.59960E-001	-1.15764E+000	3.57700E+000	10	...........
	17	0.24	7.61184E-001	5.99643E-003	0.00000E+000	4.56439E-003	3.59960E-001	-1.14769E+000	3.57700E+000	10	...........
	18	0.253333	7.67771E-001	5.99142E-003	0.00000E+000	4.60004E-003	3.59960E-001	-1.14665E+000	3.57700E+000	10	...........
	19	0.266667	7.74353E-001	5.99086E-003	0.00000E+000	4.63904E-003	3.59960E-001	-1.15739E+000	3.57700E+000	10	...........
	20	0.28	7.80933E-001	5.99392E-003	0.00000E+000	4.68085E-003	3.59960E-001	-1.14765E+000	3.57700E+000	10	...........
	21	0.293333	7.87512E-001	5.99245E-003	0.00000E+000	4.71912E-003	3.59960E-001	-1.14669E+000	3.57700E+000	10	...........
	22	0.306667	7.94083E-001	5.99735E-003	0.00000E+000	4.76239E-003	3.59960E-001	-1.15738E+000	3.57700E+000	10	...........
	23	0.32	8.00618E-001	5.99404E-003	0.00000E+000	4.79894E-003	3.59960E-001	-1.14724E+000	3.57700E+000	10	...........
	24	0.333333	8.07139E-001	5.99136E-003	0.00000E+000	4.83586E-003	3.59960E-001	-1.14588E+000	3.57700E+000	10	...........
	25	0.346667	8.13595E-001	5.99433E-003	0.00000E+000	4.87696E-003	3.59960E-001	-1.15698E+000	3.57700E+000	10	...........
	26	0.36	8.20072E-001	5.99322E-003	0.00000E+000	4.91487E-003	3.59960E-001	-1.14736E+000	3.57700E+000	10	...........
	27	0.373333	8.26499E-001	5.99528E-003	0.00000E+000	4.95509E-003	3.59960E-001	-1.14612E+000	3.57700E+000	10	...........
	28	0.386667	8.32956E-001	5.99500E-003	0.00000E+000	4.99357E-003	3.59960E-001	-1.15718E+000	3.57700E+000	10	...........
	29	0.4	8.39361E-001	5.98813E-003	0.00000E+000	5.02620E-003	3.59960E-001	-1.14754E+000	3.57700E+000	10	...........
	30	0.413333	8.45798E-001	5.99048E-003	0.00000E+000	5.06674E-003	3.59960E-001	-1.14597E+000	3.57700E+000	10	...........
	31	0.426667	8.52211E-001	5.99614E-003	0.00000E+000	5.10997E-003	3.59960E-001	-1.15704E+000	3.57700E+000	10	...........
	32	0.44	8.58547E-001	5.99435E-003	0.00000E+000	5.14643E-003	3.59960E-001	-1.14765E+000	3.57700E+000	10	...........
	33	0.453333	8.64880E-001	5.99392E-003	0.00000E+000	5.18402E-003	3.59960E-001	-1.14596E+000	3.57690E+000	10	...........
	34	0.466667	8.71203E-001	5.99328E-003	0.00000E+000	5.22136E-003	3.59960E-001	-1.15699E+000	3.57660E+000	10	...........
	35	0.48	8.77486E-001	5.99302E-003	0.00000E+000	5.25879E-003	3.59960E-001	-1.14767E+000	3.57660E+000	10	...........
	36	0.493333	8.83742E-001	5.99155E-003	0.00000E+000	5.29498E-003	3.59960E-001	-1.14592E+000	3.57660E+000	10	...........
	37	0.506667	8.89948E-001	5.99289E-003	0.00000E+000	5.33337E-003	3.59960E-001	-1.15690E+000	3.57660E+000	10	...........
	38	0.52	8.96139E-001	5.98973E-003	0.00000E+000	5.36764E-003	3.59960E-001	-1.14776E+000	3.57660E+000	10	...........
	39	0.533333	9.02285E-001	5.99130E-003	0.00000E+000	5.40586E-003	3.59960E-001	-1.14576E+000	3.57660E+000	10	...........
	40	0.546667	9.08465E-001	5.99708E-003	0.00000E+000	5.44814E-003	3.59960E-001	-1.15691E+000	3.57660E+000	10	...........
	41	0.56	9.14531E-001	5.99270E-003	0.00000E+000	5.48051E-003	3.59960E-001	-1.14796E+000	3.57660E+000	10	...........
	42	0.573333	9.20672E-001	5.98904E-003	0.00000E+000	5.51394E-003	3.59960E-001	-1.14600E+000	3.57660E+000	10	...........
	43	0.586667	9.26719E-001	5.99711E-003	0.00000E+000	5.55764E-003	3.59960E-001	-1.15686E+000	3.57660E+000	10	...........
	44	0.6	9.32690E-001	5.99523E-003	0.00000E+000	5.59169E-003	3.59960E-001	-1.14781E+000	3.57660E+000	10	...........
	45	0.613333	9.38681E-001	5.99843E-003	0.00000E+000	5.63062E-003	3.59960E-001	-1.14567E+000	3.57660E+000	10	...........
	46	0.626667	9.44606E-001	5.99342E-003	0.00000E+000	5.66142E-003	3.59960E-001	-1.15647E+000	3.57660E+000	10	...........
	47	0.64	9.50499E-001	5.99712E-003	0.00000E+000	5.70026E-003	3.59960E-001	-1.14770E+000	3.57660E+000	10	...........
	48	0.653333	9.56354E-001	5.99235E-003	0.00000E+000	5.73081E-003	3.59960E-001	-1.14539E+000	3.57660E+000	10	...........
	49	0.666667	9.62117E-001	5.99379E-003	0.00000E+000	5.76673E-003	3.59960E-001	-1.15636E+000	3.57660E+000	10	...........
	50	0.68	9.67876E-001	5.99112E-003	0.00000E+000	5.79866E-003	3.59960E-001	-1.14779E+000	3.57660E+000	10	...........
	51	0.693333	9.73657E-001	5.99791E-003	0.00000E+000	5.83991E-003	3.59960E-001	-1.14526E+000	3.57660E+000	10	...........
	52	0.706667	9.79330E-001	5.98980E-003	0.00000E+000	5.86599E-003	3.59960E-001	-1.15646E+000	3.57660E+000	10	...........
	53	0.72	9.84930E-001	5.99472E-003	0.00000E+000	5.90438E-003	3.59960E-001	-1.14780E+000	3.57660E+000	10	...........
	54	0.733333	9.90467E-001	5.98873E-003	0.00000E+000	5.93164E-003	3.59960E-001	-1.14526E+000	3.57660E+000	10	...........
	55	0.746667	9.95979E-001	5.99581E-003	0.00000E+000	5.97170E-003	3.59960E-001	-1.15620E+000	3.57660E+000	10	...........
	56	0.751667	9.99707E-001	5.99407E-003	0.00000E+000	5.99231E-003	3.59960E-001	-1.13403E+000	3.57660E+000	10	...........
STARTTIMEOFFSET	QUANT	1018.432	Start Time Offset (s)