File: Data/CV_CRGO300517_1/PWRCCD_CRGO300517_1/CHARGE_DISCHARGE/CHARGE_#9.DTA
EXPLAIN
TAG	PWR800_CHARGE
TITLE	LABEL	PWR Cyclic Charge Discharge (Cell) - Charge Step	Test &Identifier
DATE	LABEL	22-6-2017	Date
TIME	LABEL	15:35:20	Time
NOTES	NOTES	3	&Notes...
	supercap test cell
	0.6mg
	6M KOH
PSTAT	PSTAT	IFC5000-01520	Potentiostat
CAPACITY	QUANT	1.00000E-003	Capacity (A-hr)
CELLTYPE	SELECTOR	1	&Cell Type
WORKINGCONNECTION	SELECTOR	0	&Working Lead
MAXCHARGETIME	VARIABLEANDUNITS	1.00000E+002	s	1.00000E+002	second(s)	Max &Charge Time
CHARGECURRENT	QUANT	6.00000E-003	&Charge Current (A)
VOLTAGEFINISH	TWOPARAM	F	1.00000E-003	3.60000E+003	&Voltage Finish	 I (A) < 	Max Time(s)
SAMPLETIME	QUANT	1.00000E-002	Sa&mple Period (s)
CHARGESTOPAT1	MULTIPARAM	4	1.00000E+000	Charge Stop At &1	Voltage > Limit	V
CHARGESTOPAT2	MULTIPARAM	0	0.00000E+000	Charge Stop At &2	None	N/A
AESBHCSELECTOR	TOGGLE	F	Save Both Half Cells
IRCOMP	TOGGLE	F	IR &Measure
EOC	QUANT	0	Open Circuit (V)
SEQUENCER	TOGGLE	TRUE	Run as Sequence
PSTATMODEL	IQUANT	53	Pstat Model
PSTATSECTION	LABEL	IFC5000-01520	Pstat Section
PSTATSERIALNO	LABEL	01520	Pstat Serial Number
CTRLMODE	IQUANT	0	Control Mode
ELECTROMETER	IQUANT	1	RE=0 or CS=1
IESTAB	IQUANT	0	I/E Stability
CASPEED	IQUANT	4	Control Amp Speed
CONVENTION	IQUANT	1	Current Convention
ICHRANGE	IQUANT	2	Ich Range
ICHRANGEMODE	TOGGLE	T	Ich Auto Range
ICHOFFSETENABLE	TOGGLE	F	Ich Offset Enable
ICHOFFSET	QUANT	0	Ich Offset (V)
ICHFILTER	IQUANT	1	Ich Filter
VCHRANGE	IQUANT	2	Vch Range
VCHRANGEMODE	TOGGLE	T	Vch Auto Range
VCHOFFSETENABLE	TOGGLE	F	Vch Offset Enable
VCHOFFSET	QUANT	0	Vch Offset (V)
VCHFILTER	IQUANT	1	Vch Filter
IERANGELOWERLIMIT	IQUANT	9	I/E Range Lower Limit
IERANGEMODE	TOGGLE	F	I/E AutoRange
IERANGE	IQUANT	10	I/E Range
ACHSELECT	IQUANT	1	Ach Select
ACHRANGE	IQUANT	2	Ach Range
ACHOFFSETENABLE	TOGGLE	F	Ach Offset Enable
ACHOFFSET	QUANT	0	Ach Offset (V)
ACHFILTER	IQUANT	1	Ach Filter
CABLEID	IQUANT	14	Cable ID
DCCALDATE	LABEL	20-10-2016	DC Calibration Date
ACCALDATE	LABEL	12/3/2015	AC Calibration Date
FRAMEWORKVERSION	QUANT	7.01	Framework Version
INSTRUMENTVERSION	LABEL	4.00	Instrument Version
CURVE	TABLE	81
	Pt	T	Vf	Im	Vu	Pwr	Sig	Ach	Temp	IERange	Over
	#	s	V	A	V	W	V	V	deg C	#	bits
	0	0.013333	5.53797E-001	5.99363E-003	0.00000E+000	3.31925E-003	3.59960E-001	-1.00613E+000	3.57750E+000	10	...........
	1	0.026667	5.61749E-001	5.99900E-003	0.00000E+000	3.36993E-003	3.59960E-001	-1.01606E+000	3.57750E+000	10	...........
	2	0.04	5.69010E-001	5.99185E-003	0.00000E+000	3.40942E-003	3.59960E-001	-1.01135E+000	3.57750E+000	10	...........
	3	0.053333	5.75847E-001	5.99373E-003	0.00000E+000	3.45147E-003	3.59960E-001	-1.00613E+000	3.57750E+000	10	...........
	4	0.066667	5.82421E-001	5.99225E-003	0.00000E+000	3.49001E-003	3.59960E-001	-1.01598E+000	3.57750E+000	10	...........
	5	0.08	5.88848E-001	5.99348E-003	0.00000E+000	3.52925E-003	3.59960E-001	-1.01131E+000	3.57750E+000	10	...........
	6	0.093333	5.95097E-001	5.99479E-003	0.00000E+000	3.56748E-003	3.59960E-001	-1.00581E+000	3.57750E+000	10	...........
	7	0.106667	6.01194E-001	5.99785E-003	0.00000E+000	3.60587E-003	3.59960E-001	-1.01566E+000	3.57750E+000	10	...........
	8	0.12	6.07190E-001	5.99151E-003	0.00000E+000	3.63798E-003	3.59960E-001	-1.01143E+000	3.57750E+000	10	...........
	9	0.133333	6.13206E-001	5.99257E-003	0.00000E+000	3.67468E-003	3.59960E-001	-1.00601E+000	3.57750E+000	10	...........
	10	0.146667	6.19088E-001	5.99415E-003	0.00000E+000	3.71090E-003	3.59960E-001	-1.01556E+000	3.57750E+000	10	...........
	11	0.16	6.24960E-001	5.99709E-003	0.00000E+000	3.74794E-003	3.59960E-001	-1.01142E+000	3.57750E+000	10	...........
	12	0.173333	6.30717E-001	5.99125E-003	0.00000E+000	3.77878E-003	3.59960E-001	-1.00589E+000	3.57750E+000	10	...........
	13	0.186667	6.36455E-001	5.99164E-003	0.00000E+000	3.81341E-003	3.59960E-001	-1.01565E+000	3.57750E+000	10	...........
	14	0.2	6.42183E-001	5.99126E-003	0.00000E+000	3.84748E-003	3.59960E-001	-1.01160E+000	3.57750E+000	10	...........
	15	0.213333	6.47848E-001	5.99167E-003	0.00000E+000	3.88169E-003	3.59960E-001	-1.00621E+000	3.57750E+000	10	...........
	16	0.226667	6.53503E-001	5.98974E-003	0.00000E+000	3.91432E-003	3.59960E-001	-1.01553E+000	3.57750E+000	10	...........
	17	0.24	6.59118E-001	5.99621E-003	0.00000E+000	3.95221E-003	3.59960E-001	-1.01174E+000	3.57750E+000	10	...........
	18	0.253333	6.64744E-001	5.99476E-003	0.00000E+000	3.98498E-003	3.59960E-001	-1.00608E+000	3.57750E+000	10	...........
	19	0.266667	6.70326E-001	5.99325E-003	0.00000E+000	4.01743E-003	3.59960E-001	-1.01557E+000	3.57750E+000	10	...........
	20	0.28	6.75852E-001	5.99100E-003	0.00000E+000	4.04902E-003	3.59960E-001	-1.01142E+000	3.57750E+000	10	...........
	21	0.293333	6.81374E-001	5.99674E-003	0.00000E+000	4.08602E-003	3.59960E-001	-1.00574E+000	3.57750E+000	10	...........
	22	0.306667	6.86887E-001	5.99396E-003	0.00000E+000	4.11717E-003	3.59960E-001	-1.01502E+000	3.57750E+000	10	...........
	23	0.32	6.92444E-001	5.99634E-003	0.00000E+000	4.15213E-003	3.59960E-001	-1.01151E+000	3.57750E+000	10	...........
	24	0.333333	6.97957E-001	5.99227E-003	0.00000E+000	4.18235E-003	3.59960E-001	-1.00570E+000	3.57750E+000	10	...........
	25	0.346667	7.03504E-001	5.99392E-003	0.00000E+000	4.21675E-003	3.59960E-001	-1.01487E+000	3.57750E+000	10	...........
	26	0.36	7.08998E-001	5.99480E-003	0.00000E+000	4.25030E-003	3.59960E-001	-1.01156E+000	3.57750E+000	10	...........
	27	0.373333	7.14520E-001	5.99398E-003	0.00000E+000	4.28282E-003	3.59960E-001	-1.00550E+000	3.57750E+000	10	...........
	28	0.386667	7.20065E-001	5.99308E-003	0.00000E+000	4.31541E-003	3.59960E-001	-1.01477E+000	3.57750E+000	10	...........
	29	0.4	7.25519E-001	5.99200E-003	0.00000E+000	4.34731E-003	3.59960E-001	-1.01151E+000	3.57750E+000	10	...........
	30	0.413333	7.30992E-001	5.99215E-003	0.00000E+000	4.38022E-003	3.59960E-001	-1.00554E+000	3.57750E+000	10	...........
	31	0.426667	7.36479E-001	5.99217E-003	0.00000E+000	4.41311E-003	3.59960E-001	-1.01461E+000	3.57750E+000	10	...........
	32	0.44	7.41960E-001	5.99640E-003	0.00000E+000	4.44909E-003	3.59960E-001	-1.01139E+000	3.57750E+000	10	...........
	33	0.453333	7.47439E-001	5.99701E-003	0.00000E+000	4.48240E-003	3.59960E-001	-1.00571E+000	3.57750E+000	10	...........
	34	0.466667	7.52899E-001	5.99362E-003	0.00000E+000	4.51259E-003	3.59960E-001	-1.01456E+000	3.57750E+000	10	...........
	35	0.48	7.58405E-001	5.99217E-003	0.00000E+000	4.54449E-003	3.59960E-001	-1.01164E+000	3.57750E+000	10	...........
	36	0.493333	7.63855E-001	5.99553E-003	0.00000E+000	4.57972E-003	3.59960E-001	-1.00551E+000	3.57750E+000	10	...........
	37	0.506667	7.69361E-001	5.99416E-003	0.00000E+000	4.61167E-003	3.59960E-001	-1.01453E+000	3.57750E+000	10	...........
	38	0.52	7.74857E-001	5.99434E-003	0.00000E+000	4.64476E-003	3.59960E-001	-1.01193E+000	3.57750E+000	10	...........
	39	0.533333	7.80309E-001	5.99447E-003	0.00000E+000	4.67754E-003	3.59960E-001	-1.00557E+000	3.57750E+000	10	...........
	40	0.546667	7.85767E-001	5.99193E-003	0.00000E+000	4.70827E-003	3.59960E-001	-1.01435E+000	3.57750E+000	10	...........
	41	0.56	7.91234E-001	5.99444E-003	0.00000E+000	4.74301E-003	3.59960E-001	-1.01166E+000	3.57750E+000	10	...........
	42	0.573333	7.96708E-001	5.99349E-003	0.00000E+000	4.77506E-003	3.59960E-001	-1.00557E+000	3.57750E+000	10	...........
	43	0.586667	8.02198E-001	5.99550E-003	0.00000E+000	4.80958E-003	3.59960E-001	-1.01416E+000	3.57750E+000	10	...........
	44	0.6	8.07662E-001	5.99338E-003	0.00000E+000	4.84063E-003	3.59960E-001	-1.01140E+000	3.57750E+000	10	...........
	45	0.613333	8.13127E-001	5.99568E-003	0.00000E+000	4.87525E-003	3.59960E-001	-1.00507E+000	3.57750E+000	10	...........
	46	0.626667	8.18596E-001	5.99236E-003	0.00000E+000	4.90532E-003	3.59960E-001	-1.01367E+000	3.57750E+000	10	...........
	47	0.64	8.24071E-001	5.99214E-003	0.00000E+000	4.93795E-003	3.59960E-001	-1.01142E+000	3.57750E+000	10	...........
	48	0.653333	8.29512E-001	5.99510E-003	0.00000E+000	4.97301E-003	3.59960E-001	-1.00521E+000	3.57750E+000	10	...........
	49	0.666667	8.34973E-001	5.99428E-003	0.00000E+000	5.00506E-003	3.59960E-001	-1.01376E+000	3.57750E+000	10	...........
	50	0.68	8.40459E-001	5.99162E-003	0.00000E+000	5.03571E-003	3.59960E-001	-1.01137E+000	3.57750E+000	10	...........
	51	0.693333	8.45931E-001	5.99539E-003	0.00000E+000	5.07168E-003	3.59960E-001	-1.00485E+000	3.57750E+000	10	...........
	52	0.706667	8.51444E-001	5.99297E-003	0.00000E+000	5.10268E-003	3.59960E-001	-1.01359E+000	3.57750E+000	10	...........
	53	0.72	8.56909E-001	5.98994E-003	0.00000E+000	5.13283E-003	3.59960E-001	-1.01158E+000	3.57750E+000	10	...........
	54	0.733333	8.62384E-001	5.99552E-003	0.00000E+000	5.17044E-003	3.59960E-001	-1.00505E+000	3.57750E+000	10	...........
	55	0.746667	8.67868E-001	5.99450E-003	0.00000E+000	5.20243E-003	3.59960E-001	-1.01329E+000	3.57750E+000	10	...........
	56	0.76	8.73370E-001	5.99256E-003	0.00000E+000	5.23372E-003	3.59960E-001	-1.01139E+000	3.57750E+000	10	...........
	57	0.773333	8.78804E-001	5.99757E-003	0.00000E+000	5.27069E-003	3.59960E-001	-1.00483E+000	3.57750E+000	10	...........
	58	0.786667	8.84265E-001	5.99514E-003	0.00000E+000	5.30129E-003	3.59960E-001	-1.01334E+000	3.57750E+000	10	...........
	59	0.8	8.89701E-001	5.99363E-003	0.00000E+000	5.33254E-003	3.59960E-001	-1.01187E+000	3.57750E+000	10	...........
	60	0.813333	8.95149E-001	5.99140E-003	0.00000E+000	5.36320E-003	3.59960E-001	-1.00516E+000	3.57750E+000	10	...........
	61	0.826667	9.00610E-001	5.99231E-003	0.00000E+000	5.39673E-003	3.59960E-001	-1.01330E+000	3.57750E+000	10	...........
	62	0.84	9.06064E-001	5.99413E-003	0.00000E+000	5.43106E-003	3.59960E-001	-1.01185E+000	3.57750E+000	10	...........
	63	0.853333	9.11480E-001	5.99302E-003	0.00000E+000	5.46252E-003	3.59960E-001	-1.00507E+000	3.57750E+000	10	...........
	64	0.866667	9.16900E-001	5.99197E-003	0.00000E+000	5.49403E-003	3.59960E-001	-1.01359E+000	3.57750E+000	10	...........
	65	0.88	9.22390E-001	5.99405E-003	0.00000E+000	5.52886E-003	3.59960E-001	-1.01199E+000	3.57750E+000	10	...........
	66	0.893333	9.27767E-001	5.99470E-003	0.00000E+000	5.56169E-003	3.59960E-001	-1.00503E+000	3.57750E+000	10	...........
	67	0.906667	9.33143E-001	5.99255E-003	0.00000E+000	5.59191E-003	3.59960E-001	-1.01319E+000	3.57750E+000	10	...........
	68	0.92	9.38477E-001	5.99231E-003	0.00000E+000	5.62365E-003	3.59960E-001	-1.01186E+000	3.57795E+000	10	...........
	69	0.933333	9.43842E-001	5.99510E-003	0.00000E+000	5.65842E-003	3.59960E-001	-1.00463E+000	3.57870E+000	10	...........
	70	0.946667	9.49235E-001	5.99369E-003	0.00000E+000	5.68942E-003	3.59960E-001	-1.01270E+000	3.57870E+000	10	...........
	71	0.96	9.54570E-001	5.99314E-003	0.00000E+000	5.72087E-003	3.59960E-001	-1.01168E+000	3.57870E+000	10	...........
	72	0.97333	9.59889E-001	5.99525E-003	0.00000E+000	5.75478E-003	3.59960E-001	-1.00445E+000	3.57870E+000	10	...........
	73	0.98667	9.65182E-001	5.99123E-003	0.00000E+000	5.78263E-003	3.59960E-001	-1.01285E+000	3.57870E+000	10	...........
	74	1	9.70473E-001	5.99458E-003	0.00000E+000	5.81758E-003	3.59960E-001	-1.01190E+000	3.57870E+000	10	...........
	75	1.01333	9.75751E-001	5.99316E-003	0.00000E+000	5.84783E-003	3.59960E-001	-1.00476E+000	3.57870E+000	10	...........
	76	1.02667	9.80983E-001	5.99544E-003	0.00000E+000	5.88143E-003	3.59960E-001	-1.01257E+000	3.57870E+000	10	...........
	77	1.04	9.86203E-001	5.99322E-003	0.00000E+000	5.91053E-003	3.59960E-001	-1.01214E+000	3.57870E+000	10	...........
	78	1.05333	9.91363E-001	5.99442E-003	0.00000E+000	5.94265E-003	3.59960E-001	-1.00486E+000	3.57870E+000	10	...........
	79	1.06667	9.96539E-001	5.99326E-003	0.00000E+000	5.97252E-003	3.59960E-001	-1.01244E+000	3.57870E+000	10	...........
	80	1.07	9.99799E-001	5.98983E-003	0.00000E+000	5.98862E-003	3.59960E-001	-9.94116E-001	3.57870E+000	10	...........
STARTTIMEOFFSET	QUANT	17.52	Start Time Offset (s)