File: Data/CV_CRGO300517_1/PWRCCD_CRGO300517_1/CHARGE_DISCHARGE/CHARGE_#710.DTA
EXPLAIN
TAG	PWR800_CHARGE
TITLE	LABEL	PWR Cyclic Charge Discharge (Cell) - Charge Step	Test &Identifier
DATE	LABEL	22-6-2017	Date
TIME	LABEL	16:03:56	Time
NOTES	NOTES	3	&Notes...
	supercap test cell
	0.6mg
	6M KOH
PSTAT	PSTAT	IFC5000-01520	Potentiostat
CAPACITY	QUANT	1.00000E-003	Capacity (A-hr)
CELLTYPE	SELECTOR	1	&Cell Type
WORKINGCONNECTION	SELECTOR	0	&Working Lead
MAXCHARGETIME	VARIABLEANDUNITS	1.00000E+002	s	1.00000E+002	second(s)	Max &Charge Time
CHARGECURRENT	QUANT	6.00000E-003	&Charge Current (A)
VOLTAGEFINISH	TWOPARAM	F	1.00000E-003	3.60000E+003	&Voltage Finish	 I (A) < 	Max Time(s)
SAMPLETIME	QUANT	1.00000E-002	Sa&mple Period (s)
CHARGESTOPAT1	MULTIPARAM	4	1.00000E+000	Charge Stop At &1	Voltage > Limit	V
CHARGESTOPAT2	MULTIPARAM	0	0.00000E+000	Charge Stop At &2	None	N/A
AESBHCSELECTOR	TOGGLE	F	Save Both Half Cells
IRCOMP	TOGGLE	F	IR &Measure
EOC	QUANT	0	Open Circuit (V)
SEQUENCER	TOGGLE	TRUE	Run as Sequence
PSTATMODEL	IQUANT	53	Pstat Model
PSTATSECTION	LABEL	IFC5000-01520	Pstat Section
PSTATSERIALNO	LABEL	01520	Pstat Serial Number
CTRLMODE	IQUANT	0	Control Mode
ELECTROMETER	IQUANT	1	RE=0 or CS=1
IESTAB	IQUANT	0	I/E Stability
CASPEED	IQUANT	4	Control Amp Speed
CONVENTION	IQUANT	1	Current Convention
ICHRANGE	IQUANT	2	Ich Range
ICHRANGEMODE	TOGGLE	T	Ich Auto Range
ICHOFFSETENABLE	TOGGLE	F	Ich Offset Enable
ICHOFFSET	QUANT	0	Ich Offset (V)
ICHFILTER	IQUANT	1	Ich Filter
VCHRANGE	IQUANT	2	Vch Range
VCHRANGEMODE	TOGGLE	T	Vch Auto Range
VCHOFFSETENABLE	TOGGLE	F	Vch Offset Enable
VCHOFFSET	QUANT	0	Vch Offset (V)
VCHFILTER	IQUANT	1	Vch Filter
IERANGELOWERLIMIT	IQUANT	9	I/E Range Lower Limit
IERANGEMODE	TOGGLE	F	I/E AutoRange
IERANGE	IQUANT	10	I/E Range
ACHSELECT	IQUANT	1	Ach Select
ACHRANGE	IQUANT	2	Ach Range
ACHOFFSETENABLE	TOGGLE	F	Ach Offset Enable
ACHOFFSET	QUANT	0	Ach Offset (V)
ACHFILTER	IQUANT	1	Ach Filter
CABLEID	IQUANT	14	Cable ID
DCCALDATE	LABEL	20-10-2016	DC Calibration Date
ACCALDATE	LABEL	12/3/2015	AC Calibration Date
FRAMEWORKVERSION	QUANT	7.01	Framework Version
INSTRUMENTVERSION	LABEL	4.00	Instrument Version
CURVE	TABLE	56
	Pt	T	Vf	Im	Vu	Pwr	Sig	Ach	Temp	IERange	Over
	#	s	V	A	V	W	V	V	deg C	#	bits
	0	0.013333	6.43485E-001	5.99862E-003	0.00000E+000	3.86002E-003	3.59960E-001	-1.15608E+000	3.57650E+000	10	...........
	1	0.026667	6.52573E-001	5.99082E-003	0.00000E+000	3.90945E-003	3.59960E-001	-1.15819E+000	3.57660E+000	10	...........
	2	0.04	6.60972E-001	5.99155E-003	0.00000E+000	3.96025E-003	3.59960E-001	-1.14989E+000	3.57660E+000	10	...........
	3	0.053333	6.68904E-001	5.98994E-003	0.00000E+000	4.00670E-003	3.59960E-001	-1.15593E+000	3.57660E+000	10	...........
	4	0.066667	6.76524E-001	5.99403E-003	0.00000E+000	4.05511E-003	3.59960E-001	-1.15798E+000	3.57660E+000	10	...........
	5	0.08	6.83935E-001	5.99090E-003	0.00000E+000	4.09739E-003	3.59960E-001	-1.14992E+000	3.57660E+000	10	...........
	6	0.093333	6.91237E-001	5.99532E-003	0.00000E+000	4.14419E-003	3.59960E-001	-1.15588E+000	3.57660E+000	10	...........
	7	0.106667	6.98461E-001	5.99510E-003	0.00000E+000	4.18734E-003	3.59960E-001	-1.15756E+000	3.57660E+000	10	...........
	8	0.12	7.05604E-001	5.99317E-003	0.00000E+000	4.22880E-003	3.59960E-001	-1.14947E+000	3.57660E+000	10	...........
	9	0.133333	7.12617E-001	5.99236E-003	0.00000E+000	4.27026E-003	3.59960E-001	-1.15598E+000	3.57660E+000	10	...........
	10	0.146667	7.19625E-001	5.98865E-003	0.00000E+000	4.30958E-003	3.59960E-001	-1.15760E+000	3.57660E+000	10	...........
	11	0.16	7.26522E-001	5.99264E-003	0.00000E+000	4.35379E-003	3.59960E-001	-1.14951E+000	3.57660E+000	10	...........
	12	0.173333	7.33394E-001	5.99244E-003	0.00000E+000	4.39482E-003	3.59960E-001	-1.15601E+000	3.57660E+000	10	...........
	13	0.186667	7.40225E-001	5.99112E-003	0.00000E+000	4.43478E-003	3.59960E-001	-1.15714E+000	3.57660E+000	10	...........
	14	0.2	7.47010E-001	5.99494E-003	0.00000E+000	4.47828E-003	3.59960E-001	-1.14944E+000	3.57660E+000	10	...........
	15	0.213333	7.53772E-001	5.99537E-003	0.00000E+000	4.51914E-003	3.59960E-001	-1.15621E+000	3.57660E+000	10	...........
	16	0.226667	7.60522E-001	5.99029E-003	0.00000E+000	4.55574E-003	3.59960E-001	-1.15721E+000	3.57660E+000	10	...........
	17	0.24	7.67265E-001	5.99724E-003	0.00000E+000	4.60148E-003	3.59960E-001	-1.14927E+000	3.57660E+000	10	...........
	18	0.253333	7.73938E-001	5.99451E-003	0.00000E+000	4.63938E-003	3.59960E-001	-1.15602E+000	3.57660E+000	10	...........
	19	0.266667	7.80649E-001	5.99820E-003	0.00000E+000	4.68249E-003	3.59960E-001	-1.15700E+000	3.57660E+000	10	...........
	20	0.28	7.87288E-001	5.99148E-003	0.00000E+000	4.71702E-003	3.59960E-001	-1.14948E+000	3.57660E+000	10	...........
	21	0.293333	7.93925E-001	5.99124E-003	0.00000E+000	4.75659E-003	3.59960E-001	-1.15630E+000	3.57660E+000	10	...........
	22	0.306667	8.00499E-001	5.99244E-003	0.00000E+000	4.79694E-003	3.59960E-001	-1.15710E+000	3.57660E+000	10	...........
	23	0.32	8.07074E-001	5.99459E-003	0.00000E+000	4.83808E-003	3.59960E-001	-1.14934E+000	3.57660E+000	10	...........
	24	0.333333	8.13606E-001	5.99482E-003	0.00000E+000	4.87743E-003	3.59960E-001	-1.15659E+000	3.57660E+000	10	...........
	25	0.346667	8.20161E-001	5.99477E-003	0.00000E+000	4.91668E-003	3.59960E-001	-1.15708E+000	3.57660E+000	10	...........
	26	0.36	8.26685E-001	5.99198E-003	0.00000E+000	4.95348E-003	3.59960E-001	-1.14958E+000	3.57660E+000	10	...........
	27	0.373333	8.33169E-001	5.99367E-003	0.00000E+000	4.99373E-003	3.59960E-001	-1.15656E+000	3.57660E+000	10	...........
	28	0.386667	8.39656E-001	5.99166E-003	0.00000E+000	5.03094E-003	3.59960E-001	-1.15665E+000	3.57660E+000	10	...........
	29	0.4	8.46115E-001	5.99289E-003	0.00000E+000	5.07068E-003	3.59960E-001	-1.14926E+000	3.57660E+000	10	...........
	30	0.413333	8.52566E-001	5.99786E-003	0.00000E+000	5.11357E-003	3.59960E-001	-1.15663E+000	3.57660E+000	10	...........
	31	0.426667	8.58966E-001	5.99007E-003	0.00000E+000	5.14526E-003	3.59960E-001	-1.15643E+000	3.57660E+000	10	...........
	32	0.44	8.65373E-001	5.99626E-003	0.00000E+000	5.18900E-003	3.59960E-001	-1.14906E+000	3.57660E+000	10	...........
	33	0.453333	8.71770E-001	5.99576E-003	0.00000E+000	5.22693E-003	3.59960E-001	-1.15636E+000	3.57660E+000	10	...........
	34	0.466667	8.78081E-001	5.99412E-003	0.00000E+000	5.26332E-003	3.59960E-001	-1.15643E+000	3.57660E+000	10	...........
	35	0.48	8.84395E-001	5.99882E-003	0.00000E+000	5.30533E-003	3.59960E-001	-1.14959E+000	3.57660E+000	10	...........
	36	0.493333	8.90665E-001	5.99319E-003	0.00000E+000	5.33792E-003	3.59960E-001	-1.15673E+000	3.57660E+000	10	...........
	37	0.506667	8.96910E-001	5.99269E-003	0.00000E+000	5.37490E-003	3.59960E-001	-1.15644E+000	3.57660E+000	10	...........
	38	0.52	9.03077E-001	5.99159E-003	0.00000E+000	5.41087E-003	3.59960E-001	-1.14926E+000	3.57660E+000	10	...........
	39	0.533333	9.09298E-001	5.99645E-003	0.00000E+000	5.45256E-003	3.59960E-001	-1.15688E+000	3.57660E+000	10	...........
	40	0.546667	9.15421E-001	5.99517E-003	0.00000E+000	5.48811E-003	3.59960E-001	-1.15631E+000	3.57660E+000	10	...........
	41	0.56	9.21586E-001	6.00018E-003	0.00000E+000	5.52968E-003	3.59960E-001	-1.14918E+000	3.57660E+000	10	...........
	42	0.573333	9.27682E-001	5.98937E-003	0.00000E+000	5.55623E-003	3.59960E-001	-1.15677E+000	3.57660E+000	10	...........
	43	0.586667	9.33697E-001	5.99482E-003	0.00000E+000	5.59735E-003	3.59960E-001	-1.15584E+000	3.57660E+000	10	...........
	44	0.6	9.39658E-001	5.99502E-003	0.00000E+000	5.63327E-003	3.59960E-001	-1.14905E+000	3.57660E+000	10	...........
	45	0.613333	9.45631E-001	5.99110E-003	0.00000E+000	5.66537E-003	3.59960E-001	-1.15710E+000	3.57660E+000	10	...........
	46	0.626667	9.51560E-001	5.99204E-003	0.00000E+000	5.70178E-003	3.59960E-001	-1.15604E+000	3.57660E+000	10	...........
	47	0.64	9.57422E-001	5.99516E-003	0.00000E+000	5.73990E-003	3.59960E-001	-1.14932E+000	3.57660E+000	10	...........
	48	0.653333	9.63239E-001	5.99098E-003	0.00000E+000	5.77074E-003	3.59960E-001	-1.15711E+000	3.57660E+000	10	...........
	49	0.666667	9.69018E-001	5.99663E-003	0.00000E+000	5.81084E-003	3.59960E-001	-1.15576E+000	3.57660E+000	10	...........
	50	0.68	9.74781E-001	5.99475E-003	0.00000E+000	5.84357E-003	3.59960E-001	-1.14947E+000	3.57660E+000	10	...........
	51	0.693333	9.80425E-001	5.99526E-003	0.00000E+000	5.87791E-003	3.59960E-001	-1.15742E+000	3.57660E+000	10	...........
	52	0.706667	9.86046E-001	5.99008E-003	0.00000E+000	5.90649E-003	3.59960E-001	-1.15590E+000	3.57660E+000	10	...........
	53	0.72	9.91650E-001	5.99200E-003	0.00000E+000	5.94196E-003	3.59960E-001	-1.14931E+000	3.57660E+000	10	...........
	54	0.733333	9.97177E-001	5.99612E-003	0.00000E+000	5.97919E-003	3.59960E-001	-1.15737E+000	3.57660E+000	10	...........
	55	0.735	1.00023E+000	5.99346E-003	0.00000E+000	5.99486E-003	3.59960E-001	-1.13606E+000	3.57660E+000	10	...........
STARTTIMEOFFSET	QUANT	1173.876	Start Time Offset (s)