File: Data/CV_CRGO300517_1/PWRCCD_CRGO300517_1/CHARGE_DISCHARGE/CHARGE_#109.DTA
EXPLAIN
TAG	PWR800_CHARGE
TITLE	LABEL	PWR Cyclic Charge Discharge (Cell) - Charge Step	Test &Identifier
DATE	LABEL	22-6-2017	Date
TIME	LABEL	15:39:54	Time
NOTES	NOTES	3	&Notes...
	supercap test cell
	0.6mg
	6M KOH
PSTAT	PSTAT	IFC5000-01520	Potentiostat
CAPACITY	QUANT	1.00000E-003	Capacity (A-hr)
CELLTYPE	SELECTOR	1	&Cell Type
WORKINGCONNECTION	SELECTOR	0	&Working Lead
MAXCHARGETIME	VARIABLEANDUNITS	1.00000E+002	s	1.00000E+002	second(s)	Max &Charge Time
CHARGECURRENT	QUANT	6.00000E-003	&Charge Current (A)
VOLTAGEFINISH	TWOPARAM	F	1.00000E-003	3.60000E+003	&Voltage Finish	 I (A) < 	Max Time(s)
SAMPLETIME	QUANT	1.00000E-002	Sa&mple Period (s)
CHARGESTOPAT1	MULTIPARAM	4	1.00000E+000	Charge Stop At &1	Voltage > Limit	V
CHARGESTOPAT2	MULTIPARAM	0	0.00000E+000	Charge Stop At &2	None	N/A
AESBHCSELECTOR	TOGGLE	F	Save Both Half Cells
IRCOMP	TOGGLE	F	IR &Measure
EOC	QUANT	0	Open Circuit (V)
SEQUENCER	TOGGLE	TRUE	Run as Sequence
PSTATMODEL	IQUANT	53	Pstat Model
PSTATSECTION	LABEL	IFC5000-01520	Pstat Section
PSTATSERIALNO	LABEL	01520	Pstat Serial Number
CTRLMODE	IQUANT	0	Control Mode
ELECTROMETER	IQUANT	1	RE=0 or CS=1
IESTAB	IQUANT	0	I/E Stability
CASPEED	IQUANT	4	Control Amp Speed
CONVENTION	IQUANT	1	Current Convention
ICHRANGE	IQUANT	2	Ich Range
ICHRANGEMODE	TOGGLE	T	Ich Auto Range
ICHOFFSETENABLE	TOGGLE	F	Ich Offset Enable
ICHOFFSET	QUANT	0	Ich Offset (V)
ICHFILTER	IQUANT	1	Ich Filter
VCHRANGE	IQUANT	2	Vch Range
VCHRANGEMODE	TOGGLE	T	Vch Auto Range
VCHOFFSETENABLE	TOGGLE	F	Vch Offset Enable
VCHOFFSET	QUANT	0	Vch Offset (V)
VCHFILTER	IQUANT	1	Vch Filter
IERANGELOWERLIMIT	IQUANT	9	I/E Range Lower Limit
IERANGEMODE	TOGGLE	F	I/E AutoRange
IERANGE	IQUANT	10	I/E Range
ACHSELECT	IQUANT	1	Ach Select
ACHRANGE	IQUANT	2	Ach Range
ACHOFFSETENABLE	TOGGLE	F	Ach Offset Enable
ACHOFFSET	QUANT	0	Ach Offset (V)
ACHFILTER	IQUANT	1	Ach Filter
CABLEID	IQUANT	14	Cable ID
DCCALDATE	LABEL	20-10-2016	DC Calibration Date
ACCALDATE	LABEL	12/3/2015	AC Calibration Date
FRAMEWORKVERSION	QUANT	7.01	Framework Version
INSTRUMENTVERSION	LABEL	4.00	Instrument Version
CURVE	TABLE	70
	Pt	T	Vf	Im	Vu	Pwr	Sig	Ach	Temp	IERange	Over
	#	s	V	A	V	W	V	V	deg C	#	bits
	0	0.013333	5.90311E-001	5.99453E-003	0.00000E+000	3.53864E-003	3.59960E-001	-1.08023E+000	3.57790E+000	10	...........
	1	0.026667	5.98591E-001	5.99063E-003	0.00000E+000	3.58594E-003	3.59960E-001	-1.07167E+000	3.57790E+000	10	...........
	2	0.04	6.06168E-001	5.99191E-003	0.00000E+000	3.63211E-003	3.59960E-001	-1.06863E+000	3.57790E+000	10	...........
	3	0.053333	6.13394E-001	5.99232E-003	0.00000E+000	3.67565E-003	3.59960E-001	-1.08008E+000	3.57790E+000	10	...........
	4	0.066667	6.20391E-001	5.99568E-003	0.00000E+000	3.71967E-003	3.59960E-001	-1.07159E+000	3.57790E+000	10	...........
	5	0.08	6.27091E-001	5.99515E-003	0.00000E+000	3.75950E-003	3.59960E-001	-1.06870E+000	3.57746E+000	10	...........
	6	0.093333	6.33687E-001	5.99538E-003	0.00000E+000	3.79919E-003	3.59960E-001	-1.08051E+000	3.57720E+000	10	...........
	7	0.106667	6.40157E-001	5.99146E-003	0.00000E+000	3.83547E-003	3.59960E-001	-1.07175E+000	3.57720E+000	10	...........
	8	0.12	6.46567E-001	5.99180E-003	0.00000E+000	3.87410E-003	3.59960E-001	-1.06872E+000	3.57720E+000	10	...........
	9	0.133333	6.52909E-001	5.99340E-003	0.00000E+000	3.91314E-003	3.59960E-001	-1.08041E+000	3.57720E+000	10	...........
	10	0.146667	6.59167E-001	5.99516E-003	0.00000E+000	3.95181E-003	3.59960E-001	-1.07184E+000	3.57720E+000	10	...........
	11	0.16	6.65384E-001	5.99443E-003	0.00000E+000	3.98860E-003	3.59960E-001	-1.06898E+000	3.57720E+000	10	...........
	12	0.173333	6.71556E-001	5.99079E-003	0.00000E+000	4.02315E-003	3.59960E-001	-1.08048E+000	3.57720E+000	10	...........
	13	0.186667	6.77719E-001	5.99662E-003	0.00000E+000	4.06402E-003	3.59960E-001	-1.07181E+000	3.57720E+000	10	...........
	14	0.2	6.83813E-001	5.99990E-003	0.00000E+000	4.10281E-003	3.59960E-001	-1.06896E+000	3.57720E+000	10	...........
	15	0.213333	6.89882E-001	5.99158E-003	0.00000E+000	4.13348E-003	3.59960E-001	-1.08059E+000	3.57720E+000	10	...........
	16	0.226667	6.95930E-001	5.99628E-003	0.00000E+000	4.17300E-003	3.59960E-001	-1.07208E+000	3.57720E+000	10	...........
	17	0.24	7.01959E-001	5.99168E-003	0.00000E+000	4.20592E-003	3.59960E-001	-1.06870E+000	3.57720E+000	10	...........
	18	0.253333	7.07991E-001	5.99563E-003	0.00000E+000	4.24485E-003	3.59960E-001	-1.08013E+000	3.57720E+000	10	...........
	19	0.266667	7.13977E-001	5.99735E-003	0.00000E+000	4.28197E-003	3.59960E-001	-1.07165E+000	3.57720E+000	10	...........
	20	0.28	7.20049E-001	5.99117E-003	0.00000E+000	4.31394E-003	3.59960E-001	-1.06851E+000	3.57720E+000	10	...........
	21	0.293333	7.26025E-001	5.99540E-003	0.00000E+000	4.35281E-003	3.59960E-001	-1.07995E+000	3.57720E+000	10	...........
	22	0.306667	7.31962E-001	5.99256E-003	0.00000E+000	4.38633E-003	3.59960E-001	-1.07120E+000	3.57720E+000	10	...........
	23	0.32	7.37950E-001	5.99781E-003	0.00000E+000	4.42608E-003	3.59960E-001	-1.06783E+000	3.57720E+000	10	...........
	24	0.333333	7.43952E-001	5.99130E-003	0.00000E+000	4.45724E-003	3.59960E-001	-1.07929E+000	3.57720E+000	10	...........
	25	0.346667	7.49903E-001	5.99701E-003	0.00000E+000	4.49718E-003	3.59960E-001	-1.07111E+000	3.57720E+000	10	...........
	26	0.36	7.55876E-001	5.99171E-003	0.00000E+000	4.52899E-003	3.59960E-001	-1.06815E+000	3.57720E+000	10	...........
	27	0.373333	7.61780E-001	5.99369E-003	0.00000E+000	4.56587E-003	3.59960E-001	-1.07926E+000	3.57720E+000	10	...........
	28	0.386667	7.67726E-001	5.99646E-003	0.00000E+000	4.60364E-003	3.59960E-001	-1.07073E+000	3.57720E+000	10	...........
	29	0.4	7.73675E-001	5.99534E-003	0.00000E+000	4.63844E-003	3.59960E-001	-1.06763E+000	3.57720E+000	10	...........
	30	0.413333	7.79574E-001	5.99401E-003	0.00000E+000	4.67277E-003	3.59960E-001	-1.07916E+000	3.57720E+000	10	...........
	31	0.426667	7.85527E-001	5.99365E-003	0.00000E+000	4.70817E-003	3.59960E-001	-1.07092E+000	3.57720E+000	10	...........
	32	0.44	7.91429E-001	5.99345E-003	0.00000E+000	4.74339E-003	3.59960E-001	-1.06735E+000	3.57720E+000	10	...........
	33	0.453333	7.97402E-001	5.99565E-003	0.00000E+000	4.78094E-003	3.59960E-001	-1.07896E+000	3.57720E+000	10	...........
	34	0.466667	8.03262E-001	5.98992E-003	0.00000E+000	4.81148E-003	3.59960E-001	-1.07061E+000	3.57720E+000	10	...........
	35	0.48	8.09157E-001	5.98945E-003	0.00000E+000	4.84641E-003	3.59960E-001	-1.06728E+000	3.57720E+000	10	...........
	36	0.493333	8.15099E-001	5.99582E-003	0.00000E+000	4.88719E-003	3.59960E-001	-1.07880E+000	3.57720E+000	10	...........
	37	0.506667	8.21024E-001	5.99506E-003	0.00000E+000	4.92209E-003	3.59960E-001	-1.07066E+000	3.57720E+000	10	...........
	38	0.52	8.26902E-001	5.99234E-003	0.00000E+000	4.95508E-003	3.59960E-001	-1.06720E+000	3.57720E+000	10	...........
	39	0.533333	8.32768E-001	5.99690E-003	0.00000E+000	4.99403E-003	3.59960E-001	-1.07877E+000	3.57720E+000	10	...........
	40	0.546667	8.38639E-001	5.99448E-003	0.00000E+000	5.02721E-003	3.59960E-001	-1.07093E+000	3.57720E+000	10	...........
	41	0.56	8.44544E-001	5.99236E-003	0.00000E+000	5.06081E-003	3.59960E-001	-1.06726E+000	3.57720E+000	10	...........
	42	0.573333	8.50395E-001	5.99699E-003	0.00000E+000	5.09981E-003	3.59960E-001	-1.07868E+000	3.57720E+000	10	...........
	43	0.586667	8.56262E-001	5.99381E-003	0.00000E+000	5.13227E-003	3.59960E-001	-1.07039E+000	3.57720E+000	10	...........
	44	0.6	8.62127E-001	5.98929E-003	0.00000E+000	5.16352E-003	3.59960E-001	-1.06667E+000	3.57720E+000	10	...........
	45	0.613333	8.67955E-001	5.99814E-003	0.00000E+000	5.20612E-003	3.59960E-001	-1.07824E+000	3.57720E+000	10	...........
	46	0.626667	8.73792E-001	5.98762E-003	0.00000E+000	5.23193E-003	3.59960E-001	-1.07057E+000	3.57720E+000	10	...........
	47	0.64	8.79651E-001	5.98942E-003	0.00000E+000	5.26860E-003	3.59960E-001	-1.06654E+000	3.57720E+000	10	...........
	48	0.653333	8.85468E-001	5.99381E-003	0.00000E+000	5.30733E-003	3.59960E-001	-1.07809E+000	3.57720E+000	10	...........
	49	0.666667	8.91248E-001	5.99196E-003	0.00000E+000	5.34032E-003	3.59960E-001	-1.07018E+000	3.57720E+000	10	...........
	50	0.68	8.97067E-001	5.99701E-003	0.00000E+000	5.37972E-003	3.59960E-001	-1.06667E+000	3.57720E+000	10	...........
	51	0.693333	9.02816E-001	5.99234E-003	0.00000E+000	5.40998E-003	3.59960E-001	-1.07817E+000	3.57720E+000	10	...........
	52	0.706667	9.08564E-001	5.99424E-003	0.00000E+000	5.44615E-003	3.59960E-001	-1.07017E+000	3.57720E+000	10	...........
	53	0.72	9.14341E-001	5.99304E-003	0.00000E+000	5.47968E-003	3.59960E-001	-1.06638E+000	3.57720E+000	10	...........
	54	0.733333	9.20069E-001	5.99400E-003	0.00000E+000	5.51490E-003	3.59960E-001	-1.07806E+000	3.57720E+000	10	...........
	55	0.746667	9.25802E-001	5.99542E-003	0.00000E+000	5.55057E-003	3.59960E-001	-1.07035E+000	3.57720E+000	10	...........
	56	0.76	9.31470E-001	5.99454E-003	0.00000E+000	5.58374E-003	3.59960E-001	-1.06652E+000	3.57720E+000	10	...........
	57	0.773333	9.37116E-001	5.99294E-003	0.00000E+000	5.61607E-003	3.59960E-001	-1.07796E+000	3.57720E+000	10	...........
	58	0.786667	9.42739E-001	5.99545E-003	0.00000E+000	5.65214E-003	3.59960E-001	-1.07009E+000	3.57720E+000	10	...........
	59	0.8	9.48391E-001	5.99579E-003	0.00000E+000	5.68636E-003	3.59960E-001	-1.06642E+000	3.57720E+000	10	...........
	60	0.813333	9.53969E-001	5.99221E-003	0.00000E+000	5.71638E-003	3.59960E-001	-1.07813E+000	3.57720E+000	10	...........
	61	0.826667	9.59539E-001	5.99130E-003	0.00000E+000	5.74888E-003	3.59960E-001	-1.07069E+000	3.57720E+000	10	...........
	62	0.84	9.65081E-001	5.98940E-003	0.00000E+000	5.78026E-003	3.59960E-001	-1.06675E+000	3.57720E+000	10	...........
	63	0.853333	9.70564E-001	5.99247E-003	0.00000E+000	5.81607E-003	3.59960E-001	-1.07814E+000	3.57720E+000	10	...........
	64	0.866667	9.76079E-001	5.99596E-003	0.00000E+000	5.85253E-003	3.59960E-001	-1.07091E+000	3.57720E+000	10	...........
	65	0.88	9.81482E-001	5.99373E-003	0.00000E+000	5.88274E-003	3.59960E-001	-1.06698E+000	3.57720E+000	10	...........
	66	0.893333	9.86880E-001	5.99083E-003	0.00000E+000	5.91223E-003	3.59960E-001	-1.07837E+000	3.57720E+000	10	...........
	67	0.906667	9.92227E-001	5.99318E-003	0.00000E+000	5.94659E-003	3.59960E-001	-1.07081E+000	3.57720E+000	10	...........
	68	0.92	9.97623E-001	5.99796E-003	0.00000E+000	5.98371E-003	3.59960E-001	-1.06657E+000	3.57720E+000	10	...........
	69	0.921667	1.00059E+000	5.99020E-003	0.00000E+000	5.99376E-003	3.59960E-001	-1.08016E+000	3.57720E+000	10	...........
STARTTIMEOFFSET	QUANT	211.7616	Start Time Offset (s)