File: Data/CV_CRGO300517_1/PWRCCD_CRGO300517_1/CHARGE_DISCHARGE/CHARGE_#438.DTA
EXPLAIN
TAG	PWR800_CHARGE
TITLE	LABEL	PWR Cyclic Charge Discharge (Cell) - Charge Step	Test &Identifier
DATE	LABEL	22-6-2017	Date
TIME	LABEL	15:53:28	Time
NOTES	NOTES	3	&Notes...
	supercap test cell
	0.6mg
	6M KOH
PSTAT	PSTAT	IFC5000-01520	Potentiostat
CAPACITY	QUANT	1.00000E-003	Capacity (A-hr)
CELLTYPE	SELECTOR	1	&Cell Type
WORKINGCONNECTION	SELECTOR	0	&Working Lead
MAXCHARGETIME	VARIABLEANDUNITS	1.00000E+002	s	1.00000E+002	second(s)	Max &Charge Time
CHARGECURRENT	QUANT	6.00000E-003	&Charge Current (A)
VOLTAGEFINISH	TWOPARAM	F	1.00000E-003	3.60000E+003	&Voltage Finish	 I (A) < 	Max Time(s)
SAMPLETIME	QUANT	1.00000E-002	Sa&mple Period (s)
CHARGESTOPAT1	MULTIPARAM	4	1.00000E+000	Charge Stop At &1	Voltage > Limit	V
CHARGESTOPAT2	MULTIPARAM	0	0.00000E+000	Charge Stop At &2	None	N/A
AESBHCSELECTOR	TOGGLE	F	Save Both Half Cells
IRCOMP	TOGGLE	F	IR &Measure
EOC	QUANT	0	Open Circuit (V)
SEQUENCER	TOGGLE	TRUE	Run as Sequence
PSTATMODEL	IQUANT	53	Pstat Model
PSTATSECTION	LABEL	IFC5000-01520	Pstat Section
PSTATSERIALNO	LABEL	01520	Pstat Serial Number
CTRLMODE	IQUANT	0	Control Mode
ELECTROMETER	IQUANT	1	RE=0 or CS=1
IESTAB	IQUANT	0	I/E Stability
CASPEED	IQUANT	4	Control Amp Speed
CONVENTION	IQUANT	1	Current Convention
ICHRANGE	IQUANT	2	Ich Range
ICHRANGEMODE	TOGGLE	T	Ich Auto Range
ICHOFFSETENABLE	TOGGLE	F	Ich Offset Enable
ICHOFFSET	QUANT	0	Ich Offset (V)
ICHFILTER	IQUANT	1	Ich Filter
VCHRANGE	IQUANT	2	Vch Range
VCHRANGEMODE	TOGGLE	T	Vch Auto Range
VCHOFFSETENABLE	TOGGLE	F	Vch Offset Enable
VCHOFFSET	QUANT	0	Vch Offset (V)
VCHFILTER	IQUANT	1	Vch Filter
IERANGELOWERLIMIT	IQUANT	9	I/E Range Lower Limit
IERANGEMODE	TOGGLE	F	I/E AutoRange
IERANGE	IQUANT	10	I/E Range
ACHSELECT	IQUANT	1	Ach Select
ACHRANGE	IQUANT	2	Ach Range
ACHOFFSETENABLE	TOGGLE	F	Ach Offset Enable
ACHOFFSET	QUANT	0	Ach Offset (V)
ACHFILTER	IQUANT	1	Ach Filter
CABLEID	IQUANT	14	Cable ID
DCCALDATE	LABEL	20-10-2016	DC Calibration Date
ACCALDATE	LABEL	12/3/2015	AC Calibration Date
FRAMEWORKVERSION	QUANT	7.01	Framework Version
INSTRUMENTVERSION	LABEL	4.00	Instrument Version
CURVE	TABLE	60
	Pt	T	Vf	Im	Vu	Pwr	Sig	Ach	Temp	IERange	Over
	#	s	V	A	V	W	V	V	deg C	#	bits
	0	0.013333	6.27125E-001	5.99728E-003	0.00000E+000	3.76104E-003	3.59960E-001	-1.14404E+000	3.57790E+000	10	...........
	1	0.026667	6.35939E-001	5.99664E-003	0.00000E+000	3.81350E-003	3.59960E-001	-1.13587E+000	3.57790E+000	10	...........
	2	0.04	6.44067E-001	5.99448E-003	0.00000E+000	3.86085E-003	3.59960E-001	-1.13286E+000	3.57790E+000	10	...........
	3	0.053333	6.51745E-001	5.99381E-003	0.00000E+000	3.90644E-003	3.59960E-001	-1.14394E+000	3.57790E+000	10	...........
	4	0.066667	6.59130E-001	5.99596E-003	0.00000E+000	3.95212E-003	3.59960E-001	-1.13568E+000	3.57790E+000	10	...........
	5	0.08	6.66349E-001	5.99013E-003	0.00000E+000	3.99152E-003	3.59960E-001	-1.13272E+000	3.57790E+000	10	...........
	6	0.093333	6.73403E-001	5.99287E-003	0.00000E+000	4.03562E-003	3.59960E-001	-1.14359E+000	3.57790E+000	10	...........
	7	0.106667	6.80421E-001	5.99698E-003	0.00000E+000	4.08047E-003	3.59960E-001	-1.13510E+000	3.57790E+000	10	...........
	8	0.12	6.87277E-001	5.99334E-003	0.00000E+000	4.11909E-003	3.59960E-001	-1.13244E+000	3.57790E+000	10	...........
	9	0.133333	6.94062E-001	5.99185E-003	0.00000E+000	4.15872E-003	3.59960E-001	-1.14369E+000	3.57790E+000	10	...........
	10	0.146667	7.00796E-001	5.99441E-003	0.00000E+000	4.20086E-003	3.59960E-001	-1.13523E+000	3.57790E+000	10	...........
	11	0.16	7.07512E-001	5.99534E-003	0.00000E+000	4.24177E-003	3.59960E-001	-1.13259E+000	3.57790E+000	10	...........
	12	0.173333	7.14110E-001	5.99359E-003	0.00000E+000	4.28008E-003	3.59960E-001	-1.14352E+000	3.57790E+000	10	...........
	13	0.186667	7.20768E-001	5.99434E-003	0.00000E+000	4.32053E-003	3.59960E-001	-1.13492E+000	3.57790E+000	10	...........
	14	0.2	7.27306E-001	5.99537E-003	0.00000E+000	4.36046E-003	3.59960E-001	-1.13225E+000	3.57790E+000	10	...........
	15	0.213333	7.33876E-001	5.99425E-003	0.00000E+000	4.39903E-003	3.59960E-001	-1.14353E+000	3.57790E+000	10	...........
	16	0.226667	7.40429E-001	5.98934E-003	0.00000E+000	4.43468E-003	3.59960E-001	-1.13480E+000	3.57790E+000	10	...........
	17	0.24	7.46960E-001	5.99589E-003	0.00000E+000	4.47869E-003	3.59960E-001	-1.13269E+000	3.57790E+000	10	...........
	18	0.253333	7.53429E-001	5.99074E-003	0.00000E+000	4.51359E-003	3.59960E-001	-1.14330E+000	3.57790E+000	10	...........
	19	0.266667	7.59928E-001	5.99863E-003	0.00000E+000	4.55853E-003	3.59960E-001	-1.13459E+000	3.57790E+000	10	...........
	20	0.28	7.66365E-001	6.00098E-003	0.00000E+000	4.59894E-003	3.59960E-001	-1.13221E+000	3.57790E+000	10	...........
	21	0.293333	7.72858E-001	5.99854E-003	0.00000E+000	4.63601E-003	3.59960E-001	-1.14355E+000	3.57790E+000	10	...........
	22	0.306667	7.79289E-001	5.99370E-003	0.00000E+000	4.67082E-003	3.59960E-001	-1.13458E+000	3.57790E+000	10	...........
	23	0.32	7.85675E-001	5.99545E-003	0.00000E+000	4.71047E-003	3.59960E-001	-1.13222E+000	3.57790E+000	10	...........
	24	0.333333	7.92101E-001	5.99632E-003	0.00000E+000	4.74969E-003	3.59960E-001	-1.14351E+000	3.57790E+000	10	...........
	25	0.346667	7.98511E-001	5.99733E-003	0.00000E+000	4.78893E-003	3.59960E-001	-1.13444E+000	3.57790E+000	10	...........
	26	0.36	8.04828E-001	5.99679E-003	0.00000E+000	4.82638E-003	3.59960E-001	-1.13260E+000	3.57790E+000	10	...........
	27	0.373333	8.11170E-001	5.99652E-003	0.00000E+000	4.86420E-003	3.59960E-001	-1.14357E+000	3.57790E+000	10	...........
	28	0.386667	8.17510E-001	5.99973E-003	0.00000E+000	4.90484E-003	3.59960E-001	-1.13423E+000	3.57790E+000	10	...........
	29	0.4	8.23846E-001	5.99359E-003	0.00000E+000	4.93780E-003	3.59960E-001	-1.13193E+000	3.57790E+000	10	...........
	30	0.413333	8.30144E-001	5.99331E-003	0.00000E+000	4.97531E-003	3.59960E-001	-1.14316E+000	3.57790E+000	10	...........
	31	0.426667	8.36397E-001	5.99063E-003	0.00000E+000	5.01055E-003	3.59960E-001	-1.13383E+000	3.57790E+000	10	...........
	32	0.44	8.42668E-001	5.99345E-003	0.00000E+000	5.05049E-003	3.59960E-001	-1.13204E+000	3.57790E+000	10	...........
	33	0.453333	8.48961E-001	5.99594E-003	0.00000E+000	5.09032E-003	3.59960E-001	-1.14319E+000	3.57790E+000	10	...........
	34	0.466667	8.55232E-001	5.99616E-003	0.00000E+000	5.12811E-003	3.59960E-001	-1.13358E+000	3.57762E+000	10	...........
	35	0.48	8.61449E-001	5.99866E-003	0.00000E+000	5.16754E-003	3.59960E-001	-1.13197E+000	3.57680E+000	10	...........
	36	0.493333	8.67678E-001	5.98790E-003	0.00000E+000	5.19556E-003	3.59960E-001	-1.14329E+000	3.57680E+000	10	...........
	37	0.506667	8.73910E-001	5.99217E-003	0.00000E+000	5.23662E-003	3.59960E-001	-1.13357E+000	3.57680E+000	10	...........
	38	0.52	8.80092E-001	5.99292E-003	0.00000E+000	5.27432E-003	3.59960E-001	-1.13187E+000	3.57680E+000	10	...........
	39	0.533333	8.86198E-001	5.99955E-003	0.00000E+000	5.31679E-003	3.59960E-001	-1.14306E+000	3.57680E+000	10	...........
	40	0.546667	8.92322E-001	5.99289E-003	0.00000E+000	5.34759E-003	3.59960E-001	-1.13331E+000	3.57680E+000	10	...........
	41	0.56	8.98414E-001	5.99249E-003	0.00000E+000	5.38373E-003	3.59960E-001	-1.13197E+000	3.57680E+000	10	...........
	42	0.573333	9.04462E-001	5.98868E-003	0.00000E+000	5.41654E-003	3.59960E-001	-1.14309E+000	3.57680E+000	10	...........
	43	0.586667	9.10521E-001	5.99433E-003	0.00000E+000	5.45797E-003	3.59960E-001	-1.13330E+000	3.57680E+000	10	...........
	44	0.6	9.16566E-001	5.99734E-003	0.00000E+000	5.49695E-003	3.59960E-001	-1.13189E+000	3.57680E+000	10	...........
	45	0.613333	9.22649E-001	5.99281E-003	0.00000E+000	5.52926E-003	3.59960E-001	-1.14307E+000	3.57680E+000	10	...........
	46	0.626667	9.28570E-001	5.99627E-003	0.00000E+000	5.56796E-003	3.59960E-001	-1.13355E+000	3.57680E+000	10	...........
	47	0.64	9.34458E-001	5.99153E-003	0.00000E+000	5.59883E-003	3.59960E-001	-1.13224E+000	3.57680E+000	10	...........
	48	0.653333	9.40321E-001	5.99354E-003	0.00000E+000	5.63585E-003	3.59960E-001	-1.14321E+000	3.57680E+000	10	...........
	49	0.666667	9.46198E-001	5.99205E-003	0.00000E+000	5.66966E-003	3.59960E-001	-1.13304E+000	3.57680E+000	10	...........
	50	0.68	9.52025E-001	5.99232E-003	0.00000E+000	5.70484E-003	3.59960E-001	-1.13239E+000	3.57680E+000	10	...........
	51	0.693333	9.57786E-001	5.99590E-003	0.00000E+000	5.74279E-003	3.59960E-001	-1.14325E+000	3.57680E+000	10	...........
	52	0.706667	9.63542E-001	5.99545E-003	0.00000E+000	5.77687E-003	3.59960E-001	-1.13325E+000	3.57680E+000	10	...........
	53	0.72	9.69198E-001	5.99446E-003	0.00000E+000	5.80982E-003	3.59960E-001	-1.13191E+000	3.57680E+000	10	...........
	54	0.733333	9.74898E-001	5.99084E-003	0.00000E+000	5.84046E-003	3.59960E-001	-1.14276E+000	3.57680E+000	10	...........
	55	0.746667	9.80458E-001	5.99294E-003	0.00000E+000	5.87582E-003	3.59960E-001	-1.13264E+000	3.57680E+000	10	...........
	56	0.76	9.85980E-001	5.99731E-003	0.00000E+000	5.91322E-003	3.59960E-001	-1.13196E+000	3.57680E+000	10	...........
	57	0.773333	9.91508E-001	5.99450E-003	0.00000E+000	5.94360E-003	3.59960E-001	-1.14294E+000	3.57680E+000	10	...........
	58	0.786667	9.97035E-001	5.99402E-003	0.00000E+000	5.97625E-003	3.59960E-001	-1.13264E+000	3.57680E+000	10	...........
	59	0.788333	1.00012E+000	5.99504E-003	0.00000E+000	5.99579E-003	3.59960E-001	-1.14590E+000	3.57680E+000	10	...........
STARTTIMEOFFSET	QUANT	762.655	Start Time Offset (s)