File: Data/CV_CRGO300517_1/PWRCCD_CRGO300517_1/CHARGE_DISCHARGE/CHARGE_#514.DTA
EXPLAIN
TAG	PWR800_CHARGE
TITLE	LABEL	PWR Cyclic Charge Discharge (Cell) - Charge Step	Test &Identifier
DATE	LABEL	22-6-2017	Date
TIME	LABEL	15:56:28	Time
NOTES	NOTES	3	&Notes...
	supercap test cell
	0.6mg
	6M KOH
PSTAT	PSTAT	IFC5000-01520	Potentiostat
CAPACITY	QUANT	1.00000E-003	Capacity (A-hr)
CELLTYPE	SELECTOR	1	&Cell Type
WORKINGCONNECTION	SELECTOR	0	&Working Lead
MAXCHARGETIME	VARIABLEANDUNITS	1.00000E+002	s	1.00000E+002	second(s)	Max &Charge Time
CHARGECURRENT	QUANT	6.00000E-003	&Charge Current (A)
VOLTAGEFINISH	TWOPARAM	F	1.00000E-003	3.60000E+003	&Voltage Finish	 I (A) < 	Max Time(s)
SAMPLETIME	QUANT	1.00000E-002	Sa&mple Period (s)
CHARGESTOPAT1	MULTIPARAM	4	1.00000E+000	Charge Stop At &1	Voltage > Limit	V
CHARGESTOPAT2	MULTIPARAM	0	0.00000E+000	Charge Stop At &2	None	N/A
AESBHCSELECTOR	TOGGLE	F	Save Both Half Cells
IRCOMP	TOGGLE	F	IR &Measure
EOC	QUANT	0	Open Circuit (V)
SEQUENCER	TOGGLE	TRUE	Run as Sequence
PSTATMODEL	IQUANT	53	Pstat Model
PSTATSECTION	LABEL	IFC5000-01520	Pstat Section
PSTATSERIALNO	LABEL	01520	Pstat Serial Number
CTRLMODE	IQUANT	0	Control Mode
ELECTROMETER	IQUANT	1	RE=0 or CS=1
IESTAB	IQUANT	0	I/E Stability
CASPEED	IQUANT	4	Control Amp Speed
CONVENTION	IQUANT	1	Current Convention
ICHRANGE	IQUANT	2	Ich Range
ICHRANGEMODE	TOGGLE	T	Ich Auto Range
ICHOFFSETENABLE	TOGGLE	F	Ich Offset Enable
ICHOFFSET	QUANT	0	Ich Offset (V)
ICHFILTER	IQUANT	1	Ich Filter
VCHRANGE	IQUANT	2	Vch Range
VCHRANGEMODE	TOGGLE	T	Vch Auto Range
VCHOFFSETENABLE	TOGGLE	F	Vch Offset Enable
VCHOFFSET	QUANT	0	Vch Offset (V)
VCHFILTER	IQUANT	1	Vch Filter
IERANGELOWERLIMIT	IQUANT	9	I/E Range Lower Limit
IERANGEMODE	TOGGLE	F	I/E AutoRange
IERANGE	IQUANT	10	I/E Range
ACHSELECT	IQUANT	1	Ach Select
ACHRANGE	IQUANT	2	Ach Range
ACHOFFSETENABLE	TOGGLE	F	Ach Offset Enable
ACHOFFSET	QUANT	0	Ach Offset (V)
ACHFILTER	IQUANT	1	Ach Filter
CABLEID	IQUANT	14	Cable ID
DCCALDATE	LABEL	20-10-2016	DC Calibration Date
ACCALDATE	LABEL	12/3/2015	AC Calibration Date
FRAMEWORKVERSION	QUANT	7.01	Framework Version
INSTRUMENTVERSION	LABEL	4.00	Instrument Version
CURVE	TABLE	58
	Pt	T	Vf	Im	Vu	Pwr	Sig	Ach	Temp	IERange	Over
	#	s	V	A	V	W	V	V	deg C	#	bits
	0	0.013333	6.33105E-001	5.98889E-003	0.00000E+000	3.79159E-003	3.59960E-001	-1.11127E+000	3.57640E+000	10	...........
	1	0.026667	6.42018E-001	5.99450E-003	0.00000E+000	3.84858E-003	3.59960E-001	-1.11923E+000	3.57640E+000	10	...........
	2	0.04	6.50180E-001	5.99649E-003	0.00000E+000	3.89880E-003	3.59960E-001	-1.11678E+000	3.57640E+000	10	...........
	3	0.053333	6.57954E-001	5.99546E-003	0.00000E+000	3.94474E-003	3.59960E-001	-1.11112E+000	3.57640E+000	10	...........
	4	0.066667	6.65444E-001	5.99467E-003	0.00000E+000	3.98912E-003	3.59960E-001	-1.11920E+000	3.57640E+000	10	...........
	5	0.08	6.72737E-001	5.99454E-003	0.00000E+000	4.03275E-003	3.59960E-001	-1.11607E+000	3.57640E+000	10	...........
	6	0.093333	6.79862E-001	5.99669E-003	0.00000E+000	4.07692E-003	3.59960E-001	-1.11022E+000	3.57640E+000	10	...........
	7	0.106667	6.86854E-001	5.98913E-003	0.00000E+000	4.11366E-003	3.59960E-001	-1.11870E+000	3.57640E+000	10	...........
	8	0.12	6.93791E-001	5.99393E-003	0.00000E+000	4.15853E-003	3.59960E-001	-1.11564E+000	3.57670E+000	10	...........
	9	0.133333	7.00667E-001	5.99489E-003	0.00000E+000	4.20042E-003	3.59960E-001	-1.10972E+000	3.57670E+000	10	...........
	10	0.146667	7.07427E-001	5.99278E-003	0.00000E+000	4.23945E-003	3.59960E-001	-1.11786E+000	3.57670E+000	10	...........
	11	0.16	7.14198E-001	5.99336E-003	0.00000E+000	4.28045E-003	3.59960E-001	-1.11470E+000	3.57670E+000	10	...........
	12	0.173333	7.20975E-001	5.99245E-003	0.00000E+000	4.32040E-003	3.59960E-001	-1.10936E+000	3.57670E+000	10	...........
	13	0.186667	7.27655E-001	5.99269E-003	0.00000E+000	4.36061E-003	3.59960E-001	-1.11789E+000	3.57670E+000	10	...........
	14	0.2	7.34268E-001	5.99394E-003	0.00000E+000	4.40116E-003	3.59960E-001	-1.11461E+000	3.57670E+000	10	...........
	15	0.213333	7.40867E-001	5.99368E-003	0.00000E+000	4.44052E-003	3.59960E-001	-1.10903E+000	3.57670E+000	10	...........
	16	0.226667	7.47511E-001	5.99380E-003	0.00000E+000	4.48043E-003	3.59960E-001	-1.11746E+000	3.57670E+000	10	...........
	17	0.24	7.54081E-001	5.99477E-003	0.00000E+000	4.52054E-003	3.59960E-001	-1.11433E+000	3.57670E+000	10	...........
	18	0.253333	7.60619E-001	5.99087E-003	0.00000E+000	4.55677E-003	3.59960E-001	-1.10928E+000	3.57670E+000	10	...........
	19	0.266667	7.67142E-001	5.99492E-003	0.00000E+000	4.59895E-003	3.59960E-001	-1.11792E+000	3.57670E+000	10	...........
	20	0.28	7.73634E-001	5.99115E-003	0.00000E+000	4.63496E-003	3.59960E-001	-1.11369E+000	3.57670E+000	10	...........
	21	0.293333	7.80153E-001	5.99505E-003	0.00000E+000	4.67706E-003	3.59960E-001	-1.10803E+000	3.57670E+000	10	...........
	22	0.306667	7.86628E-001	5.99341E-003	0.00000E+000	4.71458E-003	3.59960E-001	-1.11699E+000	3.57670E+000	10	...........
	23	0.32	7.93110E-001	5.99813E-003	0.00000E+000	4.75718E-003	3.59960E-001	-1.11381E+000	3.57670E+000	10	...........
	24	0.333333	7.99610E-001	5.99570E-003	0.00000E+000	4.79422E-003	3.59960E-001	-1.10801E+000	3.57670E+000	10	...........
	25	0.346667	8.06011E-001	5.99503E-003	0.00000E+000	4.83206E-003	3.59960E-001	-1.11666E+000	3.57670E+000	10	...........
	26	0.36	8.12380E-001	5.99362E-003	0.00000E+000	4.86910E-003	3.59960E-001	-1.11256E+000	3.57670E+000	10	...........
	27	0.373333	8.18787E-001	5.99738E-003	0.00000E+000	4.91058E-003	3.59960E-001	-1.10761E+000	3.57670E+000	10	...........
	28	0.386667	8.25243E-001	5.99271E-003	0.00000E+000	4.94544E-003	3.59960E-001	-1.11702E+000	3.57670E+000	10	...........
	29	0.4	8.31583E-001	5.99756E-003	0.00000E+000	4.98747E-003	3.59960E-001	-1.11331E+000	3.57670E+000	10	...........
	30	0.413333	8.37918E-001	5.99160E-003	0.00000E+000	5.02047E-003	3.59960E-001	-1.10807E+000	3.57670E+000	10	...........
	31	0.426667	8.44266E-001	5.99372E-003	0.00000E+000	5.06030E-003	3.59960E-001	-1.11688E+000	3.57670E+000	10	...........
	32	0.44	8.50571E-001	5.99350E-003	0.00000E+000	5.09790E-003	3.59960E-001	-1.11312E+000	3.57670E+000	10	...........
	33	0.453333	8.56880E-001	5.99442E-003	0.00000E+000	5.13650E-003	3.59960E-001	-1.10832E+000	3.57670E+000	10	...........
	34	0.466667	8.63153E-001	5.99647E-003	0.00000E+000	5.17588E-003	3.59960E-001	-1.11723E+000	3.57670E+000	10	...........
	35	0.48	8.69393E-001	5.99070E-003	0.00000E+000	5.20828E-003	3.59960E-001	-1.11310E+000	3.57670E+000	10	...........
	36	0.493333	8.75642E-001	5.98958E-003	0.00000E+000	5.24472E-003	3.59960E-001	-1.10808E+000	3.57670E+000	10	...........
	37	0.506667	8.81880E-001	5.99421E-003	0.00000E+000	5.28617E-003	3.59960E-001	-1.11718E+000	3.57670E+000	10	...........
	38	0.52	8.88063E-001	5.99559E-003	0.00000E+000	5.32446E-003	3.59960E-001	-1.11343E+000	3.57670E+000	10	...........
	39	0.533333	8.94215E-001	5.99189E-003	0.00000E+000	5.35804E-003	3.59960E-001	-1.10842E+000	3.57670E+000	10	...........
	40	0.546667	9.00350E-001	5.99322E-003	0.00000E+000	5.39599E-003	3.59960E-001	-1.11757E+000	3.57670E+000	10	...........
	41	0.56	9.06442E-001	5.99230E-003	0.00000E+000	5.43167E-003	3.59960E-001	-1.11322E+000	3.57670E+000	10	...........
	42	0.573333	9.12525E-001	5.99493E-003	0.00000E+000	5.47052E-003	3.59960E-001	-1.10837E+000	3.57670E+000	10	...........
	43	0.586667	9.18551E-001	5.99333E-003	0.00000E+000	5.50518E-003	3.59960E-001	-1.11818E+000	3.57670E+000	10	...........
	44	0.6	9.24619E-001	5.99549E-003	0.00000E+000	5.54354E-003	3.59960E-001	-1.11338E+000	3.57670E+000	10	...........
	45	0.613333	9.30566E-001	5.99240E-003	0.00000E+000	5.57633E-003	3.59960E-001	-1.10858E+000	3.57670E+000	10	...........
	46	0.626667	9.36519E-001	5.99209E-003	0.00000E+000	5.61171E-003	3.59960E-001	-1.11798E+000	3.57670E+000	10	...........
	47	0.64	9.42400E-001	5.99419E-003	0.00000E+000	5.64892E-003	3.59960E-001	-1.11358E+000	3.57670E+000	10	...........
	48	0.653333	9.48290E-001	5.99299E-003	0.00000E+000	5.68309E-003	3.59960E-001	-1.10926E+000	3.57670E+000	10	...........
	49	0.666667	9.54126E-001	5.98847E-003	0.00000E+000	5.71376E-003	3.59960E-001	-1.11906E+000	3.57670E+000	10	...........
	50	0.68	9.59910E-001	5.99431E-003	0.00000E+000	5.75400E-003	3.59960E-001	-1.11420E+000	3.57670E+000	10	...........
	51	0.693333	9.65627E-001	5.98859E-003	0.00000E+000	5.78274E-003	3.59960E-001	-1.10953E+000	3.57670E+000	10	...........
	52	0.706667	9.71305E-001	5.99575E-003	0.00000E+000	5.82370E-003	3.59960E-001	-1.11972E+000	3.57670E+000	10	...........
	53	0.72	9.76992E-001	5.99521E-003	0.00000E+000	5.85727E-003	3.59960E-001	-1.11472E+000	3.57670E+000	10	...........
	54	0.733333	9.82590E-001	5.99134E-003	0.00000E+000	5.88703E-003	3.59960E-001	-1.11067E+000	3.57670E+000	10	...........
	55	0.746667	9.88175E-001	5.98866E-003	0.00000E+000	5.91784E-003	3.59960E-001	-1.12014E+000	3.57670E+000	10	...........
	56	0.76	9.93672E-001	5.99484E-003	0.00000E+000	5.95691E-003	3.59960E-001	-1.11531E+000	3.57670E+000	10	...........
	57	0.77	9.98490E-001	5.99184E-003	0.00000E+000	5.98280E-003	3.59960E-001	-1.11031E+000	3.57670E+000	10	...........
STARTTIMEOFFSET	QUANT	880.5419	Start Time Offset (s)