File: Data/CV_CRGO300517_1/PWRCCD_CRGO300517_1/CHARGE_DISCHARGE/CHARGE_#796.DTA
EXPLAIN
TAG	PWR800_CHARGE
TITLE	LABEL	PWR Cyclic Charge Discharge (Cell) - Charge Step	Test &Identifier
DATE	LABEL	22-6-2017	Date
TIME	LABEL	16:07:08	Time
NOTES	NOTES	3	&Notes...
	supercap test cell
	0.6mg
	6M KOH
PSTAT	PSTAT	IFC5000-01520	Potentiostat
CAPACITY	QUANT	1.00000E-003	Capacity (A-hr)
CELLTYPE	SELECTOR	1	&Cell Type
WORKINGCONNECTION	SELECTOR	0	&Working Lead
MAXCHARGETIME	VARIABLEANDUNITS	1.00000E+002	s	1.00000E+002	second(s)	Max &Charge Time
CHARGECURRENT	QUANT	6.00000E-003	&Charge Current (A)
VOLTAGEFINISH	TWOPARAM	F	1.00000E-003	3.60000E+003	&Voltage Finish	 I (A) < 	Max Time(s)
SAMPLETIME	QUANT	1.00000E-002	Sa&mple Period (s)
CHARGESTOPAT1	MULTIPARAM	4	1.00000E+000	Charge Stop At &1	Voltage > Limit	V
CHARGESTOPAT2	MULTIPARAM	0	0.00000E+000	Charge Stop At &2	None	N/A
AESBHCSELECTOR	TOGGLE	F	Save Both Half Cells
IRCOMP	TOGGLE	F	IR &Measure
EOC	QUANT	0	Open Circuit (V)
SEQUENCER	TOGGLE	TRUE	Run as Sequence
PSTATMODEL	IQUANT	53	Pstat Model
PSTATSECTION	LABEL	IFC5000-01520	Pstat Section
PSTATSERIALNO	LABEL	01520	Pstat Serial Number
CTRLMODE	IQUANT	0	Control Mode
ELECTROMETER	IQUANT	1	RE=0 or CS=1
IESTAB	IQUANT	0	I/E Stability
CASPEED	IQUANT	4	Control Amp Speed
CONVENTION	IQUANT	1	Current Convention
ICHRANGE	IQUANT	2	Ich Range
ICHRANGEMODE	TOGGLE	T	Ich Auto Range
ICHOFFSETENABLE	TOGGLE	F	Ich Offset Enable
ICHOFFSET	QUANT	0	Ich Offset (V)
ICHFILTER	IQUANT	1	Ich Filter
VCHRANGE	IQUANT	2	Vch Range
VCHRANGEMODE	TOGGLE	T	Vch Auto Range
VCHOFFSETENABLE	TOGGLE	F	Vch Offset Enable
VCHOFFSET	QUANT	0	Vch Offset (V)
VCHFILTER	IQUANT	1	Vch Filter
IERANGELOWERLIMIT	IQUANT	9	I/E Range Lower Limit
IERANGEMODE	TOGGLE	F	I/E AutoRange
IERANGE	IQUANT	10	I/E Range
ACHSELECT	IQUANT	1	Ach Select
ACHRANGE	IQUANT	2	Ach Range
ACHOFFSETENABLE	TOGGLE	F	Ach Offset Enable
ACHOFFSET	QUANT	0	Ach Offset (V)
ACHFILTER	IQUANT	1	Ach Filter
CABLEID	IQUANT	14	Cable ID
DCCALDATE	LABEL	20-10-2016	DC Calibration Date
ACCALDATE	LABEL	12/3/2015	AC Calibration Date
FRAMEWORKVERSION	QUANT	7.01	Framework Version
INSTRUMENTVERSION	LABEL	4.00	Instrument Version
CURVE	TABLE	54
	Pt	T	Vf	Im	Vu	Pwr	Sig	Ach	Temp	IERange	Over
	#	s	V	A	V	W	V	V	deg C	#	bits
	0	0.013333	6.48176E-001	5.99563E-003	0.00000E+000	3.88622E-003	3.59960E-001	-1.16498E+000	3.57730E+000	10	...........
	1	0.026667	6.57377E-001	5.98970E-003	0.00000E+000	3.93749E-003	3.59960E-001	-1.17199E+000	3.57730E+000	10	...........
	2	0.04	6.65824E-001	5.99493E-003	0.00000E+000	3.99157E-003	3.59960E-001	-1.17210E+000	3.57730E+000	10	...........
	3	0.053333	6.73895E-001	5.99690E-003	0.00000E+000	4.04128E-003	3.59960E-001	-1.16486E+000	3.57730E+000	10	...........
	4	0.066667	6.81624E-001	5.99471E-003	0.00000E+000	4.08614E-003	3.59960E-001	-1.17210E+000	3.57730E+000	10	...........
	5	0.08	6.89142E-001	5.99228E-003	0.00000E+000	4.12953E-003	3.59960E-001	-1.17194E+000	3.57730E+000	10	...........
	6	0.093333	6.96534E-001	5.99205E-003	0.00000E+000	4.17367E-003	3.59960E-001	-1.16453E+000	3.57730E+000	10	...........
	7	0.106667	7.03802E-001	5.99826E-003	0.00000E+000	4.22158E-003	3.59960E-001	-1.17171E+000	3.57730E+000	10	...........
	8	0.12	7.10915E-001	5.99368E-003	0.00000E+000	4.26099E-003	3.59960E-001	-1.17200E+000	3.57730E+000	10	...........
	9	0.133333	7.18040E-001	5.99279E-003	0.00000E+000	4.30306E-003	3.59960E-001	-1.16454E+000	3.57730E+000	10	...........
	10	0.146667	7.25102E-001	5.99702E-003	0.00000E+000	4.34846E-003	3.59960E-001	-1.17172E+000	3.57730E+000	10	...........
	11	0.16	7.32026E-001	5.99618E-003	0.00000E+000	4.38936E-003	3.59960E-001	-1.17172E+000	3.57730E+000	10	...........
	12	0.173333	7.38964E-001	5.99473E-003	0.00000E+000	4.42989E-003	3.59960E-001	-1.16420E+000	3.57724E+000	10	...........
	13	0.186667	7.45884E-001	5.99209E-003	0.00000E+000	4.46940E-003	3.59960E-001	-1.17173E+000	3.57680E+000	10	...........
	14	0.2	7.52701E-001	5.98990E-003	0.00000E+000	4.50861E-003	3.59960E-001	-1.17187E+000	3.57680E+000	10	...........
	15	0.213333	7.59530E-001	5.99638E-003	0.00000E+000	4.55443E-003	3.59960E-001	-1.16429E+000	3.57680E+000	10	...........
	16	0.226667	7.66290E-001	5.99007E-003	0.00000E+000	4.59013E-003	3.59960E-001	-1.17142E+000	3.57680E+000	10	...........
	17	0.24	7.73094E-001	5.99649E-003	0.00000E+000	4.63585E-003	3.59960E-001	-1.17148E+000	3.57680E+000	10	...........
	18	0.253333	7.79818E-001	5.99016E-003	0.00000E+000	4.67123E-003	3.59960E-001	-1.16424E+000	3.57680E+000	10	...........
	19	0.266667	7.86543E-001	5.99991E-003	0.00000E+000	4.71919E-003	3.59960E-001	-1.17183E+000	3.57680E+000	10	...........
	20	0.28	7.93248E-001	5.99233E-003	0.00000E+000	4.75340E-003	3.59960E-001	-1.17139E+000	3.57680E+000	10	...........
	21	0.293333	7.99886E-001	5.99501E-003	0.00000E+000	4.79533E-003	3.59960E-001	-1.16399E+000	3.57680E+000	10	...........
	22	0.306667	8.06500E-001	5.99834E-003	0.00000E+000	4.83766E-003	3.59960E-001	-1.17138E+000	3.57680E+000	10	...........
	23	0.32	8.13160E-001	5.99189E-003	0.00000E+000	4.87237E-003	3.59960E-001	-1.17149E+000	3.57680E+000	10	...........
	24	0.333333	8.19789E-001	5.99776E-003	0.00000E+000	4.91689E-003	3.59960E-001	-1.16378E+000	3.57680E+000	10	...........
	25	0.346667	8.26345E-001	5.99325E-003	0.00000E+000	4.95249E-003	3.59960E-001	-1.17093E+000	3.57680E+000	10	...........
	26	0.36	8.32857E-001	5.99275E-003	0.00000E+000	4.99110E-003	3.59960E-001	-1.17075E+000	3.57680E+000	10	...........
	27	0.373333	8.39373E-001	5.99517E-003	0.00000E+000	5.03218E-003	3.59960E-001	-1.16354E+000	3.57680E+000	10	...........
	28	0.386667	8.45908E-001	5.99332E-003	0.00000E+000	5.06980E-003	3.59960E-001	-1.17081E+000	3.57680E+000	10	...........
	29	0.4	8.52367E-001	5.99415E-003	0.00000E+000	5.10921E-003	3.59960E-001	-1.17083E+000	3.57680E+000	10	...........
	30	0.413333	8.58823E-001	5.98814E-003	0.00000E+000	5.14275E-003	3.59960E-001	-1.16329E+000	3.57680E+000	10	...........
	31	0.426667	8.65303E-001	5.99292E-003	0.00000E+000	5.18569E-003	3.59960E-001	-1.17071E+000	3.57680E+000	10	...........
	32	0.44	8.71703E-001	5.98706E-003	0.00000E+000	5.21894E-003	3.59960E-001	-1.17061E+000	3.57680E+000	10	...........
	33	0.453333	8.78088E-001	5.98899E-003	0.00000E+000	5.25886E-003	3.59960E-001	-1.16342E+000	3.57680E+000	10	...........
	34	0.466667	8.84454E-001	5.99643E-003	0.00000E+000	5.30357E-003	3.59960E-001	-1.17083E+000	3.57680E+000	10	...........
	35	0.48	8.90742E-001	5.99582E-003	0.00000E+000	5.34073E-003	3.59960E-001	-1.17064E+000	3.57680E+000	10	...........
	36	0.493333	8.97003E-001	5.99350E-003	0.00000E+000	5.37619E-003	3.59960E-001	-1.16306E+000	3.57680E+000	10	...........
	37	0.506667	9.03242E-001	5.99131E-003	0.00000E+000	5.41160E-003	3.59960E-001	-1.17040E+000	3.57680E+000	10	...........
	38	0.52	9.09482E-001	5.99142E-003	0.00000E+000	5.44909E-003	3.59960E-001	-1.17052E+000	3.57680E+000	10	...........
	39	0.533333	9.15688E-001	5.99621E-003	0.00000E+000	5.49066E-003	3.59960E-001	-1.16334E+000	3.57680E+000	10	...........
	40	0.546667	9.21886E-001	5.99570E-003	0.00000E+000	5.52735E-003	3.59960E-001	-1.17067E+000	3.57680E+000	10	...........
	41	0.56	9.27990E-001	5.99546E-003	0.00000E+000	5.56373E-003	3.59960E-001	-1.17054E+000	3.57680E+000	10	...........
	42	0.573333	9.34015E-001	5.99292E-003	0.00000E+000	5.59747E-003	3.59960E-001	-1.16327E+000	3.57680E+000	10	...........
	43	0.586667	9.40004E-001	5.99585E-003	0.00000E+000	5.63612E-003	3.59960E-001	-1.17081E+000	3.57680E+000	10	...........
	44	0.6	9.45999E-001	5.99153E-003	0.00000E+000	5.66798E-003	3.59960E-001	-1.17049E+000	3.57680E+000	10	...........
	45	0.613333	9.51934E-001	5.99616E-003	0.00000E+000	5.70795E-003	3.59960E-001	-1.16320E+000	3.57680E+000	10	...........
	46	0.626667	9.57778E-001	5.99491E-003	0.00000E+000	5.74179E-003	3.59960E-001	-1.17043E+000	3.57680E+000	10	...........
	47	0.64	9.63612E-001	5.99712E-003	0.00000E+000	5.77889E-003	3.59960E-001	-1.17033E+000	3.57680E+000	10	...........
	48	0.653333	9.69394E-001	5.99096E-003	0.00000E+000	5.80760E-003	3.59960E-001	-1.16300E+000	3.57680E+000	10	...........
	49	0.666667	9.75181E-001	5.99522E-003	0.00000E+000	5.84643E-003	3.59960E-001	-1.17029E+000	3.57680E+000	10	...........
	50	0.68	9.80918E-001	5.99483E-003	0.00000E+000	5.88044E-003	3.59960E-001	-1.16995E+000	3.57680E+000	10	...........
	51	0.693333	9.86569E-001	5.99698E-003	0.00000E+000	5.91644E-003	3.59960E-001	-1.16268E+000	3.57680E+000	10	...........
	52	0.706667	9.92132E-001	5.98773E-003	0.00000E+000	5.94062E-003	3.59960E-001	-1.17013E+000	3.57680E+000	10	...........
	53	0.72	9.97666E-001	5.99269E-003	0.00000E+000	5.97870E-003	3.59960E-001	-1.17000E+000	3.57680E+000	10	...........
STARTTIMEOFFSET	QUANT	1298.385	Start Time Offset (s)