File: Data/CV_CRGO300517_1/PWRCCD_CRGO300517_1/CHARGE_DISCHARGE/CHARGE_#905.DTA
EXPLAIN
TAG	PWR800_CHARGE
TITLE	LABEL	PWR Cyclic Charge Discharge (Cell) - Charge Step	Test &Identifier
DATE	LABEL	22-6-2017	Date
TIME	LABEL	16:11:10	Time
NOTES	NOTES	3	&Notes...
	supercap test cell
	0.6mg
	6M KOH
PSTAT	PSTAT	IFC5000-01520	Potentiostat
CAPACITY	QUANT	1.00000E-003	Capacity (A-hr)
CELLTYPE	SELECTOR	1	&Cell Type
WORKINGCONNECTION	SELECTOR	0	&Working Lead
MAXCHARGETIME	VARIABLEANDUNITS	1.00000E+002	s	1.00000E+002	second(s)	Max &Charge Time
CHARGECURRENT	QUANT	6.00000E-003	&Charge Current (A)
VOLTAGEFINISH	TWOPARAM	F	1.00000E-003	3.60000E+003	&Voltage Finish	 I (A) < 	Max Time(s)
SAMPLETIME	QUANT	1.00000E-002	Sa&mple Period (s)
CHARGESTOPAT1	MULTIPARAM	4	1.00000E+000	Charge Stop At &1	Voltage > Limit	V
CHARGESTOPAT2	MULTIPARAM	0	0.00000E+000	Charge Stop At &2	None	N/A
AESBHCSELECTOR	TOGGLE	F	Save Both Half Cells
IRCOMP	TOGGLE	F	IR &Measure
EOC	QUANT	0	Open Circuit (V)
SEQUENCER	TOGGLE	TRUE	Run as Sequence
PSTATMODEL	IQUANT	53	Pstat Model
PSTATSECTION	LABEL	IFC5000-01520	Pstat Section
PSTATSERIALNO	LABEL	01520	Pstat Serial Number
CTRLMODE	IQUANT	0	Control Mode
ELECTROMETER	IQUANT	1	RE=0 or CS=1
IESTAB	IQUANT	0	I/E Stability
CASPEED	IQUANT	4	Control Amp Speed
CONVENTION	IQUANT	1	Current Convention
ICHRANGE	IQUANT	2	Ich Range
ICHRANGEMODE	TOGGLE	T	Ich Auto Range
ICHOFFSETENABLE	TOGGLE	F	Ich Offset Enable
ICHOFFSET	QUANT	0	Ich Offset (V)
ICHFILTER	IQUANT	1	Ich Filter
VCHRANGE	IQUANT	2	Vch Range
VCHRANGEMODE	TOGGLE	T	Vch Auto Range
VCHOFFSETENABLE	TOGGLE	F	Vch Offset Enable
VCHOFFSET	QUANT	0	Vch Offset (V)
VCHFILTER	IQUANT	1	Vch Filter
IERANGELOWERLIMIT	IQUANT	9	I/E Range Lower Limit
IERANGEMODE	TOGGLE	F	I/E AutoRange
IERANGE	IQUANT	10	I/E Range
ACHSELECT	IQUANT	1	Ach Select
ACHRANGE	IQUANT	2	Ach Range
ACHOFFSETENABLE	TOGGLE	F	Ach Offset Enable
ACHOFFSET	QUANT	0	Ach Offset (V)
ACHFILTER	IQUANT	1	Ach Filter
CABLEID	IQUANT	14	Cable ID
DCCALDATE	LABEL	20-10-2016	DC Calibration Date
ACCALDATE	LABEL	12/3/2015	AC Calibration Date
FRAMEWORKVERSION	QUANT	7.01	Framework Version
INSTRUMENTVERSION	LABEL	4.00	Instrument Version
CURVE	TABLE	53
	Pt	T	Vf	Im	Vu	Pwr	Sig	Ach	Temp	IERange	Over
	#	s	V	A	V	W	V	V	deg C	#	bits
	0	0.013333	6.53682E-001	5.99515E-003	0.00000E+000	3.91892E-003	3.59960E-001	-1.16289E+000	3.57780E+000	10	...........
	1	0.026667	6.63034E-001	5.99523E-003	0.00000E+000	3.97504E-003	3.59960E-001	-1.17361E+000	3.57780E+000	10	...........
	2	0.04	6.71573E-001	5.99338E-003	0.00000E+000	4.02499E-003	3.59960E-001	-1.16361E+000	3.57780E+000	10	...........
	3	0.053333	6.79629E-001	5.99378E-003	0.00000E+000	4.07355E-003	3.59960E-001	-1.16261E+000	3.57780E+000	10	...........
	4	0.066667	6.87443E-001	5.99157E-003	0.00000E+000	4.11887E-003	3.59960E-001	-1.17365E+000	3.57780E+000	10	...........
	5	0.08	6.95053E-001	5.99743E-003	0.00000E+000	4.16853E-003	3.59960E-001	-1.16371E+000	3.57780E+000	10	...........
	6	0.093333	7.02443E-001	5.99429E-003	0.00000E+000	4.21065E-003	3.59960E-001	-1.16275E+000	3.57780E+000	10	...........
	7	0.106667	7.09753E-001	5.99095E-003	0.00000E+000	4.25210E-003	3.59960E-001	-1.17357E+000	3.57780E+000	10	...........
	8	0.12	7.16988E-001	5.99723E-003	0.00000E+000	4.29995E-003	3.59960E-001	-1.16331E+000	3.57780E+000	10	...........
	9	0.133333	7.24157E-001	5.99197E-003	0.00000E+000	4.33912E-003	3.59960E-001	-1.16271E+000	3.57780E+000	10	...........
	10	0.146667	7.31273E-001	5.99154E-003	0.00000E+000	4.38145E-003	3.59960E-001	-1.17371E+000	3.57780E+000	10	...........
	11	0.16	7.38338E-001	5.99797E-003	0.00000E+000	4.42853E-003	3.59960E-001	-1.16360E+000	3.57780E+000	10	...........
	12	0.173333	7.45347E-001	5.99362E-003	0.00000E+000	4.46733E-003	3.59960E-001	-1.16231E+000	3.57780E+000	10	...........
	13	0.186667	7.52282E-001	5.99455E-003	0.00000E+000	4.50960E-003	3.59960E-001	-1.17327E+000	3.57780E+000	10	...........
	14	0.2	7.59204E-001	5.99332E-003	0.00000E+000	4.55015E-003	3.59960E-001	-1.16364E+000	3.57780E+000	10	...........
	15	0.213333	7.66064E-001	5.99416E-003	0.00000E+000	4.59191E-003	3.59960E-001	-1.16265E+000	3.57780E+000	10	...........
	16	0.226667	7.72920E-001	5.99088E-003	0.00000E+000	4.63047E-003	3.59960E-001	-1.17363E+000	3.57780E+000	10	...........
	17	0.24	7.79728E-001	5.99468E-003	0.00000E+000	4.67422E-003	3.59960E-001	-1.16319E+000	3.57780E+000	10	...........
	18	0.253333	7.86539E-001	5.98746E-003	0.00000E+000	4.70937E-003	3.59960E-001	-1.16233E+000	3.57780E+000	10	...........
	19	0.266667	7.93335E-001	5.98777E-003	0.00000E+000	4.75031E-003	3.59960E-001	-1.17348E+000	3.57780E+000	10	...........
	20	0.28	8.00070E-001	5.99527E-003	0.00000E+000	4.79664E-003	3.59960E-001	-1.16314E+000	3.57780E+000	10	...........
	21	0.293333	8.06765E-001	5.99109E-003	0.00000E+000	4.83340E-003	3.59960E-001	-1.16218E+000	3.57780E+000	10	...........
	22	0.306667	8.13435E-001	5.99513E-003	0.00000E+000	4.87665E-003	3.59960E-001	-1.17295E+000	3.57780E+000	10	...........
	23	0.32	8.20102E-001	5.99360E-003	0.00000E+000	4.91537E-003	3.59960E-001	-1.16283E+000	3.57780E+000	10	...........
	24	0.333333	8.26764E-001	5.99647E-003	0.00000E+000	4.95767E-003	3.59960E-001	-1.16216E+000	3.57780E+000	10	...........
	25	0.346667	8.33362E-001	5.99386E-003	0.00000E+000	4.99506E-003	3.59960E-001	-1.17323E+000	3.57780E+000	10	...........
	26	0.36	8.39971E-001	5.99459E-003	0.00000E+000	5.03529E-003	3.59960E-001	-1.16289E+000	3.57780E+000	10	...........
	27	0.373333	8.46541E-001	5.99599E-003	0.00000E+000	5.07585E-003	3.59960E-001	-1.16217E+000	3.57780E+000	10	...........
	28	0.386667	8.53082E-001	5.99333E-003	0.00000E+000	5.11281E-003	3.59960E-001	-1.17285E+000	3.57780E+000	10	...........
	29	0.4	8.59585E-001	5.99269E-003	0.00000E+000	5.15122E-003	3.59960E-001	-1.16304E+000	3.57780E+000	10	...........
	30	0.413333	8.66058E-001	5.99395E-003	0.00000E+000	5.19111E-003	3.59960E-001	-1.16228E+000	3.57780E+000	10	...........
	31	0.426667	8.72587E-001	5.99990E-003	0.00000E+000	5.23544E-003	3.59960E-001	-1.17304E+000	3.57780E+000	10	...........
	32	0.44	8.78986E-001	5.99429E-003	0.00000E+000	5.26890E-003	3.59960E-001	-1.16259E+000	3.57780E+000	10	...........
	33	0.453333	8.85372E-001	5.99371E-003	0.00000E+000	5.30666E-003	3.59960E-001	-1.16198E+000	3.57780E+000	10	...........
	34	0.466667	8.91723E-001	5.99524E-003	0.00000E+000	5.34609E-003	3.59960E-001	-1.17304E+000	3.57780E+000	10	...........
	35	0.48	8.98021E-001	5.99587E-003	0.00000E+000	5.38442E-003	3.59960E-001	-1.16265E+000	3.57780E+000	10	...........
	36	0.493333	9.04289E-001	5.99447E-003	0.00000E+000	5.42073E-003	3.59960E-001	-1.16220E+000	3.57780E+000	10	...........
	37	0.506667	9.10562E-001	5.99038E-003	0.00000E+000	5.45461E-003	3.59960E-001	-1.17287E+000	3.57780E+000	10	...........
	38	0.52	9.16751E-001	5.99310E-003	0.00000E+000	5.49418E-003	3.59960E-001	-1.16263E+000	3.57780E+000	10	...........
	39	0.533333	9.22969E-001	5.98964E-003	0.00000E+000	5.52825E-003	3.59960E-001	-1.16210E+000	3.57780E+000	10	...........
	40	0.546667	9.29093E-001	5.99144E-003	0.00000E+000	5.56661E-003	3.59960E-001	-1.17315E+000	3.57780E+000	10	...........
	41	0.56	9.35149E-001	5.99290E-003	0.00000E+000	5.60426E-003	3.59960E-001	-1.16274E+000	3.57780E+000	10	...........
	42	0.573333	9.41153E-001	5.99167E-003	0.00000E+000	5.63908E-003	3.59960E-001	-1.16187E+000	3.57780E+000	10	...........
	43	0.586667	9.47167E-001	5.99134E-003	0.00000E+000	5.67480E-003	3.59960E-001	-1.17275E+000	3.57780E+000	10	...........
	44	0.6	9.53124E-001	5.99157E-003	0.00000E+000	5.71071E-003	3.59960E-001	-1.16240E+000	3.57780E+000	10	...........
	45	0.613333	9.59011E-001	5.98973E-003	0.00000E+000	5.74422E-003	3.59960E-001	-1.16179E+000	3.57780E+000	10	...........
	46	0.626667	9.64847E-001	5.99248E-003	0.00000E+000	5.78183E-003	3.59960E-001	-1.17265E+000	3.57780E+000	10	...........
	47	0.64	9.70632E-001	5.99413E-003	0.00000E+000	5.81809E-003	3.59960E-001	-1.16203E+000	3.57780E+000	10	...........
	48	0.653333	9.76426E-001	5.99317E-003	0.00000E+000	5.85189E-003	3.59960E-001	-1.16166E+000	3.57780E+000	10	...........
	49	0.666667	9.82121E-001	5.99575E-003	0.00000E+000	5.88855E-003	3.59960E-001	-1.17257E+000	3.57780E+000	10	...........
	50	0.68	9.87739E-001	5.99760E-003	0.00000E+000	5.92406E-003	3.59960E-001	-1.16231E+000	3.57780E+000	10	...........
	51	0.693333	9.93301E-001	5.98969E-003	0.00000E+000	5.94957E-003	3.59960E-001	-1.16164E+000	3.57780E+000	10	...........
	52	0.705	9.98488E-001	5.99719E-003	0.00000E+000	5.98812E-003	3.59960E-001	-1.17314E+000	3.57780E+000	10	...........
STARTTIMEOFFSET	QUANT	1453.084	Start Time Offset (s)