File: Data/CV_CRGO300517_1/PWRCCD_CRGO300517_1/CHARGE_DISCHARGE/CHARGE_#626.DTA
EXPLAIN
TAG	PWR800_CHARGE
TITLE	LABEL	PWR Cyclic Charge Discharge (Cell) - Charge Step	Test &Identifier
DATE	LABEL	22-6-2017	Date
TIME	LABEL	16:00:45	Time
NOTES	NOTES	3	&Notes...
	supercap test cell
	0.6mg
	6M KOH
PSTAT	PSTAT	IFC5000-01520	Potentiostat
CAPACITY	QUANT	1.00000E-003	Capacity (A-hr)
CELLTYPE	SELECTOR	1	&Cell Type
WORKINGCONNECTION	SELECTOR	0	&Working Lead
MAXCHARGETIME	VARIABLEANDUNITS	1.00000E+002	s	1.00000E+002	second(s)	Max &Charge Time
CHARGECURRENT	QUANT	6.00000E-003	&Charge Current (A)
VOLTAGEFINISH	TWOPARAM	F	1.00000E-003	3.60000E+003	&Voltage Finish	 I (A) < 	Max Time(s)
SAMPLETIME	QUANT	1.00000E-002	Sa&mple Period (s)
CHARGESTOPAT1	MULTIPARAM	4	1.00000E+000	Charge Stop At &1	Voltage > Limit	V
CHARGESTOPAT2	MULTIPARAM	0	0.00000E+000	Charge Stop At &2	None	N/A
AESBHCSELECTOR	TOGGLE	F	Save Both Half Cells
IRCOMP	TOGGLE	F	IR &Measure
EOC	QUANT	0	Open Circuit (V)
SEQUENCER	TOGGLE	TRUE	Run as Sequence
PSTATMODEL	IQUANT	53	Pstat Model
PSTATSECTION	LABEL	IFC5000-01520	Pstat Section
PSTATSERIALNO	LABEL	01520	Pstat Serial Number
CTRLMODE	IQUANT	0	Control Mode
ELECTROMETER	IQUANT	1	RE=0 or CS=1
IESTAB	IQUANT	0	I/E Stability
CASPEED	IQUANT	4	Control Amp Speed
CONVENTION	IQUANT	1	Current Convention
ICHRANGE	IQUANT	2	Ich Range
ICHRANGEMODE	TOGGLE	T	Ich Auto Range
ICHOFFSETENABLE	TOGGLE	F	Ich Offset Enable
ICHOFFSET	QUANT	0	Ich Offset (V)
ICHFILTER	IQUANT	1	Ich Filter
VCHRANGE	IQUANT	2	Vch Range
VCHRANGEMODE	TOGGLE	T	Vch Auto Range
VCHOFFSETENABLE	TOGGLE	F	Vch Offset Enable
VCHOFFSET	QUANT	0	Vch Offset (V)
VCHFILTER	IQUANT	1	Vch Filter
IERANGELOWERLIMIT	IQUANT	9	I/E Range Lower Limit
IERANGEMODE	TOGGLE	F	I/E AutoRange
IERANGE	IQUANT	10	I/E Range
ACHSELECT	IQUANT	1	Ach Select
ACHRANGE	IQUANT	2	Ach Range
ACHOFFSETENABLE	TOGGLE	F	Ach Offset Enable
ACHOFFSET	QUANT	0	Ach Offset (V)
ACHFILTER	IQUANT	1	Ach Filter
CABLEID	IQUANT	14	Cable ID
DCCALDATE	LABEL	20-10-2016	DC Calibration Date
ACCALDATE	LABEL	12/3/2015	AC Calibration Date
FRAMEWORKVERSION	QUANT	7.01	Framework Version
INSTRUMENTVERSION	LABEL	4.00	Instrument Version
CURVE	TABLE	57
	Pt	T	Vf	Im	Vu	Pwr	Sig	Ach	Temp	IERange	Over
	#	s	V	A	V	W	V	V	deg C	#	bits
	0	0.013333	6.39069E-001	5.99625E-003	0.00000E+000	3.83202E-003	3.59960E-001	-1.15455E+000	3.57690E+000	10	...........
	1	0.026667	6.48091E-001	5.99021E-003	0.00000E+000	3.88221E-003	3.59960E-001	-1.14634E+000	3.57690E+000	10	...........
	2	0.04	6.56397E-001	5.99355E-003	0.00000E+000	3.93415E-003	3.59960E-001	-1.14343E+000	3.57690E+000	10	...........
	3	0.053333	6.64290E-001	5.99506E-003	0.00000E+000	3.98246E-003	3.59960E-001	-1.15450E+000	3.57690E+000	10	...........
	4	0.066667	6.71876E-001	5.99295E-003	0.00000E+000	4.02652E-003	3.59960E-001	-1.14630E+000	3.57690E+000	10	...........
	5	0.08	6.79265E-001	5.99607E-003	0.00000E+000	4.07292E-003	3.59960E-001	-1.14330E+000	3.57690E+000	10	...........
	6	0.093333	6.86471E-001	5.99495E-003	0.00000E+000	4.11536E-003	3.59960E-001	-1.15401E+000	3.57690E+000	10	...........
	7	0.106667	6.93622E-001	5.99181E-003	0.00000E+000	4.15605E-003	3.59960E-001	-1.14585E+000	3.57690E+000	10	...........
	8	0.12	7.00663E-001	5.99334E-003	0.00000E+000	4.19932E-003	3.59960E-001	-1.14322E+000	3.57690E+000	10	...........
	9	0.133333	7.07643E-001	5.99371E-003	0.00000E+000	4.24141E-003	3.59960E-001	-1.15410E+000	3.57690E+000	10	...........
	10	0.146667	7.14545E-001	5.99244E-003	0.00000E+000	4.28186E-003	3.59960E-001	-1.14577E+000	3.57690E+000	10	...........
	11	0.16	7.21437E-001	5.99600E-003	0.00000E+000	4.32574E-003	3.59960E-001	-1.14306E+000	3.57690E+000	10	...........
	12	0.173333	7.28255E-001	5.99632E-003	0.00000E+000	4.36685E-003	3.59960E-001	-1.15392E+000	3.57690E+000	10	...........
	13	0.186667	7.34945E-001	5.99613E-003	0.00000E+000	4.40682E-003	3.59960E-001	-1.14572E+000	3.57690E+000	10	...........
	14	0.2	7.41711E-001	5.99209E-003	0.00000E+000	4.44440E-003	3.59960E-001	-1.14312E+000	3.57690E+000	10	...........
	15	0.213333	7.48453E-001	5.99347E-003	0.00000E+000	4.48583E-003	3.59960E-001	-1.15410E+000	3.57690E+000	10	...........
	16	0.226667	7.55110E-001	5.99523E-003	0.00000E+000	4.52706E-003	3.59960E-001	-1.14533E+000	3.57690E+000	10	...........
	17	0.24	7.61706E-001	5.99150E-003	0.00000E+000	4.56376E-003	3.59960E-001	-1.14295E+000	3.57690E+000	10	...........
	18	0.253333	7.68340E-001	5.99597E-003	0.00000E+000	4.60694E-003	3.59960E-001	-1.15403E+000	3.57690E+000	10	...........
	19	0.266667	7.74951E-001	5.99050E-003	0.00000E+000	4.64234E-003	3.59960E-001	-1.14545E+000	3.57690E+000	10	...........
	20	0.28	7.81554E-001	5.99695E-003	0.00000E+000	4.68694E-003	3.59960E-001	-1.14310E+000	3.57690E+000	10	...........
	21	0.293333	7.88108E-001	6.00255E-003	0.00000E+000	4.73066E-003	3.59960E-001	-1.15396E+000	3.57690E+000	10	...........
	22	0.306667	7.94693E-001	5.99556E-003	0.00000E+000	4.76463E-003	3.59960E-001	-1.14564E+000	3.57690E+000	10	...........
	23	0.32	8.01263E-001	5.99326E-003	0.00000E+000	4.80218E-003	3.59960E-001	-1.14337E+000	3.57690E+000	10	...........
	24	0.333333	8.07765E-001	5.99309E-003	0.00000E+000	4.84101E-003	3.59960E-001	-1.15421E+000	3.57690E+000	10	...........
	25	0.346667	8.14288E-001	5.99207E-003	0.00000E+000	4.87927E-003	3.59960E-001	-1.14539E+000	3.57690E+000	10	...........
	26	0.36	8.20795E-001	5.99539E-003	0.00000E+000	4.92099E-003	3.59960E-001	-1.14307E+000	3.57690E+000	10	...........
	27	0.373333	8.27253E-001	5.99249E-003	0.00000E+000	4.95730E-003	3.59960E-001	-1.15415E+000	3.57690E+000	10	...........
	28	0.386667	8.33679E-001	5.99100E-003	0.00000E+000	4.99457E-003	3.59960E-001	-1.14536E+000	3.57690E+000	10	...........
	29	0.4	8.40087E-001	5.99521E-003	0.00000E+000	5.03650E-003	3.59960E-001	-1.14309E+000	3.57690E+000	10	...........
	30	0.413333	8.46535E-001	5.99180E-003	0.00000E+000	5.07227E-003	3.59960E-001	-1.15391E+000	3.57690E+000	10	...........
	31	0.426667	8.52937E-001	5.99081E-003	0.00000E+000	5.10978E-003	3.59960E-001	-1.14488E+000	3.57690E+000	10	...........
	32	0.44	8.59304E-001	5.99201E-003	0.00000E+000	5.14896E-003	3.59960E-001	-1.14275E+000	3.57690E+000	10	...........
	33	0.453333	8.65616E-001	5.99138E-003	0.00000E+000	5.18623E-003	3.59960E-001	-1.15381E+000	3.57690E+000	10	...........
	34	0.466667	8.71985E-001	5.99394E-003	0.00000E+000	5.22663E-003	3.59960E-001	-1.14488E+000	3.57684E+000	10	...........
	35	0.48	8.78268E-001	5.99266E-003	0.00000E+000	5.26316E-003	3.59960E-001	-1.14272E+000	3.57680E+000	10	...........
	36	0.493333	8.84553E-001	5.99169E-003	0.00000E+000	5.29997E-003	3.59960E-001	-1.15378E+000	3.57680E+000	10	...........
	37	0.506667	8.90735E-001	5.98918E-003	0.00000E+000	5.33477E-003	3.59960E-001	-1.14440E+000	3.57680E+000	10	...........
	38	0.52	8.96920E-001	5.99453E-003	0.00000E+000	5.37661E-003	3.59960E-001	-1.14275E+000	3.57680E+000	10	...........
	39	0.533333	9.03112E-001	5.99568E-003	0.00000E+000	5.41477E-003	3.59960E-001	-1.15370E+000	3.57680E+000	10	...........
	40	0.546667	9.09255E-001	5.99479E-003	0.00000E+000	5.45080E-003	3.59960E-001	-1.14442E+000	3.57680E+000	10	...........
	41	0.56	9.15378E-001	5.98974E-003	0.00000E+000	5.48288E-003	3.59960E-001	-1.14252E+000	3.57680E+000	10	...........
	42	0.573333	9.21515E-001	5.99230E-003	0.00000E+000	5.52199E-003	3.59960E-001	-1.15365E+000	3.57680E+000	10	...........
	43	0.586667	9.27548E-001	5.98944E-003	0.00000E+000	5.55550E-003	3.59960E-001	-1.14430E+000	3.57680E+000	10	...........
	44	0.6	9.33527E-001	5.99188E-003	0.00000E+000	5.59358E-003	3.59960E-001	-1.14277E+000	3.57680E+000	10	...........
	45	0.613333	9.39468E-001	5.99071E-003	0.00000E+000	5.62808E-003	3.59960E-001	-1.15386E+000	3.57680E+000	10	...........
	46	0.626667	9.45386E-001	5.99651E-003	0.00000E+000	5.66902E-003	3.59960E-001	-1.14439E+000	3.57680E+000	10	...........
	47	0.64	9.51295E-001	5.99348E-003	0.00000E+000	5.70156E-003	3.59960E-001	-1.14278E+000	3.57680E+000	10	...........
	48	0.653333	9.57136E-001	5.99544E-003	0.00000E+000	5.73845E-003	3.59960E-001	-1.15416E+000	3.57680E+000	10	...........
	49	0.666667	9.62920E-001	5.98857E-003	0.00000E+000	5.76651E-003	3.59960E-001	-1.14436E+000	3.57680E+000	10	...........
	50	0.68	9.68684E-001	5.99375E-003	0.00000E+000	5.80605E-003	3.59960E-001	-1.14282E+000	3.57680E+000	10	...........
	51	0.693333	9.74448E-001	5.99144E-003	0.00000E+000	5.83835E-003	3.59960E-001	-1.15380E+000	3.57680E+000	10	...........
	52	0.706667	9.80109E-001	5.99190E-003	0.00000E+000	5.87272E-003	3.59960E-001	-1.14410E+000	3.57680E+000	10	...........
	53	0.72	9.85692E-001	5.99223E-003	0.00000E+000	5.90649E-003	3.59960E-001	-1.14294E+000	3.57680E+000	10	...........
	54	0.733333	9.91253E-001	5.99445E-003	0.00000E+000	5.94202E-003	3.59960E-001	-1.15366E+000	3.57680E+000	10	...........
	55	0.746667	9.96738E-001	5.99107E-003	0.00000E+000	5.97152E-003	3.59960E-001	-1.14387E+000	3.57680E+000	10	...........
	56	0.75	1.00023E+000	5.99851E-003	0.00000E+000	5.99988E-003	3.59960E-001	-1.15536E+000	3.57680E+000	10	...........
STARTTIMEOFFSET	QUANT	1049.807	Start Time Offset (s)