File: Data/CV_CRGO300517_1/PWRCCD_CRGO300517_1/CHARGE_DISCHARGE/CHARGE_#907.DTA
EXPLAIN
TAG	PWR800_CHARGE
TITLE	LABEL	PWR Cyclic Charge Discharge (Cell) - Charge Step	Test &Identifier
DATE	LABEL	22-6-2017	Date
TIME	LABEL	16:11:14	Time
NOTES	NOTES	3	&Notes...
	supercap test cell
	0.6mg
	6M KOH
PSTAT	PSTAT	IFC5000-01520	Potentiostat
CAPACITY	QUANT	1.00000E-003	Capacity (A-hr)
CELLTYPE	SELECTOR	1	&Cell Type
WORKINGCONNECTION	SELECTOR	0	&Working Lead
MAXCHARGETIME	VARIABLEANDUNITS	1.00000E+002	s	1.00000E+002	second(s)	Max &Charge Time
CHARGECURRENT	QUANT	6.00000E-003	&Charge Current (A)
VOLTAGEFINISH	TWOPARAM	F	1.00000E-003	3.60000E+003	&Voltage Finish	 I (A) < 	Max Time(s)
SAMPLETIME	QUANT	1.00000E-002	Sa&mple Period (s)
CHARGESTOPAT1	MULTIPARAM	4	1.00000E+000	Charge Stop At &1	Voltage > Limit	V
CHARGESTOPAT2	MULTIPARAM	0	0.00000E+000	Charge Stop At &2	None	N/A
AESBHCSELECTOR	TOGGLE	F	Save Both Half Cells
IRCOMP	TOGGLE	F	IR &Measure
EOC	QUANT	0	Open Circuit (V)
SEQUENCER	TOGGLE	TRUE	Run as Sequence
PSTATMODEL	IQUANT	53	Pstat Model
PSTATSECTION	LABEL	IFC5000-01520	Pstat Section
PSTATSERIALNO	LABEL	01520	Pstat Serial Number
CTRLMODE	IQUANT	0	Control Mode
ELECTROMETER	IQUANT	1	RE=0 or CS=1
IESTAB	IQUANT	0	I/E Stability
CASPEED	IQUANT	4	Control Amp Speed
CONVENTION	IQUANT	1	Current Convention
ICHRANGE	IQUANT	2	Ich Range
ICHRANGEMODE	TOGGLE	T	Ich Auto Range
ICHOFFSETENABLE	TOGGLE	F	Ich Offset Enable
ICHOFFSET	QUANT	0	Ich Offset (V)
ICHFILTER	IQUANT	1	Ich Filter
VCHRANGE	IQUANT	2	Vch Range
VCHRANGEMODE	TOGGLE	T	Vch Auto Range
VCHOFFSETENABLE	TOGGLE	F	Vch Offset Enable
VCHOFFSET	QUANT	0	Vch Offset (V)
VCHFILTER	IQUANT	1	Vch Filter
IERANGELOWERLIMIT	IQUANT	9	I/E Range Lower Limit
IERANGEMODE	TOGGLE	F	I/E AutoRange
IERANGE	IQUANT	10	I/E Range
ACHSELECT	IQUANT	1	Ach Select
ACHRANGE	IQUANT	2	Ach Range
ACHOFFSETENABLE	TOGGLE	F	Ach Offset Enable
ACHOFFSET	QUANT	0	Ach Offset (V)
ACHFILTER	IQUANT	1	Ach Filter
CABLEID	IQUANT	14	Cable ID
DCCALDATE	LABEL	20-10-2016	DC Calibration Date
ACCALDATE	LABEL	12/3/2015	AC Calibration Date
FRAMEWORKVERSION	QUANT	7.01	Framework Version
INSTRUMENTVERSION	LABEL	4.00	Instrument Version
CURVE	TABLE	53
	Pt	T	Vf	Im	Vu	Pwr	Sig	Ach	Temp	IERange	Over
	#	s	V	A	V	W	V	V	deg C	#	bits
	0	0.013333	6.53034E-001	5.99056E-003	0.00000E+000	3.91204E-003	3.59960E-001	-1.16802E+000	3.57630E+000	10	...........
	1	0.026667	6.62320E-001	5.99484E-003	0.00000E+000	3.97051E-003	3.59960E-001	-1.16394E+000	3.57630E+000	10	...........
	2	0.04	6.70894E-001	5.99357E-003	0.00000E+000	4.02105E-003	3.59960E-001	-1.17406E+000	3.57630E+000	10	...........
	3	0.053333	6.78953E-001	5.98938E-003	0.00000E+000	4.06651E-003	3.59960E-001	-1.16761E+000	3.57630E+000	10	...........
	4	0.066667	6.86756E-001	5.99421E-003	0.00000E+000	4.11656E-003	3.59960E-001	-1.16388E+000	3.57630E+000	10	...........
	5	0.08	6.94376E-001	5.99303E-003	0.00000E+000	4.16142E-003	3.59960E-001	-1.17409E+000	3.57630E+000	10	...........
	6	0.093333	7.01819E-001	5.99381E-003	0.00000E+000	4.20657E-003	3.59960E-001	-1.16771E+000	3.57630E+000	10	...........
	7	0.106667	7.09126E-001	5.99681E-003	0.00000E+000	4.25249E-003	3.59960E-001	-1.16317E+000	3.57630E+000	10	...........
	8	0.12	7.16362E-001	5.99341E-003	0.00000E+000	4.29345E-003	3.59960E-001	-1.17357E+000	3.57630E+000	10	...........
	9	0.133333	7.23564E-001	5.98746E-003	0.00000E+000	4.33231E-003	3.59960E-001	-1.16720E+000	3.57630E+000	10	...........
	10	0.146667	7.30663E-001	5.99031E-003	0.00000E+000	4.37690E-003	3.59960E-001	-1.16324E+000	3.57630E+000	10	...........
	11	0.16	7.37731E-001	5.99407E-003	0.00000E+000	4.42201E-003	3.59960E-001	-1.17371E+000	3.57630E+000	10	...........
	12	0.173333	7.44762E-001	5.99407E-003	0.00000E+000	4.46416E-003	3.59960E-001	-1.16699E+000	3.57630E+000	10	...........
	13	0.186667	7.51726E-001	5.99484E-003	0.00000E+000	4.50648E-003	3.59960E-001	-1.16301E+000	3.57630E+000	10	...........
	14	0.2	7.58681E-001	5.98975E-003	0.00000E+000	4.54431E-003	3.59960E-001	-1.17338E+000	3.57630E+000	10	...........
	15	0.213333	7.65550E-001	5.99452E-003	0.00000E+000	4.58910E-003	3.59960E-001	-1.16716E+000	3.57630E+000	10	...........
	16	0.226667	7.72392E-001	5.99548E-003	0.00000E+000	4.63086E-003	3.59960E-001	-1.16289E+000	3.57630E+000	10	...........
	17	0.24	7.79212E-001	5.99222E-003	0.00000E+000	4.66921E-003	3.59960E-001	-1.17334E+000	3.57630E+000	10	...........
	18	0.253333	7.86030E-001	5.99338E-003	0.00000E+000	4.71098E-003	3.59960E-001	-1.16690E+000	3.57630E+000	10	...........
	19	0.266667	7.92796E-001	5.99322E-003	0.00000E+000	4.75140E-003	3.59960E-001	-1.16290E+000	3.57630E+000	10	...........
	20	0.28	7.99577E-001	5.99174E-003	0.00000E+000	4.79086E-003	3.59960E-001	-1.17335E+000	3.57630E+000	10	...........
	21	0.293333	8.06336E-001	5.99649E-003	0.00000E+000	4.83519E-003	3.59960E-001	-1.16681E+000	3.57630E+000	10	...........
	22	0.306667	8.12967E-001	5.99188E-003	0.00000E+000	4.87120E-003	3.59960E-001	-1.16256E+000	3.57630E+000	10	...........
	23	0.32	8.19638E-001	5.99070E-003	0.00000E+000	4.91021E-003	3.59960E-001	-1.17339E+000	3.57630E+000	10	...........
	24	0.333333	8.26268E-001	5.99518E-003	0.00000E+000	4.95363E-003	3.59960E-001	-1.16691E+000	3.57630E+000	10	...........
	25	0.346667	8.32886E-001	5.99368E-003	0.00000E+000	4.99205E-003	3.59960E-001	-1.16295E+000	3.57630E+000	10	...........
	26	0.36	8.39437E-001	5.99181E-003	0.00000E+000	5.02975E-003	3.59960E-001	-1.17331E+000	3.57630E+000	10	...........
	27	0.373333	8.46102E-001	5.99297E-003	0.00000E+000	5.07066E-003	3.59960E-001	-1.16675E+000	3.57656E+000	10	...........
	28	0.386667	8.52631E-001	5.99754E-003	0.00000E+000	5.11368E-003	3.59960E-001	-1.16283E+000	3.57660E+000	10	...........
	29	0.4	8.59104E-001	5.99417E-003	0.00000E+000	5.14962E-003	3.59960E-001	-1.17327E+000	3.57660E+000	10	...........
	30	0.413333	8.65593E-001	5.99448E-003	0.00000E+000	5.18878E-003	3.59960E-001	-1.16697E+000	3.57660E+000	10	...........
	31	0.426667	8.72080E-001	5.99383E-003	0.00000E+000	5.22710E-003	3.59960E-001	-1.16245E+000	3.57660E+000	10	...........
	32	0.44	8.78489E-001	5.99119E-003	0.00000E+000	5.26320E-003	3.59960E-001	-1.17298E+000	3.57660E+000	10	...........
	33	0.453333	8.84895E-001	5.99644E-003	0.00000E+000	5.30622E-003	3.59960E-001	-1.16656E+000	3.57660E+000	10	...........
	34	0.466667	8.91268E-001	5.99011E-003	0.00000E+000	5.33879E-003	3.59960E-001	-1.16265E+000	3.57660E+000	10	...........
	35	0.48	8.97596E-001	5.99011E-003	0.00000E+000	5.37670E-003	3.59960E-001	-1.17315E+000	3.57660E+000	10	...........
	36	0.493333	9.03871E-001	5.99790E-003	0.00000E+000	5.42133E-003	3.59960E-001	-1.16656E+000	3.57660E+000	10	...........
	37	0.506667	9.10122E-001	5.99390E-003	0.00000E+000	5.45518E-003	3.59960E-001	-1.16240E+000	3.57660E+000	10	...........
	38	0.52	9.16332E-001	5.99462E-003	0.00000E+000	5.49306E-003	3.59960E-001	-1.17295E+000	3.57660E+000	10	...........
	39	0.533333	9.22540E-001	5.99359E-003	0.00000E+000	5.52933E-003	3.59960E-001	-1.16660E+000	3.57660E+000	10	...........
	40	0.546667	9.28685E-001	5.99495E-003	0.00000E+000	5.56742E-003	3.59960E-001	-1.16246E+000	3.57660E+000	10	...........
	41	0.56	9.34777E-001	5.99330E-003	0.00000E+000	5.60240E-003	3.59960E-001	-1.17286E+000	3.57660E+000	10	...........
	42	0.573333	9.40800E-001	5.99400E-003	0.00000E+000	5.63915E-003	3.59960E-001	-1.16649E+000	3.57660E+000	10	...........
	43	0.586667	9.46818E-001	5.99417E-003	0.00000E+000	5.67539E-003	3.59960E-001	-1.16221E+000	3.57660E+000	10	...........
	44	0.6	9.52779E-001	5.99460E-003	0.00000E+000	5.71153E-003	3.59960E-001	-1.17276E+000	3.57660E+000	10	...........
	45	0.613333	9.58652E-001	5.99262E-003	0.00000E+000	5.74484E-003	3.59960E-001	-1.16646E+000	3.57660E+000	10	...........
	46	0.626667	9.64487E-001	5.98842E-003	0.00000E+000	5.77575E-003	3.59960E-001	-1.16214E+000	3.57660E+000	10	...........
	47	0.64	9.70303E-001	5.99360E-003	0.00000E+000	5.81561E-003	3.59960E-001	-1.17282E+000	3.57660E+000	10	...........
	48	0.653333	9.76101E-001	5.99197E-003	0.00000E+000	5.84877E-003	3.59960E-001	-1.16640E+000	3.57660E+000	10	...........
	49	0.666667	9.81781E-001	5.99180E-003	0.00000E+000	5.88263E-003	3.59960E-001	-1.16238E+000	3.57660E+000	10	...........
	50	0.68	9.87366E-001	5.99462E-003	0.00000E+000	5.91888E-003	3.59960E-001	-1.17306E+000	3.57660E+000	10	...........
	51	0.693333	9.92924E-001	5.99391E-003	0.00000E+000	5.95149E-003	3.59960E-001	-1.16641E+000	3.57660E+000	10	...........
	52	0.705	9.98146E-001	5.99121E-003	0.00000E+000	5.98010E-003	3.59960E-001	-1.16161E+000	3.57660E+000	10	...........
STARTTIMEOFFSET	QUANT	1455.887	Start Time Offset (s)