File: Data/CV_CRGO300517_1/PWRCCD_CRGO300517_1/CHARGE_DISCHARGE/CHARGE_#423.DTA
EXPLAIN
TAG	PWR800_CHARGE
TITLE	LABEL	PWR Cyclic Charge Discharge (Cell) - Charge Step	Test &Identifier
DATE	LABEL	22-6-2017	Date
TIME	LABEL	15:52:53	Time
NOTES	NOTES	3	&Notes...
	supercap test cell
	0.6mg
	6M KOH
PSTAT	PSTAT	IFC5000-01520	Potentiostat
CAPACITY	QUANT	1.00000E-003	Capacity (A-hr)
CELLTYPE	SELECTOR	1	&Cell Type
WORKINGCONNECTION	SELECTOR	0	&Working Lead
MAXCHARGETIME	VARIABLEANDUNITS	1.00000E+002	s	1.00000E+002	second(s)	Max &Charge Time
CHARGECURRENT	QUANT	6.00000E-003	&Charge Current (A)
VOLTAGEFINISH	TWOPARAM	F	1.00000E-003	3.60000E+003	&Voltage Finish	 I (A) < 	Max Time(s)
SAMPLETIME	QUANT	1.00000E-002	Sa&mple Period (s)
CHARGESTOPAT1	MULTIPARAM	4	1.00000E+000	Charge Stop At &1	Voltage > Limit	V
CHARGESTOPAT2	MULTIPARAM	0	0.00000E+000	Charge Stop At &2	None	N/A
AESBHCSELECTOR	TOGGLE	F	Save Both Half Cells
IRCOMP	TOGGLE	F	IR &Measure
EOC	QUANT	0	Open Circuit (V)
SEQUENCER	TOGGLE	TRUE	Run as Sequence
PSTATMODEL	IQUANT	53	Pstat Model
PSTATSECTION	LABEL	IFC5000-01520	Pstat Section
PSTATSERIALNO	LABEL	01520	Pstat Serial Number
CTRLMODE	IQUANT	0	Control Mode
ELECTROMETER	IQUANT	1	RE=0 or CS=1
IESTAB	IQUANT	0	I/E Stability
CASPEED	IQUANT	4	Control Amp Speed
CONVENTION	IQUANT	1	Current Convention
ICHRANGE	IQUANT	2	Ich Range
ICHRANGEMODE	TOGGLE	T	Ich Auto Range
ICHOFFSETENABLE	TOGGLE	F	Ich Offset Enable
ICHOFFSET	QUANT	0	Ich Offset (V)
ICHFILTER	IQUANT	1	Ich Filter
VCHRANGE	IQUANT	2	Vch Range
VCHRANGEMODE	TOGGLE	T	Vch Auto Range
VCHOFFSETENABLE	TOGGLE	F	Vch Offset Enable
VCHOFFSET	QUANT	0	Vch Offset (V)
VCHFILTER	IQUANT	1	Vch Filter
IERANGELOWERLIMIT	IQUANT	9	I/E Range Lower Limit
IERANGEMODE	TOGGLE	F	I/E AutoRange
IERANGE	IQUANT	10	I/E Range
ACHSELECT	IQUANT	1	Ach Select
ACHRANGE	IQUANT	2	Ach Range
ACHOFFSETENABLE	TOGGLE	F	Ach Offset Enable
ACHOFFSET	QUANT	0	Ach Offset (V)
ACHFILTER	IQUANT	1	Ach Filter
CABLEID	IQUANT	14	Cable ID
DCCALDATE	LABEL	20-10-2016	DC Calibration Date
ACCALDATE	LABEL	12/3/2015	AC Calibration Date
FRAMEWORKVERSION	QUANT	7.01	Framework Version
INSTRUMENTVERSION	LABEL	4.00	Instrument Version
CURVE	TABLE	60
	Pt	T	Vf	Im	Vu	Pwr	Sig	Ach	Temp	IERange	Over
	#	s	V	A	V	W	V	V	deg C	#	bits
	0	0.013333	6.26305E-001	5.99306E-003	0.00000E+000	3.75348E-003	3.59960E-001	-1.13579E+000	3.57730E+000	10	...........
	1	0.026667	6.35024E-001	5.99729E-003	0.00000E+000	3.80842E-003	3.59960E-001	-1.13078E+000	3.57730E+000	10	...........
	2	0.04	6.43131E-001	5.99524E-003	0.00000E+000	3.85572E-003	3.59960E-001	-1.13991E+000	3.57730E+000	10	...........
	3	0.053333	6.50791E-001	5.99434E-003	0.00000E+000	3.90107E-003	3.59960E-001	-1.13563E+000	3.57730E+000	10	...........
	4	0.066667	6.58173E-001	5.99886E-003	0.00000E+000	3.94829E-003	3.59960E-001	-1.13089E+000	3.57730E+000	10	...........
	5	0.08	6.65363E-001	5.99648E-003	0.00000E+000	3.98984E-003	3.59960E-001	-1.13980E+000	3.57730E+000	10	...........
	6	0.093333	6.72393E-001	5.99545E-003	0.00000E+000	4.03130E-003	3.59960E-001	-1.13547E+000	3.57730E+000	10	...........
	7	0.106667	6.79328E-001	5.99670E-003	0.00000E+000	4.07373E-003	3.59960E-001	-1.13068E+000	3.57730E+000	10	...........
	8	0.12	6.86182E-001	5.99052E-003	0.00000E+000	4.11058E-003	3.59960E-001	-1.14022E+000	3.57730E+000	10	...........
	9	0.133333	6.92987E-001	5.99308E-003	0.00000E+000	4.15313E-003	3.59960E-001	-1.13554E+000	3.57730E+000	10	...........
	10	0.146667	6.99710E-001	5.99508E-003	0.00000E+000	4.19482E-003	3.59960E-001	-1.13050E+000	3.57730E+000	10	...........
	11	0.16	7.06398E-001	5.99171E-003	0.00000E+000	4.23253E-003	3.59960E-001	-1.13979E+000	3.57730E+000	10	...........
	12	0.173333	7.13004E-001	5.99300E-003	0.00000E+000	4.27303E-003	3.59960E-001	-1.13526E+000	3.57730E+000	10	...........
	13	0.186667	7.19632E-001	5.99226E-003	0.00000E+000	4.31222E-003	3.59960E-001	-1.13065E+000	3.57730E+000	10	...........
	14	0.2	7.26200E-001	5.99666E-003	0.00000E+000	4.35478E-003	3.59960E-001	-1.13982E+000	3.57730E+000	10	...........
	15	0.213333	7.32738E-001	5.99631E-003	0.00000E+000	4.39372E-003	3.59960E-001	-1.13505E+000	3.57730E+000	10	...........
	16	0.226667	7.39224E-001	5.99624E-003	0.00000E+000	4.43257E-003	3.59960E-001	-1.13045E+000	3.57730E+000	10	...........
	17	0.24	7.45741E-001	5.99419E-003	0.00000E+000	4.47011E-003	3.59960E-001	-1.13995E+000	3.57730E+000	10	...........
	18	0.253333	7.52211E-001	5.99276E-003	0.00000E+000	4.50782E-003	3.59960E-001	-1.13511E+000	3.57730E+000	10	...........
	19	0.266667	7.58650E-001	5.99345E-003	0.00000E+000	4.54693E-003	3.59960E-001	-1.13030E+000	3.57730E+000	10	...........
	20	0.28	7.65097E-001	5.99186E-003	0.00000E+000	4.58436E-003	3.59960E-001	-1.13997E+000	3.57730E+000	10	...........
	21	0.293333	7.71518E-001	5.99035E-003	0.00000E+000	4.62166E-003	3.59960E-001	-1.13487E+000	3.57730E+000	10	...........
	22	0.306667	7.77908E-001	5.99322E-003	0.00000E+000	4.66217E-003	3.59960E-001	-1.13038E+000	3.57730E+000	10	...........
	23	0.32	7.84306E-001	5.99451E-003	0.00000E+000	4.70153E-003	3.59960E-001	-1.13999E+000	3.57730E+000	10	...........
	24	0.333333	7.90672E-001	5.99669E-003	0.00000E+000	4.74141E-003	3.59960E-001	-1.13455E+000	3.57730E+000	10	...........
	25	0.346667	7.97049E-001	5.99403E-003	0.00000E+000	4.77754E-003	3.59960E-001	-1.12956E+000	3.57730E+000	10	...........
	26	0.36	8.03421E-001	5.99524E-003	0.00000E+000	4.81670E-003	3.59960E-001	-1.13940E+000	3.57730E+000	10	...........
	27	0.373333	8.09769E-001	5.99610E-003	0.00000E+000	4.85545E-003	3.59960E-001	-1.13424E+000	3.57730E+000	10	...........
	28	0.386667	8.16116E-001	5.99584E-003	0.00000E+000	4.89330E-003	3.59960E-001	-1.12990E+000	3.57730E+000	10	...........
	29	0.4	8.22435E-001	5.99644E-003	0.00000E+000	4.93168E-003	3.59960E-001	-1.13968E+000	3.57730E+000	10	...........
	30	0.413333	8.28776E-001	5.99126E-003	0.00000E+000	4.96541E-003	3.59960E-001	-1.13397E+000	3.57730E+000	10	...........
	31	0.426667	8.35025E-001	5.99379E-003	0.00000E+000	5.00497E-003	3.59960E-001	-1.12952E+000	3.57730E+000	10	...........
	32	0.44	8.41314E-001	5.99250E-003	0.00000E+000	5.04157E-003	3.59960E-001	-1.13948E+000	3.57730E+000	10	...........
	33	0.453333	8.47586E-001	5.99756E-003	0.00000E+000	5.08345E-003	3.59960E-001	-1.13410E+000	3.57730E+000	10	...........
	34	0.466667	8.53816E-001	5.99972E-003	0.00000E+000	5.12265E-003	3.59960E-001	-1.12949E+000	3.57730E+000	10	...........
	35	0.48	8.60007E-001	5.99477E-003	0.00000E+000	5.15555E-003	3.59960E-001	-1.13950E+000	3.57730E+000	10	...........
	36	0.493333	8.66210E-001	5.99465E-003	0.00000E+000	5.19262E-003	3.59960E-001	-1.13375E+000	3.57730E+000	10	...........
	37	0.506667	8.72439E-001	5.99553E-003	0.00000E+000	5.23074E-003	3.59960E-001	-1.12961E+000	3.57730E+000	10	...........
	38	0.52	8.78607E-001	5.99521E-003	0.00000E+000	5.26743E-003	3.59960E-001	-1.13965E+000	3.57730E+000	10	...........
	39	0.533333	8.84759E-001	5.99246E-003	0.00000E+000	5.30188E-003	3.59960E-001	-1.13397E+000	3.57730E+000	10	...........
	40	0.546667	8.90864E-001	5.99310E-003	0.00000E+000	5.33904E-003	3.59960E-001	-1.12970E+000	3.57730E+000	10	...........
	41	0.56	8.96966E-001	5.99515E-003	0.00000E+000	5.37744E-003	3.59960E-001	-1.13971E+000	3.57730E+000	10	...........
	42	0.573333	9.03036E-001	5.99243E-003	0.00000E+000	5.41137E-003	3.59960E-001	-1.13401E+000	3.57730E+000	10	...........
	43	0.586667	9.09127E-001	5.99535E-003	0.00000E+000	5.45053E-003	3.59960E-001	-1.12974E+000	3.57730E+000	10	...........
	44	0.6	9.15101E-001	5.98891E-003	0.00000E+000	5.48046E-003	3.59960E-001	-1.13989E+000	3.57730E+000	10	...........
	45	0.613333	9.21106E-001	5.99491E-003	0.00000E+000	5.52195E-003	3.59960E-001	-1.13404E+000	3.57730E+000	10	...........
	46	0.626667	9.27056E-001	5.99301E-003	0.00000E+000	5.55585E-003	3.59960E-001	-1.13018E+000	3.57730E+000	10	...........
	47	0.64	9.32978E-001	5.99254E-003	0.00000E+000	5.59091E-003	3.59960E-001	-1.14023E+000	3.57730E+000	10	...........
	48	0.653333	9.38849E-001	5.99459E-003	0.00000E+000	5.62802E-003	3.59960E-001	-1.13420E+000	3.57730E+000	10	...........
	49	0.666667	9.44691E-001	5.99374E-003	0.00000E+000	5.66223E-003	3.59960E-001	-1.12995E+000	3.57730E+000	10	...........
	50	0.68	9.50551E-001	5.99539E-003	0.00000E+000	5.69892E-003	3.59960E-001	-1.13973E+000	3.57730E+000	10	...........
	51	0.693333	9.56358E-001	5.99813E-003	0.00000E+000	5.73636E-003	3.59960E-001	-1.13384E+000	3.57730E+000	10	...........
	52	0.706667	9.62066E-001	5.99455E-003	0.00000E+000	5.76716E-003	3.59960E-001	-1.12983E+000	3.57730E+000	10	...........
	53	0.72	9.67722E-001	5.99157E-003	0.00000E+000	5.79817E-003	3.59960E-001	-1.13968E+000	3.57730E+000	10	...........
	54	0.733333	9.73373E-001	5.99744E-003	0.00000E+000	5.83775E-003	3.59960E-001	-1.13353E+000	3.57730E+000	10	...........
	55	0.746667	9.78966E-001	5.99321E-003	0.00000E+000	5.86715E-003	3.59960E-001	-1.12941E+000	3.57730E+000	10	...........
	56	0.76	9.84560E-001	5.99406E-003	0.00000E+000	5.90151E-003	3.59960E-001	-1.13962E+000	3.57730E+000	10	...........
	57	0.773333	9.90057E-001	5.99039E-003	0.00000E+000	5.93083E-003	3.59960E-001	-1.13346E+000	3.57730E+000	10	...........
	58	0.786667	9.95546E-001	5.99714E-003	0.00000E+000	5.97043E-003	3.59960E-001	-1.12965E+000	3.57730E+000	10	...........
	59	0.793333	9.99654E-001	5.99469E-003	0.00000E+000	5.99261E-003	3.59960E-001	-1.14384E+000	3.57730E+000	10	...........
STARTTIMEOFFSET	QUANT	739.0583	Start Time Offset (s)