File: Data/CV_CRGO300517_1/PWRCCD_CRGO300517_1/CHARGE_DISCHARGE/CHARGE_#127.DTA
EXPLAIN
TAG	PWR800_CHARGE
TITLE	LABEL	PWR Cyclic Charge Discharge (Cell) - Charge Step	Test &Identifier
DATE	LABEL	22-6-2017	Date
TIME	LABEL	15:40:42	Time
NOTES	NOTES	3	&Notes...
	supercap test cell
	0.6mg
	6M KOH
PSTAT	PSTAT	IFC5000-01520	Potentiostat
CAPACITY	QUANT	1.00000E-003	Capacity (A-hr)
CELLTYPE	SELECTOR	1	&Cell Type
WORKINGCONNECTION	SELECTOR	0	&Working Lead
MAXCHARGETIME	VARIABLEANDUNITS	1.00000E+002	s	1.00000E+002	second(s)	Max &Charge Time
CHARGECURRENT	QUANT	6.00000E-003	&Charge Current (A)
VOLTAGEFINISH	TWOPARAM	F	1.00000E-003	3.60000E+003	&Voltage Finish	 I (A) < 	Max Time(s)
SAMPLETIME	QUANT	1.00000E-002	Sa&mple Period (s)
CHARGESTOPAT1	MULTIPARAM	4	1.00000E+000	Charge Stop At &1	Voltage > Limit	V
CHARGESTOPAT2	MULTIPARAM	0	0.00000E+000	Charge Stop At &2	None	N/A
AESBHCSELECTOR	TOGGLE	F	Save Both Half Cells
IRCOMP	TOGGLE	F	IR &Measure
EOC	QUANT	0	Open Circuit (V)
SEQUENCER	TOGGLE	TRUE	Run as Sequence
PSTATMODEL	IQUANT	53	Pstat Model
PSTATSECTION	LABEL	IFC5000-01520	Pstat Section
PSTATSERIALNO	LABEL	01520	Pstat Serial Number
CTRLMODE	IQUANT	0	Control Mode
ELECTROMETER	IQUANT	1	RE=0 or CS=1
IESTAB	IQUANT	0	I/E Stability
CASPEED	IQUANT	4	Control Amp Speed
CONVENTION	IQUANT	1	Current Convention
ICHRANGE	IQUANT	2	Ich Range
ICHRANGEMODE	TOGGLE	T	Ich Auto Range
ICHOFFSETENABLE	TOGGLE	F	Ich Offset Enable
ICHOFFSET	QUANT	0	Ich Offset (V)
ICHFILTER	IQUANT	1	Ich Filter
VCHRANGE	IQUANT	2	Vch Range
VCHRANGEMODE	TOGGLE	T	Vch Auto Range
VCHOFFSETENABLE	TOGGLE	F	Vch Offset Enable
VCHOFFSET	QUANT	0	Vch Offset (V)
VCHFILTER	IQUANT	1	Vch Filter
IERANGELOWERLIMIT	IQUANT	9	I/E Range Lower Limit
IERANGEMODE	TOGGLE	F	I/E AutoRange
IERANGE	IQUANT	10	I/E Range
ACHSELECT	IQUANT	1	Ach Select
ACHRANGE	IQUANT	2	Ach Range
ACHOFFSETENABLE	TOGGLE	F	Ach Offset Enable
ACHOFFSET	QUANT	0	Ach Offset (V)
ACHFILTER	IQUANT	1	Ach Filter
CABLEID	IQUANT	14	Cable ID
DCCALDATE	LABEL	20-10-2016	DC Calibration Date
ACCALDATE	LABEL	12/3/2015	AC Calibration Date
FRAMEWORKVERSION	QUANT	7.01	Framework Version
INSTRUMENTVERSION	LABEL	4.00	Instrument Version
CURVE	TABLE	68
	Pt	T	Vf	Im	Vu	Pwr	Sig	Ach	Temp	IERange	Over
	#	s	V	A	V	W	V	V	deg C	#	bits
	0	0.013333	5.94540E-001	5.99185E-003	0.00000E+000	3.56240E-003	3.59960E-001	-1.07028E+000	3.57780E+000	10	...........
	1	0.026667	6.02856E-001	5.99346E-003	0.00000E+000	3.61319E-003	3.59960E-001	-1.08005E+000	3.57780E+000	10	...........
	2	0.04	6.10489E-001	5.99544E-003	0.00000E+000	3.66015E-003	3.59960E-001	-1.07382E+000	3.57780E+000	10	...........
	3	0.053333	6.17765E-001	5.99453E-003	0.00000E+000	3.70321E-003	3.59960E-001	-1.07037E+000	3.57780E+000	10	...........
	4	0.066667	6.24752E-001	5.99114E-003	0.00000E+000	3.74298E-003	3.59960E-001	-1.08014E+000	3.57780E+000	10	...........
	5	0.08	6.31483E-001	5.99230E-003	0.00000E+000	3.78403E-003	3.59960E-001	-1.07389E+000	3.57780E+000	10	...........
	6	0.093333	6.38154E-001	5.99834E-003	0.00000E+000	3.82786E-003	3.59960E-001	-1.06995E+000	3.57780E+000	10	...........
	7	0.106667	6.44698E-001	5.99607E-003	0.00000E+000	3.86565E-003	3.59960E-001	-1.07979E+000	3.57780E+000	10	...........
	8	0.12	6.51147E-001	5.99477E-003	0.00000E+000	3.90348E-003	3.59960E-001	-1.07411E+000	3.57780E+000	10	...........
	9	0.133333	6.57496E-001	5.99478E-003	0.00000E+000	3.94155E-003	3.59960E-001	-1.07011E+000	3.57780E+000	10	...........
	10	0.146667	6.63762E-001	5.99264E-003	0.00000E+000	3.97769E-003	3.59960E-001	-1.07952E+000	3.57780E+000	10	...........
	11	0.16	6.70083E-001	5.99782E-003	0.00000E+000	4.01904E-003	3.59960E-001	-1.07358E+000	3.57780E+000	10	...........
	12	0.173333	6.76234E-001	5.99864E-003	0.00000E+000	4.05649E-003	3.59960E-001	-1.07008E+000	3.57780E+000	10	...........
	13	0.186667	6.82435E-001	5.99634E-003	0.00000E+000	4.09211E-003	3.59960E-001	-1.07992E+000	3.57780E+000	10	...........
	14	0.2	6.88579E-001	5.99058E-003	0.00000E+000	4.12499E-003	3.59960E-001	-1.07400E+000	3.57780E+000	10	...........
	15	0.213333	6.94762E-001	5.99371E-003	0.00000E+000	4.16420E-003	3.59960E-001	-1.06992E+000	3.57780E+000	10	...........
	16	0.226667	7.00830E-001	5.99240E-003	0.00000E+000	4.19965E-003	3.59960E-001	-1.07959E+000	3.57780E+000	10	...........
	17	0.24	7.06927E-001	5.99423E-003	0.00000E+000	4.23748E-003	3.59960E-001	-1.07388E+000	3.57780E+000	10	...........
	18	0.253333	7.12958E-001	5.99167E-003	0.00000E+000	4.27181E-003	3.59960E-001	-1.07026E+000	3.57780E+000	10	...........
	19	0.266667	7.19026E-001	5.99286E-003	0.00000E+000	4.30903E-003	3.59960E-001	-1.07976E+000	3.57780E+000	10	...........
	20	0.28	7.25084E-001	5.99352E-003	0.00000E+000	4.34580E-003	3.59960E-001	-1.07394E+000	3.57780E+000	10	...........
	21	0.293333	7.31123E-001	5.99501E-003	0.00000E+000	4.38309E-003	3.59960E-001	-1.06968E+000	3.57780E+000	10	...........
	22	0.306667	7.37123E-001	5.99524E-003	0.00000E+000	4.41923E-003	3.59960E-001	-1.07944E+000	3.57780E+000	10	...........
	23	0.32	7.43159E-001	5.99433E-003	0.00000E+000	4.45474E-003	3.59960E-001	-1.07388E+000	3.57780E+000	10	...........
	24	0.333333	7.49151E-001	6.00151E-003	0.00000E+000	4.49604E-003	3.59960E-001	-1.06990E+000	3.57780E+000	10	...........
	25	0.346667	7.55146E-001	5.99416E-003	0.00000E+000	4.52646E-003	3.59960E-001	-1.07917E+000	3.57780E+000	10	...........
	26	0.36	7.61132E-001	5.99448E-003	0.00000E+000	4.56259E-003	3.59960E-001	-1.07337E+000	3.57780E+000	10	...........
	27	0.373333	7.67132E-001	5.99304E-003	0.00000E+000	4.59745E-003	3.59960E-001	-1.06980E+000	3.57780E+000	10	...........
	28	0.386667	7.73091E-001	5.99585E-003	0.00000E+000	4.63534E-003	3.59960E-001	-1.07974E+000	3.57780E+000	10	...........
	29	0.4	7.79076E-001	5.99626E-003	0.00000E+000	4.67155E-003	3.59960E-001	-1.07387E+000	3.57780E+000	10	...........
	30	0.413333	7.85077E-001	5.99523E-003	0.00000E+000	4.70672E-003	3.59960E-001	-1.06973E+000	3.57780E+000	10	...........
	31	0.426667	7.91007E-001	5.99681E-003	0.00000E+000	4.74351E-003	3.59960E-001	-1.07930E+000	3.57780E+000	10	...........
	32	0.44	7.97018E-001	5.99450E-003	0.00000E+000	4.77772E-003	3.59960E-001	-1.07374E+000	3.57780E+000	10	...........
	33	0.453333	8.02980E-001	5.99797E-003	0.00000E+000	4.81625E-003	3.59960E-001	-1.06998E+000	3.57780E+000	10	...........
	34	0.466667	8.08883E-001	5.99237E-003	0.00000E+000	4.84713E-003	3.59960E-001	-1.07925E+000	3.57780E+000	10	...........
	35	0.48	8.14840E-001	5.99418E-003	0.00000E+000	4.88430E-003	3.59960E-001	-1.07357E+000	3.57780E+000	10	...........
	36	0.493333	8.20845E-001	5.99275E-003	0.00000E+000	4.91912E-003	3.59960E-001	-1.06937E+000	3.57780E+000	10	...........
	37	0.506667	8.26781E-001	5.99650E-003	0.00000E+000	4.95780E-003	3.59960E-001	-1.07931E+000	3.57780E+000	10	...........
	38	0.52	8.32670E-001	5.99380E-003	0.00000E+000	4.99086E-003	3.59960E-001	-1.07388E+000	3.57780E+000	10	...........
	39	0.533333	8.38578E-001	5.99319E-003	0.00000E+000	5.02575E-003	3.59960E-001	-1.06986E+000	3.57780E+000	10	...........
	40	0.546667	8.44529E-001	5.99161E-003	0.00000E+000	5.06009E-003	3.59960E-001	-1.07935E+000	3.57780E+000	10	...........
	41	0.56	8.50449E-001	5.99594E-003	0.00000E+000	5.09924E-003	3.59960E-001	-1.07381E+000	3.57780E+000	10	...........
	42	0.573333	8.56361E-001	5.99620E-003	0.00000E+000	5.13491E-003	3.59960E-001	-1.06990E+000	3.57780E+000	10	...........
	43	0.586667	8.62257E-001	5.99592E-003	0.00000E+000	5.17002E-003	3.59960E-001	-1.07952E+000	3.57780E+000	10	...........
	44	0.6	8.68131E-001	5.99342E-003	0.00000E+000	5.20307E-003	3.59960E-001	-1.07364E+000	3.57780E+000	10	...........
	45	0.613333	8.74039E-001	5.99281E-003	0.00000E+000	5.23795E-003	3.59960E-001	-1.06918E+000	3.57780E+000	10	...........
	46	0.626667	8.79876E-001	5.99128E-003	0.00000E+000	5.27158E-003	3.59960E-001	-1.07874E+000	3.57780E+000	10	...........
	47	0.64	8.85762E-001	5.99500E-003	0.00000E+000	5.31014E-003	3.59960E-001	-1.07357E+000	3.57780E+000	10	...........
	48	0.653333	8.91580E-001	5.99146E-003	0.00000E+000	5.34186E-003	3.59960E-001	-1.06950E+000	3.57780E+000	10	...........
	49	0.666667	8.97405E-001	5.99492E-003	0.00000E+000	5.37987E-003	3.59960E-001	-1.07898E+000	3.57780E+000	10	...........
	50	0.68	9.03232E-001	5.99803E-003	0.00000E+000	5.41761E-003	3.59960E-001	-1.07337E+000	3.57780E+000	10	...........
	51	0.693333	9.09032E-001	5.99232E-003	0.00000E+000	5.44721E-003	3.59960E-001	-1.06905E+000	3.57780E+000	10	...........
	52	0.706667	9.14789E-001	5.99550E-003	0.00000E+000	5.48462E-003	3.59960E-001	-1.07894E+000	3.57780E+000	10	...........
	53	0.72	9.20581E-001	5.99511E-003	0.00000E+000	5.51898E-003	3.59960E-001	-1.07350E+000	3.57780E+000	10	...........
	54	0.733333	9.26328E-001	5.99213E-003	0.00000E+000	5.55068E-003	3.59960E-001	-1.06933E+000	3.57780E+000	10	...........
	55	0.746667	9.32024E-001	5.99613E-003	0.00000E+000	5.58853E-003	3.59960E-001	-1.07889E+000	3.57780E+000	10	...........
	56	0.76	9.37718E-001	5.99663E-003	0.00000E+000	5.62315E-003	3.59960E-001	-1.07339E+000	3.57780E+000	10	...........
	57	0.773333	9.43353E-001	5.99806E-003	0.00000E+000	5.65829E-003	3.59960E-001	-1.06919E+000	3.57780E+000	10	...........
	58	0.786667	9.49015E-001	5.99469E-003	0.00000E+000	5.68905E-003	3.59960E-001	-1.07895E+000	3.57780E+000	10	...........
	59	0.8	9.54607E-001	5.99413E-003	0.00000E+000	5.72204E-003	3.59960E-001	-1.07337E+000	3.57780E+000	10	...........
	60	0.813333	9.60169E-001	5.99508E-003	0.00000E+000	5.75630E-003	3.59960E-001	-1.06936E+000	3.57780E+000	10	...........
	61	0.826667	9.65763E-001	5.99171E-003	0.00000E+000	5.78656E-003	3.59960E-001	-1.07890E+000	3.57780E+000	10	...........
	62	0.84	9.71317E-001	5.99351E-003	0.00000E+000	5.82160E-003	3.59960E-001	-1.07331E+000	3.57780E+000	10	...........
	63	0.853333	9.76790E-001	5.99431E-003	0.00000E+000	5.85519E-003	3.59960E-001	-1.06940E+000	3.57780E+000	10	...........
	64	0.866667	9.82206E-001	5.99153E-003	0.00000E+000	5.88492E-003	3.59960E-001	-1.07902E+000	3.57780E+000	10	...........
	65	0.88	9.87653E-001	5.99455E-003	0.00000E+000	5.92054E-003	3.59960E-001	-1.07339E+000	3.57780E+000	10	...........
	66	0.893333	9.93029E-001	5.99154E-003	0.00000E+000	5.94977E-003	3.59960E-001	-1.06926E+000	3.57780E+000	10	...........
	67	0.905	9.98042E-001	5.99277E-003	0.00000E+000	5.98103E-003	3.59960E-001	-1.08097E+000	3.57780E+000	10	...........
STARTTIMEOFFSET	QUANT	244.4483	Start Time Offset (s)