File: Data/CV_CRGO300517_1/PWRCCD_CRGO300517_1/CHARGE_DISCHARGE/CHARGE_#108.DTA
EXPLAIN
TAG	PWR800_CHARGE
TITLE	LABEL	PWR Cyclic Charge Discharge (Cell) - Charge Step	Test &Identifier
DATE	LABEL	22-6-2017	Date
TIME	LABEL	15:39:51	Time
NOTES	NOTES	3	&Notes...
	supercap test cell
	0.6mg
	6M KOH
PSTAT	PSTAT	IFC5000-01520	Potentiostat
CAPACITY	QUANT	1.00000E-003	Capacity (A-hr)
CELLTYPE	SELECTOR	1	&Cell Type
WORKINGCONNECTION	SELECTOR	0	&Working Lead
MAXCHARGETIME	VARIABLEANDUNITS	1.00000E+002	s	1.00000E+002	second(s)	Max &Charge Time
CHARGECURRENT	QUANT	6.00000E-003	&Charge Current (A)
VOLTAGEFINISH	TWOPARAM	F	1.00000E-003	3.60000E+003	&Voltage Finish	 I (A) < 	Max Time(s)
SAMPLETIME	QUANT	1.00000E-002	Sa&mple Period (s)
CHARGESTOPAT1	MULTIPARAM	4	1.00000E+000	Charge Stop At &1	Voltage > Limit	V
CHARGESTOPAT2	MULTIPARAM	0	0.00000E+000	Charge Stop At &2	None	N/A
AESBHCSELECTOR	TOGGLE	F	Save Both Half Cells
IRCOMP	TOGGLE	F	IR &Measure
EOC	QUANT	0	Open Circuit (V)
SEQUENCER	TOGGLE	TRUE	Run as Sequence
PSTATMODEL	IQUANT	53	Pstat Model
PSTATSECTION	LABEL	IFC5000-01520	Pstat Section
PSTATSERIALNO	LABEL	01520	Pstat Serial Number
CTRLMODE	IQUANT	0	Control Mode
ELECTROMETER	IQUANT	1	RE=0 or CS=1
IESTAB	IQUANT	0	I/E Stability
CASPEED	IQUANT	4	Control Amp Speed
CONVENTION	IQUANT	1	Current Convention
ICHRANGE	IQUANT	2	Ich Range
ICHRANGEMODE	TOGGLE	T	Ich Auto Range
ICHOFFSETENABLE	TOGGLE	F	Ich Offset Enable
ICHOFFSET	QUANT	0	Ich Offset (V)
ICHFILTER	IQUANT	1	Ich Filter
VCHRANGE	IQUANT	2	Vch Range
VCHRANGEMODE	TOGGLE	T	Vch Auto Range
VCHOFFSETENABLE	TOGGLE	F	Vch Offset Enable
VCHOFFSET	QUANT	0	Vch Offset (V)
VCHFILTER	IQUANT	1	Vch Filter
IERANGELOWERLIMIT	IQUANT	9	I/E Range Lower Limit
IERANGEMODE	TOGGLE	F	I/E AutoRange
IERANGE	IQUANT	10	I/E Range
ACHSELECT	IQUANT	1	Ach Select
ACHRANGE	IQUANT	2	Ach Range
ACHOFFSETENABLE	TOGGLE	F	Ach Offset Enable
ACHOFFSET	QUANT	0	Ach Offset (V)
ACHFILTER	IQUANT	1	Ach Filter
CABLEID	IQUANT	14	Cable ID
DCCALDATE	LABEL	20-10-2016	DC Calibration Date
ACCALDATE	LABEL	12/3/2015	AC Calibration Date
FRAMEWORKVERSION	QUANT	7.01	Framework Version
INSTRUMENTVERSION	LABEL	4.00	Instrument Version
CURVE	TABLE	70
	Pt	T	Vf	Im	Vu	Pwr	Sig	Ach	Temp	IERange	Over
	#	s	V	A	V	W	V	V	deg C	#	bits
	0	0.013333	5.90455E-001	5.99245E-003	0.00000E+000	3.53827E-003	3.59960E-001	-1.06882E+000	3.57730E+000	10	...........
	1	0.026667	5.98724E-001	5.99381E-003	0.00000E+000	3.58864E-003	3.59960E-001	-1.07846E+000	3.57730E+000	10	...........
	2	0.04	6.06281E-001	5.99395E-003	0.00000E+000	3.63402E-003	3.59960E-001	-1.06731E+000	3.57730E+000	10	...........
	3	0.053333	6.13489E-001	5.99187E-003	0.00000E+000	3.67595E-003	3.59960E-001	-1.06865E+000	3.57730E+000	10	...........
	4	0.066667	6.20439E-001	5.98979E-003	0.00000E+000	3.71629E-003	3.59960E-001	-1.07792E+000	3.57730E+000	10	...........
	5	0.08	6.27144E-001	5.99294E-003	0.00000E+000	3.75843E-003	3.59960E-001	-1.06697E+000	3.57730E+000	10	...........
	6	0.093333	6.33725E-001	5.99504E-003	0.00000E+000	3.79921E-003	3.59960E-001	-1.06869E+000	3.57730E+000	10	...........
	7	0.106667	6.40236E-001	5.99534E-003	0.00000E+000	3.83843E-003	3.59960E-001	-1.07817E+000	3.57730E+000	10	...........
	8	0.12	6.46576E-001	5.99680E-003	0.00000E+000	3.87738E-003	3.59960E-001	-1.06689E+000	3.57730E+000	10	...........
	9	0.133333	6.52896E-001	5.99716E-003	0.00000E+000	3.91552E-003	3.59960E-001	-1.06809E+000	3.57730E+000	10	...........
	10	0.146667	6.59159E-001	5.99610E-003	0.00000E+000	3.95238E-003	3.59960E-001	-1.07773E+000	3.57730E+000	10	...........
	11	0.16	6.65400E-001	5.99053E-003	0.00000E+000	3.98610E-003	3.59960E-001	-1.06649E+000	3.57730E+000	10	...........
	12	0.173333	6.71563E-001	5.99172E-003	0.00000E+000	4.02381E-003	3.59960E-001	-1.06782E+000	3.57730E+000	10	...........
	13	0.186667	6.77704E-001	5.99201E-003	0.00000E+000	4.06081E-003	3.59960E-001	-1.07743E+000	3.57730E+000	10	...........
	14	0.2	6.83782E-001	5.99687E-003	0.00000E+000	4.10055E-003	3.59960E-001	-1.06595E+000	3.57730E+000	10	...........
	15	0.213333	6.89863E-001	5.99511E-003	0.00000E+000	4.13580E-003	3.59960E-001	-1.06749E+000	3.57730E+000	10	...........
	16	0.226667	6.95917E-001	5.98987E-003	0.00000E+000	4.16845E-003	3.59960E-001	-1.07732E+000	3.57730E+000	10	...........
	17	0.24	7.01941E-001	5.99107E-003	0.00000E+000	4.20538E-003	3.59960E-001	-1.06624E+000	3.57730E+000	10	...........
	18	0.253333	7.07959E-001	5.99771E-003	0.00000E+000	4.24613E-003	3.59960E-001	-1.06756E+000	3.57730E+000	10	...........
	19	0.266667	7.13948E-001	5.99404E-003	0.00000E+000	4.27944E-003	3.59960E-001	-1.07695E+000	3.57730E+000	10	...........
	20	0.28	7.19999E-001	5.99462E-003	0.00000E+000	4.31612E-003	3.59960E-001	-1.06603E+000	3.57730E+000	10	...........
	21	0.293333	7.25960E-001	5.99323E-003	0.00000E+000	4.35085E-003	3.59960E-001	-1.06727E+000	3.57730E+000	10	...........
	22	0.306667	7.31919E-001	5.99214E-003	0.00000E+000	4.38576E-003	3.59960E-001	-1.07697E+000	3.57730E+000	10	...........
	23	0.32	7.37893E-001	5.99544E-003	0.00000E+000	4.42399E-003	3.59960E-001	-1.06578E+000	3.57730E+000	10	...........
	24	0.333333	7.43869E-001	5.99714E-003	0.00000E+000	4.46109E-003	3.59960E-001	-1.06649E+000	3.57730E+000	10	...........
	25	0.346667	7.49821E-001	5.99728E-003	0.00000E+000	4.49689E-003	3.59960E-001	-1.07645E+000	3.57730E+000	10	...........
	26	0.36	7.55754E-001	5.99412E-003	0.00000E+000	4.53007E-003	3.59960E-001	-1.06540E+000	3.57730E+000	10	...........
	27	0.373333	7.61683E-001	5.99455E-003	0.00000E+000	4.56595E-003	3.59960E-001	-1.06661E+000	3.57730E+000	10	...........
	28	0.386667	7.67648E-001	5.99861E-003	0.00000E+000	4.60482E-003	3.59960E-001	-1.07607E+000	3.57730E+000	10	...........
	29	0.4	7.73574E-001	5.99171E-003	0.00000E+000	4.63503E-003	3.59960E-001	-1.06488E+000	3.57730E+000	10	...........
	30	0.413333	7.79541E-001	5.99262E-003	0.00000E+000	4.67150E-003	3.59960E-001	-1.06604E+000	3.57730E+000	10	...........
	31	0.426667	7.85433E-001	5.99498E-003	0.00000E+000	4.70866E-003	3.59960E-001	-1.07602E+000	3.57730E+000	10	...........
	32	0.44	7.91333E-001	5.99766E-003	0.00000E+000	4.74615E-003	3.59960E-001	-1.06489E+000	3.57730E+000	10	...........
	33	0.453333	7.97247E-001	5.99644E-003	0.00000E+000	4.78064E-003	3.59960E-001	-1.06560E+000	3.57730E+000	10	...........
	34	0.466667	8.03151E-001	5.99018E-003	0.00000E+000	4.81102E-003	3.59960E-001	-1.07537E+000	3.57730E+000	10	...........
	35	0.48	8.09035E-001	5.99358E-003	0.00000E+000	4.84902E-003	3.59960E-001	-1.06447E+000	3.57730E+000	10	...........
	36	0.493333	8.14939E-001	5.99382E-003	0.00000E+000	4.88460E-003	3.59960E-001	-1.06561E+000	3.57730E+000	10	...........
	37	0.506667	8.20881E-001	5.99491E-003	0.00000E+000	4.92111E-003	3.59960E-001	-1.07562E+000	3.57730E+000	10	...........
	38	0.52	8.26772E-001	5.99234E-003	0.00000E+000	4.95430E-003	3.59960E-001	-1.06429E+000	3.57730E+000	10	...........
	39	0.533333	8.32627E-001	5.99419E-003	0.00000E+000	4.99092E-003	3.59960E-001	-1.06535E+000	3.57730E+000	10	...........
	40	0.546667	8.38533E-001	5.99326E-003	0.00000E+000	5.02555E-003	3.59960E-001	-1.07549E+000	3.57730E+000	10	...........
	41	0.56	8.44389E-001	5.99136E-003	0.00000E+000	5.05904E-003	3.59960E-001	-1.06494E+000	3.57730E+000	10	...........
	42	0.573333	8.50261E-001	5.99363E-003	0.00000E+000	5.09615E-003	3.59960E-001	-1.06627E+000	3.57730E+000	10	...........
	43	0.586667	8.56141E-001	5.99623E-003	0.00000E+000	5.13362E-003	3.59960E-001	-1.07608E+000	3.57730E+000	10	...........
	44	0.6	8.62009E-001	5.99751E-003	0.00000E+000	5.16990E-003	3.59960E-001	-1.06537E+000	3.57730E+000	10	...........
	45	0.613333	8.67840E-001	5.99406E-003	0.00000E+000	5.20189E-003	3.59960E-001	-1.06699E+000	3.57730E+000	10	...........
	46	0.626667	8.73690E-001	5.99214E-003	0.00000E+000	5.23527E-003	3.59960E-001	-1.07698E+000	3.57730E+000	10	...........
	47	0.64	8.79488E-001	5.99088E-003	0.00000E+000	5.26891E-003	3.59960E-001	-1.06649E+000	3.57730E+000	10	...........
	48	0.653333	8.85327E-001	5.99229E-003	0.00000E+000	5.30513E-003	3.59960E-001	-1.06726E+000	3.57730E+000	10	...........
	49	0.666667	8.91101E-001	5.99330E-003	0.00000E+000	5.34064E-003	3.59960E-001	-1.07692E+000	3.57730E+000	10	...........
	50	0.68	8.96903E-001	5.99939E-003	0.00000E+000	5.38088E-003	3.59960E-001	-1.06664E+000	3.57730E+000	10	...........
	51	0.693333	9.02644E-001	5.99405E-003	0.00000E+000	5.41050E-003	3.59960E-001	-1.06779E+000	3.57799E+000	10	...........
	52	0.706667	9.08411E-001	5.99323E-003	0.00000E+000	5.44432E-003	3.59960E-001	-1.07795E+000	3.57840E+000	10	...........
	53	0.72	9.14192E-001	5.99482E-003	0.00000E+000	5.48042E-003	3.59960E-001	-1.06690E+000	3.57840E+000	10	...........
	54	0.733333	9.19911E-001	5.99304E-003	0.00000E+000	5.51306E-003	3.59960E-001	-1.06798E+000	3.57840E+000	10	...........
	55	0.746667	9.25628E-001	5.99034E-003	0.00000E+000	5.54482E-003	3.59960E-001	-1.07814E+000	3.57840E+000	10	...........
	56	0.76	9.31282E-001	5.99574E-003	0.00000E+000	5.58373E-003	3.59960E-001	-1.06741E+000	3.57840E+000	10	...........
	57	0.773333	9.36957E-001	5.99527E-003	0.00000E+000	5.61731E-003	3.59960E-001	-1.06839E+000	3.57840E+000	10	...........
	58	0.786667	9.42598E-001	5.99366E-003	0.00000E+000	5.64961E-003	3.59960E-001	-1.07819E+000	3.57840E+000	10	...........
	59	0.8	9.48234E-001	5.99657E-003	0.00000E+000	5.68614E-003	3.59960E-001	-1.06723E+000	3.57840E+000	10	...........
	60	0.813333	9.53824E-001	5.99459E-003	0.00000E+000	5.71779E-003	3.59960E-001	-1.06793E+000	3.57840E+000	10	...........
	61	0.826667	9.59385E-001	5.99420E-003	0.00000E+000	5.75075E-003	3.59960E-001	-1.07817E+000	3.57840E+000	10	...........
	62	0.84	9.64871E-001	5.99215E-003	0.00000E+000	5.78166E-003	3.59960E-001	-1.06726E+000	3.57840E+000	10	...........
	63	0.853333	9.70383E-001	5.99140E-003	0.00000E+000	5.81396E-003	3.59960E-001	-1.06765E+000	3.57840E+000	10	...........
	64	0.866667	9.75898E-001	5.99274E-003	0.00000E+000	5.84830E-003	3.59960E-001	-1.07766E+000	3.57840E+000	10	...........
	65	0.88	9.81323E-001	5.99221E-003	0.00000E+000	5.88029E-003	3.59960E-001	-1.06690E+000	3.57840E+000	10	...........
	66	0.893333	9.86685E-001	5.99433E-003	0.00000E+000	5.91452E-003	3.59960E-001	-1.06781E+000	3.57840E+000	10	...........
	67	0.906667	9.92064E-001	5.99355E-003	0.00000E+000	5.94598E-003	3.59960E-001	-1.07767E+000	3.57840E+000	10	...........
	68	0.92	9.97402E-001	5.99209E-003	0.00000E+000	5.97652E-003	3.59960E-001	-1.06657E+000	3.57840E+000	10	...........
	69	0.921667	1.00036E+000	5.98536E-003	0.00000E+000	5.98754E-003	3.59960E-001	-1.08048E+000	3.57840E+000	10	...........
STARTTIMEOFFSET	QUANT	209.93	Start Time Offset (s)