File: Data/CV_CRGO300517_1/PWRCCD_CRGO300517_1/CHARGE_DISCHARGE/CHARGE_#934.DTA
EXPLAIN
TAG	PWR800_CHARGE
TITLE	LABEL	PWR Cyclic Charge Discharge (Cell) - Charge Step	Test &Identifier
DATE	LABEL	22-6-2017	Date
TIME	LABEL	16:12:14	Time
NOTES	NOTES	3	&Notes...
	supercap test cell
	0.6mg
	6M KOH
PSTAT	PSTAT	IFC5000-01520	Potentiostat
CAPACITY	QUANT	1.00000E-003	Capacity (A-hr)
CELLTYPE	SELECTOR	1	&Cell Type
WORKINGCONNECTION	SELECTOR	0	&Working Lead
MAXCHARGETIME	VARIABLEANDUNITS	1.00000E+002	s	1.00000E+002	second(s)	Max &Charge Time
CHARGECURRENT	QUANT	6.00000E-003	&Charge Current (A)
VOLTAGEFINISH	TWOPARAM	F	1.00000E-003	3.60000E+003	&Voltage Finish	 I (A) < 	Max Time(s)
SAMPLETIME	QUANT	1.00000E-002	Sa&mple Period (s)
CHARGESTOPAT1	MULTIPARAM	4	1.00000E+000	Charge Stop At &1	Voltage > Limit	V
CHARGESTOPAT2	MULTIPARAM	0	0.00000E+000	Charge Stop At &2	None	N/A
AESBHCSELECTOR	TOGGLE	F	Save Both Half Cells
IRCOMP	TOGGLE	F	IR &Measure
EOC	QUANT	0	Open Circuit (V)
SEQUENCER	TOGGLE	TRUE	Run as Sequence
PSTATMODEL	IQUANT	53	Pstat Model
PSTATSECTION	LABEL	IFC5000-01520	Pstat Section
PSTATSERIALNO	LABEL	01520	Pstat Serial Number
CTRLMODE	IQUANT	0	Control Mode
ELECTROMETER	IQUANT	1	RE=0 or CS=1
IESTAB	IQUANT	0	I/E Stability
CASPEED	IQUANT	4	Control Amp Speed
CONVENTION	IQUANT	1	Current Convention
ICHRANGE	IQUANT	2	Ich Range
ICHRANGEMODE	TOGGLE	T	Ich Auto Range
ICHOFFSETENABLE	TOGGLE	F	Ich Offset Enable
ICHOFFSET	QUANT	0	Ich Offset (V)
ICHFILTER	IQUANT	1	Ich Filter
VCHRANGE	IQUANT	2	Vch Range
VCHRANGEMODE	TOGGLE	T	Vch Auto Range
VCHOFFSETENABLE	TOGGLE	F	Vch Offset Enable
VCHOFFSET	QUANT	0	Vch Offset (V)
VCHFILTER	IQUANT	1	Vch Filter
IERANGELOWERLIMIT	IQUANT	9	I/E Range Lower Limit
IERANGEMODE	TOGGLE	F	I/E AutoRange
IERANGE	IQUANT	10	I/E Range
ACHSELECT	IQUANT	1	Ach Select
ACHRANGE	IQUANT	2	Ach Range
ACHOFFSETENABLE	TOGGLE	F	Ach Offset Enable
ACHOFFSET	QUANT	0	Ach Offset (V)
ACHFILTER	IQUANT	1	Ach Filter
CABLEID	IQUANT	14	Cable ID
DCCALDATE	LABEL	20-10-2016	DC Calibration Date
ACCALDATE	LABEL	12/3/2015	AC Calibration Date
FRAMEWORKVERSION	QUANT	7.01	Framework Version
INSTRUMENTVERSION	LABEL	4.00	Instrument Version
CURVE	TABLE	53
	Pt	T	Vf	Im	Vu	Pwr	Sig	Ach	Temp	IERange	Over
	#	s	V	A	V	W	V	V	deg C	#	bits
	0	0.013333	6.54593E-001	5.99179E-003	0.00000E+000	3.92218E-003	3.59960E-001	-1.17213E+000	3.57780E+000	10	...........
	1	0.026667	6.63891E-001	5.98983E-003	0.00000E+000	3.97659E-003	3.59960E-001	-1.18304E+000	3.57780E+000	10	...........
	2	0.04	6.72470E-001	5.99702E-003	0.00000E+000	4.03282E-003	3.59960E-001	-1.17509E+000	3.57780E+000	10	...........
	3	0.053333	6.80523E-001	5.98961E-003	0.00000E+000	4.07607E-003	3.59960E-001	-1.17193E+000	3.57780E+000	10	...........
	4	0.066667	6.88340E-001	5.99526E-003	0.00000E+000	4.12678E-003	3.59960E-001	-1.18271E+000	3.57780E+000	10	...........
	5	0.08	6.95949E-001	5.99268E-003	0.00000E+000	4.17060E-003	3.59960E-001	-1.17506E+000	3.57780E+000	10	...........
	6	0.093333	7.03417E-001	5.99250E-003	0.00000E+000	4.21522E-003	3.59960E-001	-1.17222E+000	3.57780E+000	10	...........
	7	0.106667	7.10728E-001	5.99048E-003	0.00000E+000	4.25761E-003	3.59960E-001	-1.18304E+000	3.57780E+000	10	...........
	8	0.12	7.18023E-001	5.99476E-003	0.00000E+000	4.30438E-003	3.59960E-001	-1.17478E+000	3.57780E+000	10	...........
	9	0.133333	7.25199E-001	5.99306E-003	0.00000E+000	4.34616E-003	3.59960E-001	-1.17180E+000	3.57780E+000	10	...........
	10	0.146667	7.32252E-001	5.99191E-003	0.00000E+000	4.38759E-003	3.59960E-001	-1.18275E+000	3.57780E+000	10	...........
	11	0.16	7.39328E-001	5.99707E-003	0.00000E+000	4.43380E-003	3.59960E-001	-1.17482E+000	3.57780E+000	10	...........
	12	0.173333	7.46310E-001	5.99228E-003	0.00000E+000	4.47210E-003	3.59960E-001	-1.17197E+000	3.57780E+000	10	...........
	13	0.186667	7.53300E-001	5.99844E-003	0.00000E+000	4.51863E-003	3.59960E-001	-1.18292E+000	3.57780E+000	10	...........
	14	0.2	7.60268E-001	5.99812E-003	0.00000E+000	4.56018E-003	3.59960E-001	-1.17442E+000	3.57780E+000	10	...........
	15	0.213333	7.67163E-001	5.99520E-003	0.00000E+000	4.59929E-003	3.59960E-001	-1.17203E+000	3.57780E+000	10	...........
	16	0.226667	7.74038E-001	5.99613E-003	0.00000E+000	4.64123E-003	3.59960E-001	-1.18285E+000	3.57780E+000	10	...........
	17	0.24	7.80883E-001	5.99601E-003	0.00000E+000	4.68218E-003	3.59960E-001	-1.17477E+000	3.57780E+000	10	...........
	18	0.253333	7.87675E-001	5.99806E-003	0.00000E+000	4.72452E-003	3.59960E-001	-1.17174E+000	3.57780E+000	10	...........
	19	0.266667	7.94472E-001	5.99405E-003	0.00000E+000	4.76211E-003	3.59960E-001	-1.18285E+000	3.57780E+000	10	...........
	20	0.28	8.01229E-001	5.99087E-003	0.00000E+000	4.80006E-003	3.59960E-001	-1.17456E+000	3.57780E+000	10	...........
	21	0.293333	8.07932E-001	5.99419E-003	0.00000E+000	4.84289E-003	3.59960E-001	-1.17187E+000	3.57780E+000	10	...........
	22	0.306667	8.14660E-001	5.99469E-003	0.00000E+000	4.88364E-003	3.59960E-001	-1.18280E+000	3.57780E+000	10	...........
	23	0.32	8.21349E-001	5.99643E-003	0.00000E+000	4.92516E-003	3.59960E-001	-1.17394E+000	3.57780E+000	10	...........
	24	0.333333	8.27954E-001	5.98934E-003	0.00000E+000	4.95890E-003	3.59960E-001	-1.17123E+000	3.57780E+000	10	...........
	25	0.346667	8.34568E-001	5.99042E-003	0.00000E+000	4.99941E-003	3.59960E-001	-1.18255E+000	3.57780E+000	10	...........
	26	0.36	8.41187E-001	5.99244E-003	0.00000E+000	5.04076E-003	3.59960E-001	-1.17417E+000	3.57780E+000	10	...........
	27	0.373333	8.47774E-001	5.99323E-003	0.00000E+000	5.08090E-003	3.59960E-001	-1.17150E+000	3.57780E+000	10	...........
	28	0.386667	8.54295E-001	5.99257E-003	0.00000E+000	5.11942E-003	3.59960E-001	-1.18250E+000	3.57780E+000	10	...........
	29	0.4	8.60838E-001	5.99445E-003	0.00000E+000	5.16025E-003	3.59960E-001	-1.17392E+000	3.57780E+000	10	...........
	30	0.413333	8.67319E-001	5.99513E-003	0.00000E+000	5.19968E-003	3.59960E-001	-1.17131E+000	3.57780E+000	10	...........
	31	0.426667	8.73767E-001	5.98660E-003	0.00000E+000	5.23090E-003	3.59960E-001	-1.18239E+000	3.57780E+000	10	...........
	32	0.44	8.80191E-001	5.99389E-003	0.00000E+000	5.27576E-003	3.59960E-001	-1.17436E+000	3.57780E+000	10	...........
	33	0.453333	8.86627E-001	5.99954E-003	0.00000E+000	5.31935E-003	3.59960E-001	-1.17145E+000	3.57780E+000	10	...........
	34	0.466667	8.92948E-001	5.99451E-003	0.00000E+000	5.35279E-003	3.59960E-001	-1.18226E+000	3.57780E+000	10	...........
	35	0.48	8.99257E-001	5.99124E-003	0.00000E+000	5.38766E-003	3.59960E-001	-1.17393E+000	3.57780E+000	10	...........
	36	0.493333	9.05519E-001	5.99131E-003	0.00000E+000	5.42524E-003	3.59960E-001	-1.17151E+000	3.57780E+000	10	...........
	37	0.506667	9.11868E-001	5.99397E-003	0.00000E+000	5.46571E-003	3.59960E-001	-1.18235E+000	3.57780E+000	10	...........
	38	0.52	9.18060E-001	5.99356E-003	0.00000E+000	5.50245E-003	3.59960E-001	-1.17376E+000	3.57780E+000	10	...........
	39	0.533333	9.24273E-001	5.99086E-003	0.00000E+000	5.53719E-003	3.59960E-001	-1.17128E+000	3.57780E+000	10	...........
	40	0.546667	9.30401E-001	5.99313E-003	0.00000E+000	5.57602E-003	3.59960E-001	-1.18243E+000	3.57780E+000	10	...........
	41	0.56	9.36473E-001	5.99621E-003	0.00000E+000	5.61529E-003	3.59960E-001	-1.17408E+000	3.57780E+000	10	...........
	42	0.573333	9.42524E-001	5.99705E-003	0.00000E+000	5.65236E-003	3.59960E-001	-1.17141E+000	3.57780E+000	10	...........
	43	0.586667	9.48545E-001	5.99288E-003	0.00000E+000	5.68452E-003	3.59960E-001	-1.18249E+000	3.57780E+000	10	...........
	44	0.6	9.54492E-001	5.99069E-003	0.00000E+000	5.71807E-003	3.59960E-001	-1.17383E+000	3.57780E+000	10	...........
	45	0.613333	9.60386E-001	5.99667E-003	0.00000E+000	5.75912E-003	3.59960E-001	-1.17140E+000	3.57780E+000	10	...........
	46	0.626667	9.66178E-001	5.99557E-003	0.00000E+000	5.79279E-003	3.59960E-001	-1.18253E+000	3.57911E+000	10	...........
	47	0.64	9.71979E-001	5.99719E-003	0.00000E+000	5.82914E-003	3.59960E-001	-1.17369E+000	3.57990E+000	10	...........
	48	0.653333	9.77758E-001	5.99432E-003	0.00000E+000	5.86100E-003	3.59960E-001	-1.17094E+000	3.57990E+000	10	...........
	49	0.666667	9.83377E-001	5.99128E-003	0.00000E+000	5.89168E-003	3.59960E-001	-1.18198E+000	3.57990E+000	10	...........
	50	0.68	9.89046E-001	5.99428E-003	0.00000E+000	5.92862E-003	3.59960E-001	-1.17337E+000	3.57990E+000	10	...........
	51	0.693333	9.94618E-001	5.99176E-003	0.00000E+000	5.95951E-003	3.59960E-001	-1.17119E+000	3.57990E+000	10	...........
	52	0.701667	9.99158E-001	5.99319E-003	0.00000E+000	5.98814E-003	3.59960E-001	-1.18444E+000	3.57990E+000	10	...........
STARTTIMEOFFSET	QUANT	1493.659	Start Time Offset (s)