File: Data/CV_CRGO300517_1/PWRCCD_CRGO300517_1/CHARGE_DISCHARGE/CHARGE_#528.DTA
EXPLAIN
TAG	PWR800_CHARGE
TITLE	LABEL	PWR Cyclic Charge Discharge (Cell) - Charge Step	Test &Identifier
DATE	LABEL	22-6-2017	Date
TIME	LABEL	15:57:00	Time
NOTES	NOTES	3	&Notes...
	supercap test cell
	0.6mg
	6M KOH
PSTAT	PSTAT	IFC5000-01520	Potentiostat
CAPACITY	QUANT	1.00000E-003	Capacity (A-hr)
CELLTYPE	SELECTOR	1	&Cell Type
WORKINGCONNECTION	SELECTOR	0	&Working Lead
MAXCHARGETIME	VARIABLEANDUNITS	1.00000E+002	s	1.00000E+002	second(s)	Max &Charge Time
CHARGECURRENT	QUANT	6.00000E-003	&Charge Current (A)
VOLTAGEFINISH	TWOPARAM	F	1.00000E-003	3.60000E+003	&Voltage Finish	 I (A) < 	Max Time(s)
SAMPLETIME	QUANT	1.00000E-002	Sa&mple Period (s)
CHARGESTOPAT1	MULTIPARAM	4	1.00000E+000	Charge Stop At &1	Voltage > Limit	V
CHARGESTOPAT2	MULTIPARAM	0	0.00000E+000	Charge Stop At &2	None	N/A
AESBHCSELECTOR	TOGGLE	F	Save Both Half Cells
IRCOMP	TOGGLE	F	IR &Measure
EOC	QUANT	0	Open Circuit (V)
SEQUENCER	TOGGLE	TRUE	Run as Sequence
PSTATMODEL	IQUANT	53	Pstat Model
PSTATSECTION	LABEL	IFC5000-01520	Pstat Section
PSTATSERIALNO	LABEL	01520	Pstat Serial Number
CTRLMODE	IQUANT	0	Control Mode
ELECTROMETER	IQUANT	1	RE=0 or CS=1
IESTAB	IQUANT	0	I/E Stability
CASPEED	IQUANT	4	Control Amp Speed
CONVENTION	IQUANT	1	Current Convention
ICHRANGE	IQUANT	2	Ich Range
ICHRANGEMODE	TOGGLE	T	Ich Auto Range
ICHOFFSETENABLE	TOGGLE	F	Ich Offset Enable
ICHOFFSET	QUANT	0	Ich Offset (V)
ICHFILTER	IQUANT	1	Ich Filter
VCHRANGE	IQUANT	2	Vch Range
VCHRANGEMODE	TOGGLE	T	Vch Auto Range
VCHOFFSETENABLE	TOGGLE	F	Vch Offset Enable
VCHOFFSET	QUANT	0	Vch Offset (V)
VCHFILTER	IQUANT	1	Vch Filter
IERANGELOWERLIMIT	IQUANT	9	I/E Range Lower Limit
IERANGEMODE	TOGGLE	F	I/E AutoRange
IERANGE	IQUANT	10	I/E Range
ACHSELECT	IQUANT	1	Ach Select
ACHRANGE	IQUANT	2	Ach Range
ACHOFFSETENABLE	TOGGLE	F	Ach Offset Enable
ACHOFFSET	QUANT	0	Ach Offset (V)
ACHFILTER	IQUANT	1	Ach Filter
CABLEID	IQUANT	14	Cable ID
DCCALDATE	LABEL	20-10-2016	DC Calibration Date
ACCALDATE	LABEL	12/3/2015	AC Calibration Date
FRAMEWORKVERSION	QUANT	7.01	Framework Version
INSTRUMENTVERSION	LABEL	4.00	Instrument Version
CURVE	TABLE	58
	Pt	T	Vf	Im	Vu	Pwr	Sig	Ach	Temp	IERange	Over
	#	s	V	A	V	W	V	V	deg C	#	bits
	0	0.013333	6.33902E-001	5.99587E-003	0.00000E+000	3.80079E-003	3.59960E-001	-1.13529E+000	3.57790E+000	10	...........
	1	0.026667	6.42856E-001	5.99464E-003	0.00000E+000	3.85369E-003	3.59960E-001	-1.13484E+000	3.57790E+000	10	...........
	2	0.04	6.51057E-001	5.99626E-003	0.00000E+000	3.90391E-003	3.59960E-001	-1.14558E+000	3.57790E+000	10	...........
	3	0.053333	6.58812E-001	5.99350E-003	0.00000E+000	3.94859E-003	3.59960E-001	-1.13523E+000	3.57790E+000	10	...........
	4	0.066667	6.66323E-001	5.99283E-003	0.00000E+000	3.99316E-003	3.59960E-001	-1.13517E+000	3.57790E+000	10	...........
	5	0.08	6.73626E-001	5.99733E-003	0.00000E+000	4.03995E-003	3.59960E-001	-1.14564E+000	3.57790E+000	10	...........
	6	0.093333	6.80746E-001	5.99307E-003	0.00000E+000	4.07976E-003	3.59960E-001	-1.13507E+000	3.57790E+000	10	...........
	7	0.106667	6.87752E-001	5.99221E-003	0.00000E+000	4.12115E-003	3.59960E-001	-1.13499E+000	3.57790E+000	10	...........
	8	0.12	6.94706E-001	5.98908E-003	0.00000E+000	4.16065E-003	3.59960E-001	-1.14585E+000	3.57790E+000	10	...........
	9	0.133333	7.01629E-001	5.99510E-003	0.00000E+000	4.20633E-003	3.59960E-001	-1.13550E+000	3.57790E+000	10	...........
	10	0.146667	7.08419E-001	5.99306E-003	0.00000E+000	4.24560E-003	3.59960E-001	-1.13483E+000	3.57790E+000	10	...........
	11	0.16	7.15185E-001	5.99422E-003	0.00000E+000	4.28698E-003	3.59960E-001	-1.14566E+000	3.57790E+000	10	...........
	12	0.173333	7.21924E-001	5.99189E-003	0.00000E+000	4.32569E-003	3.59960E-001	-1.13506E+000	3.57790E+000	10	...........
	13	0.186667	7.28619E-001	5.99570E-003	0.00000E+000	4.36858E-003	3.59960E-001	-1.13458E+000	3.57790E+000	10	...........
	14	0.2	7.35290E-001	5.99402E-003	0.00000E+000	4.40734E-003	3.59960E-001	-1.14536E+000	3.57790E+000	10	...........
	15	0.213333	7.41941E-001	5.99467E-003	0.00000E+000	4.44769E-003	3.59960E-001	-1.13467E+000	3.57790E+000	10	...........
	16	0.226667	7.48547E-001	5.99700E-003	0.00000E+000	4.48904E-003	3.59960E-001	-1.13408E+000	3.57790E+000	10	...........
	17	0.24	7.55117E-001	5.99171E-003	0.00000E+000	4.52444E-003	3.59960E-001	-1.14527E+000	3.57790E+000	10	...........
	18	0.253333	7.61672E-001	5.99078E-003	0.00000E+000	4.56301E-003	3.59960E-001	-1.13514E+000	3.57790E+000	10	...........
	19	0.266667	7.68237E-001	5.99301E-003	0.00000E+000	4.60405E-003	3.59960E-001	-1.13436E+000	3.57790E+000	10	...........
	20	0.28	7.74803E-001	5.99728E-003	0.00000E+000	4.64671E-003	3.59960E-001	-1.14514E+000	3.57790E+000	10	...........
	21	0.293333	7.81302E-001	5.99435E-003	0.00000E+000	4.68340E-003	3.59960E-001	-1.13478E+000	3.57790E+000	10	...........
	22	0.306667	7.87796E-001	5.99454E-003	0.00000E+000	4.72247E-003	3.59960E-001	-1.13407E+000	3.57790E+000	10	...........
	23	0.32	7.94258E-001	5.99500E-003	0.00000E+000	4.76158E-003	3.59960E-001	-1.14519E+000	3.57790E+000	10	...........
	24	0.333333	8.00714E-001	5.99940E-003	0.00000E+000	4.80381E-003	3.59960E-001	-1.13515E+000	3.57790E+000	10	...........
	25	0.346667	8.07120E-001	5.99453E-003	0.00000E+000	4.83831E-003	3.59960E-001	-1.13406E+000	3.57790E+000	10	...........
	26	0.36	8.13544E-001	5.99627E-003	0.00000E+000	4.87823E-003	3.59960E-001	-1.14505E+000	3.57790E+000	10	...........
	27	0.373333	8.20029E-001	5.99837E-003	0.00000E+000	4.91884E-003	3.59960E-001	-1.13510E+000	3.57790E+000	10	...........
	28	0.386667	8.26405E-001	5.99285E-003	0.00000E+000	4.95252E-003	3.59960E-001	-1.13378E+000	3.57790E+000	10	...........
	29	0.4	8.32770E-001	5.99504E-003	0.00000E+000	4.99249E-003	3.59960E-001	-1.14531E+000	3.57790E+000	10	...........
	30	0.413333	8.39128E-001	5.99283E-003	0.00000E+000	5.02875E-003	3.59960E-001	-1.13529E+000	3.57790E+000	10	...........
	31	0.426667	8.45487E-001	5.99634E-003	0.00000E+000	5.06982E-003	3.59960E-001	-1.13379E+000	3.57790E+000	10	...........
	32	0.44	8.51794E-001	5.99305E-003	0.00000E+000	5.10485E-003	3.59960E-001	-1.14516E+000	3.57790E+000	10	...........
	33	0.453333	8.58098E-001	5.99618E-003	0.00000E+000	5.14531E-003	3.59960E-001	-1.13531E+000	3.57790E+000	10	...........
	34	0.466667	8.64333E-001	5.98779E-003	0.00000E+000	5.17545E-003	3.59960E-001	-1.13392E+000	3.57790E+000	10	...........
	35	0.48	8.70642E-001	5.99598E-003	0.00000E+000	5.22036E-003	3.59960E-001	-1.14516E+000	3.57790E+000	10	...........
	36	0.493333	8.76872E-001	5.99381E-003	0.00000E+000	5.25581E-003	3.59960E-001	-1.13537E+000	3.57790E+000	10	...........
	37	0.506667	8.83138E-001	5.99512E-003	0.00000E+000	5.29452E-003	3.59960E-001	-1.13375E+000	3.57790E+000	10	...........
	38	0.52	8.89298E-001	5.99373E-003	0.00000E+000	5.33021E-003	3.59960E-001	-1.14472E+000	3.57790E+000	10	...........
	39	0.533333	8.95452E-001	5.99354E-003	0.00000E+000	5.36693E-003	3.59960E-001	-1.13527E+000	3.57790E+000	10	...........
	40	0.546667	9.01606E-001	5.99426E-003	0.00000E+000	5.40446E-003	3.59960E-001	-1.13347E+000	3.57790E+000	10	...........
	41	0.56	9.07669E-001	5.99279E-003	0.00000E+000	5.43947E-003	3.59960E-001	-1.14449E+000	3.57790E+000	10	...........
	42	0.573333	9.13793E-001	5.99346E-003	0.00000E+000	5.47678E-003	3.59960E-001	-1.13495E+000	3.57790E+000	10	...........
	43	0.586667	9.19848E-001	5.99578E-003	0.00000E+000	5.51521E-003	3.59960E-001	-1.13319E+000	3.57790E+000	10	...........
	44	0.6	9.25885E-001	5.99032E-003	0.00000E+000	5.54635E-003	3.59960E-001	-1.14463E+000	3.57790E+000	10	...........
	45	0.613333	9.31846E-001	5.99431E-003	0.00000E+000	5.58578E-003	3.59960E-001	-1.13541E+000	3.57790E+000	10	...........
	46	0.626667	9.37798E-001	5.99201E-003	0.00000E+000	5.61930E-003	3.59960E-001	-1.13327E+000	3.57790E+000	10	...........
	47	0.64	9.43677E-001	5.99709E-003	0.00000E+000	5.65931E-003	3.59960E-001	-1.14429E+000	3.57790E+000	10	...........
	48	0.653333	9.49550E-001	5.99286E-003	0.00000E+000	5.69053E-003	3.59960E-001	-1.13531E+000	3.57790E+000	10	...........
	49	0.666667	9.55352E-001	5.99229E-003	0.00000E+000	5.72475E-003	3.59960E-001	-1.13331E+000	3.57790E+000	10	...........
	50	0.68	9.61102E-001	5.99419E-003	0.00000E+000	5.76103E-003	3.59960E-001	-1.14453E+000	3.57790E+000	10	...........
	51	0.693333	9.66844E-001	5.99381E-003	0.00000E+000	5.79508E-003	3.59960E-001	-1.13554E+000	3.57790E+000	10	...........
	52	0.706667	9.72554E-001	5.99296E-003	0.00000E+000	5.82847E-003	3.59960E-001	-1.13316E+000	3.57790E+000	10	...........
	53	0.72	9.78212E-001	5.99560E-003	0.00000E+000	5.86496E-003	3.59960E-001	-1.14465E+000	3.57790E+000	10	...........
	54	0.733333	9.83837E-001	5.99235E-003	0.00000E+000	5.89550E-003	3.59960E-001	-1.13578E+000	3.57790E+000	10	...........
	55	0.746667	9.89388E-001	5.99518E-003	0.00000E+000	5.93155E-003	3.59960E-001	-1.13362E+000	3.57790E+000	10	...........
	56	0.76	9.94938E-001	5.99215E-003	0.00000E+000	5.96182E-003	3.59960E-001	-1.14486E+000	3.57790E+000	10	...........
	57	0.766667	9.99061E-001	5.99408E-003	0.00000E+000	5.98846E-003	3.59960E-001	-1.12484E+000	3.57790E+000	10	...........
STARTTIMEOFFSET	QUANT	901.9867	Start Time Offset (s)