File: Data/CV_CRGO300517_1/PWRCCD_CRGO300517_1/CHARGE_DISCHARGE/CHARGE_#38.DTA
EXPLAIN
TAG	PWR800_CHARGE
TITLE	LABEL	PWR Cyclic Charge Discharge (Cell) - Charge Step	Test &Identifier
DATE	LABEL	22-6-2017	Date
TIME	LABEL	15:36:43	Time
NOTES	NOTES	3	&Notes...
	supercap test cell
	0.6mg
	6M KOH
PSTAT	PSTAT	IFC5000-01520	Potentiostat
CAPACITY	QUANT	1.00000E-003	Capacity (A-hr)
CELLTYPE	SELECTOR	1	&Cell Type
WORKINGCONNECTION	SELECTOR	0	&Working Lead
MAXCHARGETIME	VARIABLEANDUNITS	1.00000E+002	s	1.00000E+002	second(s)	Max &Charge Time
CHARGECURRENT	QUANT	6.00000E-003	&Charge Current (A)
VOLTAGEFINISH	TWOPARAM	F	1.00000E-003	3.60000E+003	&Voltage Finish	 I (A) < 	Max Time(s)
SAMPLETIME	QUANT	1.00000E-002	Sa&mple Period (s)
CHARGESTOPAT1	MULTIPARAM	4	1.00000E+000	Charge Stop At &1	Voltage > Limit	V
CHARGESTOPAT2	MULTIPARAM	0	0.00000E+000	Charge Stop At &2	None	N/A
AESBHCSELECTOR	TOGGLE	F	Save Both Half Cells
IRCOMP	TOGGLE	F	IR &Measure
EOC	QUANT	0	Open Circuit (V)
SEQUENCER	TOGGLE	TRUE	Run as Sequence
PSTATMODEL	IQUANT	53	Pstat Model
PSTATSECTION	LABEL	IFC5000-01520	Pstat Section
PSTATSERIALNO	LABEL	01520	Pstat Serial Number
CTRLMODE	IQUANT	0	Control Mode
ELECTROMETER	IQUANT	1	RE=0 or CS=1
IESTAB	IQUANT	0	I/E Stability
CASPEED	IQUANT	4	Control Amp Speed
CONVENTION	IQUANT	1	Current Convention
ICHRANGE	IQUANT	2	Ich Range
ICHRANGEMODE	TOGGLE	T	Ich Auto Range
ICHOFFSETENABLE	TOGGLE	F	Ich Offset Enable
ICHOFFSET	QUANT	0	Ich Offset (V)
ICHFILTER	IQUANT	1	Ich Filter
VCHRANGE	IQUANT	2	Vch Range
VCHRANGEMODE	TOGGLE	T	Vch Auto Range
VCHOFFSETENABLE	TOGGLE	F	Vch Offset Enable
VCHOFFSET	QUANT	0	Vch Offset (V)
VCHFILTER	IQUANT	1	Vch Filter
IERANGELOWERLIMIT	IQUANT	9	I/E Range Lower Limit
IERANGEMODE	TOGGLE	F	I/E AutoRange
IERANGE	IQUANT	10	I/E Range
ACHSELECT	IQUANT	1	Ach Select
ACHRANGE	IQUANT	2	Ach Range
ACHOFFSETENABLE	TOGGLE	F	Ach Offset Enable
ACHOFFSET	QUANT	0	Ach Offset (V)
ACHFILTER	IQUANT	1	Ach Filter
CABLEID	IQUANT	14	Cable ID
DCCALDATE	LABEL	20-10-2016	DC Calibration Date
ACCALDATE	LABEL	12/3/2015	AC Calibration Date
FRAMEWORKVERSION	QUANT	7.01	Framework Version
INSTRUMENTVERSION	LABEL	4.00	Instrument Version
CURVE	TABLE	75
	Pt	T	Vf	Im	Vu	Pwr	Sig	Ach	Temp	IERange	Over
	#	s	V	A	V	W	V	V	deg C	#	bits
	0	0.013333	5.69860E-001	5.99538E-003	0.00000E+000	3.41653E-003	3.59960E-001	-1.03910E+000	3.57740E+000	10	...........
	1	0.026667	5.77940E-001	5.99430E-003	0.00000E+000	3.46435E-003	3.59960E-001	-1.02859E+000	3.57740E+000	10	...........
	2	0.04	5.85318E-001	5.99146E-003	0.00000E+000	3.50691E-003	3.59960E-001	-1.02674E+000	3.57740E+000	10	...........
	3	0.053333	5.92316E-001	5.99373E-003	0.00000E+000	3.55018E-003	3.59960E-001	-1.03907E+000	3.57740E+000	10	...........
	4	0.066667	5.99020E-001	5.99489E-003	0.00000E+000	3.59105E-003	3.59960E-001	-1.02848E+000	3.57740E+000	10	...........
	5	0.08	6.05572E-001	5.99417E-003	0.00000E+000	3.62990E-003	3.59960E-001	-1.02659E+000	3.57740E+000	10	...........
	6	0.093333	6.11907E-001	5.99313E-003	0.00000E+000	3.66724E-003	3.59960E-001	-1.03898E+000	3.57740E+000	10	...........
	7	0.106667	6.18274E-001	5.99768E-003	0.00000E+000	3.70821E-003	3.59960E-001	-1.02865E+000	3.57740E+000	10	...........
	8	0.12	6.24428E-001	5.99323E-003	0.00000E+000	3.74234E-003	3.59960E-001	-1.02656E+000	3.57740E+000	10	...........
	9	0.133333	6.30524E-001	5.99179E-003	0.00000E+000	3.77796E-003	3.59960E-001	-1.03887E+000	3.57740E+000	10	...........
	10	0.146667	6.36568E-001	5.99368E-003	0.00000E+000	3.81538E-003	3.59960E-001	-1.02822E+000	3.57740E+000	10	...........
	11	0.16	6.42602E-001	5.99755E-003	0.00000E+000	3.85403E-003	3.59960E-001	-1.02659E+000	3.57740E+000	10	...........
	12	0.173333	6.48533E-001	5.99595E-003	0.00000E+000	3.88857E-003	3.59960E-001	-1.03918E+000	3.57740E+000	10	...........
	13	0.186667	6.54464E-001	5.99359E-003	0.00000E+000	3.92259E-003	3.59960E-001	-1.02857E+000	3.57740E+000	10	...........
	14	0.2	6.60302E-001	5.99192E-003	0.00000E+000	3.95648E-003	3.59960E-001	-1.02642E+000	3.57740E+000	10	...........
	15	0.213333	6.66176E-001	5.99286E-003	0.00000E+000	3.99230E-003	3.59960E-001	-1.03884E+000	3.57740E+000	10	...........
	16	0.226667	6.71993E-001	5.99092E-003	0.00000E+000	4.02586E-003	3.59960E-001	-1.02857E+000	3.57740E+000	10	...........
	17	0.24	6.77785E-001	5.99457E-003	0.00000E+000	4.06303E-003	3.59960E-001	-1.02651E+000	3.57740E+000	10	...........
	18	0.253333	6.83549E-001	5.99580E-003	0.00000E+000	4.09843E-003	3.59960E-001	-1.03868E+000	3.57740E+000	10	...........
	19	0.266667	6.89328E-001	5.99422E-003	0.00000E+000	4.13198E-003	3.59960E-001	-1.02775E+000	3.57740E+000	10	...........
	20	0.28	6.95100E-001	5.99617E-003	0.00000E+000	4.16794E-003	3.59960E-001	-1.02602E+000	3.57740E+000	10	...........
	21	0.293333	7.00813E-001	5.99281E-003	0.00000E+000	4.19984E-003	3.59960E-001	-1.03849E+000	3.57740E+000	10	...........
	22	0.306667	7.06525E-001	5.99184E-003	0.00000E+000	4.23339E-003	3.59960E-001	-1.02793E+000	3.57740E+000	10	...........
	23	0.32	7.12243E-001	5.99262E-003	0.00000E+000	4.26820E-003	3.59960E-001	-1.02614E+000	3.57740E+000	10	...........
	24	0.333333	7.18026E-001	5.99627E-003	0.00000E+000	4.30548E-003	3.59960E-001	-1.03847E+000	3.57740E+000	10	...........
	25	0.346667	7.23756E-001	5.99631E-003	0.00000E+000	4.33986E-003	3.59960E-001	-1.02774E+000	3.57740E+000	10	...........
	26	0.36	7.29440E-001	5.99395E-003	0.00000E+000	4.37223E-003	3.59960E-001	-1.02585E+000	3.57740E+000	10	...........
	27	0.373333	7.35100E-001	5.99619E-003	0.00000E+000	4.40780E-003	3.59960E-001	-1.03828E+000	3.57740E+000	10	...........
	28	0.386667	7.40802E-001	5.99554E-003	0.00000E+000	4.44151E-003	3.59960E-001	-1.02790E+000	3.57740E+000	10	...........
	29	0.4	7.46514E-001	5.99705E-003	0.00000E+000	4.47688E-003	3.59960E-001	-1.02585E+000	3.57740E+000	10	...........
	30	0.413333	7.52191E-001	5.99329E-003	0.00000E+000	4.50810E-003	3.59960E-001	-1.03820E+000	3.57740E+000	10	...........
	31	0.426667	7.57893E-001	6.00000E-003	0.00000E+000	4.54736E-003	3.59960E-001	-1.02774E+000	3.57740E+000	10	...........
	32	0.44	7.63557E-001	5.99543E-003	0.00000E+000	4.57785E-003	3.59960E-001	-1.02611E+000	3.57740E+000	10	...........
	33	0.453333	7.69240E-001	5.99320E-003	0.00000E+000	4.61021E-003	3.59960E-001	-1.03828E+000	3.57740E+000	10	...........
	34	0.466667	7.74935E-001	5.99458E-003	0.00000E+000	4.64541E-003	3.59960E-001	-1.02768E+000	3.57740E+000	10	...........
	35	0.48	7.80629E-001	5.99433E-003	0.00000E+000	4.67935E-003	3.59960E-001	-1.02589E+000	3.57740E+000	10	...........
	36	0.493333	7.86317E-001	5.99527E-003	0.00000E+000	4.71419E-003	3.59960E-001	-1.03853E+000	3.57740E+000	10	...........
	37	0.506667	7.91985E-001	5.99485E-003	0.00000E+000	4.74782E-003	3.59960E-001	-1.02804E+000	3.57740E+000	10	...........
	38	0.52	7.97649E-001	5.99044E-003	0.00000E+000	4.77827E-003	3.59960E-001	-1.02582E+000	3.57740E+000	10	...........
	39	0.533333	8.03361E-001	5.99625E-003	0.00000E+000	4.81716E-003	3.59960E-001	-1.03827E+000	3.57740E+000	10	...........
	40	0.546667	8.09017E-001	5.99305E-003	0.00000E+000	4.84848E-003	3.59960E-001	-1.02779E+000	3.57740E+000	10	...........
	41	0.56	8.14669E-001	5.99431E-003	0.00000E+000	4.88338E-003	3.59960E-001	-1.02590E+000	3.57740E+000	10	...........
	42	0.573333	8.20363E-001	5.99217E-003	0.00000E+000	4.91576E-003	3.59960E-001	-1.03831E+000	3.57740E+000	10	...........
	43	0.586667	8.26037E-001	5.99026E-003	0.00000E+000	4.94817E-003	3.59960E-001	-1.02756E+000	3.57740E+000	10	...........
	44	0.6	8.31674E-001	5.99236E-003	0.00000E+000	4.98369E-003	3.59960E-001	-1.02558E+000	3.57740E+000	10	...........
	45	0.613333	8.37369E-001	5.99598E-003	0.00000E+000	5.02085E-003	3.59960E-001	-1.03788E+000	3.57740E+000	10	...........
	46	0.626667	8.43065E-001	5.99495E-003	0.00000E+000	5.05413E-003	3.59960E-001	-1.02751E+000	3.57740E+000	10	...........
	47	0.64	8.48727E-001	5.99159E-003	0.00000E+000	5.08522E-003	3.59960E-001	-1.02569E+000	3.57740E+000	10	...........
	48	0.653333	8.54396E-001	5.99512E-003	0.00000E+000	5.12221E-003	3.59960E-001	-1.03809E+000	3.57740E+000	10	...........
	49	0.666667	8.60086E-001	5.99821E-003	0.00000E+000	5.15898E-003	3.59960E-001	-1.02738E+000	3.57740E+000	10	...........
	50	0.68	8.65722E-001	5.99337E-003	0.00000E+000	5.18859E-003	3.59960E-001	-1.02539E+000	3.57740E+000	10	...........
	51	0.693333	8.71408E-001	5.99405E-003	0.00000E+000	5.22326E-003	3.59960E-001	-1.03791E+000	3.57740E+000	10	...........
	52	0.706667	8.77050E-001	5.99532E-003	0.00000E+000	5.25820E-003	3.59960E-001	-1.02745E+000	3.57740E+000	10	...........
	53	0.72	8.82713E-001	5.99282E-003	0.00000E+000	5.28994E-003	3.59960E-001	-1.02550E+000	3.57740E+000	10	...........
	54	0.733333	8.88331E-001	5.99696E-003	0.00000E+000	5.32729E-003	3.59960E-001	-1.03766E+000	3.57740E+000	10	...........
	55	0.746667	8.93947E-001	5.99363E-003	0.00000E+000	5.35799E-003	3.59960E-001	-1.02724E+000	3.57740E+000	10	...........
	56	0.76	8.99562E-001	5.99314E-003	0.00000E+000	5.39120E-003	3.59960E-001	-1.02531E+000	3.57740E+000	10	...........
	57	0.773333	9.05183E-001	5.99041E-003	0.00000E+000	5.42242E-003	3.59960E-001	-1.03782E+000	3.57740E+000	10	...........
	58	0.786667	9.10789E-001	5.99094E-003	0.00000E+000	5.45648E-003	3.59960E-001	-1.02735E+000	3.57740E+000	10	...........
	59	0.8	9.16352E-001	5.99224E-003	0.00000E+000	5.49100E-003	3.59960E-001	-1.02531E+000	3.57740E+000	10	...........
	60	0.813333	9.22000E-001	5.99624E-003	0.00000E+000	5.52854E-003	3.59960E-001	-1.03790E+000	3.57740E+000	10	...........
	61	0.826667	9.27538E-001	5.99186E-003	0.00000E+000	5.55768E-003	3.59960E-001	-1.02757E+000	3.57740E+000	10	...........
	62	0.84	9.33074E-001	5.99502E-003	0.00000E+000	5.59380E-003	3.59960E-001	-1.02560E+000	3.57740E+000	10	...........
	63	0.853333	9.38590E-001	5.99998E-003	0.00000E+000	5.63152E-003	3.59960E-001	-1.03807E+000	3.57800E+000	10	...........
	64	0.866667	9.44072E-001	5.99520E-003	0.00000E+000	5.65990E-003	3.59960E-001	-1.02745E+000	3.57860E+000	10	...........
	65	0.88	9.49634E-001	5.99438E-003	0.00000E+000	5.69246E-003	3.59960E-001	-1.02541E+000	3.57860E+000	10	...........
	66	0.893333	9.55105E-001	5.99275E-003	0.00000E+000	5.72370E-003	3.59960E-001	-1.03787E+000	3.57860E+000	10	...........
	67	0.906667	9.60546E-001	5.99550E-003	0.00000E+000	5.75895E-003	3.59960E-001	-1.02738E+000	3.57860E+000	10	...........
	68	0.92	9.65928E-001	5.99361E-003	0.00000E+000	5.78940E-003	3.59960E-001	-1.02514E+000	3.57860E+000	10	...........
	69	0.933333	9.71336E-001	5.99216E-003	0.00000E+000	5.82040E-003	3.59960E-001	-1.03735E+000	3.57860E+000	10	...........
	70	0.946667	9.76747E-001	5.99467E-003	0.00000E+000	5.85527E-003	3.59960E-001	-1.02686E+000	3.57860E+000	10	...........
	71	0.96	9.82081E-001	5.99431E-003	0.00000E+000	5.88690E-003	3.59960E-001	-1.02513E+000	3.57860E+000	10	...........
	72	0.97333	9.87378E-001	5.99327E-003	0.00000E+000	5.91762E-003	3.59960E-001	-1.03761E+000	3.57860E+000	10	...........
	73	0.98667	9.92667E-001	5.99508E-003	0.00000E+000	5.95113E-003	3.59960E-001	-1.02720E+000	3.57860E+000	10	...........
	74	1	9.97938E-001	5.99348E-003	0.00000E+000	5.98112E-003	3.59960E-001	-1.02493E+000	3.57860E+000	10	...........
STARTTIMEOFFSET	QUANT	76.91499	Start Time Offset (s)