File: Data/CV_CRGO300517_1/PWRCCD_CRGO300517_1/CHARGE_DISCHARGE/CHARGE_#509.DTA
EXPLAIN
TAG	PWR800_CHARGE
TITLE	LABEL	PWR Cyclic Charge Discharge (Cell) - Charge Step	Test &Identifier
DATE	LABEL	22-6-2017	Date
TIME	LABEL	15:56:16	Time
NOTES	NOTES	3	&Notes...
	supercap test cell
	0.6mg
	6M KOH
PSTAT	PSTAT	IFC5000-01520	Potentiostat
CAPACITY	QUANT	1.00000E-003	Capacity (A-hr)
CELLTYPE	SELECTOR	1	&Cell Type
WORKINGCONNECTION	SELECTOR	0	&Working Lead
MAXCHARGETIME	VARIABLEANDUNITS	1.00000E+002	s	1.00000E+002	second(s)	Max &Charge Time
CHARGECURRENT	QUANT	6.00000E-003	&Charge Current (A)
VOLTAGEFINISH	TWOPARAM	F	1.00000E-003	3.60000E+003	&Voltage Finish	 I (A) < 	Max Time(s)
SAMPLETIME	QUANT	1.00000E-002	Sa&mple Period (s)
CHARGESTOPAT1	MULTIPARAM	4	1.00000E+000	Charge Stop At &1	Voltage > Limit	V
CHARGESTOPAT2	MULTIPARAM	0	0.00000E+000	Charge Stop At &2	None	N/A
AESBHCSELECTOR	TOGGLE	F	Save Both Half Cells
IRCOMP	TOGGLE	F	IR &Measure
EOC	QUANT	0	Open Circuit (V)
SEQUENCER	TOGGLE	TRUE	Run as Sequence
PSTATMODEL	IQUANT	53	Pstat Model
PSTATSECTION	LABEL	IFC5000-01520	Pstat Section
PSTATSERIALNO	LABEL	01520	Pstat Serial Number
CTRLMODE	IQUANT	0	Control Mode
ELECTROMETER	IQUANT	1	RE=0 or CS=1
IESTAB	IQUANT	0	I/E Stability
CASPEED	IQUANT	4	Control Amp Speed
CONVENTION	IQUANT	1	Current Convention
ICHRANGE	IQUANT	2	Ich Range
ICHRANGEMODE	TOGGLE	T	Ich Auto Range
ICHOFFSETENABLE	TOGGLE	F	Ich Offset Enable
ICHOFFSET	QUANT	0	Ich Offset (V)
ICHFILTER	IQUANT	1	Ich Filter
VCHRANGE	IQUANT	2	Vch Range
VCHRANGEMODE	TOGGLE	T	Vch Auto Range
VCHOFFSETENABLE	TOGGLE	F	Vch Offset Enable
VCHOFFSET	QUANT	0	Vch Offset (V)
VCHFILTER	IQUANT	1	Vch Filter
IERANGELOWERLIMIT	IQUANT	9	I/E Range Lower Limit
IERANGEMODE	TOGGLE	F	I/E AutoRange
IERANGE	IQUANT	10	I/E Range
ACHSELECT	IQUANT	1	Ach Select
ACHRANGE	IQUANT	2	Ach Range
ACHOFFSETENABLE	TOGGLE	F	Ach Offset Enable
ACHOFFSET	QUANT	0	Ach Offset (V)
ACHFILTER	IQUANT	1	Ach Filter
CABLEID	IQUANT	14	Cable ID
DCCALDATE	LABEL	20-10-2016	DC Calibration Date
ACCALDATE	LABEL	12/3/2015	AC Calibration Date
FRAMEWORKVERSION	QUANT	7.01	Framework Version
INSTRUMENTVERSION	LABEL	4.00	Instrument Version
CURVE	TABLE	58
	Pt	T	Vf	Im	Vu	Pwr	Sig	Ach	Temp	IERange	Over
	#	s	V	A	V	W	V	V	deg C	#	bits
	0	0.013333	6.32459E-001	5.99592E-003	0.00000E+000	3.79218E-003	3.59960E-001	-1.13162E+000	3.57790E+000	10	...........
	1	0.026667	6.41384E-001	5.99120E-003	0.00000E+000	3.84266E-003	3.59960E-001	-1.12293E+000	3.57790E+000	10	...........
	2	0.04	6.49514E-001	5.98993E-003	0.00000E+000	3.89055E-003	3.59960E-001	-1.12747E+000	3.57790E+000	10	...........
	3	0.053333	6.57292E-001	6.00013E-003	0.00000E+000	3.94384E-003	3.59960E-001	-1.13167E+000	3.57790E+000	10	...........
	4	0.066667	6.64769E-001	5.99457E-003	0.00000E+000	3.98501E-003	3.59960E-001	-1.12308E+000	3.57790E+000	10	...........
	5	0.08	6.72053E-001	5.99317E-003	0.00000E+000	4.02772E-003	3.59960E-001	-1.12753E+000	3.57790E+000	10	...........
	6	0.093333	6.79198E-001	5.99329E-003	0.00000E+000	4.07063E-003	3.59960E-001	-1.13192E+000	3.57790E+000	10	...........
	7	0.106667	6.86210E-001	5.99585E-003	0.00000E+000	4.11441E-003	3.59960E-001	-1.12315E+000	3.57790E+000	10	...........
	8	0.12	6.93147E-001	5.99295E-003	0.00000E+000	4.15399E-003	3.59960E-001	-1.12785E+000	3.57790E+000	10	...........
	9	0.133333	6.99993E-001	5.99534E-003	0.00000E+000	4.19669E-003	3.59960E-001	-1.13189E+000	3.57790E+000	10	...........
	10	0.146667	7.06808E-001	6.00026E-003	0.00000E+000	4.24103E-003	3.59960E-001	-1.12309E+000	3.57790E+000	10	...........
	11	0.16	7.13517E-001	5.99806E-003	0.00000E+000	4.27972E-003	3.59960E-001	-1.12791E+000	3.57790E+000	10	...........
	12	0.173333	7.20304E-001	5.99375E-003	0.00000E+000	4.31732E-003	3.59960E-001	-1.13166E+000	3.57790E+000	10	...........
	13	0.186667	7.26998E-001	5.99729E-003	0.00000E+000	4.36002E-003	3.59960E-001	-1.12311E+000	3.57790E+000	10	...........
	14	0.2	7.33623E-001	5.99199E-003	0.00000E+000	4.39586E-003	3.59960E-001	-1.12790E+000	3.57790E+000	10	...........
	15	0.213333	7.40237E-001	5.99582E-003	0.00000E+000	4.43832E-003	3.59960E-001	-1.13160E+000	3.57790E+000	10	...........
	16	0.226667	7.46800E-001	5.98959E-003	0.00000E+000	4.47303E-003	3.59960E-001	-1.12285E+000	3.57790E+000	10	...........
	17	0.24	7.53387E-001	5.99446E-003	0.00000E+000	4.51614E-003	3.59960E-001	-1.12779E+000	3.57790E+000	10	...........
	18	0.253333	7.59916E-001	5.99810E-003	0.00000E+000	4.55805E-003	3.59960E-001	-1.13081E+000	3.57790E+000	10	...........
	19	0.266667	7.66450E-001	5.99596E-003	0.00000E+000	4.59561E-003	3.59960E-001	-1.12226E+000	3.57790E+000	10	...........
	20	0.28	7.72939E-001	5.99499E-003	0.00000E+000	4.63376E-003	3.59960E-001	-1.12725E+000	3.57790E+000	10	...........
	21	0.293333	7.79409E-001	5.99690E-003	0.00000E+000	4.67404E-003	3.59960E-001	-1.13021E+000	3.57790E+000	10	...........
	22	0.306667	7.85895E-001	5.99084E-003	0.00000E+000	4.70817E-003	3.59960E-001	-1.12168E+000	3.57790E+000	10	...........
	23	0.32	7.92403E-001	5.99388E-003	0.00000E+000	4.74958E-003	3.59960E-001	-1.12671E+000	3.57790E+000	10	...........
	24	0.333333	7.98865E-001	5.99352E-003	0.00000E+000	4.78801E-003	3.59960E-001	-1.12948E+000	3.57790E+000	10	...........
	25	0.346667	8.05318E-001	5.99571E-003	0.00000E+000	4.82845E-003	3.59960E-001	-1.12099E+000	3.57790E+000	10	...........
	26	0.36	8.11714E-001	5.99512E-003	0.00000E+000	4.86632E-003	3.59960E-001	-1.12659E+000	3.57790E+000	10	...........
	27	0.373333	8.18119E-001	5.99582E-003	0.00000E+000	4.90530E-003	3.59960E-001	-1.12900E+000	3.57790E+000	10	...........
	28	0.386667	8.24504E-001	5.99489E-003	0.00000E+000	4.94281E-003	3.59960E-001	-1.12065E+000	3.57790E+000	10	...........
	29	0.4	8.30844E-001	5.99042E-003	0.00000E+000	4.97711E-003	3.59960E-001	-1.12613E+000	3.57790E+000	10	...........
	30	0.413333	8.37161E-001	5.99598E-003	0.00000E+000	5.01960E-003	3.59960E-001	-1.12864E+000	3.57790E+000	10	...........
	31	0.426667	8.43484E-001	5.99522E-003	0.00000E+000	5.05687E-003	3.59960E-001	-1.12083E+000	3.57790E+000	10	...........
	32	0.44	8.49833E-001	5.98923E-003	0.00000E+000	5.08985E-003	3.59960E-001	-1.12632E+000	3.57790E+000	10	...........
	33	0.453333	8.56132E-001	5.99435E-003	0.00000E+000	5.13196E-003	3.59960E-001	-1.12832E+000	3.57790E+000	10	...........
	34	0.466667	8.62373E-001	5.99840E-003	0.00000E+000	5.17286E-003	3.59960E-001	-1.12028E+000	3.57790E+000	10	...........
	35	0.48	8.68664E-001	5.99367E-003	0.00000E+000	5.20648E-003	3.59960E-001	-1.12626E+000	3.57790E+000	10	...........
	36	0.493333	8.74895E-001	5.99842E-003	0.00000E+000	5.24799E-003	3.59960E-001	-1.12862E+000	3.57790E+000	10	...........
	37	0.506667	8.81105E-001	5.99286E-003	0.00000E+000	5.28034E-003	3.59960E-001	-1.12051E+000	3.57790E+000	10	...........
	38	0.52	8.87345E-001	5.99693E-003	0.00000E+000	5.32135E-003	3.59960E-001	-1.12647E+000	3.57790E+000	10	...........
	39	0.533333	8.93451E-001	5.99553E-003	0.00000E+000	5.35671E-003	3.59960E-001	-1.12828E+000	3.57790E+000	10	...........
	40	0.546667	8.99648E-001	5.99696E-003	0.00000E+000	5.39516E-003	3.59960E-001	-1.12053E+000	3.57790E+000	10	...........
	41	0.56	9.05762E-001	5.99373E-003	0.00000E+000	5.42889E-003	3.59960E-001	-1.12687E+000	3.57790E+000	10	...........
	42	0.573333	9.11855E-001	5.99224E-003	0.00000E+000	5.46405E-003	3.59960E-001	-1.12813E+000	3.57790E+000	10	...........
	43	0.586667	9.17896E-001	5.99562E-003	0.00000E+000	5.50335E-003	3.59960E-001	-1.11995E+000	3.57790E+000	10	...........
	44	0.6	9.23923E-001	5.99037E-003	0.00000E+000	5.53464E-003	3.59960E-001	-1.12585E+000	3.57790E+000	10	...........
	45	0.613333	9.29924E-001	5.99427E-003	0.00000E+000	5.57422E-003	3.59960E-001	-1.12723E+000	3.57790E+000	10	...........
	46	0.626667	9.35855E-001	5.99256E-003	0.00000E+000	5.60817E-003	3.59960E-001	-1.11960E+000	3.57790E+000	10	...........
	47	0.64	9.41749E-001	5.99432E-003	0.00000E+000	5.64515E-003	3.59960E-001	-1.12583E+000	3.57790E+000	10	...........
	48	0.653333	9.47685E-001	5.99231E-003	0.00000E+000	5.67882E-003	3.59960E-001	-1.12708E+000	3.57790E+000	10	...........
	49	0.666667	9.53547E-001	5.99380E-003	0.00000E+000	5.71537E-003	3.59960E-001	-1.11932E+000	3.57790E+000	10	...........
	50	0.68	9.59299E-001	5.99257E-003	0.00000E+000	5.74867E-003	3.59960E-001	-1.12581E+000	3.57790E+000	10	...........
	51	0.693333	9.65005E-001	5.99677E-003	0.00000E+000	5.78692E-003	3.59960E-001	-1.12731E+000	3.57790E+000	10	...........
	52	0.706667	9.70734E-001	5.98891E-003	0.00000E+000	5.81364E-003	3.59960E-001	-1.11935E+000	3.57790E+000	10	...........
	53	0.72	9.76408E-001	5.99794E-003	0.00000E+000	5.85644E-003	3.59960E-001	-1.12607E+000	3.57790E+000	10	...........
	54	0.733333	9.82030E-001	5.99001E-003	0.00000E+000	5.88236E-003	3.59960E-001	-1.12684E+000	3.57790E+000	10	...........
	55	0.746667	9.87592E-001	5.99211E-003	0.00000E+000	5.91776E-003	3.59960E-001	-1.11938E+000	3.57790E+000	10	...........
	56	0.76	9.93121E-001	5.99189E-003	0.00000E+000	5.95068E-003	3.59960E-001	-1.12610E+000	3.57790E+000	10	...........
	57	0.771667	9.98288E-001	5.99719E-003	0.00000E+000	5.98692E-003	3.59960E-001	-1.12614E+000	3.57790E+000	10	...........
STARTTIMEOFFSET	QUANT	872.8703	Start Time Offset (s)