File: Data/CV_CRGO300517_1/PWRCCD_CRGO300517_1/CHARGE_DISCHARGE/CHARGE_#890.DTA
EXPLAIN
TAG	PWR800_CHARGE
TITLE	LABEL	PWR Cyclic Charge Discharge (Cell) - Charge Step	Test &Identifier
DATE	LABEL	22-6-2017	Date
TIME	LABEL	16:10:36	Time
NOTES	NOTES	3	&Notes...
	supercap test cell
	0.6mg
	6M KOH
PSTAT	PSTAT	IFC5000-01520	Potentiostat
CAPACITY	QUANT	1.00000E-003	Capacity (A-hr)
CELLTYPE	SELECTOR	1	&Cell Type
WORKINGCONNECTION	SELECTOR	0	&Working Lead
MAXCHARGETIME	VARIABLEANDUNITS	1.00000E+002	s	1.00000E+002	second(s)	Max &Charge Time
CHARGECURRENT	QUANT	6.00000E-003	&Charge Current (A)
VOLTAGEFINISH	TWOPARAM	F	1.00000E-003	3.60000E+003	&Voltage Finish	 I (A) < 	Max Time(s)
SAMPLETIME	QUANT	1.00000E-002	Sa&mple Period (s)
CHARGESTOPAT1	MULTIPARAM	4	1.00000E+000	Charge Stop At &1	Voltage > Limit	V
CHARGESTOPAT2	MULTIPARAM	0	0.00000E+000	Charge Stop At &2	None	N/A
AESBHCSELECTOR	TOGGLE	F	Save Both Half Cells
IRCOMP	TOGGLE	F	IR &Measure
EOC	QUANT	0	Open Circuit (V)
SEQUENCER	TOGGLE	TRUE	Run as Sequence
PSTATMODEL	IQUANT	53	Pstat Model
PSTATSECTION	LABEL	IFC5000-01520	Pstat Section
PSTATSERIALNO	LABEL	01520	Pstat Serial Number
CTRLMODE	IQUANT	0	Control Mode
ELECTROMETER	IQUANT	1	RE=0 or CS=1
IESTAB	IQUANT	0	I/E Stability
CASPEED	IQUANT	4	Control Amp Speed
CONVENTION	IQUANT	1	Current Convention
ICHRANGE	IQUANT	2	Ich Range
ICHRANGEMODE	TOGGLE	T	Ich Auto Range
ICHOFFSETENABLE	TOGGLE	F	Ich Offset Enable
ICHOFFSET	QUANT	0	Ich Offset (V)
ICHFILTER	IQUANT	1	Ich Filter
VCHRANGE	IQUANT	2	Vch Range
VCHRANGEMODE	TOGGLE	T	Vch Auto Range
VCHOFFSETENABLE	TOGGLE	F	Vch Offset Enable
VCHOFFSET	QUANT	0	Vch Offset (V)
VCHFILTER	IQUANT	1	Vch Filter
IERANGELOWERLIMIT	IQUANT	9	I/E Range Lower Limit
IERANGEMODE	TOGGLE	F	I/E AutoRange
IERANGE	IQUANT	10	I/E Range
ACHSELECT	IQUANT	1	Ach Select
ACHRANGE	IQUANT	2	Ach Range
ACHOFFSETENABLE	TOGGLE	F	Ach Offset Enable
ACHOFFSET	QUANT	0	Ach Offset (V)
ACHFILTER	IQUANT	1	Ach Filter
CABLEID	IQUANT	14	Cable ID
DCCALDATE	LABEL	20-10-2016	DC Calibration Date
ACCALDATE	LABEL	12/3/2015	AC Calibration Date
FRAMEWORKVERSION	QUANT	7.01	Framework Version
INSTRUMENTVERSION	LABEL	4.00	Instrument Version
CURVE	TABLE	54
	Pt	T	Vf	Im	Vu	Pwr	Sig	Ach	Temp	IERange	Over
	#	s	V	A	V	W	V	V	deg C	#	bits
	0	0.013333	6.52492E-001	5.99473E-003	0.00000E+000	3.91151E-003	3.59960E-001	-1.17458E+000	3.57630E+000	10	...........
	1	0.026667	6.61726E-001	5.99256E-003	0.00000E+000	3.96544E-003	3.59960E-001	-1.16373E+000	3.57630E+000	10	...........
	2	0.04	6.70286E-001	5.99697E-003	0.00000E+000	4.01969E-003	3.59960E-001	-1.16585E+000	3.57630E+000	10	...........
	3	0.053333	6.78351E-001	5.99090E-003	0.00000E+000	4.06394E-003	3.59960E-001	-1.17454E+000	3.57630E+000	10	...........
	4	0.066667	6.86100E-001	5.99116E-003	0.00000E+000	4.11054E-003	3.59960E-001	-1.16395E+000	3.57630E+000	10	...........
	5	0.08	6.93718E-001	5.99175E-003	0.00000E+000	4.15658E-003	3.59960E-001	-1.16580E+000	3.57630E+000	10	...........
	6	0.093333	7.01138E-001	5.99615E-003	0.00000E+000	4.20413E-003	3.59960E-001	-1.17447E+000	3.57630E+000	10	...........
	7	0.106667	7.08427E-001	5.99413E-003	0.00000E+000	4.24640E-003	3.59960E-001	-1.16377E+000	3.57630E+000	10	...........
	8	0.12	7.15664E-001	5.99160E-003	0.00000E+000	4.28797E-003	3.59960E-001	-1.16584E+000	3.57630E+000	10	...........
	9	0.133333	7.22865E-001	5.99675E-003	0.00000E+000	4.33485E-003	3.59960E-001	-1.17434E+000	3.57630E+000	10	...........
	10	0.146667	7.29929E-001	5.99344E-003	0.00000E+000	4.37478E-003	3.59960E-001	-1.16372E+000	3.57630E+000	10	...........
	11	0.16	7.36964E-001	5.99658E-003	0.00000E+000	4.41926E-003	3.59960E-001	-1.16595E+000	3.57630E+000	10	...........
	12	0.173333	7.43939E-001	5.99149E-003	0.00000E+000	4.45730E-003	3.59960E-001	-1.17416E+000	3.57630E+000	10	...........
	13	0.186667	7.50882E-001	5.99096E-003	0.00000E+000	4.49851E-003	3.59960E-001	-1.16345E+000	3.57630E+000	10	...........
	14	0.2	7.57771E-001	5.99285E-003	0.00000E+000	4.54121E-003	3.59960E-001	-1.16578E+000	3.57630E+000	10	...........
	15	0.213333	7.64659E-001	5.99713E-003	0.00000E+000	4.58576E-003	3.59960E-001	-1.17411E+000	3.57630E+000	10	...........
	16	0.226667	7.71506E-001	5.99821E-003	0.00000E+000	4.62766E-003	3.59960E-001	-1.16360E+000	3.57630E+000	10	...........
	17	0.24	7.78276E-001	5.99786E-003	0.00000E+000	4.66799E-003	3.59960E-001	-1.16593E+000	3.57630E+000	10	...........
	18	0.253333	7.85062E-001	5.99317E-003	0.00000E+000	4.70501E-003	3.59960E-001	-1.17412E+000	3.57630E+000	10	...........
	19	0.266667	7.91812E-001	5.99408E-003	0.00000E+000	4.74619E-003	3.59960E-001	-1.16367E+000	3.57630E+000	10	...........
	20	0.28	7.98553E-001	5.99663E-003	0.00000E+000	4.78863E-003	3.59960E-001	-1.16592E+000	3.57630E+000	10	...........
	21	0.293333	8.05247E-001	5.99479E-003	0.00000E+000	4.82729E-003	3.59960E-001	-1.17377E+000	3.57630E+000	10	...........
	22	0.306667	8.11891E-001	5.99317E-003	0.00000E+000	4.86580E-003	3.59960E-001	-1.16339E+000	3.57630E+000	10	...........
	23	0.32	8.18558E-001	5.98622E-003	0.00000E+000	4.90007E-003	3.59960E-001	-1.16599E+000	3.57630E+000	10	...........
	24	0.333333	8.25147E-001	5.99583E-003	0.00000E+000	4.94744E-003	3.59960E-001	-1.17372E+000	3.57630E+000	10	...........
	25	0.346667	8.31779E-001	5.99488E-003	0.00000E+000	4.98641E-003	3.59960E-001	-1.16330E+000	3.57630E+000	10	...........
	26	0.36	8.38328E-001	5.99166E-003	0.00000E+000	5.02298E-003	3.59960E-001	-1.16568E+000	3.57630E+000	10	...........
	27	0.373333	8.44907E-001	5.99652E-003	0.00000E+000	5.06650E-003	3.59960E-001	-1.17350E+000	3.57630E+000	10	...........
	28	0.386667	8.51458E-001	5.99413E-003	0.00000E+000	5.10374E-003	3.59960E-001	-1.16309E+000	3.57630E+000	10	...........
	29	0.4	8.57920E-001	5.99546E-003	0.00000E+000	5.14363E-003	3.59960E-001	-1.16593E+000	3.57630E+000	10	...........
	30	0.413333	8.64391E-001	5.98799E-003	0.00000E+000	5.17597E-003	3.59960E-001	-1.17356E+000	3.57630E+000	10	...........
	31	0.426667	8.70852E-001	5.99226E-003	0.00000E+000	5.21837E-003	3.59960E-001	-1.16298E+000	3.57630E+000	10	...........
	32	0.44	8.77271E-001	5.99119E-003	0.00000E+000	5.25590E-003	3.59960E-001	-1.16563E+000	3.57643E+000	10	...........
	33	0.453333	8.83668E-001	5.99002E-003	0.00000E+000	5.29319E-003	3.59960E-001	-1.17329E+000	3.57650E+000	10	...........
	34	0.466667	8.90021E-001	5.99548E-003	0.00000E+000	5.33610E-003	3.59960E-001	-1.16304E+000	3.57650E+000	10	...........
	35	0.48	8.96333E-001	5.99090E-003	0.00000E+000	5.36984E-003	3.59960E-001	-1.16588E+000	3.57650E+000	10	...........
	36	0.493333	9.02643E-001	5.99403E-003	0.00000E+000	5.41047E-003	3.59960E-001	-1.17322E+000	3.57650E+000	10	...........
	37	0.506667	9.08888E-001	5.99333E-003	0.00000E+000	5.44727E-003	3.59960E-001	-1.16282E+000	3.57650E+000	10	...........
	38	0.52	9.15078E-001	5.99245E-003	0.00000E+000	5.48355E-003	3.59960E-001	-1.16584E+000	3.57650E+000	10	...........
	39	0.533333	9.21315E-001	5.99071E-003	0.00000E+000	5.51933E-003	3.59960E-001	-1.17345E+000	3.57650E+000	10	...........
	40	0.546667	9.27475E-001	5.98927E-003	0.00000E+000	5.55490E-003	3.59960E-001	-1.16296E+000	3.57650E+000	10	...........
	41	0.56	9.33593E-001	5.99552E-003	0.00000E+000	5.59738E-003	3.59960E-001	-1.16607E+000	3.57650E+000	10	...........
	42	0.573333	9.39635E-001	5.99240E-003	0.00000E+000	5.63068E-003	3.59960E-001	-1.17330E+000	3.57650E+000	10	...........
	43	0.586667	9.45583E-001	5.99569E-003	0.00000E+000	5.66942E-003	3.59960E-001	-1.16303E+000	3.57650E+000	10	...........
	44	0.6	9.51574E-001	5.98950E-003	0.00000E+000	5.69945E-003	3.59960E-001	-1.16613E+000	3.57650E+000	10	...........
	45	0.613333	9.57478E-001	5.99579E-003	0.00000E+000	5.74084E-003	3.59960E-001	-1.17328E+000	3.57650E+000	10	...........
	46	0.626667	9.63293E-001	5.99404E-003	0.00000E+000	5.77402E-003	3.59960E-001	-1.16288E+000	3.57650E+000	10	...........
	47	0.64	9.69133E-001	5.99894E-003	0.00000E+000	5.81377E-003	3.59960E-001	-1.16606E+000	3.57650E+000	10	...........
	48	0.653333	9.74965E-001	5.99620E-003	0.00000E+000	5.84608E-003	3.59960E-001	-1.17308E+000	3.57650E+000	10	...........
	49	0.666667	9.80662E-001	5.99388E-003	0.00000E+000	5.87796E-003	3.59960E-001	-1.16273E+000	3.57650E+000	10	...........
	50	0.68	9.86298E-001	5.99090E-003	0.00000E+000	5.90881E-003	3.59960E-001	-1.16592E+000	3.57650E+000	10	...........
	51	0.693333	9.91886E-001	5.99550E-003	0.00000E+000	5.94685E-003	3.59960E-001	-1.17294E+000	3.57650E+000	10	...........
	52	0.706667	9.97448E-001	5.99530E-003	0.00000E+000	5.98000E-003	3.59960E-001	-1.16264E+000	3.57650E+000	10	...........
	53	0.708333	1.00059E+000	5.98294E-003	0.00000E+000	5.98650E-003	3.59960E-001	-1.17771E+000	3.57650E+000	10	...........
STARTTIMEOFFSET	QUANT	1431.998	Start Time Offset (s)