File: Data/CV_CRGO300517_1/PWRCCD_CRGO300517_1/CHARGE_DISCHARGE/CHARGE_#715.DTA
EXPLAIN
TAG	PWR800_CHARGE
TITLE	LABEL	PWR Cyclic Charge Discharge (Cell) - Charge Step	Test &Identifier
DATE	LABEL	22-6-2017	Date
TIME	LABEL	16:04:07	Time
NOTES	NOTES	3	&Notes...
	supercap test cell
	0.6mg
	6M KOH
PSTAT	PSTAT	IFC5000-01520	Potentiostat
CAPACITY	QUANT	1.00000E-003	Capacity (A-hr)
CELLTYPE	SELECTOR	1	&Cell Type
WORKINGCONNECTION	SELECTOR	0	&Working Lead
MAXCHARGETIME	VARIABLEANDUNITS	1.00000E+002	s	1.00000E+002	second(s)	Max &Charge Time
CHARGECURRENT	QUANT	6.00000E-003	&Charge Current (A)
VOLTAGEFINISH	TWOPARAM	F	1.00000E-003	3.60000E+003	&Voltage Finish	 I (A) < 	Max Time(s)
SAMPLETIME	QUANT	1.00000E-002	Sa&mple Period (s)
CHARGESTOPAT1	MULTIPARAM	4	1.00000E+000	Charge Stop At &1	Voltage > Limit	V
CHARGESTOPAT2	MULTIPARAM	0	0.00000E+000	Charge Stop At &2	None	N/A
AESBHCSELECTOR	TOGGLE	F	Save Both Half Cells
IRCOMP	TOGGLE	F	IR &Measure
EOC	QUANT	0	Open Circuit (V)
SEQUENCER	TOGGLE	TRUE	Run as Sequence
PSTATMODEL	IQUANT	53	Pstat Model
PSTATSECTION	LABEL	IFC5000-01520	Pstat Section
PSTATSERIALNO	LABEL	01520	Pstat Serial Number
CTRLMODE	IQUANT	0	Control Mode
ELECTROMETER	IQUANT	1	RE=0 or CS=1
IESTAB	IQUANT	0	I/E Stability
CASPEED	IQUANT	4	Control Amp Speed
CONVENTION	IQUANT	1	Current Convention
ICHRANGE	IQUANT	2	Ich Range
ICHRANGEMODE	TOGGLE	T	Ich Auto Range
ICHOFFSETENABLE	TOGGLE	F	Ich Offset Enable
ICHOFFSET	QUANT	0	Ich Offset (V)
ICHFILTER	IQUANT	1	Ich Filter
VCHRANGE	IQUANT	2	Vch Range
VCHRANGEMODE	TOGGLE	T	Vch Auto Range
VCHOFFSETENABLE	TOGGLE	F	Vch Offset Enable
VCHOFFSET	QUANT	0	Vch Offset (V)
VCHFILTER	IQUANT	1	Vch Filter
IERANGELOWERLIMIT	IQUANT	9	I/E Range Lower Limit
IERANGEMODE	TOGGLE	F	I/E AutoRange
IERANGE	IQUANT	10	I/E Range
ACHSELECT	IQUANT	1	Ach Select
ACHRANGE	IQUANT	2	Ach Range
ACHOFFSETENABLE	TOGGLE	F	Ach Offset Enable
ACHOFFSET	QUANT	0	Ach Offset (V)
ACHFILTER	IQUANT	1	Ach Filter
CABLEID	IQUANT	14	Cable ID
DCCALDATE	LABEL	20-10-2016	DC Calibration Date
ACCALDATE	LABEL	12/3/2015	AC Calibration Date
FRAMEWORKVERSION	QUANT	7.01	Framework Version
INSTRUMENTVERSION	LABEL	4.00	Instrument Version
CURVE	TABLE	55
	Pt	T	Vf	Im	Vu	Pwr	Sig	Ach	Temp	IERange	Over
	#	s	V	A	V	W	V	V	deg C	#	bits
	0	0.013333	6.44795E-001	5.99164E-003	0.00000E+000	3.86338E-003	3.59960E-001	-1.16128E+000	3.57780E+000	10	...........
	1	0.026667	6.53872E-001	5.99225E-003	0.00000E+000	3.91816E-003	3.59960E-001	-1.15118E+000	3.57780E+000	10	...........
	2	0.04	6.62277E-001	5.99226E-003	0.00000E+000	3.96853E-003	3.59960E-001	-1.15492E+000	3.57780E+000	10	...........
	3	0.053333	6.70206E-001	5.99080E-003	0.00000E+000	4.01507E-003	3.59960E-001	-1.16086E+000	3.57780E+000	10	...........
	4	0.066667	6.77850E-001	5.99002E-003	0.00000E+000	4.06033E-003	3.59960E-001	-1.15081E+000	3.57780E+000	10	...........
	5	0.08	6.85265E-001	5.99544E-003	0.00000E+000	4.10847E-003	3.59960E-001	-1.15455E+000	3.57780E+000	10	...........
	6	0.093333	6.92578E-001	5.99030E-003	0.00000E+000	4.14875E-003	3.59960E-001	-1.16045E+000	3.57780E+000	10	...........
	7	0.106667	6.99790E-001	5.99246E-003	0.00000E+000	4.19346E-003	3.59960E-001	-1.15083E+000	3.57780E+000	10	...........
	8	0.12	7.06893E-001	5.99085E-003	0.00000E+000	4.23489E-003	3.59960E-001	-1.15494E+000	3.57780E+000	10	...........
	9	0.133333	7.13922E-001	5.99348E-003	0.00000E+000	4.27888E-003	3.59960E-001	-1.16034E+000	3.57780E+000	10	...........
	10	0.146667	7.20925E-001	5.99333E-003	0.00000E+000	4.32074E-003	3.59960E-001	-1.15090E+000	3.57780E+000	10	...........
	11	0.16	7.27793E-001	5.99641E-003	0.00000E+000	4.36415E-003	3.59960E-001	-1.15506E+000	3.57780E+000	10	...........
	12	0.173333	7.34681E-001	5.99451E-003	0.00000E+000	4.40405E-003	3.59960E-001	-1.16043E+000	3.57780E+000	10	...........
	13	0.186667	7.41537E-001	5.99491E-003	0.00000E+000	4.44545E-003	3.59960E-001	-1.15104E+000	3.57780E+000	10	...........
	14	0.2	7.48290E-001	5.99336E-003	0.00000E+000	4.48477E-003	3.59960E-001	-1.15512E+000	3.57780E+000	10	...........
	15	0.213333	7.55080E-001	5.99534E-003	0.00000E+000	4.52696E-003	3.59960E-001	-1.15990E+000	3.57780E+000	10	...........
	16	0.226667	7.61798E-001	5.99704E-003	0.00000E+000	4.56853E-003	3.59960E-001	-1.15074E+000	3.57780E+000	10	...........
	17	0.24	7.68486E-001	5.99363E-003	0.00000E+000	4.60602E-003	3.59960E-001	-1.15537E+000	3.57780E+000	10	...........
	18	0.253333	7.75168E-001	5.99522E-003	0.00000E+000	4.64730E-003	3.59960E-001	-1.16009E+000	3.57780E+000	10	...........
	19	0.266667	7.81857E-001	5.99467E-003	0.00000E+000	4.68697E-003	3.59960E-001	-1.15076E+000	3.57780E+000	10	...........
	20	0.28	7.88487E-001	5.99003E-003	0.00000E+000	4.72306E-003	3.59960E-001	-1.15533E+000	3.57780E+000	10	...........
	21	0.293333	7.95148E-001	5.99244E-003	0.00000E+000	4.76487E-003	3.59960E-001	-1.15982E+000	3.57780E+000	10	...........
	22	0.306667	8.01757E-001	5.99082E-003	0.00000E+000	4.80318E-003	3.59960E-001	-1.15093E+000	3.57780E+000	10	...........
	23	0.32	8.08304E-001	5.99353E-003	0.00000E+000	4.84460E-003	3.59960E-001	-1.15586E+000	3.57780E+000	10	...........
	24	0.333333	8.14868E-001	5.99093E-003	0.00000E+000	4.88182E-003	3.59960E-001	-1.15980E+000	3.57780E+000	10	...........
	25	0.346667	8.21448E-001	5.99417E-003	0.00000E+000	4.92390E-003	3.59960E-001	-1.15071E+000	3.57780E+000	10	...........
	26	0.36	8.27944E-001	5.99711E-003	0.00000E+000	4.96527E-003	3.59960E-001	-1.15574E+000	3.57780E+000	10	...........
	27	0.373333	8.34404E-001	5.98977E-003	0.00000E+000	4.99788E-003	3.59960E-001	-1.15941E+000	3.57780E+000	10	...........
	28	0.386667	8.40876E-001	5.99519E-003	0.00000E+000	5.04121E-003	3.59960E-001	-1.15053E+000	3.57780E+000	10	...........
	29	0.4	8.47376E-001	5.98974E-003	0.00000E+000	5.07557E-003	3.59960E-001	-1.15540E+000	3.57780E+000	10	...........
	30	0.413333	8.53807E-001	5.99101E-003	0.00000E+000	5.11517E-003	3.59960E-001	-1.15903E+000	3.57780E+000	10	...........
	31	0.426667	8.60225E-001	5.99335E-003	0.00000E+000	5.15563E-003	3.59960E-001	-1.15030E+000	3.57780E+000	10	...........
	32	0.44	8.66603E-001	5.99206E-003	0.00000E+000	5.19274E-003	3.59960E-001	-1.15580E+000	3.57780E+000	10	...........
	33	0.453333	8.72972E-001	5.99457E-003	0.00000E+000	5.23310E-003	3.59960E-001	-1.15911E+000	3.57780E+000	10	...........
	34	0.466667	8.79266E-001	5.99481E-003	0.00000E+000	5.27103E-003	3.59960E-001	-1.15026E+000	3.57780E+000	10	...........
	35	0.48	8.85614E-001	5.99217E-003	0.00000E+000	5.30675E-003	3.59960E-001	-1.15555E+000	3.57780E+000	10	...........
	36	0.493333	8.91882E-001	5.99238E-003	0.00000E+000	5.34450E-003	3.59960E-001	-1.15873E+000	3.57780E+000	10	...........
	37	0.506667	8.98111E-001	5.99240E-003	0.00000E+000	5.38185E-003	3.59960E-001	-1.15039E+000	3.57780E+000	10	...........
	38	0.52	9.04317E-001	5.99297E-003	0.00000E+000	5.41954E-003	3.59960E-001	-1.15583E+000	3.57780E+000	10	...........
	39	0.533333	9.10538E-001	5.99334E-003	0.00000E+000	5.45717E-003	3.59960E-001	-1.15848E+000	3.57780E+000	10	...........
	40	0.546667	9.16656E-001	5.99660E-003	0.00000E+000	5.49681E-003	3.59960E-001	-1.15016E+000	3.57780E+000	10	...........
	41	0.56	9.22837E-001	5.98999E-003	0.00000E+000	5.52779E-003	3.59960E-001	-1.15613E+000	3.57780E+000	10	...........
	42	0.573333	9.28926E-001	5.99917E-003	0.00000E+000	5.57279E-003	3.59960E-001	-1.15871E+000	3.57780E+000	10	...........
	43	0.586667	9.34939E-001	5.99647E-003	0.00000E+000	5.60633E-003	3.59960E-001	-1.15043E+000	3.57780E+000	10	...........
	44	0.6	9.40886E-001	5.98960E-003	0.00000E+000	5.63553E-003	3.59960E-001	-1.15637E+000	3.57780E+000	10	...........
	45	0.613333	9.46864E-001	5.99898E-003	0.00000E+000	5.68022E-003	3.59960E-001	-1.15837E+000	3.57780E+000	10	...........
	46	0.626667	9.52775E-001	5.99977E-003	0.00000E+000	5.71643E-003	3.59960E-001	-1.15025E+000	3.57780E+000	10	...........
	47	0.64	9.58587E-001	5.99652E-003	0.00000E+000	5.74819E-003	3.59960E-001	-1.15656E+000	3.57780E+000	10	...........
	48	0.653333	9.64387E-001	5.98914E-003	0.00000E+000	5.77585E-003	3.59960E-001	-1.15845E+000	3.57780E+000	10	...........
	49	0.666667	9.70167E-001	5.99413E-003	0.00000E+000	5.81530E-003	3.59960E-001	-1.15001E+000	3.57780E+000	10	...........
	50	0.68	9.75919E-001	5.98902E-003	0.00000E+000	5.84480E-003	3.59960E-001	-1.15642E+000	3.57780E+000	10	...........
	51	0.693333	9.81578E-001	5.99507E-003	0.00000E+000	5.88464E-003	3.59960E-001	-1.15774E+000	3.57780E+000	10	...........
	52	0.706667	9.87185E-001	5.99587E-003	0.00000E+000	5.91903E-003	3.59960E-001	-1.14975E+000	3.57780E+000	10	...........
	53	0.72	9.92771E-001	5.99663E-003	0.00000E+000	5.95328E-003	3.59960E-001	-1.15643E+000	3.57780E+000	10	...........
	54	0.731667	9.97966E-001	5.99551E-003	0.00000E+000	5.98331E-003	3.59960E-001	-1.15684E+000	3.57780E+000	10	...........
STARTTIMEOFFSET	QUANT	1181.177	Start Time Offset (s)