File: Data/CV_CRGO300517_1/PWRCCD_CRGO300517_1/CHARGE_DISCHARGE/CHARGE_#48.DTA
EXPLAIN
TAG	PWR800_CHARGE
TITLE	LABEL	PWR Cyclic Charge Discharge (Cell) - Charge Step	Test &Identifier
DATE	LABEL	22-6-2017	Date
TIME	LABEL	15:37:11	Time
NOTES	NOTES	3	&Notes...
	supercap test cell
	0.6mg
	6M KOH
PSTAT	PSTAT	IFC5000-01520	Potentiostat
CAPACITY	QUANT	1.00000E-003	Capacity (A-hr)
CELLTYPE	SELECTOR	1	&Cell Type
WORKINGCONNECTION	SELECTOR	0	&Working Lead
MAXCHARGETIME	VARIABLEANDUNITS	1.00000E+002	s	1.00000E+002	second(s)	Max &Charge Time
CHARGECURRENT	QUANT	6.00000E-003	&Charge Current (A)
VOLTAGEFINISH	TWOPARAM	F	1.00000E-003	3.60000E+003	&Voltage Finish	 I (A) < 	Max Time(s)
SAMPLETIME	QUANT	1.00000E-002	Sa&mple Period (s)
CHARGESTOPAT1	MULTIPARAM	4	1.00000E+000	Charge Stop At &1	Voltage > Limit	V
CHARGESTOPAT2	MULTIPARAM	0	0.00000E+000	Charge Stop At &2	None	N/A
AESBHCSELECTOR	TOGGLE	F	Save Both Half Cells
IRCOMP	TOGGLE	F	IR &Measure
EOC	QUANT	0	Open Circuit (V)
SEQUENCER	TOGGLE	TRUE	Run as Sequence
PSTATMODEL	IQUANT	53	Pstat Model
PSTATSECTION	LABEL	IFC5000-01520	Pstat Section
PSTATSERIALNO	LABEL	01520	Pstat Serial Number
CTRLMODE	IQUANT	0	Control Mode
ELECTROMETER	IQUANT	1	RE=0 or CS=1
IESTAB	IQUANT	0	I/E Stability
CASPEED	IQUANT	4	Control Amp Speed
CONVENTION	IQUANT	1	Current Convention
ICHRANGE	IQUANT	2	Ich Range
ICHRANGEMODE	TOGGLE	T	Ich Auto Range
ICHOFFSETENABLE	TOGGLE	F	Ich Offset Enable
ICHOFFSET	QUANT	0	Ich Offset (V)
ICHFILTER	IQUANT	1	Ich Filter
VCHRANGE	IQUANT	2	Vch Range
VCHRANGEMODE	TOGGLE	T	Vch Auto Range
VCHOFFSETENABLE	TOGGLE	F	Vch Offset Enable
VCHOFFSET	QUANT	0	Vch Offset (V)
VCHFILTER	IQUANT	1	Vch Filter
IERANGELOWERLIMIT	IQUANT	9	I/E Range Lower Limit
IERANGEMODE	TOGGLE	F	I/E AutoRange
IERANGE	IQUANT	10	I/E Range
ACHSELECT	IQUANT	1	Ach Select
ACHRANGE	IQUANT	2	Ach Range
ACHOFFSETENABLE	TOGGLE	F	Ach Offset Enable
ACHOFFSET	QUANT	0	Ach Offset (V)
ACHFILTER	IQUANT	1	Ach Filter
CABLEID	IQUANT	14	Cable ID
DCCALDATE	LABEL	20-10-2016	DC Calibration Date
ACCALDATE	LABEL	12/3/2015	AC Calibration Date
FRAMEWORKVERSION	QUANT	7.01	Framework Version
INSTRUMENTVERSION	LABEL	4.00	Instrument Version
CURVE	TABLE	74
	Pt	T	Vf	Im	Vu	Pwr	Sig	Ach	Temp	IERange	Over
	#	s	V	A	V	W	V	V	deg C	#	bits
	0	0.013333	5.73620E-001	5.99386E-003	0.00000E+000	3.43820E-003	3.59960E-001	-1.03459E+000	3.57830E+000	10	...........
	1	0.026667	5.81712E-001	5.99146E-003	0.00000E+000	3.48530E-003	3.59960E-001	-1.04700E+000	3.57830E+000	10	...........
	2	0.04	5.89138E-001	5.99474E-003	0.00000E+000	3.53173E-003	3.59960E-001	-1.03685E+000	3.57830E+000	10	...........
	3	0.053333	5.96180E-001	5.99347E-003	0.00000E+000	3.57318E-003	3.59960E-001	-1.03473E+000	3.57830E+000	10	...........
	4	0.066667	6.02927E-001	5.99213E-003	0.00000E+000	3.61282E-003	3.59960E-001	-1.04711E+000	3.57830E+000	10	...........
	5	0.08	6.09501E-001	5.99742E-003	0.00000E+000	3.65543E-003	3.59960E-001	-1.03665E+000	3.57830E+000	10	...........
	6	0.093333	6.15967E-001	5.99233E-003	0.00000E+000	3.69108E-003	3.59960E-001	-1.03448E+000	3.57830E+000	10	...........
	7	0.106667	6.22274E-001	5.99248E-003	0.00000E+000	3.72896E-003	3.59960E-001	-1.04711E+000	3.57830E+000	10	...........
	8	0.12	6.28459E-001	5.99642E-003	0.00000E+000	3.76851E-003	3.59960E-001	-1.03690E+000	3.57830E+000	10	...........
	9	0.133333	6.34606E-001	5.99323E-003	0.00000E+000	3.80334E-003	3.59960E-001	-1.03463E+000	3.57830E+000	10	...........
	10	0.146667	6.40736E-001	5.99398E-003	0.00000E+000	3.84056E-003	3.59960E-001	-1.04706E+000	3.57830E+000	10	...........
	11	0.16	6.46760E-001	5.99410E-003	0.00000E+000	3.87674E-003	3.59960E-001	-1.03672E+000	3.57830E+000	10	...........
	12	0.173333	6.52721E-001	5.99301E-003	0.00000E+000	3.91176E-003	3.59960E-001	-1.03475E+000	3.57830E+000	10	...........
	13	0.186667	6.58669E-001	5.99744E-003	0.00000E+000	3.95033E-003	3.59960E-001	-1.04727E+000	3.57830E+000	10	...........
	14	0.2	6.64577E-001	5.99403E-003	0.00000E+000	3.98350E-003	3.59960E-001	-1.03641E+000	3.57830E+000	10	...........
	15	0.213333	6.70502E-001	5.99535E-003	0.00000E+000	4.01989E-003	3.59960E-001	-1.03424E+000	3.57814E+000	10	...........
	16	0.226667	6.76349E-001	5.99503E-003	0.00000E+000	4.05474E-003	3.59960E-001	-1.04679E+000	3.57790E+000	10	...........
	17	0.24	6.82157E-001	5.98989E-003	0.00000E+000	4.08604E-003	3.59960E-001	-1.03627E+000	3.57790E+000	10	...........
	18	0.253333	6.87957E-001	5.99056E-003	0.00000E+000	4.12125E-003	3.59960E-001	-1.03454E+000	3.57790E+000	10	...........
	19	0.266667	6.93793E-001	5.99174E-003	0.00000E+000	4.15703E-003	3.59960E-001	-1.04674E+000	3.57790E+000	10	...........
	20	0.28	6.99620E-001	5.99334E-003	0.00000E+000	4.19307E-003	3.59960E-001	-1.03628E+000	3.57790E+000	10	...........
	21	0.293333	7.05410E-001	5.99388E-003	0.00000E+000	4.22815E-003	3.59960E-001	-1.03443E+000	3.57790E+000	10	...........
	22	0.306667	7.11202E-001	5.99700E-003	0.00000E+000	4.26508E-003	3.59960E-001	-1.04687E+000	3.57790E+000	10	...........
	23	0.32	7.16969E-001	5.99156E-003	0.00000E+000	4.29576E-003	3.59960E-001	-1.03639E+000	3.57790E+000	10	...........
	24	0.333333	7.22721E-001	5.99295E-003	0.00000E+000	4.33123E-003	3.59960E-001	-1.03447E+000	3.57790E+000	10	...........
	25	0.346667	7.28494E-001	5.99338E-003	0.00000E+000	4.36614E-003	3.59960E-001	-1.04671E+000	3.57790E+000	10	...........
	26	0.36	7.34256E-001	5.99444E-003	0.00000E+000	4.40145E-003	3.59960E-001	-1.03592E+000	3.57790E+000	10	...........
	27	0.373333	7.40018E-001	5.99482E-003	0.00000E+000	4.43628E-003	3.59960E-001	-1.03433E+000	3.57790E+000	10	...........
	28	0.386667	7.45789E-001	5.99620E-003	0.00000E+000	4.47190E-003	3.59960E-001	-1.04683E+000	3.57790E+000	10	...........
	29	0.4	7.51495E-001	5.99695E-003	0.00000E+000	4.50668E-003	3.59960E-001	-1.03617E+000	3.57790E+000	10	...........
	30	0.413333	7.57247E-001	5.99531E-003	0.00000E+000	4.53993E-003	3.59960E-001	-1.03445E+000	3.57790E+000	10	...........
	31	0.426667	7.62963E-001	5.99243E-003	0.00000E+000	4.57200E-003	3.59960E-001	-1.04663E+000	3.57790E+000	10	...........
	32	0.44	7.68690E-001	5.99557E-003	0.00000E+000	4.60874E-003	3.59960E-001	-1.03621E+000	3.57790E+000	10	...........
	33	0.453333	7.74418E-001	5.99435E-003	0.00000E+000	4.64214E-003	3.59960E-001	-1.03466E+000	3.57790E+000	10	...........
	34	0.466667	7.80149E-001	5.99455E-003	0.00000E+000	4.67664E-003	3.59960E-001	-1.04683E+000	3.57790E+000	10	...........
	35	0.48	7.85900E-001	5.99586E-003	0.00000E+000	4.71214E-003	3.59960E-001	-1.03592E+000	3.57790E+000	10	...........
	36	0.493333	7.91644E-001	5.99349E-003	0.00000E+000	4.74471E-003	3.59960E-001	-1.03428E+000	3.57790E+000	10	...........
	37	0.506667	7.97399E-001	5.99891E-003	0.00000E+000	4.78353E-003	3.59960E-001	-1.04683E+000	3.57790E+000	10	...........
	38	0.52	8.03086E-001	5.99187E-003	0.00000E+000	4.81199E-003	3.59960E-001	-1.03569E+000	3.57790E+000	10	...........
	39	0.533333	8.08806E-001	5.99428E-003	0.00000E+000	4.84821E-003	3.59960E-001	-1.03400E+000	3.57790E+000	10	...........
	40	0.546667	8.14550E-001	5.99345E-003	0.00000E+000	4.88196E-003	3.59960E-001	-1.04620E+000	3.57790E+000	10	...........
	41	0.56	8.20295E-001	5.99253E-003	0.00000E+000	4.91564E-003	3.59960E-001	-1.03512E+000	3.57790E+000	10	...........
	42	0.573333	8.26010E-001	5.99601E-003	0.00000E+000	4.95276E-003	3.59960E-001	-1.03392E+000	3.57790E+000	10	...........
	43	0.586667	8.31698E-001	5.99679E-003	0.00000E+000	4.98751E-003	3.59960E-001	-1.04636E+000	3.57790E+000	10	...........
	44	0.6	8.37379E-001	5.99391E-003	0.00000E+000	5.01917E-003	3.59960E-001	-1.03520E+000	3.57790E+000	10	...........
	45	0.613333	8.43095E-001	5.99155E-003	0.00000E+000	5.05144E-003	3.59960E-001	-1.03375E+000	3.57790E+000	10	...........
	46	0.626667	8.48847E-001	5.99665E-003	0.00000E+000	5.09024E-003	3.59960E-001	-1.04618E+000	3.57790E+000	10	...........
	47	0.64	8.54586E-001	5.99333E-003	0.00000E+000	5.12182E-003	3.59960E-001	-1.03512E+000	3.57790E+000	10	...........
	48	0.653333	8.60276E-001	5.99298E-003	0.00000E+000	5.15562E-003	3.59960E-001	-1.03398E+000	3.57790E+000	10	...........
	49	0.666667	8.65998E-001	5.99415E-003	0.00000E+000	5.19092E-003	3.59960E-001	-1.04599E+000	3.57790E+000	10	...........
	50	0.68	8.71693E-001	5.99500E-003	0.00000E+000	5.22580E-003	3.59960E-001	-1.03477E+000	3.57790E+000	10	...........
	51	0.693333	8.77376E-001	5.99389E-003	0.00000E+000	5.25889E-003	3.59960E-001	-1.03363E+000	3.57790E+000	10	...........
	52	0.706667	8.83054E-001	5.99381E-003	0.00000E+000	5.29286E-003	3.59960E-001	-1.04603E+000	3.57790E+000	10	...........
	53	0.72	8.88728E-001	5.99282E-003	0.00000E+000	5.32599E-003	3.59960E-001	-1.03502E+000	3.57790E+000	10	...........
	54	0.733333	8.94380E-001	5.99504E-003	0.00000E+000	5.36185E-003	3.59960E-001	-1.03378E+000	3.57790E+000	10	...........
	55	0.746667	8.99999E-001	5.99587E-003	0.00000E+000	5.39628E-003	3.59960E-001	-1.04598E+000	3.57790E+000	10	...........
	56	0.76	9.05658E-001	5.99626E-003	0.00000E+000	5.43056E-003	3.59960E-001	-1.03489E+000	3.57790E+000	10	...........
	57	0.773333	9.11307E-001	5.99655E-003	0.00000E+000	5.46470E-003	3.59960E-001	-1.03386E+000	3.57790E+000	10	...........
	58	0.786667	9.16905E-001	5.99593E-003	0.00000E+000	5.49769E-003	3.59960E-001	-1.04626E+000	3.57790E+000	10	...........
	59	0.8	9.22579E-001	5.99489E-003	0.00000E+000	5.53076E-003	3.59960E-001	-1.03497E+000	3.57790E+000	10	...........
	60	0.813333	9.28166E-001	5.99326E-003	0.00000E+000	5.56274E-003	3.59960E-001	-1.03367E+000	3.57790E+000	10	...........
	61	0.826667	9.33737E-001	5.99704E-003	0.00000E+000	5.59965E-003	3.59960E-001	-1.04583E+000	3.57790E+000	10	...........
	62	0.84	9.39280E-001	5.99408E-003	0.00000E+000	5.63012E-003	3.59960E-001	-1.03459E+000	3.57790E+000	10	...........
	63	0.853333	9.44795E-001	5.99599E-003	0.00000E+000	5.66498E-003	3.59960E-001	-1.03347E+000	3.57790E+000	10	...........
	64	0.866667	9.50349E-001	5.99850E-003	0.00000E+000	5.70067E-003	3.59960E-001	-1.04546E+000	3.57790E+000	10	...........
	65	0.88	9.55831E-001	5.99203E-003	0.00000E+000	5.72737E-003	3.59960E-001	-1.03435E+000	3.57790E+000	10	...........
	66	0.893333	9.61262E-001	5.99419E-003	0.00000E+000	5.76199E-003	3.59960E-001	-1.03323E+000	3.57790E+000	10	...........
	67	0.906667	9.66695E-001	5.99672E-003	0.00000E+000	5.79700E-003	3.59960E-001	-1.04567E+000	3.57790E+000	10	...........
	68	0.92	9.72149E-001	5.99609E-003	0.00000E+000	5.82909E-003	3.59960E-001	-1.03461E+000	3.57790E+000	10	...........
	69	0.933333	9.77576E-001	5.99555E-003	0.00000E+000	5.86111E-003	3.59960E-001	-1.03337E+000	3.57790E+000	10	...........
	70	0.946667	9.82893E-001	5.99646E-003	0.00000E+000	5.89388E-003	3.59960E-001	-1.04550E+000	3.57790E+000	10	...........
	71	0.96	9.88177E-001	5.99160E-003	0.00000E+000	5.92076E-003	3.59960E-001	-1.03440E+000	3.57790E+000	10	...........
	72	0.97333	9.93479E-001	5.99503E-003	0.00000E+000	5.95594E-003	3.59960E-001	-1.03352E+000	3.57790E+000	10	...........
	73	0.985	9.98432E-001	5.99147E-003	0.00000E+000	5.98207E-003	3.59960E-001	-1.04659E+000	3.57790E+000	10	...........
STARTTIMEOFFSET	QUANT	96.6367	Start Time Offset (s)