File: Data/CV_CRGO300517_1/PWRCCD_CRGO300517_1/CHARGE_DISCHARGE/CHARGE_#204.DTA
EXPLAIN
TAG	PWR800_CHARGE
TITLE	LABEL	PWR Cyclic Charge Discharge (Cell) - Charge Step	Test &Identifier
DATE	LABEL	22-6-2017	Date
TIME	LABEL	15:43:58	Time
NOTES	NOTES	3	&Notes...
	supercap test cell
	0.6mg
	6M KOH
PSTAT	PSTAT	IFC5000-01520	Potentiostat
CAPACITY	QUANT	1.00000E-003	Capacity (A-hr)
CELLTYPE	SELECTOR	1	&Cell Type
WORKINGCONNECTION	SELECTOR	0	&Working Lead
MAXCHARGETIME	VARIABLEANDUNITS	1.00000E+002	s	1.00000E+002	second(s)	Max &Charge Time
CHARGECURRENT	QUANT	6.00000E-003	&Charge Current (A)
VOLTAGEFINISH	TWOPARAM	F	1.00000E-003	3.60000E+003	&Voltage Finish	 I (A) < 	Max Time(s)
SAMPLETIME	QUANT	1.00000E-002	Sa&mple Period (s)
CHARGESTOPAT1	MULTIPARAM	4	1.00000E+000	Charge Stop At &1	Voltage > Limit	V
CHARGESTOPAT2	MULTIPARAM	0	0.00000E+000	Charge Stop At &2	None	N/A
AESBHCSELECTOR	TOGGLE	F	Save Both Half Cells
IRCOMP	TOGGLE	F	IR &Measure
EOC	QUANT	0	Open Circuit (V)
SEQUENCER	TOGGLE	TRUE	Run as Sequence
PSTATMODEL	IQUANT	53	Pstat Model
PSTATSECTION	LABEL	IFC5000-01520	Pstat Section
PSTATSERIALNO	LABEL	01520	Pstat Serial Number
CTRLMODE	IQUANT	0	Control Mode
ELECTROMETER	IQUANT	1	RE=0 or CS=1
IESTAB	IQUANT	0	I/E Stability
CASPEED	IQUANT	4	Control Amp Speed
CONVENTION	IQUANT	1	Current Convention
ICHRANGE	IQUANT	2	Ich Range
ICHRANGEMODE	TOGGLE	T	Ich Auto Range
ICHOFFSETENABLE	TOGGLE	F	Ich Offset Enable
ICHOFFSET	QUANT	0	Ich Offset (V)
ICHFILTER	IQUANT	1	Ich Filter
VCHRANGE	IQUANT	2	Vch Range
VCHRANGEMODE	TOGGLE	T	Vch Auto Range
VCHOFFSETENABLE	TOGGLE	F	Vch Offset Enable
VCHOFFSET	QUANT	0	Vch Offset (V)
VCHFILTER	IQUANT	1	Vch Filter
IERANGELOWERLIMIT	IQUANT	9	I/E Range Lower Limit
IERANGEMODE	TOGGLE	F	I/E AutoRange
IERANGE	IQUANT	10	I/E Range
ACHSELECT	IQUANT	1	Ach Select
ACHRANGE	IQUANT	2	Ach Range
ACHOFFSETENABLE	TOGGLE	F	Ach Offset Enable
ACHOFFSET	QUANT	0	Ach Offset (V)
ACHFILTER	IQUANT	1	Ach Filter
CABLEID	IQUANT	14	Cable ID
DCCALDATE	LABEL	20-10-2016	DC Calibration Date
ACCALDATE	LABEL	12/3/2015	AC Calibration Date
FRAMEWORKVERSION	QUANT	7.01	Framework Version
INSTRUMENTVERSION	LABEL	4.00	Instrument Version
CURVE	TABLE	65
	Pt	T	Vf	Im	Vu	Pwr	Sig	Ach	Temp	IERange	Over
	#	s	V	A	V	W	V	V	deg C	#	bits
	0	0.013333	6.06802E-001	5.99634E-003	0.00000E+000	3.63859E-003	3.59960E-001	-1.09713E+000	3.57820E+000	10	...........
	1	0.026667	6.15293E-001	5.98919E-003	0.00000E+000	3.68511E-003	3.59960E-001	-1.08788E+000	3.57820E+000	10	...........
	2	0.04	6.23091E-001	5.99633E-003	0.00000E+000	3.73626E-003	3.59960E-001	-1.08744E+000	3.57820E+000	10	...........
	3	0.053333	6.30434E-001	5.99383E-003	0.00000E+000	3.77871E-003	3.59960E-001	-1.09691E+000	3.57820E+000	10	...........
	4	0.066667	6.37522E-001	5.99205E-003	0.00000E+000	3.82007E-003	3.59960E-001	-1.08775E+000	3.57820E+000	10	...........
	5	0.08	6.44421E-001	5.99444E-003	0.00000E+000	3.86294E-003	3.59960E-001	-1.08744E+000	3.57820E+000	10	...........
	6	0.093333	6.51223E-001	5.99298E-003	0.00000E+000	3.90276E-003	3.59960E-001	-1.09674E+000	3.57820E+000	10	...........
	7	0.106667	6.57855E-001	5.99506E-003	0.00000E+000	3.94388E-003	3.59960E-001	-1.08735E+000	3.57820E+000	10	...........
	8	0.12	6.64459E-001	5.99516E-003	0.00000E+000	3.98353E-003	3.59960E-001	-1.08706E+000	3.57820E+000	10	...........
	9	0.133333	6.70975E-001	5.99333E-003	0.00000E+000	4.02138E-003	3.59960E-001	-1.09651E+000	3.57820E+000	10	...........
	10	0.146667	6.77408E-001	5.99615E-003	0.00000E+000	4.06184E-003	3.59960E-001	-1.08756E+000	3.57820E+000	10	...........
	11	0.16	6.83788E-001	5.99239E-003	0.00000E+000	4.09753E-003	3.59960E-001	-1.08704E+000	3.57820E+000	10	...........
	12	0.173333	6.90142E-001	5.99160E-003	0.00000E+000	4.13506E-003	3.59960E-001	-1.09663E+000	3.57820E+000	10	...........
	13	0.186667	6.96509E-001	5.99180E-003	0.00000E+000	4.17334E-003	3.59960E-001	-1.08746E+000	3.57820E+000	10	...........
	14	0.2	7.02789E-001	5.99474E-003	0.00000E+000	4.21304E-003	3.59960E-001	-1.08721E+000	3.57820E+000	10	...........
	15	0.213333	7.09033E-001	5.99539E-003	0.00000E+000	4.25093E-003	3.59960E-001	-1.09660E+000	3.57820E+000	10	...........
	16	0.226667	7.15276E-001	5.99296E-003	0.00000E+000	4.28662E-003	3.59960E-001	-1.08733E+000	3.57820E+000	10	...........
	17	0.24	7.21524E-001	5.99689E-003	0.00000E+000	4.32690E-003	3.59960E-001	-1.08694E+000	3.57820E+000	10	...........
	18	0.253333	7.27721E-001	5.99416E-003	0.00000E+000	4.36207E-003	3.59960E-001	-1.09631E+000	3.57820E+000	10	...........
	19	0.266667	7.33859E-001	5.99524E-003	0.00000E+000	4.39966E-003	3.59960E-001	-1.08697E+000	3.57820E+000	10	...........
	20	0.28	7.40053E-001	5.99717E-003	0.00000E+000	4.43822E-003	3.59960E-001	-1.08677E+000	3.57820E+000	10	...........
	21	0.293333	7.46253E-001	5.99265E-003	0.00000E+000	4.47203E-003	3.59960E-001	-1.09641E+000	3.57820E+000	10	...........
	22	0.306667	7.52384E-001	5.99495E-003	0.00000E+000	4.51050E-003	3.59960E-001	-1.08703E+000	3.57820E+000	10	...........
	23	0.32	7.58533E-001	5.99548E-003	0.00000E+000	4.54777E-003	3.59960E-001	-1.08690E+000	3.57820E+000	10	...........
	24	0.333333	7.64686E-001	5.99184E-003	0.00000E+000	4.58188E-003	3.59960E-001	-1.09636E+000	3.57820E+000	10	...........
	25	0.346667	7.70851E-001	5.99162E-003	0.00000E+000	4.61865E-003	3.59960E-001	-1.08721E+000	3.57820E+000	10	...........
	26	0.36	7.76958E-001	5.99288E-003	0.00000E+000	4.65622E-003	3.59960E-001	-1.08698E+000	3.57820E+000	10	...........
	27	0.373333	7.83101E-001	5.99372E-003	0.00000E+000	4.69369E-003	3.59960E-001	-1.09645E+000	3.57820E+000	10	...........
	28	0.386667	7.89194E-001	5.99818E-003	0.00000E+000	4.73373E-003	3.59960E-001	-1.08693E+000	3.57820E+000	10	...........
	29	0.4	7.95313E-001	5.98817E-003	0.00000E+000	4.76247E-003	3.59960E-001	-1.08722E+000	3.57820E+000	10	...........
	30	0.413333	8.01383E-001	5.99238E-003	0.00000E+000	4.80219E-003	3.59960E-001	-1.09632E+000	3.57820E+000	10	...........
	31	0.426667	8.07490E-001	5.99529E-003	0.00000E+000	4.84114E-003	3.59960E-001	-1.08698E+000	3.57820E+000	10	...........
	32	0.44	8.13548E-001	5.99644E-003	0.00000E+000	4.87839E-003	3.59960E-001	-1.08672E+000	3.57820E+000	10	...........
	33	0.453333	8.19584E-001	5.99300E-003	0.00000E+000	4.91176E-003	3.59960E-001	-1.09613E+000	3.57820E+000	10	...........
	34	0.466667	8.25649E-001	5.99275E-003	0.00000E+000	4.94791E-003	3.59960E-001	-1.08675E+000	3.57820E+000	10	...........
	35	0.48	8.31652E-001	5.99177E-003	0.00000E+000	4.98306E-003	3.59960E-001	-1.08689E+000	3.57820E+000	10	...........
	36	0.493333	8.37716E-001	5.99565E-003	0.00000E+000	5.02265E-003	3.59960E-001	-1.09616E+000	3.57820E+000	10	...........
	37	0.506667	8.43755E-001	5.99120E-003	0.00000E+000	5.05511E-003	3.59960E-001	-1.08679E+000	3.57820E+000	10	...........
	38	0.52	8.49787E-001	5.99486E-003	0.00000E+000	5.09435E-003	3.59960E-001	-1.08666E+000	3.57820E+000	10	...........
	39	0.533333	8.55811E-001	5.99719E-003	0.00000E+000	5.13246E-003	3.59960E-001	-1.09625E+000	3.57820E+000	10	...........
	40	0.546667	8.61809E-001	5.99440E-003	0.00000E+000	5.16603E-003	3.59960E-001	-1.08696E+000	3.57820E+000	10	...........
	41	0.56	8.67813E-001	5.99298E-003	0.00000E+000	5.20078E-003	3.59960E-001	-1.08706E+000	3.57820E+000	10	...........
	42	0.573333	8.73796E-001	5.98959E-003	0.00000E+000	5.23368E-003	3.59960E-001	-1.09610E+000	3.57814E+000	10	...........
	43	0.586667	8.79726E-001	5.99770E-003	0.00000E+000	5.27633E-003	3.59960E-001	-1.08663E+000	3.57810E+000	10	...........
	44	0.6	8.85667E-001	5.99517E-003	0.00000E+000	5.30972E-003	3.59960E-001	-1.08680E+000	3.57810E+000	10	...........
	45	0.613333	8.91590E-001	5.99245E-003	0.00000E+000	5.34281E-003	3.59960E-001	-1.09612E+000	3.57810E+000	10	...........
	46	0.626667	8.97469E-001	5.98886E-003	0.00000E+000	5.37481E-003	3.59960E-001	-1.08677E+000	3.57810E+000	10	...........
	47	0.64	9.03362E-001	6.00155E-003	0.00000E+000	5.42157E-003	3.59960E-001	-1.08690E+000	3.57810E+000	10	...........
	48	0.653333	9.09254E-001	5.99247E-003	0.00000E+000	5.44868E-003	3.59960E-001	-1.09616E+000	3.57810E+000	10	...........
	49	0.666667	9.15113E-001	5.99495E-003	0.00000E+000	5.48605E-003	3.59960E-001	-1.08688E+000	3.57810E+000	10	...........
	50	0.68	9.20967E-001	5.98911E-003	0.00000E+000	5.51577E-003	3.59960E-001	-1.08709E+000	3.57810E+000	10	...........
	51	0.693333	9.26754E-001	5.99269E-003	0.00000E+000	5.55375E-003	3.59960E-001	-1.09626E+000	3.57810E+000	10	...........
	52	0.706667	9.32530E-001	5.99549E-003	0.00000E+000	5.59098E-003	3.59960E-001	-1.08670E+000	3.57810E+000	10	...........
	53	0.72	9.38284E-001	5.99583E-003	0.00000E+000	5.62579E-003	3.59960E-001	-1.08713E+000	3.57810E+000	10	...........
	54	0.733333	9.43996E-001	5.99204E-003	0.00000E+000	5.65646E-003	3.59960E-001	-1.09626E+000	3.57810E+000	10	...........
	55	0.746667	9.49715E-001	5.99641E-003	0.00000E+000	5.69488E-003	3.59960E-001	-1.08663E+000	3.57810E+000	10	...........
	56	0.76	9.55350E-001	5.99264E-003	0.00000E+000	5.72507E-003	3.59960E-001	-1.08697E+000	3.57810E+000	10	...........
	57	0.773333	9.60980E-001	5.99625E-003	0.00000E+000	5.76228E-003	3.59960E-001	-1.09589E+000	3.57810E+000	10	...........
	58	0.786667	9.66575E-001	5.99537E-003	0.00000E+000	5.79497E-003	3.59960E-001	-1.08635E+000	3.57810E+000	10	...........
	59	0.8	9.72164E-001	5.99844E-003	0.00000E+000	5.83147E-003	3.59960E-001	-1.08693E+000	3.57810E+000	10	...........
	60	0.813333	9.77706E-001	5.99545E-003	0.00000E+000	5.86179E-003	3.59960E-001	-1.09611E+000	3.57810E+000	10	...........
	61	0.826667	9.83186E-001	5.99215E-003	0.00000E+000	5.89140E-003	3.59960E-001	-1.08642E+000	3.57810E+000	10	...........
	62	0.84	9.88650E-001	5.99413E-003	0.00000E+000	5.92609E-003	3.59960E-001	-1.08702E+000	3.57810E+000	10	...........
	63	0.853333	9.94051E-001	5.99653E-003	0.00000E+000	5.96086E-003	3.59960E-001	-1.09598E+000	3.57810E+000	10	...........
	64	0.863333	9.98745E-001	5.99600E-003	0.00000E+000	5.98848E-003	3.59960E-001	-1.08246E+000	3.57810E+000	10	...........
STARTTIMEOFFSET	QUANT	379.8434	Start Time Offset (s)