File: Data/CV_CRGO300517_1/PWRCCD_CRGO300517_1/CHARGE_DISCHARGE/CHARGE_#360.DTA
EXPLAIN
TAG	PWR800_CHARGE
TITLE	LABEL	PWR Cyclic Charge Discharge (Cell) - Charge Step	Test &Identifier
DATE	LABEL	22-6-2017	Date
TIME	LABEL	15:50:22	Time
NOTES	NOTES	3	&Notes...
	supercap test cell
	0.6mg
	6M KOH
PSTAT	PSTAT	IFC5000-01520	Potentiostat
CAPACITY	QUANT	1.00000E-003	Capacity (A-hr)
CELLTYPE	SELECTOR	1	&Cell Type
WORKINGCONNECTION	SELECTOR	0	&Working Lead
MAXCHARGETIME	VARIABLEANDUNITS	1.00000E+002	s	1.00000E+002	second(s)	Max &Charge Time
CHARGECURRENT	QUANT	6.00000E-003	&Charge Current (A)
VOLTAGEFINISH	TWOPARAM	F	1.00000E-003	3.60000E+003	&Voltage Finish	 I (A) < 	Max Time(s)
SAMPLETIME	QUANT	1.00000E-002	Sa&mple Period (s)
CHARGESTOPAT1	MULTIPARAM	4	1.00000E+000	Charge Stop At &1	Voltage > Limit	V
CHARGESTOPAT2	MULTIPARAM	0	0.00000E+000	Charge Stop At &2	None	N/A
AESBHCSELECTOR	TOGGLE	F	Save Both Half Cells
IRCOMP	TOGGLE	F	IR &Measure
EOC	QUANT	0	Open Circuit (V)
SEQUENCER	TOGGLE	TRUE	Run as Sequence
PSTATMODEL	IQUANT	53	Pstat Model
PSTATSECTION	LABEL	IFC5000-01520	Pstat Section
PSTATSERIALNO	LABEL	01520	Pstat Serial Number
CTRLMODE	IQUANT	0	Control Mode
ELECTROMETER	IQUANT	1	RE=0 or CS=1
IESTAB	IQUANT	0	I/E Stability
CASPEED	IQUANT	4	Control Amp Speed
CONVENTION	IQUANT	1	Current Convention
ICHRANGE	IQUANT	2	Ich Range
ICHRANGEMODE	TOGGLE	T	Ich Auto Range
ICHOFFSETENABLE	TOGGLE	F	Ich Offset Enable
ICHOFFSET	QUANT	0	Ich Offset (V)
ICHFILTER	IQUANT	1	Ich Filter
VCHRANGE	IQUANT	2	Vch Range
VCHRANGEMODE	TOGGLE	T	Vch Auto Range
VCHOFFSETENABLE	TOGGLE	F	Vch Offset Enable
VCHOFFSET	QUANT	0	Vch Offset (V)
VCHFILTER	IQUANT	1	Vch Filter
IERANGELOWERLIMIT	IQUANT	9	I/E Range Lower Limit
IERANGEMODE	TOGGLE	F	I/E AutoRange
IERANGE	IQUANT	10	I/E Range
ACHSELECT	IQUANT	1	Ach Select
ACHRANGE	IQUANT	2	Ach Range
ACHOFFSETENABLE	TOGGLE	F	Ach Offset Enable
ACHOFFSET	QUANT	0	Ach Offset (V)
ACHFILTER	IQUANT	1	Ach Filter
CABLEID	IQUANT	14	Cable ID
DCCALDATE	LABEL	20-10-2016	DC Calibration Date
ACCALDATE	LABEL	12/3/2015	AC Calibration Date
FRAMEWORKVERSION	QUANT	7.01	Framework Version
INSTRUMENTVERSION	LABEL	4.00	Instrument Version
CURVE	TABLE	61
	Pt	T	Vf	Im	Vu	Pwr	Sig	Ach	Temp	IERange	Over
	#	s	V	A	V	W	V	V	deg C	#	bits
	0	0.013333	6.21667E-001	5.99883E-003	0.00000E+000	3.72927E-003	3.59960E-001	-1.12851E+000	3.57650E+000	10	...........
	1	0.026667	6.30400E-001	5.99756E-003	0.00000E+000	3.78086E-003	3.59960E-001	-1.11802E+000	3.57650E+000	10	...........
	2	0.04	6.38373E-001	5.99334E-003	0.00000E+000	3.82599E-003	3.59960E-001	-1.12113E+000	3.57650E+000	10	...........
	3	0.053333	6.46026E-001	5.99452E-003	0.00000E+000	3.87261E-003	3.59960E-001	-1.12882E+000	3.57650E+000	10	...........
	4	0.066667	6.53321E-001	5.99505E-003	0.00000E+000	3.91669E-003	3.59960E-001	-1.11818E+000	3.57650E+000	10	...........
	5	0.08	6.60418E-001	5.99268E-003	0.00000E+000	3.95767E-003	3.59960E-001	-1.12097E+000	3.57650E+000	10	...........
	6	0.093333	6.67444E-001	5.99325E-003	0.00000E+000	4.00016E-003	3.59960E-001	-1.12867E+000	3.57650E+000	10	...........
	7	0.106667	6.74297E-001	5.99562E-003	0.00000E+000	4.04283E-003	3.59960E-001	-1.11805E+000	3.57650E+000	10	...........
	8	0.12	6.81056E-001	5.99113E-003	0.00000E+000	4.08030E-003	3.59960E-001	-1.12102E+000	3.57650E+000	10	...........
	9	0.133333	6.87780E-001	5.99077E-003	0.00000E+000	4.12033E-003	3.59960E-001	-1.12906E+000	3.57650E+000	10	...........
	10	0.146667	6.94420E-001	5.99058E-003	0.00000E+000	4.15998E-003	3.59960E-001	-1.11828E+000	3.57650E+000	10	...........
	11	0.16	7.01041E-001	5.99577E-003	0.00000E+000	4.20328E-003	3.59960E-001	-1.12063E+000	3.57650E+000	10	...........
	12	0.173333	7.07603E-001	5.98874E-003	0.00000E+000	4.23766E-003	3.59960E-001	-1.12878E+000	3.57650E+000	10	...........
	13	0.186667	7.14110E-001	5.99143E-003	0.00000E+000	4.27854E-003	3.59960E-001	-1.11818E+000	3.57650E+000	10	...........
	14	0.2	7.20667E-001	5.99259E-003	0.00000E+000	4.31866E-003	3.59960E-001	-1.12019E+000	3.57650E+000	10	...........
	15	0.213333	7.27134E-001	5.99039E-003	0.00000E+000	4.35582E-003	3.59960E-001	-1.12850E+000	3.57650E+000	10	...........
	16	0.226667	7.33535E-001	5.99280E-003	0.00000E+000	4.39593E-003	3.59960E-001	-1.11770E+000	3.57650E+000	10	...........
	17	0.24	7.39968E-001	5.99247E-003	0.00000E+000	4.43423E-003	3.59960E-001	-1.12004E+000	3.57656E+000	10	...........
	18	0.253333	7.46425E-001	5.99411E-003	0.00000E+000	4.47416E-003	3.59960E-001	-1.12858E+000	3.57700E+000	10	...........
	19	0.266667	7.52818E-001	5.98987E-003	0.00000E+000	4.50928E-003	3.59960E-001	-1.11798E+000	3.57700E+000	10	...........
	20	0.28	7.59230E-001	5.99679E-003	0.00000E+000	4.55294E-003	3.59960E-001	-1.11988E+000	3.57700E+000	10	...........
	21	0.293333	7.65587E-001	5.99272E-003	0.00000E+000	4.58795E-003	3.59960E-001	-1.12859E+000	3.57700E+000	10	...........
	22	0.306667	7.71955E-001	5.99404E-003	0.00000E+000	4.62713E-003	3.59960E-001	-1.11777E+000	3.57700E+000	10	...........
	23	0.32	7.78316E-001	5.99697E-003	0.00000E+000	4.66754E-003	3.59960E-001	-1.11989E+000	3.57700E+000	10	...........
	24	0.333333	7.84684E-001	5.99321E-003	0.00000E+000	4.70278E-003	3.59960E-001	-1.12886E+000	3.57700E+000	10	...........
	25	0.346667	7.91004E-001	5.99344E-003	0.00000E+000	4.74083E-003	3.59960E-001	-1.11759E+000	3.57700E+000	10	...........
	26	0.36	7.97350E-001	5.99689E-003	0.00000E+000	4.78162E-003	3.59960E-001	-1.11941E+000	3.57700E+000	10	...........
	27	0.373333	8.03676E-001	5.99639E-003	0.00000E+000	4.81916E-003	3.59960E-001	-1.12882E+000	3.57700E+000	10	...........
	28	0.386667	8.09937E-001	5.99458E-003	0.00000E+000	4.85524E-003	3.59960E-001	-1.11786E+000	3.57700E+000	10	...........
	29	0.4	8.16209E-001	5.99435E-003	0.00000E+000	4.89264E-003	3.59960E-001	-1.11949E+000	3.57700E+000	10	...........
	30	0.413333	8.22445E-001	5.99623E-003	0.00000E+000	4.93157E-003	3.59960E-001	-1.12900E+000	3.57700E+000	10	...........
	31	0.426667	8.28717E-001	5.99326E-003	0.00000E+000	4.96672E-003	3.59960E-001	-1.11799E+000	3.57700E+000	10	...........
	32	0.44	8.34942E-001	5.99387E-003	0.00000E+000	5.00454E-003	3.59960E-001	-1.11938E+000	3.57700E+000	10	...........
	33	0.453333	8.41173E-001	5.99179E-003	0.00000E+000	5.04013E-003	3.59960E-001	-1.12894E+000	3.57700E+000	10	...........
	34	0.466667	8.47421E-001	5.99276E-003	0.00000E+000	5.07839E-003	3.59960E-001	-1.11770E+000	3.57700E+000	10	...........
	35	0.48	8.53572E-001	5.99416E-003	0.00000E+000	5.11645E-003	3.59960E-001	-1.11937E+000	3.57700E+000	10	...........
	36	0.493333	8.59768E-001	5.99109E-003	0.00000E+000	5.15095E-003	3.59960E-001	-1.12874E+000	3.57700E+000	10	...........
	37	0.506667	8.65937E-001	6.00061E-003	0.00000E+000	5.19615E-003	3.59960E-001	-1.11783E+000	3.57700E+000	10	...........
	38	0.52	8.72140E-001	5.99141E-003	0.00000E+000	5.22535E-003	3.59960E-001	-1.11857E+000	3.57700E+000	10	...........
	39	0.533333	8.78220E-001	5.99313E-003	0.00000E+000	5.26329E-003	3.59960E-001	-1.12854E+000	3.57700E+000	10	...........
	40	0.546667	8.84342E-001	5.99073E-003	0.00000E+000	5.29785E-003	3.59960E-001	-1.11748E+000	3.57700E+000	10	...........
	41	0.56	8.90427E-001	5.99305E-003	0.00000E+000	5.33638E-003	3.59960E-001	-1.11851E+000	3.57700E+000	10	...........
	42	0.573333	8.96486E-001	5.99402E-003	0.00000E+000	5.37355E-003	3.59960E-001	-1.12852E+000	3.57700E+000	10	...........
	43	0.586667	9.02483E-001	5.99693E-003	0.00000E+000	5.41213E-003	3.59960E-001	-1.11761E+000	3.57700E+000	10	...........
	44	0.6	9.08500E-001	5.99596E-003	0.00000E+000	5.44733E-003	3.59960E-001	-1.11840E+000	3.57700E+000	10	...........
	45	0.613333	9.14437E-001	5.99850E-003	0.00000E+000	5.48525E-003	3.59960E-001	-1.12852E+000	3.57700E+000	10	...........
	46	0.626667	9.20388E-001	5.99277E-003	0.00000E+000	5.51567E-003	3.59960E-001	-1.11742E+000	3.57700E+000	10	...........
	47	0.64	9.26365E-001	5.99250E-003	0.00000E+000	5.55124E-003	3.59960E-001	-1.11838E+000	3.57700E+000	10	...........
	48	0.653333	9.32224E-001	5.99618E-003	0.00000E+000	5.58978E-003	3.59960E-001	-1.12871E+000	3.57700E+000	10	...........
	49	0.666667	9.38036E-001	5.99764E-003	0.00000E+000	5.62600E-003	3.59960E-001	-1.11771E+000	3.57700E+000	10	...........
	50	0.68	9.43913E-001	5.99257E-003	0.00000E+000	5.65647E-003	3.59960E-001	-1.11813E+000	3.57700E+000	10	...........
	51	0.693333	9.49760E-001	5.99381E-003	0.00000E+000	5.69269E-003	3.59960E-001	-1.12853E+000	3.57700E+000	10	...........
	52	0.706667	9.55515E-001	5.99283E-003	0.00000E+000	5.72624E-003	3.59960E-001	-1.11758E+000	3.57700E+000	10	...........
	53	0.72	9.61222E-001	5.99213E-003	0.00000E+000	5.75977E-003	3.59960E-001	-1.11812E+000	3.57700E+000	10	...........
	54	0.733333	9.66922E-001	5.99086E-003	0.00000E+000	5.79269E-003	3.59960E-001	-1.12882E+000	3.57700E+000	10	...........
	55	0.746667	9.72554E-001	5.99437E-003	0.00000E+000	5.82984E-003	3.59960E-001	-1.11775E+000	3.57700E+000	10	...........
	56	0.76	9.78173E-001	5.99456E-003	0.00000E+000	5.86372E-003	3.59960E-001	-1.11799E+000	3.57700E+000	10	...........
	57	0.773333	9.83754E-001	5.99466E-003	0.00000E+000	5.89727E-003	3.59960E-001	-1.12878E+000	3.57700E+000	10	...........
	58	0.786667	9.89245E-001	5.99270E-003	0.00000E+000	5.92824E-003	3.59960E-001	-1.11782E+000	3.57700E+000	10	...........
	59	0.8	9.94697E-001	5.99037E-003	0.00000E+000	5.95860E-003	3.59960E-001	-1.11790E+000	3.57700E+000	10	...........
	60	0.808333	9.99130E-001	5.99750E-003	0.00000E+000	5.99228E-003	3.59960E-001	-1.12920E+000	3.57700E+000	10	...........
STARTTIMEOFFSET	QUANT	638.7715	Start Time Offset (s)