File: Data/CV_CRGO300517_1/PWRCCD_CRGO300517_1/CHARGE_DISCHARGE/CHARGE_#631.DTA
EXPLAIN
TAG	PWR800_CHARGE
TITLE	LABEL	PWR Cyclic Charge Discharge (Cell) - Charge Step	Test &Identifier
DATE	LABEL	22-6-2017	Date
TIME	LABEL	16:00:57	Time
NOTES	NOTES	3	&Notes...
	supercap test cell
	0.6mg
	6M KOH
PSTAT	PSTAT	IFC5000-01520	Potentiostat
CAPACITY	QUANT	1.00000E-003	Capacity (A-hr)
CELLTYPE	SELECTOR	1	&Cell Type
WORKINGCONNECTION	SELECTOR	0	&Working Lead
MAXCHARGETIME	VARIABLEANDUNITS	1.00000E+002	s	1.00000E+002	second(s)	Max &Charge Time
CHARGECURRENT	QUANT	6.00000E-003	&Charge Current (A)
VOLTAGEFINISH	TWOPARAM	F	1.00000E-003	3.60000E+003	&Voltage Finish	 I (A) < 	Max Time(s)
SAMPLETIME	QUANT	1.00000E-002	Sa&mple Period (s)
CHARGESTOPAT1	MULTIPARAM	4	1.00000E+000	Charge Stop At &1	Voltage > Limit	V
CHARGESTOPAT2	MULTIPARAM	0	0.00000E+000	Charge Stop At &2	None	N/A
AESBHCSELECTOR	TOGGLE	F	Save Both Half Cells
IRCOMP	TOGGLE	F	IR &Measure
EOC	QUANT	0	Open Circuit (V)
SEQUENCER	TOGGLE	TRUE	Run as Sequence
PSTATMODEL	IQUANT	53	Pstat Model
PSTATSECTION	LABEL	IFC5000-01520	Pstat Section
PSTATSERIALNO	LABEL	01520	Pstat Serial Number
CTRLMODE	IQUANT	0	Control Mode
ELECTROMETER	IQUANT	1	RE=0 or CS=1
IESTAB	IQUANT	0	I/E Stability
CASPEED	IQUANT	4	Control Amp Speed
CONVENTION	IQUANT	1	Current Convention
ICHRANGE	IQUANT	2	Ich Range
ICHRANGEMODE	TOGGLE	T	Ich Auto Range
ICHOFFSETENABLE	TOGGLE	F	Ich Offset Enable
ICHOFFSET	QUANT	0	Ich Offset (V)
ICHFILTER	IQUANT	1	Ich Filter
VCHRANGE	IQUANT	2	Vch Range
VCHRANGEMODE	TOGGLE	T	Vch Auto Range
VCHOFFSETENABLE	TOGGLE	F	Vch Offset Enable
VCHOFFSET	QUANT	0	Vch Offset (V)
VCHFILTER	IQUANT	1	Vch Filter
IERANGELOWERLIMIT	IQUANT	9	I/E Range Lower Limit
IERANGEMODE	TOGGLE	F	I/E AutoRange
IERANGE	IQUANT	10	I/E Range
ACHSELECT	IQUANT	1	Ach Select
ACHRANGE	IQUANT	2	Ach Range
ACHOFFSETENABLE	TOGGLE	F	Ach Offset Enable
ACHOFFSET	QUANT	0	Ach Offset (V)
ACHFILTER	IQUANT	1	Ach Filter
CABLEID	IQUANT	14	Cable ID
DCCALDATE	LABEL	20-10-2016	DC Calibration Date
ACCALDATE	LABEL	12/3/2015	AC Calibration Date
FRAMEWORKVERSION	QUANT	7.01	Framework Version
INSTRUMENTVERSION	LABEL	4.00	Instrument Version
CURVE	TABLE	57
	Pt	T	Vf	Im	Vu	Pwr	Sig	Ach	Temp	IERange	Over
	#	s	V	A	V	W	V	V	deg C	#	bits
	0	0.013333	6.39214E-001	5.99490E-003	0.00000E+000	3.83202E-003	3.59960E-001	-1.14215E+000	3.57690E+000	10	...........
	1	0.026667	6.48289E-001	5.99510E-003	0.00000E+000	3.88655E-003	3.59960E-001	-1.15350E+000	3.57690E+000	10	...........
	2	0.04	6.56542E-001	5.99174E-003	0.00000E+000	3.93383E-003	3.59960E-001	-1.14377E+000	3.57690E+000	10	...........
	3	0.053333	6.64419E-001	5.99441E-003	0.00000E+000	3.98280E-003	3.59960E-001	-1.14187E+000	3.57690E+000	10	...........
	4	0.066667	6.72003E-001	5.99240E-003	0.00000E+000	4.02691E-003	3.59960E-001	-1.15322E+000	3.57690E+000	10	...........
	5	0.08	6.79420E-001	5.99358E-003	0.00000E+000	4.07216E-003	3.59960E-001	-1.14345E+000	3.57690E+000	10	...........
	6	0.093333	6.86654E-001	5.99261E-003	0.00000E+000	4.11485E-003	3.59960E-001	-1.14213E+000	3.57690E+000	10	...........
	7	0.106667	6.93806E-001	5.98908E-003	0.00000E+000	4.15526E-003	3.59960E-001	-1.15324E+000	3.57690E+000	10	...........
	8	0.12	7.00821E-001	5.99340E-003	0.00000E+000	4.20030E-003	3.59960E-001	-1.14351E+000	3.57691E+000	10	...........
	9	0.133333	7.07755E-001	5.99384E-003	0.00000E+000	4.24217E-003	3.59960E-001	-1.14197E+000	3.57710E+000	10	...........
	10	0.146667	7.14653E-001	5.99350E-003	0.00000E+000	4.28328E-003	3.59960E-001	-1.15321E+000	3.57710E+000	10	...........
	11	0.16	7.21545E-001	5.99266E-003	0.00000E+000	4.32398E-003	3.59960E-001	-1.14330E+000	3.57710E+000	10	...........
	12	0.173333	7.28355E-001	5.99613E-003	0.00000E+000	4.36731E-003	3.59960E-001	-1.14227E+000	3.57710E+000	10	...........
	13	0.186667	7.35126E-001	5.99083E-003	0.00000E+000	4.40401E-003	3.59960E-001	-1.15327E+000	3.57710E+000	10	...........
	14	0.2	7.41857E-001	5.99756E-003	0.00000E+000	4.44933E-003	3.59960E-001	-1.14328E+000	3.57710E+000	10	...........
	15	0.213333	7.48595E-001	5.99279E-003	0.00000E+000	4.48617E-003	3.59960E-001	-1.14211E+000	3.57710E+000	10	...........
	16	0.226667	7.55256E-001	5.99102E-003	0.00000E+000	4.52475E-003	3.59960E-001	-1.15327E+000	3.57710E+000	10	...........
	17	0.24	7.61947E-001	5.99273E-003	0.00000E+000	4.56614E-003	3.59960E-001	-1.14308E+000	3.57710E+000	10	...........
	18	0.253333	7.68565E-001	5.99320E-003	0.00000E+000	4.60616E-003	3.59960E-001	-1.14215E+000	3.57710E+000	10	...........
	19	0.266667	7.75170E-001	5.99035E-003	0.00000E+000	4.64354E-003	3.59960E-001	-1.15272E+000	3.57710E+000	10	...........
	20	0.28	7.81768E-001	5.99090E-003	0.00000E+000	4.68350E-003	3.59960E-001	-1.14308E+000	3.57710E+000	10	...........
	21	0.293333	7.88355E-001	5.99044E-003	0.00000E+000	4.72259E-003	3.59960E-001	-1.14194E+000	3.57710E+000	10	...........
	22	0.306667	7.94967E-001	5.99247E-003	0.00000E+000	4.76381E-003	3.59960E-001	-1.15260E+000	3.57710E+000	10	...........
	23	0.32	8.01482E-001	5.99454E-003	0.00000E+000	4.80452E-003	3.59960E-001	-1.14239E+000	3.57710E+000	10	...........
	24	0.333333	8.08002E-001	5.99415E-003	0.00000E+000	4.84328E-003	3.59960E-001	-1.14133E+000	3.57710E+000	10	...........
	25	0.346667	8.14483E-001	5.99269E-003	0.00000E+000	4.88094E-003	3.59960E-001	-1.15245E+000	3.57710E+000	10	...........
	26	0.36	8.20970E-001	5.99456E-003	0.00000E+000	4.92136E-003	3.59960E-001	-1.14264E+000	3.57710E+000	10	...........
	27	0.373333	8.27446E-001	5.99102E-003	0.00000E+000	4.95725E-003	3.59960E-001	-1.14191E+000	3.57710E+000	10	...........
	28	0.386667	8.33904E-001	5.99574E-003	0.00000E+000	4.99987E-003	3.59960E-001	-1.15235E+000	3.57710E+000	10	...........
	29	0.4	8.40317E-001	5.99361E-003	0.00000E+000	5.03654E-003	3.59960E-001	-1.14233E+000	3.57710E+000	10	...........
	30	0.413333	8.46772E-001	5.99162E-003	0.00000E+000	5.07354E-003	3.59960E-001	-1.14157E+000	3.57710E+000	10	...........
	31	0.426667	8.53156E-001	5.99451E-003	0.00000E+000	5.11425E-003	3.59960E-001	-1.15263E+000	3.57710E+000	10	...........
	32	0.44	8.59506E-001	5.99278E-003	0.00000E+000	5.15083E-003	3.59960E-001	-1.14235E+000	3.57710E+000	10	...........
	33	0.453333	8.65864E-001	5.99307E-003	0.00000E+000	5.18919E-003	3.59960E-001	-1.14152E+000	3.57710E+000	10	...........
	34	0.466667	8.72193E-001	5.99333E-003	0.00000E+000	5.22734E-003	3.59960E-001	-1.15205E+000	3.57710E+000	10	...........
	35	0.48	8.78500E-001	5.99506E-003	0.00000E+000	5.26667E-003	3.59960E-001	-1.14207E+000	3.57710E+000	10	...........
	36	0.493333	8.84748E-001	5.98849E-003	0.00000E+000	5.29830E-003	3.59960E-001	-1.14172E+000	3.57710E+000	10	...........
	37	0.506667	8.90982E-001	5.99671E-003	0.00000E+000	5.34297E-003	3.59960E-001	-1.15238E+000	3.57710E+000	10	...........
	38	0.52	8.97228E-001	5.99169E-003	0.00000E+000	5.37592E-003	3.59960E-001	-1.14187E+000	3.57710E+000	10	...........
	39	0.533333	9.03363E-001	5.98804E-003	0.00000E+000	5.40938E-003	3.59960E-001	-1.14146E+000	3.57710E+000	10	...........
	40	0.546667	9.09546E-001	5.99395E-003	0.00000E+000	5.45177E-003	3.59960E-001	-1.15208E+000	3.57710E+000	10	...........
	41	0.56	9.15658E-001	5.99020E-003	0.00000E+000	5.48498E-003	3.59960E-001	-1.14191E+000	3.57710E+000	10	...........
	42	0.573333	9.21776E-001	5.99477E-003	0.00000E+000	5.52584E-003	3.59960E-001	-1.14162E+000	3.57710E+000	10	...........
	43	0.586667	9.27821E-001	5.99541E-003	0.00000E+000	5.56267E-003	3.59960E-001	-1.15202E+000	3.57710E+000	10	...........
	44	0.6	9.33827E-001	5.98761E-003	0.00000E+000	5.59139E-003	3.59960E-001	-1.14145E+000	3.57710E+000	10	...........
	45	0.613333	9.39752E-001	5.99521E-003	0.00000E+000	5.63401E-003	3.59960E-001	-1.14139E+000	3.57710E+000	10	...........
	46	0.626667	9.45693E-001	5.99373E-003	0.00000E+000	5.66823E-003	3.59960E-001	-1.15185E+000	3.57710E+000	10	...........
	47	0.64	9.51614E-001	5.99313E-003	0.00000E+000	5.70315E-003	3.59960E-001	-1.14154E+000	3.57710E+000	10	...........
	48	0.653333	9.57444E-001	5.99297E-003	0.00000E+000	5.73793E-003	3.59960E-001	-1.14107E+000	3.57710E+000	10	...........
	49	0.666667	9.63247E-001	5.99336E-003	0.00000E+000	5.77309E-003	3.59960E-001	-1.15156E+000	3.57710E+000	10	...........
	50	0.68	9.68943E-001	5.99580E-003	0.00000E+000	5.80959E-003	3.59960E-001	-1.14128E+000	3.57710E+000	10	...........
	51	0.693333	9.74701E-001	5.99898E-003	0.00000E+000	5.84721E-003	3.59960E-001	-1.14162E+000	3.57710E+000	10	...........
	52	0.706667	9.80338E-001	5.99265E-003	0.00000E+000	5.87483E-003	3.59960E-001	-1.15181E+000	3.57710E+000	10	...........
	53	0.72	9.85947E-001	5.99628E-003	0.00000E+000	5.91202E-003	3.59960E-001	-1.14132E+000	3.57710E+000	10	...........
	54	0.733333	9.91516E-001	5.99539E-003	0.00000E+000	5.94452E-003	3.59960E-001	-1.14119E+000	3.57710E+000	10	...........
	55	0.746667	9.97042E-001	5.99230E-003	0.00000E+000	5.97457E-003	3.59960E-001	-1.15171E+000	3.57710E+000	10	...........
	56	0.748333	1.00008E+000	5.98962E-003	0.00000E+000	5.99012E-003	3.59960E-001	-1.13565E+000	3.57710E+000	10	...........
STARTTIMEOFFSET	QUANT	1057.237	Start Time Offset (s)