File: Data/CV_CRGO300517_1/PWRCCD_CRGO300517_1/CHARGE_DISCHARGE/CHARGE_#55.DTA
EXPLAIN
TAG	PWR800_CHARGE
TITLE	LABEL	PWR Cyclic Charge Discharge (Cell) - Charge Step	Test &Identifier
DATE	LABEL	22-6-2017	Date
TIME	LABEL	15:37:30	Time
NOTES	NOTES	3	&Notes...
	supercap test cell
	0.6mg
	6M KOH
PSTAT	PSTAT	IFC5000-01520	Potentiostat
CAPACITY	QUANT	1.00000E-003	Capacity (A-hr)
CELLTYPE	SELECTOR	1	&Cell Type
WORKINGCONNECTION	SELECTOR	0	&Working Lead
MAXCHARGETIME	VARIABLEANDUNITS	1.00000E+002	s	1.00000E+002	second(s)	Max &Charge Time
CHARGECURRENT	QUANT	6.00000E-003	&Charge Current (A)
VOLTAGEFINISH	TWOPARAM	F	1.00000E-003	3.60000E+003	&Voltage Finish	 I (A) < 	Max Time(s)
SAMPLETIME	QUANT	1.00000E-002	Sa&mple Period (s)
CHARGESTOPAT1	MULTIPARAM	4	1.00000E+000	Charge Stop At &1	Voltage > Limit	V
CHARGESTOPAT2	MULTIPARAM	0	0.00000E+000	Charge Stop At &2	None	N/A
AESBHCSELECTOR	TOGGLE	F	Save Both Half Cells
IRCOMP	TOGGLE	F	IR &Measure
EOC	QUANT	0	Open Circuit (V)
SEQUENCER	TOGGLE	TRUE	Run as Sequence
PSTATMODEL	IQUANT	53	Pstat Model
PSTATSECTION	LABEL	IFC5000-01520	Pstat Section
PSTATSERIALNO	LABEL	01520	Pstat Serial Number
CTRLMODE	IQUANT	0	Control Mode
ELECTROMETER	IQUANT	1	RE=0 or CS=1
IESTAB	IQUANT	0	I/E Stability
CASPEED	IQUANT	4	Control Amp Speed
CONVENTION	IQUANT	1	Current Convention
ICHRANGE	IQUANT	2	Ich Range
ICHRANGEMODE	TOGGLE	T	Ich Auto Range
ICHOFFSETENABLE	TOGGLE	F	Ich Offset Enable
ICHOFFSET	QUANT	0	Ich Offset (V)
ICHFILTER	IQUANT	1	Ich Filter
VCHRANGE	IQUANT	2	Vch Range
VCHRANGEMODE	TOGGLE	T	Vch Auto Range
VCHOFFSETENABLE	TOGGLE	F	Vch Offset Enable
VCHOFFSET	QUANT	0	Vch Offset (V)
VCHFILTER	IQUANT	1	Vch Filter
IERANGELOWERLIMIT	IQUANT	9	I/E Range Lower Limit
IERANGEMODE	TOGGLE	F	I/E AutoRange
IERANGE	IQUANT	10	I/E Range
ACHSELECT	IQUANT	1	Ach Select
ACHRANGE	IQUANT	2	Ach Range
ACHOFFSETENABLE	TOGGLE	F	Ach Offset Enable
ACHOFFSET	QUANT	0	Ach Offset (V)
ACHFILTER	IQUANT	1	Ach Filter
CABLEID	IQUANT	14	Cable ID
DCCALDATE	LABEL	20-10-2016	DC Calibration Date
ACCALDATE	LABEL	12/3/2015	AC Calibration Date
FRAMEWORKVERSION	QUANT	7.01	Framework Version
INSTRUMENTVERSION	LABEL	4.00	Instrument Version
CURVE	TABLE	74
	Pt	T	Vf	Im	Vu	Pwr	Sig	Ach	Temp	IERange	Over
	#	s	V	A	V	W	V	V	deg C	#	bits
	0	0.013333	5.76137E-001	5.99298E-003	0.00000E+000	3.45278E-003	3.59960E-001	-1.05160E+000	3.57710E+000	10	...........
	1	0.026667	5.84242E-001	5.99292E-003	0.00000E+000	3.50131E-003	3.59960E-001	-1.04387E+000	3.57710E+000	10	...........
	2	0.04	5.91759E-001	5.99708E-003	0.00000E+000	3.54883E-003	3.59960E-001	-1.03965E+000	3.57710E+000	10	...........
	3	0.053333	5.98807E-001	5.99521E-003	0.00000E+000	3.58997E-003	3.59960E-001	-1.05134E+000	3.57710E+000	10	...........
	4	0.066667	6.05571E-001	5.99487E-003	0.00000E+000	3.63031E-003	3.59960E-001	-1.04430E+000	3.57710E+000	10	...........
	5	0.08	6.12148E-001	5.99341E-003	0.00000E+000	3.66885E-003	3.59960E-001	-1.03964E+000	3.57715E+000	10	...........
	6	0.093333	6.18674E-001	5.99154E-003	0.00000E+000	3.70681E-003	3.59960E-001	-1.05110E+000	3.57730E+000	10	...........
	7	0.106667	6.25000E-001	5.99657E-003	0.00000E+000	3.74786E-003	3.59960E-001	-1.04401E+000	3.57730E+000	10	...........
	8	0.12	6.31180E-001	5.99414E-003	0.00000E+000	3.78338E-003	3.59960E-001	-1.03963E+000	3.57730E+000	10	...........
	9	0.133333	6.37381E-001	5.99478E-003	0.00000E+000	3.82096E-003	3.59960E-001	-1.05121E+000	3.57730E+000	10	...........
	10	0.146667	6.43526E-001	5.99234E-003	0.00000E+000	3.85623E-003	3.59960E-001	-1.04409E+000	3.57730E+000	10	...........
	11	0.16	6.49592E-001	5.99741E-003	0.00000E+000	3.89587E-003	3.59960E-001	-1.03933E+000	3.57730E+000	10	...........
	12	0.173333	6.55632E-001	5.99663E-003	0.00000E+000	3.93158E-003	3.59960E-001	-1.05070E+000	3.57730E+000	10	...........
	13	0.186667	6.61588E-001	5.99261E-003	0.00000E+000	3.96464E-003	3.59960E-001	-1.04423E+000	3.57730E+000	10	...........
	14	0.2	6.67557E-001	5.99050E-003	0.00000E+000	3.99900E-003	3.59960E-001	-1.03963E+000	3.57730E+000	10	...........
	15	0.213333	6.73448E-001	5.99378E-003	0.00000E+000	4.03650E-003	3.59960E-001	-1.05057E+000	3.57730E+000	10	...........
	16	0.226667	6.79340E-001	5.99546E-003	0.00000E+000	4.07296E-003	3.59960E-001	-1.04425E+000	3.57730E+000	10	...........
	17	0.24	6.85180E-001	5.99146E-003	0.00000E+000	4.10523E-003	3.59960E-001	-1.03941E+000	3.57730E+000	10	...........
	18	0.253333	6.91023E-001	5.99083E-003	0.00000E+000	4.13980E-003	3.59960E-001	-1.05069E+000	3.57730E+000	10	...........
	19	0.266667	6.96891E-001	5.99224E-003	0.00000E+000	4.17593E-003	3.59960E-001	-1.04460E+000	3.57730E+000	10	...........
	20	0.28	7.02748E-001	5.99200E-003	0.00000E+000	4.21086E-003	3.59960E-001	-1.03931E+000	3.57730E+000	10	...........
	21	0.293333	7.08546E-001	5.99356E-003	0.00000E+000	4.24672E-003	3.59960E-001	-1.05040E+000	3.57730E+000	10	...........
	22	0.306667	7.14360E-001	5.99482E-003	0.00000E+000	4.28246E-003	3.59960E-001	-1.04429E+000	3.57730E+000	10	...........
	23	0.32	7.20232E-001	5.99161E-003	0.00000E+000	4.31535E-003	3.59960E-001	-1.03888E+000	3.57730E+000	10	...........
	24	0.333333	7.26010E-001	5.99557E-003	0.00000E+000	4.35285E-003	3.59960E-001	-1.05000E+000	3.57730E+000	10	...........
	25	0.346667	7.31764E-001	5.99586E-003	0.00000E+000	4.38755E-003	3.59960E-001	-1.04409E+000	3.57730E+000	10	...........
	26	0.36	7.37541E-001	5.99430E-003	0.00000E+000	4.42104E-003	3.59960E-001	-1.03895E+000	3.57730E+000	10	...........
	27	0.373333	7.43317E-001	5.99496E-003	0.00000E+000	4.45615E-003	3.59960E-001	-1.04971E+000	3.57730E+000	10	...........
	28	0.386667	7.49100E-001	5.99484E-003	0.00000E+000	4.49074E-003	3.59960E-001	-1.04433E+000	3.57730E+000	10	...........
	29	0.4	7.54835E-001	5.99564E-003	0.00000E+000	4.52571E-003	3.59960E-001	-1.03924E+000	3.57730E+000	10	...........
	30	0.413333	7.60587E-001	5.99361E-003	0.00000E+000	4.55866E-003	3.59960E-001	-1.04962E+000	3.57730E+000	10	...........
	31	0.426667	7.66343E-001	5.99416E-003	0.00000E+000	4.59358E-003	3.59960E-001	-1.04441E+000	3.57730E+000	10	...........
	32	0.44	7.72179E-001	5.99259E-003	0.00000E+000	4.62735E-003	3.59960E-001	-1.03897E+000	3.57730E+000	10	...........
	33	0.453333	7.77919E-001	5.99070E-003	0.00000E+000	4.66028E-003	3.59960E-001	-1.04952E+000	3.57730E+000	10	...........
	34	0.466667	7.83659E-001	5.99153E-003	0.00000E+000	4.69531E-003	3.59960E-001	-1.04460E+000	3.57730E+000	10	...........
	35	0.48	7.89422E-001	5.99426E-003	0.00000E+000	4.73200E-003	3.59960E-001	-1.03902E+000	3.57730E+000	10	...........
	36	0.493333	7.95241E-001	5.99591E-003	0.00000E+000	4.76819E-003	3.59960E-001	-1.04943E+000	3.57730E+000	10	...........
	37	0.506667	8.00995E-001	5.98985E-003	0.00000E+000	4.79784E-003	3.59960E-001	-1.04455E+000	3.57730E+000	10	...........
	38	0.52	8.06749E-001	5.99410E-003	0.00000E+000	4.83574E-003	3.59960E-001	-1.03936E+000	3.57730E+000	10	...........
	39	0.533333	8.12468E-001	5.99416E-003	0.00000E+000	4.87006E-003	3.59960E-001	-1.04949E+000	3.57730E+000	10	...........
	40	0.546667	8.18250E-001	5.99398E-003	0.00000E+000	4.90458E-003	3.59960E-001	-1.04486E+000	3.57730E+000	10	...........
	41	0.56	8.24004E-001	5.99469E-003	0.00000E+000	4.93965E-003	3.59960E-001	-1.03923E+000	3.57730E+000	10	...........
	42	0.573333	8.29726E-001	5.99333E-003	0.00000E+000	4.97282E-003	3.59960E-001	-1.04919E+000	3.57730E+000	10	...........
	43	0.586667	8.35446E-001	5.98989E-003	0.00000E+000	5.00423E-003	3.59960E-001	-1.04495E+000	3.57730E+000	10	...........
	44	0.6	8.41192E-001	5.99312E-003	0.00000E+000	5.04137E-003	3.59960E-001	-1.03911E+000	3.57730E+000	10	...........
	45	0.613333	8.46924E-001	5.99673E-003	0.00000E+000	5.07877E-003	3.59960E-001	-1.04908E+000	3.57730E+000	10	...........
	46	0.626667	8.52627E-001	5.99265E-003	0.00000E+000	5.10950E-003	3.59960E-001	-1.04480E+000	3.57730E+000	10	...........
	47	0.64	8.58348E-001	5.99652E-003	0.00000E+000	5.14710E-003	3.59960E-001	-1.03861E+000	3.57730E+000	10	...........
	48	0.653333	8.64064E-001	5.98969E-003	0.00000E+000	5.17548E-003	3.59960E-001	-1.04848E+000	3.57730E+000	10	...........
	49	0.666667	8.69816E-001	5.99342E-003	0.00000E+000	5.21317E-003	3.59960E-001	-1.04498E+000	3.57730E+000	10	...........
	50	0.68	8.75512E-001	5.99589E-003	0.00000E+000	5.24947E-003	3.59960E-001	-1.03857E+000	3.57730E+000	10	...........
	51	0.693333	8.81203E-001	5.99211E-003	0.00000E+000	5.28026E-003	3.59960E-001	-1.04820E+000	3.57730E+000	10	...........
	52	0.706667	8.86868E-001	5.99298E-003	0.00000E+000	5.31498E-003	3.59960E-001	-1.04476E+000	3.57730E+000	10	...........
	53	0.72	8.92564E-001	5.99558E-003	0.00000E+000	5.35144E-003	3.59960E-001	-1.03871E+000	3.57730E+000	10	...........
	54	0.733333	8.98248E-001	5.99224E-003	0.00000E+000	5.38251E-003	3.59960E-001	-1.04851E+000	3.57730E+000	10	...........
	55	0.746667	9.03900E-001	5.99373E-003	0.00000E+000	5.41773E-003	3.59960E-001	-1.04497E+000	3.57730E+000	10	...........
	56	0.76	9.09563E-001	5.99408E-003	0.00000E+000	5.45200E-003	3.59960E-001	-1.03859E+000	3.57730E+000	10	...........
	57	0.773333	9.15218E-001	5.99666E-003	0.00000E+000	5.48825E-003	3.59960E-001	-1.04803E+000	3.57730E+000	10	...........
	58	0.786667	9.20838E-001	5.99365E-003	0.00000E+000	5.51918E-003	3.59960E-001	-1.04505E+000	3.57730E+000	10	...........
	59	0.8	9.26483E-001	5.99465E-003	0.00000E+000	5.55394E-003	3.59960E-001	-1.03887E+000	3.57730E+000	10	...........
	60	0.813333	9.32089E-001	5.99008E-003	0.00000E+000	5.58328E-003	3.59960E-001	-1.04796E+000	3.57730E+000	10	...........
	61	0.826667	9.37633E-001	5.99254E-003	0.00000E+000	5.61881E-003	3.59960E-001	-1.04505E+000	3.57730E+000	10	...........
	62	0.84	9.43168E-001	5.99476E-003	0.00000E+000	5.65407E-003	3.59960E-001	-1.03875E+000	3.57730E+000	10	...........
	63	0.853333	9.48738E-001	5.99405E-003	0.00000E+000	5.68678E-003	3.59960E-001	-1.04817E+000	3.57730E+000	10	...........
	64	0.866667	9.54231E-001	5.99525E-003	0.00000E+000	5.72085E-003	3.59960E-001	-1.04560E+000	3.57730E+000	10	...........
	65	0.88	9.59715E-001	5.99318E-003	0.00000E+000	5.75174E-003	3.59960E-001	-1.03869E+000	3.57730E+000	10	...........
	66	0.893333	9.65150E-001	5.99356E-003	0.00000E+000	5.78469E-003	3.59960E-001	-1.04774E+000	3.57730E+000	10	...........
	67	0.906667	9.70576E-001	5.99852E-003	0.00000E+000	5.82201E-003	3.59960E-001	-1.04564E+000	3.57730E+000	10	...........
	68	0.92	9.76059E-001	5.99641E-003	0.00000E+000	5.85285E-003	3.59960E-001	-1.03895E+000	3.57730E+000	10	...........
	69	0.933333	9.81426E-001	5.99540E-003	0.00000E+000	5.88404E-003	3.59960E-001	-1.04780E+000	3.57730E+000	10	...........
	70	0.946667	9.86758E-001	5.99853E-003	0.00000E+000	5.91909E-003	3.59960E-001	-1.04544E+000	3.57730E+000	10	...........
	71	0.96	9.92049E-001	5.99060E-003	0.00000E+000	5.94297E-003	3.59960E-001	-1.03813E+000	3.57730E+000	10	...........
	72	0.97333	9.97322E-001	5.99212E-003	0.00000E+000	5.97607E-003	3.59960E-001	-1.04709E+000	3.57730E+000	10	...........
	73	0.975	1.00025E+000	5.99329E-003	0.00000E+000	5.99481E-003	3.59960E-001	-1.02383E+000	3.57730E+000	10	...........
STARTTIMEOFFSET	QUANT	110.2717	Start Time Offset (s)