File: Data/CV_CRGO300517_1/PWRCCD_CRGO300517_1/CHARGE_DISCHARGE/CHARGE_#898.DTA
EXPLAIN
TAG	PWR800_CHARGE
TITLE	LABEL	PWR Cyclic Charge Discharge (Cell) - Charge Step	Test &Identifier
DATE	LABEL	22-6-2017	Date
TIME	LABEL	16:10:55	Time
NOTES	NOTES	3	&Notes...
	supercap test cell
	0.6mg
	6M KOH
PSTAT	PSTAT	IFC5000-01520	Potentiostat
CAPACITY	QUANT	1.00000E-003	Capacity (A-hr)
CELLTYPE	SELECTOR	1	&Cell Type
WORKINGCONNECTION	SELECTOR	0	&Working Lead
MAXCHARGETIME	VARIABLEANDUNITS	1.00000E+002	s	1.00000E+002	second(s)	Max &Charge Time
CHARGECURRENT	QUANT	6.00000E-003	&Charge Current (A)
VOLTAGEFINISH	TWOPARAM	F	1.00000E-003	3.60000E+003	&Voltage Finish	 I (A) < 	Max Time(s)
SAMPLETIME	QUANT	1.00000E-002	Sa&mple Period (s)
CHARGESTOPAT1	MULTIPARAM	4	1.00000E+000	Charge Stop At &1	Voltage > Limit	V
CHARGESTOPAT2	MULTIPARAM	0	0.00000E+000	Charge Stop At &2	None	N/A
AESBHCSELECTOR	TOGGLE	F	Save Both Half Cells
IRCOMP	TOGGLE	F	IR &Measure
EOC	QUANT	0	Open Circuit (V)
SEQUENCER	TOGGLE	TRUE	Run as Sequence
PSTATMODEL	IQUANT	53	Pstat Model
PSTATSECTION	LABEL	IFC5000-01520	Pstat Section
PSTATSERIALNO	LABEL	01520	Pstat Serial Number
CTRLMODE	IQUANT	0	Control Mode
ELECTROMETER	IQUANT	1	RE=0 or CS=1
IESTAB	IQUANT	0	I/E Stability
CASPEED	IQUANT	4	Control Amp Speed
CONVENTION	IQUANT	1	Current Convention
ICHRANGE	IQUANT	2	Ich Range
ICHRANGEMODE	TOGGLE	T	Ich Auto Range
ICHOFFSETENABLE	TOGGLE	F	Ich Offset Enable
ICHOFFSET	QUANT	0	Ich Offset (V)
ICHFILTER	IQUANT	1	Ich Filter
VCHRANGE	IQUANT	2	Vch Range
VCHRANGEMODE	TOGGLE	T	Vch Auto Range
VCHOFFSETENABLE	TOGGLE	F	Vch Offset Enable
VCHOFFSET	QUANT	0	Vch Offset (V)
VCHFILTER	IQUANT	1	Vch Filter
IERANGELOWERLIMIT	IQUANT	9	I/E Range Lower Limit
IERANGEMODE	TOGGLE	F	I/E AutoRange
IERANGE	IQUANT	10	I/E Range
ACHSELECT	IQUANT	1	Ach Select
ACHRANGE	IQUANT	2	Ach Range
ACHOFFSETENABLE	TOGGLE	F	Ach Offset Enable
ACHOFFSET	QUANT	0	Ach Offset (V)
ACHFILTER	IQUANT	1	Ach Filter
CABLEID	IQUANT	14	Cable ID
DCCALDATE	LABEL	20-10-2016	DC Calibration Date
ACCALDATE	LABEL	12/3/2015	AC Calibration Date
FRAMEWORKVERSION	QUANT	7.01	Framework Version
INSTRUMENTVERSION	LABEL	4.00	Instrument Version
CURVE	TABLE	53
	Pt	T	Vf	Im	Vu	Pwr	Sig	Ach	Temp	IERange	Over
	#	s	V	A	V	W	V	V	deg C	#	bits
	0	0.013333	6.53154E-001	5.98972E-003	0.00000E+000	3.91222E-003	3.59960E-001	-1.17792E+000	3.57660E+000	10	...........
	1	0.026667	6.62420E-001	5.99536E-003	0.00000E+000	3.97145E-003	3.59960E-001	-1.16945E+000	3.57660E+000	10	...........
	2	0.04	6.70939E-001	5.99365E-003	0.00000E+000	4.02137E-003	3.59960E-001	-1.16697E+000	3.57660E+000	10	...........
	3	0.053333	6.79010E-001	5.99484E-003	0.00000E+000	4.07056E-003	3.59960E-001	-1.17788E+000	3.57660E+000	10	...........
	4	0.066667	6.86777E-001	5.99210E-003	0.00000E+000	4.11524E-003	3.59960E-001	-1.16932E+000	3.57660E+000	10	...........
	5	0.08	6.94391E-001	5.99186E-003	0.00000E+000	4.16069E-003	3.59960E-001	-1.16683E+000	3.57660E+000	10	...........
	6	0.093333	7.01823E-001	5.99764E-003	0.00000E+000	4.20928E-003	3.59960E-001	-1.17798E+000	3.57660E+000	10	...........
	7	0.106667	7.09094E-001	5.99371E-003	0.00000E+000	4.25010E-003	3.59960E-001	-1.16946E+000	3.57668E+000	10	...........
	8	0.12	7.16374E-001	5.99057E-003	0.00000E+000	4.29149E-003	3.59960E-001	-1.16664E+000	3.57720E+000	10	...........
	9	0.133333	7.23538E-001	5.99237E-003	0.00000E+000	4.33571E-003	3.59960E-001	-1.17777E+000	3.57720E+000	10	...........
	10	0.146667	7.30586E-001	5.99333E-003	0.00000E+000	4.37864E-003	3.59960E-001	-1.16898E+000	3.57720E+000	10	...........
	11	0.16	7.37622E-001	5.99035E-003	0.00000E+000	4.41861E-003	3.59960E-001	-1.16653E+000	3.57720E+000	10	...........
	12	0.173333	7.44650E-001	5.99902E-003	0.00000E+000	4.46717E-003	3.59960E-001	-1.17805E+000	3.57720E+000	10	...........
	13	0.186667	7.51606E-001	5.99413E-003	0.00000E+000	4.50522E-003	3.59960E-001	-1.16908E+000	3.57720E+000	10	...........
	14	0.2	7.58516E-001	5.98938E-003	0.00000E+000	4.54304E-003	3.59960E-001	-1.16659E+000	3.57720E+000	10	...........
	15	0.213333	7.65371E-001	5.99035E-003	0.00000E+000	4.58484E-003	3.59960E-001	-1.17775E+000	3.57720E+000	10	...........
	16	0.226667	7.72229E-001	5.99368E-003	0.00000E+000	4.62849E-003	3.59960E-001	-1.16910E+000	3.57720E+000	10	...........
	17	0.24	7.79040E-001	5.99696E-003	0.00000E+000	4.67187E-003	3.59960E-001	-1.16669E+000	3.57720E+000	10	...........
	18	0.253333	7.85847E-001	5.99560E-003	0.00000E+000	4.71162E-003	3.59960E-001	-1.17792E+000	3.57720E+000	10	...........
	19	0.266667	7.92616E-001	5.98569E-003	0.00000E+000	4.74435E-003	3.59960E-001	-1.16875E+000	3.57720E+000	10	...........
	20	0.28	7.99350E-001	5.99217E-003	0.00000E+000	4.78984E-003	3.59960E-001	-1.16614E+000	3.57720E+000	10	...........
	21	0.293333	8.06091E-001	5.99680E-003	0.00000E+000	4.83396E-003	3.59960E-001	-1.17720E+000	3.57720E+000	10	...........
	22	0.306667	8.12712E-001	5.98920E-003	0.00000E+000	4.86750E-003	3.59960E-001	-1.16849E+000	3.57720E+000	10	...........
	23	0.32	8.19421E-001	5.99667E-003	0.00000E+000	4.91380E-003	3.59960E-001	-1.16625E+000	3.57720E+000	10	...........
	24	0.333333	8.26043E-001	5.98971E-003	0.00000E+000	4.94776E-003	3.59960E-001	-1.17710E+000	3.57720E+000	10	...........
	25	0.346667	8.32652E-001	5.99326E-003	0.00000E+000	4.99030E-003	3.59960E-001	-1.16839E+000	3.57720E+000	10	...........
	26	0.36	8.39235E-001	5.99307E-003	0.00000E+000	5.02959E-003	3.59960E-001	-1.16613E+000	3.57720E+000	10	...........
	27	0.373333	8.45806E-001	5.99269E-003	0.00000E+000	5.06865E-003	3.59960E-001	-1.17743E+000	3.57720E+000	10	...........
	28	0.386667	8.52352E-001	5.99204E-003	0.00000E+000	5.10733E-003	3.59960E-001	-1.16828E+000	3.57720E+000	10	...........
	29	0.4	8.58818E-001	5.99121E-003	0.00000E+000	5.14536E-003	3.59960E-001	-1.16582E+000	3.57720E+000	10	...........
	30	0.413333	8.65294E-001	5.99295E-003	0.00000E+000	5.18566E-003	3.59960E-001	-1.17719E+000	3.57720E+000	10	...........
	31	0.426667	8.71788E-001	5.99473E-003	0.00000E+000	5.22613E-003	3.59960E-001	-1.16834E+000	3.57720E+000	10	...........
	32	0.44	8.78193E-001	5.99402E-003	0.00000E+000	5.26391E-003	3.59960E-001	-1.16612E+000	3.57720E+000	10	...........
	33	0.453333	8.84564E-001	5.99106E-003	0.00000E+000	5.29947E-003	3.59960E-001	-1.17707E+000	3.57720E+000	10	...........
	34	0.466667	8.90912E-001	5.99650E-003	0.00000E+000	5.34236E-003	3.59960E-001	-1.16807E+000	3.57720E+000	10	...........
	35	0.48	8.97250E-001	5.99269E-003	0.00000E+000	5.37694E-003	3.59960E-001	-1.16558E+000	3.57720E+000	10	...........
	36	0.493333	9.03531E-001	5.99295E-003	0.00000E+000	5.41481E-003	3.59960E-001	-1.17700E+000	3.57720E+000	10	...........
	37	0.506667	9.09774E-001	5.98858E-003	0.00000E+000	5.44825E-003	3.59960E-001	-1.16853E+000	3.57720E+000	10	...........
	38	0.52	9.15972E-001	5.99087E-003	0.00000E+000	5.48747E-003	3.59960E-001	-1.16617E+000	3.57720E+000	10	...........
	39	0.533333	9.22211E-001	5.99359E-003	0.00000E+000	5.52736E-003	3.59960E-001	-1.17724E+000	3.57720E+000	10	...........
	40	0.546667	9.28332E-001	5.99304E-003	0.00000E+000	5.56353E-003	3.59960E-001	-1.16813E+000	3.57720E+000	10	...........
	41	0.56	9.34357E-001	5.99270E-003	0.00000E+000	5.59932E-003	3.59960E-001	-1.16601E+000	3.57720E+000	10	...........
	42	0.573333	9.40439E-001	5.99354E-003	0.00000E+000	5.63656E-003	3.59960E-001	-1.17735E+000	3.57720E+000	10	...........
	43	0.586667	9.46445E-001	5.99067E-003	0.00000E+000	5.66984E-003	3.59960E-001	-1.16807E+000	3.57720E+000	10	...........
	44	0.6	9.52436E-001	5.99590E-003	0.00000E+000	5.71071E-003	3.59960E-001	-1.16578E+000	3.57720E+000	10	...........
	45	0.613333	9.58295E-001	5.99645E-003	0.00000E+000	5.74637E-003	3.59960E-001	-1.17664E+000	3.57720E+000	10	...........
	46	0.626667	9.64109E-001	5.99726E-003	0.00000E+000	5.78202E-003	3.59960E-001	-1.16775E+000	3.57720E+000	10	...........
	47	0.64	9.69874E-001	5.99430E-003	0.00000E+000	5.81372E-003	3.59960E-001	-1.16591E+000	3.57720E+000	10	...........
	48	0.653333	9.75664E-001	5.99308E-003	0.00000E+000	5.84723E-003	3.59960E-001	-1.17667E+000	3.57720E+000	10	...........
	49	0.666667	9.81393E-001	6.00125E-003	0.00000E+000	5.88959E-003	3.59960E-001	-1.16762E+000	3.57720E+000	10	...........
	50	0.68	9.87012E-001	5.99299E-003	0.00000E+000	5.91515E-003	3.59960E-001	-1.16554E+000	3.57720E+000	10	...........
	51	0.693333	9.92609E-001	5.99668E-003	0.00000E+000	5.95236E-003	3.59960E-001	-1.17685E+000	3.57720E+000	10	...........
	52	0.706667	9.98151E-001	5.99021E-003	0.00000E+000	5.97914E-003	3.59960E-001	-1.16771E+000	3.57720E+000	10	...........
STARTTIMEOFFSET	QUANT	1443.251	Start Time Offset (s)