File: Data/CV_CRGO300517_1/PWRCCD_CRGO300517_1/CHARGE_DISCHARGE/CHARGE_#695.DTA
EXPLAIN
TAG	PWR800_CHARGE
TITLE	LABEL	PWR Cyclic Charge Discharge (Cell) - Charge Step	Test &Identifier
DATE	LABEL	22-6-2017	Date
TIME	LABEL	16:03:22	Time
NOTES	NOTES	3	&Notes...
	supercap test cell
	0.6mg
	6M KOH
PSTAT	PSTAT	IFC5000-01520	Potentiostat
CAPACITY	QUANT	1.00000E-003	Capacity (A-hr)
CELLTYPE	SELECTOR	1	&Cell Type
WORKINGCONNECTION	SELECTOR	0	&Working Lead
MAXCHARGETIME	VARIABLEANDUNITS	1.00000E+002	s	1.00000E+002	second(s)	Max &Charge Time
CHARGECURRENT	QUANT	6.00000E-003	&Charge Current (A)
VOLTAGEFINISH	TWOPARAM	F	1.00000E-003	3.60000E+003	&Voltage Finish	 I (A) < 	Max Time(s)
SAMPLETIME	QUANT	1.00000E-002	Sa&mple Period (s)
CHARGESTOPAT1	MULTIPARAM	4	1.00000E+000	Charge Stop At &1	Voltage > Limit	V
CHARGESTOPAT2	MULTIPARAM	0	0.00000E+000	Charge Stop At &2	None	N/A
AESBHCSELECTOR	TOGGLE	F	Save Both Half Cells
IRCOMP	TOGGLE	F	IR &Measure
EOC	QUANT	0	Open Circuit (V)
SEQUENCER	TOGGLE	TRUE	Run as Sequence
PSTATMODEL	IQUANT	53	Pstat Model
PSTATSECTION	LABEL	IFC5000-01520	Pstat Section
PSTATSERIALNO	LABEL	01520	Pstat Serial Number
CTRLMODE	IQUANT	0	Control Mode
ELECTROMETER	IQUANT	1	RE=0 or CS=1
IESTAB	IQUANT	0	I/E Stability
CASPEED	IQUANT	4	Control Amp Speed
CONVENTION	IQUANT	1	Current Convention
ICHRANGE	IQUANT	2	Ich Range
ICHRANGEMODE	TOGGLE	T	Ich Auto Range
ICHOFFSETENABLE	TOGGLE	F	Ich Offset Enable
ICHOFFSET	QUANT	0	Ich Offset (V)
ICHFILTER	IQUANT	1	Ich Filter
VCHRANGE	IQUANT	2	Vch Range
VCHRANGEMODE	TOGGLE	T	Vch Auto Range
VCHOFFSETENABLE	TOGGLE	F	Vch Offset Enable
VCHOFFSET	QUANT	0	Vch Offset (V)
VCHFILTER	IQUANT	1	Vch Filter
IERANGELOWERLIMIT	IQUANT	9	I/E Range Lower Limit
IERANGEMODE	TOGGLE	F	I/E AutoRange
IERANGE	IQUANT	10	I/E Range
ACHSELECT	IQUANT	1	Ach Select
ACHRANGE	IQUANT	2	Ach Range
ACHOFFSETENABLE	TOGGLE	F	Ach Offset Enable
ACHOFFSET	QUANT	0	Ach Offset (V)
ACHFILTER	IQUANT	1	Ach Filter
CABLEID	IQUANT	14	Cable ID
DCCALDATE	LABEL	20-10-2016	DC Calibration Date
ACCALDATE	LABEL	12/3/2015	AC Calibration Date
FRAMEWORKVERSION	QUANT	7.01	Framework Version
INSTRUMENTVERSION	LABEL	4.00	Instrument Version
CURVE	TABLE	56
	Pt	T	Vf	Im	Vu	Pwr	Sig	Ach	Temp	IERange	Over
	#	s	V	A	V	W	V	V	deg C	#	bits
	0	0.013333	6.43352E-001	5.99375E-003	0.00000E+000	3.85609E-003	3.59960E-001	-1.15359E+000	3.57670E+000	10	...........
	1	0.026667	6.52402E-001	5.99578E-003	0.00000E+000	3.91166E-003	3.59960E-001	-1.16439E+000	3.57670E+000	10	...........
	2	0.04	6.60724E-001	5.99650E-003	0.00000E+000	3.96203E-003	3.59960E-001	-1.15391E+000	3.57670E+000	10	...........
	3	0.053333	6.68642E-001	5.99612E-003	0.00000E+000	4.00925E-003	3.59960E-001	-1.15346E+000	3.57670E+000	10	...........
	4	0.066667	6.76304E-001	5.99135E-003	0.00000E+000	4.05198E-003	3.59960E-001	-1.16421E+000	3.57670E+000	10	...........
	5	0.08	6.83741E-001	5.99480E-003	0.00000E+000	4.09889E-003	3.59960E-001	-1.15354E+000	3.57670E+000	10	...........
	6	0.093333	6.91036E-001	5.99013E-003	0.00000E+000	4.13940E-003	3.59960E-001	-1.15331E+000	3.57670E+000	10	...........
	7	0.106667	6.98215E-001	5.99501E-003	0.00000E+000	4.18581E-003	3.59960E-001	-1.16436E+000	3.57670E+000	10	...........
	8	0.12	7.05279E-001	5.99614E-003	0.00000E+000	4.22895E-003	3.59960E-001	-1.15383E+000	3.57670E+000	10	...........
	9	0.133333	7.12261E-001	5.99544E-003	0.00000E+000	4.27032E-003	3.59960E-001	-1.15320E+000	3.57670E+000	10	...........
	10	0.146667	7.19253E-001	5.99265E-003	0.00000E+000	4.31023E-003	3.59960E-001	-1.16404E+000	3.57670E+000	10	...........
	11	0.16	7.26130E-001	5.99450E-003	0.00000E+000	4.35279E-003	3.59960E-001	-1.15347E+000	3.57670E+000	10	...........
	12	0.173333	7.32974E-001	5.99300E-003	0.00000E+000	4.39271E-003	3.59960E-001	-1.15337E+000	3.57670E+000	10	...........
	13	0.186667	7.39809E-001	5.99726E-003	0.00000E+000	4.43683E-003	3.59960E-001	-1.16421E+000	3.57670E+000	10	...........
	14	0.2	7.46583E-001	5.98919E-003	0.00000E+000	4.47143E-003	3.59960E-001	-1.15361E+000	3.57670E+000	10	...........
	15	0.213333	7.53314E-001	5.99264E-003	0.00000E+000	4.51434E-003	3.59960E-001	-1.15303E+000	3.57670E+000	10	...........
	16	0.226667	7.60050E-001	5.99403E-003	0.00000E+000	4.55577E-003	3.59960E-001	-1.16402E+000	3.57670E+000	10	...........
	17	0.24	7.66721E-001	5.99780E-003	0.00000E+000	4.59864E-003	3.59960E-001	-1.15367E+000	3.57670E+000	10	...........
	18	0.253333	7.73418E-001	5.99093E-003	0.00000E+000	4.63349E-003	3.59960E-001	-1.15325E+000	3.57670E+000	10	...........
	19	0.266667	7.80091E-001	5.99366E-003	0.00000E+000	4.67560E-003	3.59960E-001	-1.16419E+000	3.57670E+000	10	...........
	20	0.28	7.86713E-001	5.99551E-003	0.00000E+000	4.71675E-003	3.59960E-001	-1.15355E+000	3.57670E+000	10	...........
	21	0.293333	7.93389E-001	5.99449E-003	0.00000E+000	4.75596E-003	3.59960E-001	-1.15324E+000	3.57670E+000	10	...........
	22	0.306667	7.99980E-001	5.99053E-003	0.00000E+000	4.79230E-003	3.59960E-001	-1.16416E+000	3.57670E+000	10	...........
	23	0.32	8.06526E-001	5.99462E-003	0.00000E+000	4.83481E-003	3.59960E-001	-1.15383E+000	3.57670E+000	10	...........
	24	0.333333	8.13052E-001	5.99210E-003	0.00000E+000	4.87189E-003	3.59960E-001	-1.15311E+000	3.57670E+000	10	...........
	25	0.346667	8.19599E-001	5.99256E-003	0.00000E+000	4.91149E-003	3.59960E-001	-1.16357E+000	3.57670E+000	10	...........
	26	0.36	8.26092E-001	5.99129E-003	0.00000E+000	4.94936E-003	3.59960E-001	-1.15332E+000	3.57670E+000	10	...........
	27	0.373333	8.32581E-001	5.99155E-003	0.00000E+000	4.98845E-003	3.59960E-001	-1.15296E+000	3.57670E+000	10	...........
	28	0.386667	8.39052E-001	5.98998E-003	0.00000E+000	5.02591E-003	3.59960E-001	-1.16371E+000	3.57670E+000	10	...........
	29	0.4	8.45487E-001	5.99335E-003	0.00000E+000	5.06730E-003	3.59960E-001	-1.15333E+000	3.57670E+000	10	...........
	30	0.413333	8.51895E-001	5.99503E-003	0.00000E+000	5.10714E-003	3.59960E-001	-1.15279E+000	3.57670E+000	10	...........
	31	0.426667	8.58337E-001	5.99583E-003	0.00000E+000	5.14644E-003	3.59960E-001	-1.16365E+000	3.57670E+000	10	...........
	32	0.44	8.64668E-001	5.98773E-003	0.00000E+000	5.17740E-003	3.59960E-001	-1.15339E+000	3.57670E+000	10	...........
	33	0.453333	8.71055E-001	5.99032E-003	0.00000E+000	5.21790E-003	3.59960E-001	-1.15280E+000	3.57670E+000	10	...........
	34	0.466667	8.77402E-001	5.99832E-003	0.00000E+000	5.26294E-003	3.59960E-001	-1.16362E+000	3.57670E+000	10	...........
	35	0.48	8.83725E-001	5.99542E-003	0.00000E+000	5.29830E-003	3.59960E-001	-1.15302E+000	3.57670E+000	10	...........
	36	0.493333	8.90000E-001	5.99082E-003	0.00000E+000	5.33183E-003	3.59960E-001	-1.15260E+000	3.57670E+000	10	...........
	37	0.506667	8.96224E-001	5.99347E-003	0.00000E+000	5.37149E-003	3.59960E-001	-1.16360E+000	3.57670E+000	10	...........
	38	0.52	9.02468E-001	5.99629E-003	0.00000E+000	5.41146E-003	3.59960E-001	-1.15308E+000	3.57670E+000	10	...........
	39	0.533333	9.08644E-001	5.99798E-003	0.00000E+000	5.45003E-003	3.59960E-001	-1.15276E+000	3.57670E+000	10	...........
	40	0.546667	9.14786E-001	5.99290E-003	0.00000E+000	5.48223E-003	3.59960E-001	-1.16328E+000	3.57670E+000	10	...........
	41	0.56	9.20949E-001	5.99456E-003	0.00000E+000	5.52068E-003	3.59960E-001	-1.15317E+000	3.57670E+000	10	...........
	42	0.573333	9.27048E-001	5.99661E-003	0.00000E+000	5.55914E-003	3.59960E-001	-1.15288E+000	3.57670E+000	10	...........
	43	0.586667	9.33032E-001	5.99449E-003	0.00000E+000	5.59305E-003	3.59960E-001	-1.16370E+000	3.57670E+000	10	...........
	44	0.6	9.39014E-001	5.99265E-003	0.00000E+000	5.62719E-003	3.59960E-001	-1.15308E+000	3.57670E+000	10	...........
	45	0.613333	9.44964E-001	5.99523E-003	0.00000E+000	5.66528E-003	3.59960E-001	-1.15246E+000	3.57670E+000	10	...........
	46	0.626667	9.50908E-001	5.99726E-003	0.00000E+000	5.70285E-003	3.59960E-001	-1.16346E+000	3.57670E+000	10	...........
	47	0.64	9.56727E-001	5.99915E-003	0.00000E+000	5.73955E-003	3.59960E-001	-1.15317E+000	3.57670E+000	10	...........
	48	0.653333	9.62530E-001	5.99736E-003	0.00000E+000	5.77264E-003	3.59960E-001	-1.15261E+000	3.57670E+000	10	...........
	49	0.666667	9.68283E-001	5.99415E-003	0.00000E+000	5.80403E-003	3.59960E-001	-1.16330E+000	3.57670E+000	10	...........
	50	0.68	9.74038E-001	5.99199E-003	0.00000E+000	5.83642E-003	3.59960E-001	-1.15274E+000	3.57670E+000	10	...........
	51	0.693333	9.79750E-001	5.99603E-003	0.00000E+000	5.87462E-003	3.59960E-001	-1.15223E+000	3.57670E+000	10	...........
	52	0.706667	9.85339E-001	5.99292E-003	0.00000E+000	5.90505E-003	3.59960E-001	-1.16311E+000	3.57670E+000	10	...........
	53	0.72	9.90923E-001	5.99483E-003	0.00000E+000	5.94042E-003	3.59960E-001	-1.15286E+000	3.57670E+000	10	...........
	54	0.733333	9.96441E-001	5.99856E-003	0.00000E+000	5.97721E-003	3.59960E-001	-1.15209E+000	3.57670E+000	10	...........
	55	0.736667	9.99869E-001	5.98999E-003	0.00000E+000	5.98921E-003	3.59960E-001	-1.16093E+000	3.57670E+000	10	...........
STARTTIMEOFFSET	QUANT	1151.879	Start Time Offset (s)