File: Data/CV_CRGO300517_1/PWRCCD_CRGO300517_1/CHARGE_DISCHARGE/CHARGE_#786.DTA
EXPLAIN
TAG	PWR800_CHARGE
TITLE	LABEL	PWR Cyclic Charge Discharge (Cell) - Charge Step	Test &Identifier
DATE	LABEL	22-6-2017	Date
TIME	LABEL	16:06:45	Time
NOTES	NOTES	3	&Notes...
	supercap test cell
	0.6mg
	6M KOH
PSTAT	PSTAT	IFC5000-01520	Potentiostat
CAPACITY	QUANT	1.00000E-003	Capacity (A-hr)
CELLTYPE	SELECTOR	1	&Cell Type
WORKINGCONNECTION	SELECTOR	0	&Working Lead
MAXCHARGETIME	VARIABLEANDUNITS	1.00000E+002	s	1.00000E+002	second(s)	Max &Charge Time
CHARGECURRENT	QUANT	6.00000E-003	&Charge Current (A)
VOLTAGEFINISH	TWOPARAM	F	1.00000E-003	3.60000E+003	&Voltage Finish	 I (A) < 	Max Time(s)
SAMPLETIME	QUANT	1.00000E-002	Sa&mple Period (s)
CHARGESTOPAT1	MULTIPARAM	4	1.00000E+000	Charge Stop At &1	Voltage > Limit	V
CHARGESTOPAT2	MULTIPARAM	0	0.00000E+000	Charge Stop At &2	None	N/A
AESBHCSELECTOR	TOGGLE	F	Save Both Half Cells
IRCOMP	TOGGLE	F	IR &Measure
EOC	QUANT	0	Open Circuit (V)
SEQUENCER	TOGGLE	TRUE	Run as Sequence
PSTATMODEL	IQUANT	53	Pstat Model
PSTATSECTION	LABEL	IFC5000-01520	Pstat Section
PSTATSERIALNO	LABEL	01520	Pstat Serial Number
CTRLMODE	IQUANT	0	Control Mode
ELECTROMETER	IQUANT	1	RE=0 or CS=1
IESTAB	IQUANT	0	I/E Stability
CASPEED	IQUANT	4	Control Amp Speed
CONVENTION	IQUANT	1	Current Convention
ICHRANGE	IQUANT	2	Ich Range
ICHRANGEMODE	TOGGLE	T	Ich Auto Range
ICHOFFSETENABLE	TOGGLE	F	Ich Offset Enable
ICHOFFSET	QUANT	0	Ich Offset (V)
ICHFILTER	IQUANT	1	Ich Filter
VCHRANGE	IQUANT	2	Vch Range
VCHRANGEMODE	TOGGLE	T	Vch Auto Range
VCHOFFSETENABLE	TOGGLE	F	Vch Offset Enable
VCHOFFSET	QUANT	0	Vch Offset (V)
VCHFILTER	IQUANT	1	Vch Filter
IERANGELOWERLIMIT	IQUANT	9	I/E Range Lower Limit
IERANGEMODE	TOGGLE	F	I/E AutoRange
IERANGE	IQUANT	10	I/E Range
ACHSELECT	IQUANT	1	Ach Select
ACHRANGE	IQUANT	2	Ach Range
ACHOFFSETENABLE	TOGGLE	F	Ach Offset Enable
ACHOFFSET	QUANT	0	Ach Offset (V)
ACHFILTER	IQUANT	1	Ach Filter
CABLEID	IQUANT	14	Cable ID
DCCALDATE	LABEL	20-10-2016	DC Calibration Date
ACCALDATE	LABEL	12/3/2015	AC Calibration Date
FRAMEWORKVERSION	QUANT	7.01	Framework Version
INSTRUMENTVERSION	LABEL	4.00	Instrument Version
CURVE	TABLE	55
	Pt	T	Vf	Im	Vu	Pwr	Sig	Ach	Temp	IERange	Over
	#	s	V	A	V	W	V	V	deg C	#	bits
	0	0.013333	6.47759E-001	5.99351E-003	0.00000E+000	3.88235E-003	3.59960E-001	-1.16291E+000	3.57640E+000	10	...........
	1	0.026667	6.56922E-001	5.99385E-003	0.00000E+000	3.93750E-003	3.59960E-001	-1.16268E+000	3.57640E+000	10	...........
	2	0.04	6.65332E-001	5.99371E-003	0.00000E+000	3.98780E-003	3.59960E-001	-1.17335E+000	3.57640E+000	10	...........
	3	0.053333	6.73331E-001	5.99363E-003	0.00000E+000	4.03570E-003	3.59960E-001	-1.16267E+000	3.57640E+000	10	...........
	4	0.066667	6.81087E-001	5.99087E-003	0.00000E+000	4.08031E-003	3.59960E-001	-1.16255E+000	3.57640E+000	10	...........
	5	0.08	6.88590E-001	5.99450E-003	0.00000E+000	4.12775E-003	3.59960E-001	-1.17314E+000	3.57640E+000	10	...........
	6	0.093333	6.95949E-001	5.99189E-003	0.00000E+000	4.17005E-003	3.59960E-001	-1.16259E+000	3.57640E+000	10	...........
	7	0.106667	7.03197E-001	5.99448E-003	0.00000E+000	4.21530E-003	3.59960E-001	-1.16255E+000	3.57640E+000	10	...........
	8	0.12	7.10356E-001	5.99157E-003	0.00000E+000	4.25615E-003	3.59960E-001	-1.17291E+000	3.57640E+000	10	...........
	9	0.133333	7.17422E-001	5.99239E-003	0.00000E+000	4.29908E-003	3.59960E-001	-1.16189E+000	3.57640E+000	10	...........
	10	0.146667	7.24486E-001	5.99144E-003	0.00000E+000	4.34072E-003	3.59960E-001	-1.16209E+000	3.57640E+000	10	...........
	11	0.16	7.31462E-001	5.99350E-003	0.00000E+000	4.38402E-003	3.59960E-001	-1.17266E+000	3.57640E+000	10	...........
	12	0.173333	7.38375E-001	5.99155E-003	0.00000E+000	4.42401E-003	3.59960E-001	-1.16177E+000	3.57640E+000	10	...........
	13	0.186667	7.45292E-001	5.99360E-003	0.00000E+000	4.46699E-003	3.59960E-001	-1.16208E+000	3.57640E+000	10	...........
	14	0.2	7.52165E-001	5.99277E-003	0.00000E+000	4.50755E-003	3.59960E-001	-1.17223E+000	3.57640E+000	10	...........
	15	0.213333	7.58974E-001	5.99408E-003	0.00000E+000	4.54935E-003	3.59960E-001	-1.16161E+000	3.57640E+000	10	...........
	16	0.226667	7.65720E-001	5.99206E-003	0.00000E+000	4.58824E-003	3.59960E-001	-1.16221E+000	3.57640E+000	10	...........
	17	0.24	7.72531E-001	5.99634E-003	0.00000E+000	4.63236E-003	3.59960E-001	-1.17235E+000	3.57640E+000	10	...........
	18	0.253333	7.79277E-001	5.99785E-003	0.00000E+000	4.67399E-003	3.59960E-001	-1.16150E+000	3.57640E+000	10	...........
	19	0.266667	7.85970E-001	5.99837E-003	0.00000E+000	4.71454E-003	3.59960E-001	-1.16211E+000	3.57640E+000	10	...........
	20	0.28	7.92639E-001	5.99138E-003	0.00000E+000	4.74900E-003	3.59960E-001	-1.17211E+000	3.57640E+000	10	...........
	21	0.293333	7.99351E-001	5.99372E-003	0.00000E+000	4.79109E-003	3.59960E-001	-1.16131E+000	3.57640E+000	10	...........
	22	0.306667	8.05946E-001	5.99349E-003	0.00000E+000	4.83043E-003	3.59960E-001	-1.16220E+000	3.57640E+000	10	...........
	23	0.32	8.12573E-001	5.99542E-003	0.00000E+000	4.87172E-003	3.59960E-001	-1.17210E+000	3.57640E+000	10	...........
	24	0.333333	8.19190E-001	5.99269E-003	0.00000E+000	4.90915E-003	3.59960E-001	-1.16122E+000	3.57640E+000	10	...........
	25	0.346667	8.25746E-001	5.99558E-003	0.00000E+000	4.95082E-003	3.59960E-001	-1.16228E+000	3.57640E+000	10	...........
	26	0.36	8.32296E-001	5.99240E-003	0.00000E+000	4.98745E-003	3.59960E-001	-1.17196E+000	3.57640E+000	10	...........
	27	0.373333	8.38828E-001	6.00094E-003	0.00000E+000	5.03375E-003	3.59960E-001	-1.16128E+000	3.57640E+000	10	...........
	28	0.386667	8.45349E-001	5.99748E-003	0.00000E+000	5.06997E-003	3.59960E-001	-1.16245E+000	3.57640E+000	10	...........
	29	0.4	8.51839E-001	5.99778E-003	0.00000E+000	5.10914E-003	3.59960E-001	-1.17198E+000	3.57640E+000	10	...........
	30	0.413333	8.58297E-001	5.99642E-003	0.00000E+000	5.14671E-003	3.59960E-001	-1.16112E+000	3.57640E+000	10	...........
	31	0.426667	8.64748E-001	5.99502E-003	0.00000E+000	5.18418E-003	3.59960E-001	-1.16239E+000	3.57649E+000	10	...........
	32	0.44	8.71161E-001	5.99026E-003	0.00000E+000	5.21848E-003	3.59960E-001	-1.17217E+000	3.57650E+000	10	...........
	33	0.453333	8.77484E-001	5.98965E-003	0.00000E+000	5.25582E-003	3.59960E-001	-1.16071E+000	3.57650E+000	10	...........
	34	0.466667	8.83849E-001	5.99829E-003	0.00000E+000	5.30158E-003	3.59960E-001	-1.16177E+000	3.57650E+000	10	...........
	35	0.48	8.90166E-001	5.99289E-003	0.00000E+000	5.33467E-003	3.59960E-001	-1.17127E+000	3.57650E+000	10	...........
	36	0.493333	8.96448E-001	5.99002E-003	0.00000E+000	5.36974E-003	3.59960E-001	-1.16051E+000	3.57650E+000	10	...........
	37	0.506667	9.02709E-001	5.99219E-003	0.00000E+000	5.40920E-003	3.59960E-001	-1.16217E+000	3.57650E+000	10	...........
	38	0.52	9.08932E-001	5.99412E-003	0.00000E+000	5.44824E-003	3.59960E-001	-1.17125E+000	3.57650E+000	10	...........
	39	0.533333	9.15128E-001	5.99717E-003	0.00000E+000	5.48818E-003	3.59960E-001	-1.16047E+000	3.57650E+000	10	...........
	40	0.546667	9.21331E-001	5.99594E-003	0.00000E+000	5.52425E-003	3.59960E-001	-1.16204E+000	3.57650E+000	10	...........
	41	0.56	9.27440E-001	5.99399E-003	0.00000E+000	5.55906E-003	3.59960E-001	-1.17117E+000	3.57650E+000	10	...........
	42	0.573333	9.33507E-001	5.99562E-003	0.00000E+000	5.59695E-003	3.59960E-001	-1.16038E+000	3.57650E+000	10	...........
	43	0.586667	9.39490E-001	5.99345E-003	0.00000E+000	5.63079E-003	3.59960E-001	-1.16219E+000	3.57650E+000	10	...........
	44	0.6	9.45493E-001	5.99426E-003	0.00000E+000	5.66753E-003	3.59960E-001	-1.17072E+000	3.57650E+000	10	...........
	45	0.613333	9.51424E-001	5.98805E-003	0.00000E+000	5.69718E-003	3.59960E-001	-1.15989E+000	3.57650E+000	10	...........
	46	0.626667	9.57271E-001	5.99128E-003	0.00000E+000	5.73527E-003	3.59960E-001	-1.16201E+000	3.57650E+000	10	...........
	47	0.64	9.63069E-001	5.99138E-003	0.00000E+000	5.77011E-003	3.59960E-001	-1.17074E+000	3.57650E+000	10	...........
	48	0.653333	9.68855E-001	5.99215E-003	0.00000E+000	5.80553E-003	3.59960E-001	-1.16007E+000	3.57650E+000	10	...........
	49	0.666667	9.74706E-001	5.99516E-003	0.00000E+000	5.84352E-003	3.59960E-001	-1.16193E+000	3.57650E+000	10	...........
	50	0.68	9.80422E-001	5.99365E-003	0.00000E+000	5.87630E-003	3.59960E-001	-1.17049E+000	3.57650E+000	10	...........
	51	0.693333	9.86025E-001	5.99223E-003	0.00000E+000	5.90849E-003	3.59960E-001	-1.15993E+000	3.57650E+000	10	...........
	52	0.706667	9.91617E-001	5.99685E-003	0.00000E+000	5.94658E-003	3.59960E-001	-1.16230E+000	3.57650E+000	10	...........
	53	0.72	9.97165E-001	5.99246E-003	0.00000E+000	5.97547E-003	3.59960E-001	-1.17037E+000	3.57650E+000	10	...........
	54	0.721667	1.00028E+000	5.99387E-003	0.00000E+000	5.99558E-003	3.59960E-001	-1.16185E+000	3.57650E+000	10	...........
STARTTIMEOFFSET	QUANT	1284.02	Start Time Offset (s)