File: Data/CV_CRGO300517_1/PWRCCD_CRGO300517_1/CHARGE_DISCHARGE/CHARGE_#274.DTA
EXPLAIN
TAG	PWR800_CHARGE
TITLE	LABEL	PWR Cyclic Charge Discharge (Cell) - Charge Step	Test &Identifier
DATE	LABEL	22-6-2017	Date
TIME	LABEL	15:46:52	Time
NOTES	NOTES	3	&Notes...
	supercap test cell
	0.6mg
	6M KOH
PSTAT	PSTAT	IFC5000-01520	Potentiostat
CAPACITY	QUANT	1.00000E-003	Capacity (A-hr)
CELLTYPE	SELECTOR	1	&Cell Type
WORKINGCONNECTION	SELECTOR	0	&Working Lead
MAXCHARGETIME	VARIABLEANDUNITS	1.00000E+002	s	1.00000E+002	second(s)	Max &Charge Time
CHARGECURRENT	QUANT	6.00000E-003	&Charge Current (A)
VOLTAGEFINISH	TWOPARAM	F	1.00000E-003	3.60000E+003	&Voltage Finish	 I (A) < 	Max Time(s)
SAMPLETIME	QUANT	1.00000E-002	Sa&mple Period (s)
CHARGESTOPAT1	MULTIPARAM	4	1.00000E+000	Charge Stop At &1	Voltage > Limit	V
CHARGESTOPAT2	MULTIPARAM	0	0.00000E+000	Charge Stop At &2	None	N/A
AESBHCSELECTOR	TOGGLE	F	Save Both Half Cells
IRCOMP	TOGGLE	F	IR &Measure
EOC	QUANT	0	Open Circuit (V)
SEQUENCER	TOGGLE	TRUE	Run as Sequence
PSTATMODEL	IQUANT	53	Pstat Model
PSTATSECTION	LABEL	IFC5000-01520	Pstat Section
PSTATSERIALNO	LABEL	01520	Pstat Serial Number
CTRLMODE	IQUANT	0	Control Mode
ELECTROMETER	IQUANT	1	RE=0 or CS=1
IESTAB	IQUANT	0	I/E Stability
CASPEED	IQUANT	4	Control Amp Speed
CONVENTION	IQUANT	1	Current Convention
ICHRANGE	IQUANT	2	Ich Range
ICHRANGEMODE	TOGGLE	T	Ich Auto Range
ICHOFFSETENABLE	TOGGLE	F	Ich Offset Enable
ICHOFFSET	QUANT	0	Ich Offset (V)
ICHFILTER	IQUANT	1	Ich Filter
VCHRANGE	IQUANT	2	Vch Range
VCHRANGEMODE	TOGGLE	T	Vch Auto Range
VCHOFFSETENABLE	TOGGLE	F	Vch Offset Enable
VCHOFFSET	QUANT	0	Vch Offset (V)
VCHFILTER	IQUANT	1	Vch Filter
IERANGELOWERLIMIT	IQUANT	9	I/E Range Lower Limit
IERANGEMODE	TOGGLE	F	I/E AutoRange
IERANGE	IQUANT	10	I/E Range
ACHSELECT	IQUANT	1	Ach Select
ACHRANGE	IQUANT	2	Ach Range
ACHOFFSETENABLE	TOGGLE	F	Ach Offset Enable
ACHOFFSET	QUANT	0	Ach Offset (V)
ACHFILTER	IQUANT	1	Ach Filter
CABLEID	IQUANT	14	Cable ID
DCCALDATE	LABEL	20-10-2016	DC Calibration Date
ACCALDATE	LABEL	12/3/2015	AC Calibration Date
FRAMEWORKVERSION	QUANT	7.01	Framework Version
INSTRUMENTVERSION	LABEL	4.00	Instrument Version
CURVE	TABLE	63
	Pt	T	Vf	Im	Vu	Pwr	Sig	Ach	Temp	IERange	Over
	#	s	V	A	V	W	V	V	deg C	#	bits
	0	0.013333	6.13965E-001	5.99495E-003	0.00000E+000	3.68069E-003	3.59960E-001	-1.11191E+000	3.57720E+000	10	...........
	1	0.026667	6.22554E-001	5.99407E-003	0.00000E+000	3.73164E-003	3.59960E-001	-1.10392E+000	3.57720E+000	10	...........
	2	0.04	6.30415E-001	5.99916E-003	0.00000E+000	3.78196E-003	3.59960E-001	-1.10196E+000	3.57720E+000	10	...........
	3	0.053333	6.37916E-001	5.99458E-003	0.00000E+000	3.82404E-003	3.59960E-001	-1.11184E+000	3.57720E+000	10	...........
	4	0.066667	6.45112E-001	5.99477E-003	0.00000E+000	3.86730E-003	3.59960E-001	-1.10381E+000	3.57720E+000	10	...........
	5	0.08	6.52088E-001	5.99277E-003	0.00000E+000	3.90781E-003	3.59960E-001	-1.10173E+000	3.57720E+000	10	...........
	6	0.093333	6.58960E-001	5.99508E-003	0.00000E+000	3.95052E-003	3.59960E-001	-1.11176E+000	3.57720E+000	10	...........
	7	0.106667	6.65707E-001	5.99286E-003	0.00000E+000	3.98949E-003	3.59960E-001	-1.10361E+000	3.57720E+000	10	...........
	8	0.12	6.72348E-001	5.99802E-003	0.00000E+000	4.03275E-003	3.59960E-001	-1.10165E+000	3.57720E+000	10	...........
	9	0.133333	6.78959E-001	6.00192E-003	0.00000E+000	4.07506E-003	3.59960E-001	-1.11163E+000	3.57720E+000	10	...........
	10	0.146667	6.85476E-001	5.99335E-003	0.00000E+000	4.10830E-003	3.59960E-001	-1.10384E+000	3.57720E+000	10	...........
	11	0.16	6.91983E-001	5.99566E-003	0.00000E+000	4.14889E-003	3.59960E-001	-1.10184E+000	3.57720E+000	10	...........
	12	0.173333	6.98446E-001	5.99171E-003	0.00000E+000	4.18488E-003	3.59960E-001	-1.11188E+000	3.57720E+000	10	...........
	13	0.186667	7.04890E-001	5.99649E-003	0.00000E+000	4.22687E-003	3.59960E-001	-1.10356E+000	3.57720E+000	10	...........
	14	0.2	7.11236E-001	5.99682E-003	0.00000E+000	4.26515E-003	3.59960E-001	-1.10166E+000	3.57720E+000	10	...........
	15	0.213333	7.17636E-001	5.98877E-003	0.00000E+000	4.29776E-003	3.59960E-001	-1.11144E+000	3.57720E+000	10	...........
	16	0.226667	7.23992E-001	5.99251E-003	0.00000E+000	4.33853E-003	3.59960E-001	-1.10328E+000	3.57720E+000	10	...........
	17	0.24	7.30289E-001	5.99449E-003	0.00000E+000	4.37771E-003	3.59960E-001	-1.10111E+000	3.57720E+000	10	...........
	18	0.253333	7.36625E-001	5.99539E-003	0.00000E+000	4.41635E-003	3.59960E-001	-1.11099E+000	3.57720E+000	10	...........
	19	0.266667	7.42964E-001	5.99684E-003	0.00000E+000	4.45543E-003	3.59960E-001	-1.10306E+000	3.57720E+000	10	...........
	20	0.28	7.49259E-001	6.00003E-003	0.00000E+000	4.49557E-003	3.59960E-001	-1.10095E+000	3.57720E+000	10	...........
	21	0.293333	7.55465E-001	5.99183E-003	0.00000E+000	4.52662E-003	3.59960E-001	-1.11055E+000	3.57720E+000	10	...........
	22	0.306667	7.61741E-001	5.99569E-003	0.00000E+000	4.56716E-003	3.59960E-001	-1.10268E+000	3.57720E+000	10	...........
	23	0.32	7.67971E-001	5.99400E-003	0.00000E+000	4.60322E-003	3.59960E-001	-1.10020E+000	3.57720E+000	10	...........
	24	0.333333	7.74216E-001	5.99629E-003	0.00000E+000	4.64242E-003	3.59960E-001	-1.10974E+000	3.57720E+000	10	...........
	25	0.346667	7.80409E-001	5.99129E-003	0.00000E+000	4.67566E-003	3.59960E-001	-1.10167E+000	3.57720E+000	10	...........
	26	0.36	7.86623E-001	5.99102E-003	0.00000E+000	4.71267E-003	3.59960E-001	-1.09929E+000	3.57720E+000	10	...........
	27	0.373333	7.92842E-001	5.99340E-003	0.00000E+000	4.75182E-003	3.59960E-001	-1.10881E+000	3.57720E+000	10	...........
	28	0.386667	7.99040E-001	5.99453E-003	0.00000E+000	4.78987E-003	3.59960E-001	-1.10076E+000	3.57720E+000	10	...........
	29	0.4	8.05216E-001	5.99221E-003	0.00000E+000	4.82502E-003	3.59960E-001	-1.09850E+000	3.57720E+000	10	...........
	30	0.413333	8.11352E-001	5.99576E-003	0.00000E+000	4.86467E-003	3.59960E-001	-1.10837E+000	3.57720E+000	10	...........
	31	0.426667	8.17522E-001	5.99214E-003	0.00000E+000	4.89871E-003	3.59960E-001	-1.10080E+000	3.57720E+000	10	...........
	32	0.44	8.23671E-001	5.99244E-003	0.00000E+000	4.93580E-003	3.59960E-001	-1.09859E+000	3.57720E+000	10	...........
	33	0.453333	8.29842E-001	5.99495E-003	0.00000E+000	4.97486E-003	3.59960E-001	-1.10822E+000	3.57720E+000	10	...........
	34	0.466667	8.36001E-001	5.99312E-003	0.00000E+000	5.01026E-003	3.59960E-001	-1.10074E+000	3.57720E+000	10	...........
	35	0.48	8.42109E-001	5.99735E-003	0.00000E+000	5.05042E-003	3.59960E-001	-1.09893E+000	3.57720E+000	10	...........
	36	0.493333	8.48233E-001	5.99283E-003	0.00000E+000	5.08332E-003	3.59960E-001	-1.10865E+000	3.57720E+000	10	...........
	37	0.506667	8.54349E-001	5.99543E-003	0.00000E+000	5.12219E-003	3.59960E-001	-1.10116E+000	3.57720E+000	10	...........
	38	0.52	8.60445E-001	5.99840E-003	0.00000E+000	5.16129E-003	3.59960E-001	-1.09870E+000	3.57720E+000	10	...........
	39	0.533333	8.66502E-001	5.99708E-003	0.00000E+000	5.19648E-003	3.59960E-001	-1.10874E+000	3.57720E+000	10	...........
	40	0.546667	8.72568E-001	5.99130E-003	0.00000E+000	5.22782E-003	3.59960E-001	-1.10144E+000	3.57720E+000	10	...........
	41	0.56	8.78610E-001	5.99270E-003	0.00000E+000	5.26525E-003	3.59960E-001	-1.09945E+000	3.57720E+000	10	...........
	42	0.573333	8.84674E-001	5.99214E-003	0.00000E+000	5.30109E-003	3.59960E-001	-1.10925E+000	3.57720E+000	10	...........
	43	0.586667	8.90682E-001	5.99212E-003	0.00000E+000	5.33708E-003	3.59960E-001	-1.10196E+000	3.57720E+000	10	...........
	44	0.6	8.96619E-001	5.99039E-003	0.00000E+000	5.37110E-003	3.59960E-001	-1.09987E+000	3.57720E+000	10	...........
	45	0.613333	9.02609E-001	5.99787E-003	0.00000E+000	5.41373E-003	3.59960E-001	-1.11012E+000	3.57720E+000	10	...........
	46	0.626667	9.08583E-001	5.99472E-003	0.00000E+000	5.44670E-003	3.59960E-001	-1.10292E+000	3.57720E+000	10	...........
	47	0.64	9.14466E-001	5.99482E-003	0.00000E+000	5.48206E-003	3.59960E-001	-1.10082E+000	3.57720E+000	10	...........
	48	0.653333	9.20392E-001	5.99496E-003	0.00000E+000	5.51771E-003	3.59960E-001	-1.11072E+000	3.57720E+000	10	...........
	49	0.666667	9.26269E-001	5.99414E-003	0.00000E+000	5.55218E-003	3.59960E-001	-1.10348E+000	3.57720E+000	10	...........
	50	0.68	9.32110E-001	5.99842E-003	0.00000E+000	5.59119E-003	3.59960E-001	-1.10139E+000	3.57720E+000	10	...........
	51	0.693333	9.37907E-001	5.99618E-003	0.00000E+000	5.62386E-003	3.59960E-001	-1.11141E+000	3.57720E+000	10	...........
	52	0.706667	9.43678E-001	5.99551E-003	0.00000E+000	5.65783E-003	3.59960E-001	-1.10449E+000	3.57720E+000	10	...........
	53	0.72	9.49438E-001	5.99405E-003	0.00000E+000	5.69098E-003	3.59960E-001	-1.10205E+000	3.57720E+000	10	...........
	54	0.733333	9.55156E-001	5.99109E-003	0.00000E+000	5.72243E-003	3.59960E-001	-1.11210E+000	3.57720E+000	10	...........
	55	0.746667	9.60833E-001	5.99584E-003	0.00000E+000	5.76100E-003	3.59960E-001	-1.10484E+000	3.57720E+000	10	...........
	56	0.76	9.66465E-001	5.99047E-003	0.00000E+000	5.78959E-003	3.59960E-001	-1.10258E+000	3.57720E+000	10	...........
	57	0.773333	9.72099E-001	5.99645E-003	0.00000E+000	5.82914E-003	3.59960E-001	-1.11236E+000	3.57720E+000	10	...........
	58	0.786667	9.77678E-001	5.99304E-003	0.00000E+000	5.85926E-003	3.59960E-001	-1.10500E+000	3.57720E+000	10	...........
	59	0.8	9.83178E-001	5.99425E-003	0.00000E+000	5.89341E-003	3.59960E-001	-1.10265E+000	3.57720E+000	10	...........
	60	0.813333	9.88665E-001	5.99305E-003	0.00000E+000	5.92512E-003	3.59960E-001	-1.11279E+000	3.57720E+000	10	...........
	61	0.826667	9.94094E-001	5.99447E-003	0.00000E+000	5.95907E-003	3.59960E-001	-1.10496E+000	3.57720E+000	10	...........
	62	0.836667	9.98864E-001	5.99773E-003	0.00000E+000	5.99091E-003	3.59960E-001	-1.10354E+000	3.57720E+000	10	...........
STARTTIMEOFFSET	QUANT	498.1034	Start Time Offset (s)