File: Data/CV_CRGO300517_1/PWRCCD_CRGO300517_1/CHARGE_DISCHARGE/CHARGE_#809.DTA
EXPLAIN
TAG	PWR800_CHARGE
TITLE	LABEL	PWR Cyclic Charge Discharge (Cell) - Charge Step	Test &Identifier
DATE	LABEL	22-6-2017	Date
TIME	LABEL	16:07:37	Time
NOTES	NOTES	3	&Notes...
	supercap test cell
	0.6mg
	6M KOH
PSTAT	PSTAT	IFC5000-01520	Potentiostat
CAPACITY	QUANT	1.00000E-003	Capacity (A-hr)
CELLTYPE	SELECTOR	1	&Cell Type
WORKINGCONNECTION	SELECTOR	0	&Working Lead
MAXCHARGETIME	VARIABLEANDUNITS	1.00000E+002	s	1.00000E+002	second(s)	Max &Charge Time
CHARGECURRENT	QUANT	6.00000E-003	&Charge Current (A)
VOLTAGEFINISH	TWOPARAM	F	1.00000E-003	3.60000E+003	&Voltage Finish	 I (A) < 	Max Time(s)
SAMPLETIME	QUANT	1.00000E-002	Sa&mple Period (s)
CHARGESTOPAT1	MULTIPARAM	4	1.00000E+000	Charge Stop At &1	Voltage > Limit	V
CHARGESTOPAT2	MULTIPARAM	0	0.00000E+000	Charge Stop At &2	None	N/A
AESBHCSELECTOR	TOGGLE	F	Save Both Half Cells
IRCOMP	TOGGLE	F	IR &Measure
EOC	QUANT	0	Open Circuit (V)
SEQUENCER	TOGGLE	TRUE	Run as Sequence
PSTATMODEL	IQUANT	53	Pstat Model
PSTATSECTION	LABEL	IFC5000-01520	Pstat Section
PSTATSERIALNO	LABEL	01520	Pstat Serial Number
CTRLMODE	IQUANT	0	Control Mode
ELECTROMETER	IQUANT	1	RE=0 or CS=1
IESTAB	IQUANT	0	I/E Stability
CASPEED	IQUANT	4	Control Amp Speed
CONVENTION	IQUANT	1	Current Convention
ICHRANGE	IQUANT	2	Ich Range
ICHRANGEMODE	TOGGLE	T	Ich Auto Range
ICHOFFSETENABLE	TOGGLE	F	Ich Offset Enable
ICHOFFSET	QUANT	0	Ich Offset (V)
ICHFILTER	IQUANT	1	Ich Filter
VCHRANGE	IQUANT	2	Vch Range
VCHRANGEMODE	TOGGLE	T	Vch Auto Range
VCHOFFSETENABLE	TOGGLE	F	Vch Offset Enable
VCHOFFSET	QUANT	0	Vch Offset (V)
VCHFILTER	IQUANT	1	Vch Filter
IERANGELOWERLIMIT	IQUANT	9	I/E Range Lower Limit
IERANGEMODE	TOGGLE	F	I/E AutoRange
IERANGE	IQUANT	10	I/E Range
ACHSELECT	IQUANT	1	Ach Select
ACHRANGE	IQUANT	2	Ach Range
ACHOFFSETENABLE	TOGGLE	F	Ach Offset Enable
ACHOFFSET	QUANT	0	Ach Offset (V)
ACHFILTER	IQUANT	1	Ach Filter
CABLEID	IQUANT	14	Cable ID
DCCALDATE	LABEL	20-10-2016	DC Calibration Date
ACCALDATE	LABEL	12/3/2015	AC Calibration Date
FRAMEWORKVERSION	QUANT	7.01	Framework Version
INSTRUMENTVERSION	LABEL	4.00	Instrument Version
CURVE	TABLE	54
	Pt	T	Vf	Im	Vu	Pwr	Sig	Ach	Temp	IERange	Over
	#	s	V	A	V	W	V	V	deg C	#	bits
	0	0.013333	6.49264E-001	5.99831E-003	0.00000E+000	3.89449E-003	3.59960E-001	-1.15562E+000	3.57780E+000	10	...........
	1	0.026667	6.58468E-001	5.98965E-003	0.00000E+000	3.94399E-003	3.59960E-001	-1.16576E+000	3.57780E+000	10	...........
	2	0.04	6.66931E-001	5.99421E-003	0.00000E+000	3.99772E-003	3.59960E-001	-1.15475E+000	3.57780E+000	10	...........
	3	0.053333	6.74921E-001	5.99133E-003	0.00000E+000	4.04368E-003	3.59960E-001	-1.15515E+000	3.57780E+000	10	...........
	4	0.066667	6.82640E-001	5.99296E-003	0.00000E+000	4.09104E-003	3.59960E-001	-1.16570E+000	3.57780E+000	10	...........
	5	0.08	6.90139E-001	5.98948E-003	0.00000E+000	4.13358E-003	3.59960E-001	-1.15514E+000	3.57780E+000	10	...........
	6	0.093333	6.97531E-001	5.99075E-003	0.00000E+000	4.17873E-003	3.59960E-001	-1.15497E+000	3.57780E+000	10	...........
	7	0.106667	7.04787E-001	5.99327E-003	0.00000E+000	4.22398E-003	3.59960E-001	-1.16528E+000	3.57780E+000	10	...........
	8	0.12	7.11966E-001	5.99359E-003	0.00000E+000	4.26724E-003	3.59960E-001	-1.15450E+000	3.57780E+000	10	...........
	9	0.133333	7.19104E-001	5.99796E-003	0.00000E+000	4.31316E-003	3.59960E-001	-1.15524E+000	3.57780E+000	10	...........
	10	0.146667	7.26100E-001	5.99407E-003	0.00000E+000	4.35230E-003	3.59960E-001	-1.16539E+000	3.57780E+000	10	...........
	11	0.16	7.33082E-001	5.99179E-003	0.00000E+000	4.39247E-003	3.59960E-001	-1.15445E+000	3.57780E+000	10	...........
	12	0.173333	7.40017E-001	5.99849E-003	0.00000E+000	4.43898E-003	3.59960E-001	-1.15460E+000	3.57780E+000	10	...........
	13	0.186667	7.46887E-001	5.99669E-003	0.00000E+000	4.47885E-003	3.59960E-001	-1.16506E+000	3.57780E+000	10	...........
	14	0.2	7.53737E-001	5.99286E-003	0.00000E+000	4.51704E-003	3.59960E-001	-1.15477E+000	3.57780E+000	10	...........
	15	0.213333	7.60578E-001	5.99477E-003	0.00000E+000	4.55949E-003	3.59960E-001	-1.15508E+000	3.57780E+000	10	...........
	16	0.226667	7.67359E-001	5.99513E-003	0.00000E+000	4.60042E-003	3.59960E-001	-1.16532E+000	3.57780E+000	10	...........
	17	0.24	7.74128E-001	5.99365E-003	0.00000E+000	4.63985E-003	3.59960E-001	-1.15435E+000	3.57780E+000	10	...........
	18	0.253333	7.80873E-001	5.99521E-003	0.00000E+000	4.68150E-003	3.59960E-001	-1.15471E+000	3.57780E+000	10	...........
	19	0.266667	7.87605E-001	5.99183E-003	0.00000E+000	4.71920E-003	3.59960E-001	-1.16544E+000	3.57780E+000	10	...........
	20	0.28	7.94307E-001	5.98732E-003	0.00000E+000	4.75577E-003	3.59960E-001	-1.15482E+000	3.57780E+000	10	...........
	21	0.293333	8.00972E-001	5.99392E-003	0.00000E+000	4.80096E-003	3.59960E-001	-1.15491E+000	3.57780E+000	10	...........
	22	0.306667	8.07620E-001	5.99313E-003	0.00000E+000	4.84018E-003	3.59960E-001	-1.16509E+000	3.57780E+000	10	...........
	23	0.32	8.14198E-001	5.99314E-003	0.00000E+000	4.87961E-003	3.59960E-001	-1.15444E+000	3.57780E+000	10	...........
	24	0.333333	8.20795E-001	5.99334E-003	0.00000E+000	4.91931E-003	3.59960E-001	-1.15457E+000	3.57780E+000	10	...........
	25	0.346667	8.27358E-001	5.99359E-003	0.00000E+000	4.95885E-003	3.59960E-001	-1.16499E+000	3.57780E+000	10	...........
	26	0.36	8.33945E-001	5.98889E-003	0.00000E+000	4.99440E-003	3.59960E-001	-1.15417E+000	3.57780E+000	10	...........
	27	0.373333	8.40468E-001	5.99089E-003	0.00000E+000	5.03515E-003	3.59960E-001	-1.15432E+000	3.57780E+000	10	...........
	28	0.386667	8.46970E-001	5.99501E-003	0.00000E+000	5.07759E-003	3.59960E-001	-1.16486E+000	3.57780E+000	10	...........
	29	0.4	8.53431E-001	5.99221E-003	0.00000E+000	5.11393E-003	3.59960E-001	-1.15434E+000	3.57780E+000	10	...........
	30	0.413333	8.59878E-001	5.99045E-003	0.00000E+000	5.15106E-003	3.59960E-001	-1.15467E+000	3.57780E+000	10	...........
	31	0.426667	8.66303E-001	5.99540E-003	0.00000E+000	5.19383E-003	3.59960E-001	-1.16501E+000	3.57780E+000	10	...........
	32	0.44	8.72737E-001	5.99466E-003	0.00000E+000	5.23176E-003	3.59960E-001	-1.15399E+000	3.57780E+000	10	...........
	33	0.453333	8.79137E-001	5.99140E-003	0.00000E+000	5.26726E-003	3.59960E-001	-1.15417E+000	3.57780E+000	10	...........
	34	0.466667	8.85505E-001	5.99491E-003	0.00000E+000	5.30852E-003	3.59960E-001	-1.16497E+000	3.57780E+000	10	...........
	35	0.48	8.91821E-001	5.99723E-003	0.00000E+000	5.34846E-003	3.59960E-001	-1.15426E+000	3.57780E+000	10	...........
	36	0.493333	8.98120E-001	5.99279E-003	0.00000E+000	5.38224E-003	3.59960E-001	-1.15447E+000	3.57780E+000	10	...........
	37	0.506667	9.04355E-001	5.99042E-003	0.00000E+000	5.41747E-003	3.59960E-001	-1.16466E+000	3.57780E+000	10	...........
	38	0.52	9.10593E-001	5.99659E-003	0.00000E+000	5.46045E-003	3.59960E-001	-1.15387E+000	3.57780E+000	10	...........
	39	0.533333	9.16757E-001	5.99518E-003	0.00000E+000	5.49612E-003	3.59960E-001	-1.15461E+000	3.57780E+000	10	...........
	40	0.546667	9.22924E-001	5.99420E-003	0.00000E+000	5.53219E-003	3.59960E-001	-1.16541E+000	3.57780E+000	10	...........
	41	0.56	9.29003E-001	5.99228E-003	0.00000E+000	5.56684E-003	3.59960E-001	-1.15438E+000	3.57780E+000	10	...........
	42	0.573333	9.35030E-001	5.99441E-003	0.00000E+000	5.60495E-003	3.59960E-001	-1.15472E+000	3.57780E+000	10	...........
	43	0.586667	9.41028E-001	5.99001E-003	0.00000E+000	5.63677E-003	3.59960E-001	-1.16528E+000	3.57780E+000	10	...........
	44	0.6	9.46978E-001	5.99859E-003	0.00000E+000	5.68053E-003	3.59960E-001	-1.15464E+000	3.57780E+000	10	...........
	45	0.613333	9.52928E-001	5.99544E-003	0.00000E+000	5.71322E-003	3.59960E-001	-1.15508E+000	3.57780E+000	10	...........
	46	0.626667	9.58801E-001	5.99657E-003	0.00000E+000	5.74951E-003	3.59960E-001	-1.16542E+000	3.57780E+000	10	...........
	47	0.64	9.64592E-001	5.99445E-003	0.00000E+000	5.78220E-003	3.59960E-001	-1.15460E+000	3.57780E+000	10	...........
	48	0.653333	9.70361E-001	5.99329E-003	0.00000E+000	5.81565E-003	3.59960E-001	-1.15492E+000	3.57780E+000	10	...........
	49	0.666667	9.76111E-001	5.99249E-003	0.00000E+000	5.84934E-003	3.59960E-001	-1.16541E+000	3.57780E+000	10	...........
	50	0.68	9.81762E-001	5.98970E-003	0.00000E+000	5.88046E-003	3.59960E-001	-1.15469E+000	3.57780E+000	10	...........
	51	0.693333	9.87407E-001	5.99674E-003	0.00000E+000	5.92123E-003	3.59960E-001	-1.15505E+000	3.57780E+000	10	...........
	52	0.706667	9.92988E-001	5.99351E-003	0.00000E+000	5.95148E-003	3.59960E-001	-1.16521E+000	3.57780E+000	10	...........
	53	0.718333	9.98203E-001	5.99418E-003	0.00000E+000	5.98342E-003	3.59960E-001	-1.15255E+000	3.57780E+000	10	...........
STARTTIMEOFFSET	QUANT	1317.012	Start Time Offset (s)