File: Data/CV_CRGO300517_1/PWRCCD_CRGO300517_1/CHARGE_DISCHARGE/CHARGE_#151.DTA
EXPLAIN
TAG	PWR800_CHARGE
TITLE	LABEL	PWR Cyclic Charge Discharge (Cell) - Charge Step	Test &Identifier
DATE	LABEL	22-6-2017	Date
TIME	LABEL	15:41:44	Time
NOTES	NOTES	3	&Notes...
	supercap test cell
	0.6mg
	6M KOH
PSTAT	PSTAT	IFC5000-01520	Potentiostat
CAPACITY	QUANT	1.00000E-003	Capacity (A-hr)
CELLTYPE	SELECTOR	1	&Cell Type
WORKINGCONNECTION	SELECTOR	0	&Working Lead
MAXCHARGETIME	VARIABLEANDUNITS	1.00000E+002	s	1.00000E+002	second(s)	Max &Charge Time
CHARGECURRENT	QUANT	6.00000E-003	&Charge Current (A)
VOLTAGEFINISH	TWOPARAM	F	1.00000E-003	3.60000E+003	&Voltage Finish	 I (A) < 	Max Time(s)
SAMPLETIME	QUANT	1.00000E-002	Sa&mple Period (s)
CHARGESTOPAT1	MULTIPARAM	4	1.00000E+000	Charge Stop At &1	Voltage > Limit	V
CHARGESTOPAT2	MULTIPARAM	0	0.00000E+000	Charge Stop At &2	None	N/A
AESBHCSELECTOR	TOGGLE	F	Save Both Half Cells
IRCOMP	TOGGLE	F	IR &Measure
EOC	QUANT	0	Open Circuit (V)
SEQUENCER	TOGGLE	TRUE	Run as Sequence
PSTATMODEL	IQUANT	53	Pstat Model
PSTATSECTION	LABEL	IFC5000-01520	Pstat Section
PSTATSERIALNO	LABEL	01520	Pstat Serial Number
CTRLMODE	IQUANT	0	Control Mode
ELECTROMETER	IQUANT	1	RE=0 or CS=1
IESTAB	IQUANT	0	I/E Stability
CASPEED	IQUANT	4	Control Amp Speed
CONVENTION	IQUANT	1	Current Convention
ICHRANGE	IQUANT	2	Ich Range
ICHRANGEMODE	TOGGLE	T	Ich Auto Range
ICHOFFSETENABLE	TOGGLE	F	Ich Offset Enable
ICHOFFSET	QUANT	0	Ich Offset (V)
ICHFILTER	IQUANT	1	Ich Filter
VCHRANGE	IQUANT	2	Vch Range
VCHRANGEMODE	TOGGLE	T	Vch Auto Range
VCHOFFSETENABLE	TOGGLE	F	Vch Offset Enable
VCHOFFSET	QUANT	0	Vch Offset (V)
VCHFILTER	IQUANT	1	Vch Filter
IERANGELOWERLIMIT	IQUANT	9	I/E Range Lower Limit
IERANGEMODE	TOGGLE	F	I/E AutoRange
IERANGE	IQUANT	10	I/E Range
ACHSELECT	IQUANT	1	Ach Select
ACHRANGE	IQUANT	2	Ach Range
ACHOFFSETENABLE	TOGGLE	F	Ach Offset Enable
ACHOFFSET	QUANT	0	Ach Offset (V)
ACHFILTER	IQUANT	1	Ach Filter
CABLEID	IQUANT	14	Cable ID
DCCALDATE	LABEL	20-10-2016	DC Calibration Date
ACCALDATE	LABEL	12/3/2015	AC Calibration Date
FRAMEWORKVERSION	QUANT	7.01	Framework Version
INSTRUMENTVERSION	LABEL	4.00	Instrument Version
CURVE	TABLE	67
	Pt	T	Vf	Im	Vu	Pwr	Sig	Ach	Temp	IERange	Over
	#	s	V	A	V	W	V	V	deg C	#	bits
	0	0.013333	5.98361E-001	5.99503E-003	0.00000E+000	3.58719E-003	3.59960E-001	-1.06830E+000	3.57690E+000	10	...........
	1	0.026667	6.06734E-001	5.99113E-003	0.00000E+000	3.63502E-003	3.59960E-001	-1.07456E+000	3.57690E+000	10	...........
	2	0.04	6.14488E-001	5.99368E-003	0.00000E+000	3.68304E-003	3.59960E-001	-1.07686E+000	3.57690E+000	10	...........
	3	0.053333	6.21772E-001	5.99311E-003	0.00000E+000	3.72635E-003	3.59960E-001	-1.06856E+000	3.57690E+000	10	...........
	4	0.066667	6.28785E-001	5.99433E-003	0.00000E+000	3.76915E-003	3.59960E-001	-1.07424E+000	3.57690E+000	10	...........
	5	0.08	6.35607E-001	5.99524E-003	0.00000E+000	3.81062E-003	3.59960E-001	-1.07618E+000	3.57690E+000	10	...........
	6	0.093333	6.42293E-001	5.99502E-003	0.00000E+000	3.85056E-003	3.59960E-001	-1.06774E+000	3.57690E+000	10	...........
	7	0.106667	6.48815E-001	5.99328E-003	0.00000E+000	3.88853E-003	3.59960E-001	-1.07400E+000	3.57690E+000	10	...........
	8	0.12	6.55300E-001	5.99613E-003	0.00000E+000	3.92926E-003	3.59960E-001	-1.07654E+000	3.57690E+000	10	...........
	9	0.133333	6.61725E-001	5.99843E-003	0.00000E+000	3.96931E-003	3.59960E-001	-1.06791E+000	3.57690E+000	10	...........
	10	0.146667	6.68129E-001	5.99658E-003	0.00000E+000	4.00649E-003	3.59960E-001	-1.07376E+000	3.57690E+000	10	...........
	11	0.16	6.74404E-001	5.99625E-003	0.00000E+000	4.04389E-003	3.59960E-001	-1.07633E+000	3.57690E+000	10	...........
	12	0.173333	6.80658E-001	5.99534E-003	0.00000E+000	4.08078E-003	3.59960E-001	-1.06790E+000	3.57690E+000	10	...........
	13	0.186667	6.86881E-001	5.99233E-003	0.00000E+000	4.11602E-003	3.59960E-001	-1.07405E+000	3.57690E+000	10	...........
	14	0.2	6.93082E-001	5.99723E-003	0.00000E+000	4.15657E-003	3.59960E-001	-1.07621E+000	3.57690E+000	10	...........
	15	0.213333	6.99213E-001	5.99652E-003	0.00000E+000	4.19285E-003	3.59960E-001	-1.06762E+000	3.57710E+000	10	...........
	16	0.226667	7.05345E-001	5.99386E-003	0.00000E+000	4.22774E-003	3.59960E-001	-1.07371E+000	3.57710E+000	10	...........
	17	0.24	7.11486E-001	5.99764E-003	0.00000E+000	4.26724E-003	3.59960E-001	-1.07648E+000	3.57710E+000	10	...........
	18	0.253333	7.17615E-001	5.99235E-003	0.00000E+000	4.30020E-003	3.59960E-001	-1.06780E+000	3.57710E+000	10	...........
	19	0.266667	7.23744E-001	5.99586E-003	0.00000E+000	4.33947E-003	3.59960E-001	-1.07375E+000	3.57710E+000	10	...........
	20	0.28	7.29819E-001	5.99216E-003	0.00000E+000	4.37320E-003	3.59960E-001	-1.07636E+000	3.57710E+000	10	...........
	21	0.293333	7.35849E-001	5.99357E-003	0.00000E+000	4.41036E-003	3.59960E-001	-1.06804E+000	3.57710E+000	10	...........
	22	0.306667	7.41911E-001	5.99988E-003	0.00000E+000	4.45138E-003	3.59960E-001	-1.07408E+000	3.57710E+000	10	...........
	23	0.32	7.47980E-001	5.99105E-003	0.00000E+000	4.48118E-003	3.59960E-001	-1.07689E+000	3.57710E+000	10	...........
	24	0.333333	7.54046E-001	5.99515E-003	0.00000E+000	4.52061E-003	3.59960E-001	-1.06801E+000	3.57710E+000	10	...........
	25	0.346667	7.60112E-001	5.99296E-003	0.00000E+000	4.55532E-003	3.59960E-001	-1.07374E+000	3.57710E+000	10	...........
	26	0.36	7.66158E-001	5.99164E-003	0.00000E+000	4.59054E-003	3.59960E-001	-1.07634E+000	3.57710E+000	10	...........
	27	0.373333	7.72186E-001	5.99700E-003	0.00000E+000	4.63080E-003	3.59960E-001	-1.06814E+000	3.57710E+000	10	...........
	28	0.386667	7.78232E-001	5.99688E-003	0.00000E+000	4.66696E-003	3.59960E-001	-1.07394E+000	3.57710E+000	10	...........
	29	0.4	7.84256E-001	5.98977E-003	0.00000E+000	4.69751E-003	3.59960E-001	-1.07634E+000	3.57710E+000	10	...........
	30	0.413333	7.90239E-001	5.99395E-003	0.00000E+000	4.73665E-003	3.59960E-001	-1.06744E+000	3.57710E+000	10	...........
	31	0.426667	7.96296E-001	5.99319E-003	0.00000E+000	4.77235E-003	3.59960E-001	-1.07351E+000	3.57710E+000	10	...........
	32	0.44	8.02273E-001	5.99520E-003	0.00000E+000	4.80979E-003	3.59960E-001	-1.07636E+000	3.57710E+000	10	...........
	33	0.453333	8.08274E-001	5.99694E-003	0.00000E+000	4.84717E-003	3.59960E-001	-1.06785E+000	3.57710E+000	10	...........
	34	0.466667	8.14242E-001	5.99567E-003	0.00000E+000	4.88192E-003	3.59960E-001	-1.07348E+000	3.57710E+000	10	...........
	35	0.48	8.20233E-001	5.99094E-003	0.00000E+000	4.91397E-003	3.59960E-001	-1.07608E+000	3.57710E+000	10	...........
	36	0.493333	8.26192E-001	5.99094E-003	0.00000E+000	4.94967E-003	3.59960E-001	-1.06751E+000	3.57710E+000	10	...........
	37	0.506667	8.32163E-001	5.99203E-003	0.00000E+000	4.98635E-003	3.59960E-001	-1.07352E+000	3.57710E+000	10	...........
	38	0.52	8.38134E-001	5.99333E-003	0.00000E+000	5.02322E-003	3.59960E-001	-1.07648E+000	3.57710E+000	10	...........
	39	0.533333	8.44130E-001	5.99550E-003	0.00000E+000	5.06098E-003	3.59960E-001	-1.06781E+000	3.57710E+000	10	...........
	40	0.546667	8.50089E-001	5.99668E-003	0.00000E+000	5.09771E-003	3.59960E-001	-1.07332E+000	3.57710E+000	10	...........
	41	0.56	8.56028E-001	5.99483E-003	0.00000E+000	5.13175E-003	3.59960E-001	-1.07621E+000	3.57710E+000	10	...........
	42	0.573333	8.61955E-001	5.99487E-003	0.00000E+000	5.16731E-003	3.59960E-001	-1.06781E+000	3.57710E+000	10	...........
	43	0.586667	8.67859E-001	5.99834E-003	0.00000E+000	5.20571E-003	3.59960E-001	-1.07354E+000	3.57710E+000	10	...........
	44	0.6	8.73767E-001	5.99150E-003	0.00000E+000	5.23517E-003	3.59960E-001	-1.07659E+000	3.57710E+000	10	...........
	45	0.613333	8.79688E-001	5.99553E-003	0.00000E+000	5.27420E-003	3.59960E-001	-1.06758E+000	3.57710E+000	10	...........
	46	0.626667	8.85575E-001	5.99836E-003	0.00000E+000	5.31200E-003	3.59960E-001	-1.07345E+000	3.57710E+000	10	...........
	47	0.64	8.91423E-001	5.99415E-003	0.00000E+000	5.34332E-003	3.59960E-001	-1.07659E+000	3.57710E+000	10	...........
	48	0.653333	8.97273E-001	5.99414E-003	0.00000E+000	5.37838E-003	3.59960E-001	-1.06807E+000	3.57710E+000	10	...........
	49	0.666667	9.03112E-001	5.99624E-003	0.00000E+000	5.41528E-003	3.59960E-001	-1.07332E+000	3.57710E+000	10	...........
	50	0.68	9.08902E-001	5.99243E-003	0.00000E+000	5.44652E-003	3.59960E-001	-1.07638E+000	3.57710E+000	10	...........
	51	0.693333	9.14666E-001	5.99580E-003	0.00000E+000	5.48416E-003	3.59960E-001	-1.06767E+000	3.57710E+000	10	...........
	52	0.706667	9.20486E-001	5.99865E-003	0.00000E+000	5.52167E-003	3.59960E-001	-1.07329E+000	3.57710E+000	10	...........
	53	0.72	9.26270E-001	5.99700E-003	0.00000E+000	5.55485E-003	3.59960E-001	-1.07610E+000	3.57710E+000	10	...........
	54	0.733333	9.32015E-001	5.99883E-003	0.00000E+000	5.59100E-003	3.59960E-001	-1.06717E+000	3.57710E+000	10	...........
	55	0.746667	9.37725E-001	5.99242E-003	0.00000E+000	5.61924E-003	3.59960E-001	-1.07259E+000	3.57710E+000	10	...........
	56	0.76	9.43416E-001	5.99701E-003	0.00000E+000	5.65768E-003	3.59960E-001	-1.07607E+000	3.57710E+000	10	...........
	57	0.773333	9.49090E-001	5.99892E-003	0.00000E+000	5.69352E-003	3.59960E-001	-1.06736E+000	3.57710E+000	10	...........
	58	0.786667	9.54765E-001	5.99579E-003	0.00000E+000	5.72457E-003	3.59960E-001	-1.07294E+000	3.57710E+000	10	...........
	59	0.8	9.60322E-001	5.99452E-003	0.00000E+000	5.75667E-003	3.59960E-001	-1.07591E+000	3.57710E+000	10	...........
	60	0.813333	9.65856E-001	5.99627E-003	0.00000E+000	5.79154E-003	3.59960E-001	-1.06725E+000	3.57710E+000	10	...........
	61	0.826667	9.71418E-001	5.99433E-003	0.00000E+000	5.82301E-003	3.59960E-001	-1.07261E+000	3.57710E+000	10	...........
	62	0.84	9.76939E-001	5.99408E-003	0.00000E+000	5.85586E-003	3.59960E-001	-1.07605E+000	3.57710E+000	10	...........
	63	0.853333	9.82377E-001	5.99417E-003	0.00000E+000	5.88853E-003	3.59960E-001	-1.06739E+000	3.57710E+000	10	...........
	64	0.866667	9.87808E-001	5.99395E-003	0.00000E+000	5.92087E-003	3.59960E-001	-1.07275E+000	3.57710E+000	10	...........
	65	0.88	9.93189E-001	5.99067E-003	0.00000E+000	5.94987E-003	3.59960E-001	-1.07596E+000	3.57710E+000	10	...........
	66	0.891667	9.98193E-001	5.99482E-003	0.00000E+000	5.98399E-003	3.59960E-001	-1.06546E+000	3.57710E+000	10	...........
STARTTIMEOFFSET	QUANT	287.3834	Start Time Offset (s)