File: Data/CV_CRGO300517_1/PWRCCD_CRGO300517_1/CHARGE_DISCHARGE/CHARGE_#436.DTA
EXPLAIN
TAG	PWR800_CHARGE
TITLE	LABEL	PWR Cyclic Charge Discharge (Cell) - Charge Step	Test &Identifier
DATE	LABEL	22-6-2017	Date
TIME	LABEL	15:53:24	Time
NOTES	NOTES	3	&Notes...
	supercap test cell
	0.6mg
	6M KOH
PSTAT	PSTAT	IFC5000-01520	Potentiostat
CAPACITY	QUANT	1.00000E-003	Capacity (A-hr)
CELLTYPE	SELECTOR	1	&Cell Type
WORKINGCONNECTION	SELECTOR	0	&Working Lead
MAXCHARGETIME	VARIABLEANDUNITS	1.00000E+002	s	1.00000E+002	second(s)	Max &Charge Time
CHARGECURRENT	QUANT	6.00000E-003	&Charge Current (A)
VOLTAGEFINISH	TWOPARAM	F	1.00000E-003	3.60000E+003	&Voltage Finish	 I (A) < 	Max Time(s)
SAMPLETIME	QUANT	1.00000E-002	Sa&mple Period (s)
CHARGESTOPAT1	MULTIPARAM	4	1.00000E+000	Charge Stop At &1	Voltage > Limit	V
CHARGESTOPAT2	MULTIPARAM	0	0.00000E+000	Charge Stop At &2	None	N/A
AESBHCSELECTOR	TOGGLE	F	Save Both Half Cells
IRCOMP	TOGGLE	F	IR &Measure
EOC	QUANT	0	Open Circuit (V)
SEQUENCER	TOGGLE	TRUE	Run as Sequence
PSTATMODEL	IQUANT	53	Pstat Model
PSTATSECTION	LABEL	IFC5000-01520	Pstat Section
PSTATSERIALNO	LABEL	01520	Pstat Serial Number
CTRLMODE	IQUANT	0	Control Mode
ELECTROMETER	IQUANT	1	RE=0 or CS=1
IESTAB	IQUANT	0	I/E Stability
CASPEED	IQUANT	4	Control Amp Speed
CONVENTION	IQUANT	1	Current Convention
ICHRANGE	IQUANT	2	Ich Range
ICHRANGEMODE	TOGGLE	T	Ich Auto Range
ICHOFFSETENABLE	TOGGLE	F	Ich Offset Enable
ICHOFFSET	QUANT	0	Ich Offset (V)
ICHFILTER	IQUANT	1	Ich Filter
VCHRANGE	IQUANT	2	Vch Range
VCHRANGEMODE	TOGGLE	T	Vch Auto Range
VCHOFFSETENABLE	TOGGLE	F	Vch Offset Enable
VCHOFFSET	QUANT	0	Vch Offset (V)
VCHFILTER	IQUANT	1	Vch Filter
IERANGELOWERLIMIT	IQUANT	9	I/E Range Lower Limit
IERANGEMODE	TOGGLE	F	I/E AutoRange
IERANGE	IQUANT	10	I/E Range
ACHSELECT	IQUANT	1	Ach Select
ACHRANGE	IQUANT	2	Ach Range
ACHOFFSETENABLE	TOGGLE	F	Ach Offset Enable
ACHOFFSET	QUANT	0	Ach Offset (V)
ACHFILTER	IQUANT	1	Ach Filter
CABLEID	IQUANT	14	Cable ID
DCCALDATE	LABEL	20-10-2016	DC Calibration Date
ACCALDATE	LABEL	12/3/2015	AC Calibration Date
FRAMEWORKVERSION	QUANT	7.01	Framework Version
INSTRUMENTVERSION	LABEL	4.00	Instrument Version
CURVE	TABLE	60
	Pt	T	Vf	Im	Vu	Pwr	Sig	Ach	Temp	IERange	Over
	#	s	V	A	V	W	V	V	deg C	#	bits
	0	0.013333	6.28167E-001	5.99421E-003	0.00000E+000	3.76536E-003	3.59960E-001	-1.13229E+000	3.57650E+000	10	...........
	1	0.026667	6.36975E-001	5.99624E-003	0.00000E+000	3.81946E-003	3.59960E-001	-1.13777E+000	3.57650E+000	10	...........
	2	0.04	6.45039E-001	5.99326E-003	0.00000E+000	3.86589E-003	3.59960E-001	-1.14017E+000	3.57650E+000	10	...........
	3	0.053333	6.52736E-001	5.99918E-003	0.00000E+000	3.91588E-003	3.59960E-001	-1.13200E+000	3.57650E+000	10	...........
	4	0.066667	6.60120E-001	5.99159E-003	0.00000E+000	3.95517E-003	3.59960E-001	-1.13773E+000	3.57650E+000	10	...........
	5	0.08	6.67338E-001	5.98830E-003	0.00000E+000	3.99623E-003	3.59960E-001	-1.14000E+000	3.57650E+000	10	...........
	6	0.093333	6.74356E-001	5.99960E-003	0.00000E+000	4.04587E-003	3.59960E-001	-1.13161E+000	3.57650E+000	10	...........
	7	0.106667	6.81270E-001	5.99528E-003	0.00000E+000	4.08441E-003	3.59960E-001	-1.13760E+000	3.57650E+000	10	...........
	8	0.12	6.88124E-001	5.99485E-003	0.00000E+000	4.12520E-003	3.59960E-001	-1.13977E+000	3.57650E+000	10	...........
	9	0.133333	6.94950E-001	5.99588E-003	0.00000E+000	4.16683E-003	3.59960E-001	-1.13147E+000	3.57650E+000	10	...........
	10	0.146667	7.01664E-001	5.99511E-003	0.00000E+000	4.20655E-003	3.59960E-001	-1.13741E+000	3.57650E+000	10	...........
	11	0.16	7.08342E-001	5.99646E-003	0.00000E+000	4.24755E-003	3.59960E-001	-1.13918E+000	3.57650E+000	10	...........
	12	0.173333	7.14952E-001	5.99568E-003	0.00000E+000	4.28662E-003	3.59960E-001	-1.13129E+000	3.57650E+000	10	...........
	13	0.186667	7.21614E-001	5.99383E-003	0.00000E+000	4.32523E-003	3.59960E-001	-1.13758E+000	3.57663E+000	10	...........
	14	0.2	7.28186E-001	5.99475E-003	0.00000E+000	4.36529E-003	3.59960E-001	-1.13934E+000	3.57670E+000	10	...........
	15	0.213333	7.34677E-001	5.99749E-003	0.00000E+000	4.40622E-003	3.59960E-001	-1.13117E+000	3.57670E+000	10	...........
	16	0.226667	7.41220E-001	5.98974E-003	0.00000E+000	4.43972E-003	3.59960E-001	-1.13756E+000	3.57670E+000	10	...........
	17	0.24	7.47728E-001	5.99046E-003	0.00000E+000	4.47924E-003	3.59960E-001	-1.13908E+000	3.57670E+000	10	...........
	18	0.253333	7.54173E-001	5.99437E-003	0.00000E+000	4.52079E-003	3.59960E-001	-1.13127E+000	3.57670E+000	10	...........
	19	0.266667	7.60638E-001	5.99074E-003	0.00000E+000	4.55678E-003	3.59960E-001	-1.13751E+000	3.57670E+000	10	...........
	20	0.28	7.67079E-001	5.99320E-003	0.00000E+000	4.59726E-003	3.59960E-001	-1.13911E+000	3.57670E+000	10	...........
	21	0.293333	7.73513E-001	5.99632E-003	0.00000E+000	4.63823E-003	3.59960E-001	-1.13099E+000	3.57670E+000	10	...........
	22	0.306667	7.79913E-001	5.99234E-003	0.00000E+000	4.67350E-003	3.59960E-001	-1.13729E+000	3.57670E+000	10	...........
	23	0.32	7.86330E-001	5.99489E-003	0.00000E+000	4.71396E-003	3.59960E-001	-1.13865E+000	3.57670E+000	10	...........
	24	0.333333	7.92757E-001	5.98899E-003	0.00000E+000	4.74782E-003	3.59960E-001	-1.13084E+000	3.57670E+000	10	...........
	25	0.346667	7.99200E-001	5.99449E-003	0.00000E+000	4.79080E-003	3.59960E-001	-1.13730E+000	3.57670E+000	10	...........
	26	0.36	8.05510E-001	5.99414E-003	0.00000E+000	4.82833E-003	3.59960E-001	-1.13854E+000	3.57670E+000	10	...........
	27	0.373333	8.11823E-001	5.99657E-003	0.00000E+000	4.86815E-003	3.59960E-001	-1.13073E+000	3.57670E+000	10	...........
	28	0.386667	8.18215E-001	5.99244E-003	0.00000E+000	4.90310E-003	3.59960E-001	-1.13750E+000	3.57670E+000	10	...........
	29	0.4	8.24524E-001	5.99525E-003	0.00000E+000	4.94323E-003	3.59960E-001	-1.13873E+000	3.57670E+000	10	...........
	30	0.413333	8.30845E-001	5.99673E-003	0.00000E+000	4.98236E-003	3.59960E-001	-1.13073E+000	3.57670E+000	10	...........
	31	0.426667	8.37120E-001	5.99428E-003	0.00000E+000	5.01793E-003	3.59960E-001	-1.13748E+000	3.57670E+000	10	...........
	32	0.44	8.43389E-001	5.99883E-003	0.00000E+000	5.05934E-003	3.59960E-001	-1.13852E+000	3.57670E+000	10	...........
	33	0.453333	8.49636E-001	5.99600E-003	0.00000E+000	5.09442E-003	3.59960E-001	-1.13104E+000	3.57670E+000	10	...........
	34	0.466667	8.55872E-001	5.99503E-003	0.00000E+000	5.13098E-003	3.59960E-001	-1.13777E+000	3.57670E+000	10	...........
	35	0.48	8.62123E-001	5.99525E-003	0.00000E+000	5.16864E-003	3.59960E-001	-1.13851E+000	3.57670E+000	10	...........
	36	0.493333	8.68334E-001	5.99726E-003	0.00000E+000	5.20763E-003	3.59960E-001	-1.13079E+000	3.57670E+000	10	...........
	37	0.506667	8.74505E-001	5.99144E-003	0.00000E+000	5.23955E-003	3.59960E-001	-1.13776E+000	3.57670E+000	10	...........
	38	0.52	8.80677E-001	5.99095E-003	0.00000E+000	5.27610E-003	3.59960E-001	-1.13840E+000	3.57670E+000	10	...........
	39	0.533333	8.86801E-001	5.99843E-003	0.00000E+000	5.31942E-003	3.59960E-001	-1.13118E+000	3.57670E+000	10	...........
	40	0.546667	8.92876E-001	5.99029E-003	0.00000E+000	5.34858E-003	3.59960E-001	-1.13807E+000	3.57670E+000	10	...........
	41	0.56	8.98993E-001	5.99655E-003	0.00000E+000	5.39085E-003	3.59960E-001	-1.13826E+000	3.57670E+000	10	...........
	42	0.573333	9.05071E-001	5.99439E-003	0.00000E+000	5.42535E-003	3.59960E-001	-1.13068E+000	3.57670E+000	10	...........
	43	0.586667	9.11125E-001	5.98899E-003	0.00000E+000	5.45672E-003	3.59960E-001	-1.13818E+000	3.57670E+000	10	...........
	44	0.6	9.17080E-001	5.99557E-003	0.00000E+000	5.49842E-003	3.59960E-001	-1.13830E+000	3.57670E+000	10	...........
	45	0.613333	9.23157E-001	5.99287E-003	0.00000E+000	5.53236E-003	3.59960E-001	-1.13081E+000	3.57670E+000	10	...........
	46	0.626667	9.29113E-001	5.99344E-003	0.00000E+000	5.56858E-003	3.59960E-001	-1.13754E+000	3.57670E+000	10	...........
	47	0.64	9.35011E-001	5.99358E-003	0.00000E+000	5.60407E-003	3.59960E-001	-1.13761E+000	3.57670E+000	10	...........
	48	0.653333	9.40910E-001	5.99623E-003	0.00000E+000	5.64191E-003	3.59960E-001	-1.13052E+000	3.57670E+000	10	...........
	49	0.666667	9.46809E-001	5.99403E-003	0.00000E+000	5.67520E-003	3.59960E-001	-1.13764E+000	3.57670E+000	10	...........
	50	0.68	9.52621E-001	5.99284E-003	0.00000E+000	5.70891E-003	3.59960E-001	-1.13753E+000	3.57670E+000	10	...........
	51	0.693333	9.58374E-001	5.99873E-003	0.00000E+000	5.74902E-003	3.59960E-001	-1.13015E+000	3.57670E+000	10	...........
	52	0.706667	9.64078E-001	5.99529E-003	0.00000E+000	5.77993E-003	3.59960E-001	-1.13762E+000	3.57670E+000	10	...........
	53	0.72	9.69729E-001	5.99270E-003	0.00000E+000	5.81129E-003	3.59960E-001	-1.13748E+000	3.57670E+000	10	...........
	54	0.733333	9.75362E-001	5.99443E-003	0.00000E+000	5.84674E-003	3.59960E-001	-1.13044E+000	3.57670E+000	10	...........
	55	0.746667	9.80991E-001	5.99329E-003	0.00000E+000	5.87936E-003	3.59960E-001	-1.13762E+000	3.57670E+000	10	...........
	56	0.76	9.86533E-001	5.99326E-003	0.00000E+000	5.91255E-003	3.59960E-001	-1.13722E+000	3.57670E+000	10	...........
	57	0.773333	9.92047E-001	5.99344E-003	0.00000E+000	5.94577E-003	3.59960E-001	-1.13037E+000	3.57670E+000	10	...........
	58	0.786667	9.97502E-001	5.99675E-003	0.00000E+000	5.98177E-003	3.59960E-001	-1.13797E+000	3.57670E+000	10	...........
	59	0.788333	1.00057E+000	5.99513E-003	0.00000E+000	5.99857E-003	3.59960E-001	-1.11844E+000	3.57670E+000	10	...........
STARTTIMEOFFSET	QUANT	759.5167	Start Time Offset (s)