File: Data/CV_CRGO300517_1/PWRCCD_CRGO300517_1/CHARGE_DISCHARGE/CHARGE_#960.DTA
EXPLAIN
TAG	PWR800_CHARGE
TITLE	LABEL	PWR Cyclic Charge Discharge (Cell) - Charge Step	Test &Identifier
DATE	LABEL	22-6-2017	Date
TIME	LABEL	16:13:11	Time
NOTES	NOTES	3	&Notes...
	supercap test cell
	0.6mg
	6M KOH
PSTAT	PSTAT	IFC5000-01520	Potentiostat
CAPACITY	QUANT	1.00000E-003	Capacity (A-hr)
CELLTYPE	SELECTOR	1	&Cell Type
WORKINGCONNECTION	SELECTOR	0	&Working Lead
MAXCHARGETIME	VARIABLEANDUNITS	1.00000E+002	s	1.00000E+002	second(s)	Max &Charge Time
CHARGECURRENT	QUANT	6.00000E-003	&Charge Current (A)
VOLTAGEFINISH	TWOPARAM	F	1.00000E-003	3.60000E+003	&Voltage Finish	 I (A) < 	Max Time(s)
SAMPLETIME	QUANT	1.00000E-002	Sa&mple Period (s)
CHARGESTOPAT1	MULTIPARAM	4	1.00000E+000	Charge Stop At &1	Voltage > Limit	V
CHARGESTOPAT2	MULTIPARAM	0	0.00000E+000	Charge Stop At &2	None	N/A
AESBHCSELECTOR	TOGGLE	F	Save Both Half Cells
IRCOMP	TOGGLE	F	IR &Measure
EOC	QUANT	0	Open Circuit (V)
SEQUENCER	TOGGLE	TRUE	Run as Sequence
PSTATMODEL	IQUANT	53	Pstat Model
PSTATSECTION	LABEL	IFC5000-01520	Pstat Section
PSTATSERIALNO	LABEL	01520	Pstat Serial Number
CTRLMODE	IQUANT	0	Control Mode
ELECTROMETER	IQUANT	1	RE=0 or CS=1
IESTAB	IQUANT	0	I/E Stability
CASPEED	IQUANT	4	Control Amp Speed
CONVENTION	IQUANT	1	Current Convention
ICHRANGE	IQUANT	2	Ich Range
ICHRANGEMODE	TOGGLE	T	Ich Auto Range
ICHOFFSETENABLE	TOGGLE	F	Ich Offset Enable
ICHOFFSET	QUANT	0	Ich Offset (V)
ICHFILTER	IQUANT	1	Ich Filter
VCHRANGE	IQUANT	2	Vch Range
VCHRANGEMODE	TOGGLE	T	Vch Auto Range
VCHOFFSETENABLE	TOGGLE	F	Vch Offset Enable
VCHOFFSET	QUANT	0	Vch Offset (V)
VCHFILTER	IQUANT	1	Vch Filter
IERANGELOWERLIMIT	IQUANT	9	I/E Range Lower Limit
IERANGEMODE	TOGGLE	F	I/E AutoRange
IERANGE	IQUANT	10	I/E Range
ACHSELECT	IQUANT	1	Ach Select
ACHRANGE	IQUANT	2	Ach Range
ACHOFFSETENABLE	TOGGLE	F	Ach Offset Enable
ACHOFFSET	QUANT	0	Ach Offset (V)
ACHFILTER	IQUANT	1	Ach Filter
CABLEID	IQUANT	14	Cable ID
DCCALDATE	LABEL	20-10-2016	DC Calibration Date
ACCALDATE	LABEL	12/3/2015	AC Calibration Date
FRAMEWORKVERSION	QUANT	7.01	Framework Version
INSTRUMENTVERSION	LABEL	4.00	Instrument Version
CURVE	TABLE	53
	Pt	T	Vf	Im	Vu	Pwr	Sig	Ach	Temp	IERange	Over
	#	s	V	A	V	W	V	V	deg C	#	bits
	0	0.013333	6.54780E-001	5.99196E-003	0.00000E+000	3.92341E-003	3.59960E-001	-1.17097E+000	3.57650E+000	10	...........
	1	0.026667	6.64102E-001	5.99272E-003	0.00000E+000	3.97978E-003	3.59960E-001	-1.18046E+000	3.57650E+000	10	...........
	2	0.04	6.72757E-001	5.99793E-003	0.00000E+000	4.03515E-003	3.59960E-001	-1.17575E+000	3.57650E+000	10	...........
	3	0.053333	6.80920E-001	5.98930E-003	0.00000E+000	4.07823E-003	3.59960E-001	-1.17047E+000	3.57650E+000	10	...........
	4	0.066667	6.88786E-001	5.99351E-003	0.00000E+000	4.12825E-003	3.59960E-001	-1.18020E+000	3.57650E+000	10	...........
	5	0.08	6.96433E-001	5.99158E-003	0.00000E+000	4.17273E-003	3.59960E-001	-1.17544E+000	3.57650E+000	10	...........
	6	0.093333	7.03913E-001	5.99454E-003	0.00000E+000	4.21964E-003	3.59960E-001	-1.17030E+000	3.57650E+000	10	...........
	7	0.106667	7.11315E-001	5.99208E-003	0.00000E+000	4.26226E-003	3.59960E-001	-1.17995E+000	3.57650E+000	10	...........
	8	0.12	7.18629E-001	5.99306E-003	0.00000E+000	4.30679E-003	3.59960E-001	-1.17539E+000	3.57650E+000	10	...........
	9	0.133333	7.25809E-001	5.99320E-003	0.00000E+000	4.34992E-003	3.59960E-001	-1.17056E+000	3.57650E+000	10	...........
	10	0.146667	7.32901E-001	5.99475E-003	0.00000E+000	4.39356E-003	3.59960E-001	-1.18005E+000	3.57650E+000	10	...........
	11	0.16	7.39989E-001	5.98859E-003	0.00000E+000	4.43149E-003	3.59960E-001	-1.17516E+000	3.57650E+000	10	...........
	12	0.173333	7.47039E-001	5.99447E-003	0.00000E+000	4.47810E-003	3.59960E-001	-1.17025E+000	3.57650E+000	10	...........
	13	0.186667	7.54039E-001	5.99607E-003	0.00000E+000	4.52127E-003	3.59960E-001	-1.17994E+000	3.57650E+000	10	...........
	14	0.2	7.60963E-001	5.98922E-003	0.00000E+000	4.55758E-003	3.59960E-001	-1.17521E+000	3.57650E+000	10	...........
	15	0.213333	7.67886E-001	5.99442E-003	0.00000E+000	4.60303E-003	3.59960E-001	-1.17009E+000	3.57650E+000	10	...........
	16	0.226667	7.74761E-001	5.98860E-003	0.00000E+000	4.63973E-003	3.59960E-001	-1.17974E+000	3.57650E+000	10	...........
	17	0.24	7.81640E-001	5.99359E-003	0.00000E+000	4.68483E-003	3.59960E-001	-1.17520E+000	3.57650E+000	10	...........
	18	0.253333	7.88461E-001	5.99833E-003	0.00000E+000	4.72945E-003	3.59960E-001	-1.17024E+000	3.57650E+000	10	...........
	19	0.266667	7.95255E-001	5.99385E-003	0.00000E+000	4.76664E-003	3.59960E-001	-1.18024E+000	3.57650E+000	10	...........
	20	0.28	8.02066E-001	5.99489E-003	0.00000E+000	4.80829E-003	3.59960E-001	-1.17521E+000	3.57650E+000	10	...........
	21	0.293333	8.08816E-001	5.99609E-003	0.00000E+000	4.84973E-003	3.59960E-001	-1.17033E+000	3.57650E+000	10	...........
	22	0.306667	8.15512E-001	5.99428E-003	0.00000E+000	4.88841E-003	3.59960E-001	-1.17982E+000	3.57650E+000	10	...........
	23	0.32	8.22221E-001	5.99037E-003	0.00000E+000	4.92541E-003	3.59960E-001	-1.17515E+000	3.57650E+000	10	...........
	24	0.333333	8.28876E-001	5.99736E-003	0.00000E+000	4.97107E-003	3.59960E-001	-1.17034E+000	3.57650E+000	10	...........
	25	0.346667	8.35508E-001	5.99172E-003	0.00000E+000	5.00613E-003	3.59960E-001	-1.18009E+000	3.57650E+000	10	...........
	26	0.36	8.42136E-001	5.99064E-003	0.00000E+000	5.04493E-003	3.59960E-001	-1.17507E+000	3.57650E+000	10	...........
	27	0.373333	8.48711E-001	5.99501E-003	0.00000E+000	5.08803E-003	3.59960E-001	-1.16990E+000	3.57650E+000	10	...........
	28	0.386667	8.55300E-001	5.99594E-003	0.00000E+000	5.12833E-003	3.59960E-001	-1.17972E+000	3.57650E+000	10	...........
	29	0.4	8.61827E-001	5.99845E-003	0.00000E+000	5.16963E-003	3.59960E-001	-1.17482E+000	3.57650E+000	10	...........
	30	0.413333	8.68317E-001	5.99135E-003	0.00000E+000	5.20239E-003	3.59960E-001	-1.16999E+000	3.57650E+000	10	...........
	31	0.426667	8.74809E-001	5.99089E-003	0.00000E+000	5.24089E-003	3.59960E-001	-1.17943E+000	3.57650E+000	10	...........
	32	0.44	8.81250E-001	5.99054E-003	0.00000E+000	5.27916E-003	3.59960E-001	-1.17462E+000	3.57650E+000	10	...........
	33	0.453333	8.87662E-001	5.99309E-003	0.00000E+000	5.31984E-003	3.59960E-001	-1.17000E+000	3.57650E+000	10	...........
	34	0.466667	8.94032E-001	5.99211E-003	0.00000E+000	5.35714E-003	3.59960E-001	-1.17955E+000	3.57650E+000	10	...........
	35	0.48	9.00378E-001	5.99309E-003	0.00000E+000	5.39605E-003	3.59960E-001	-1.17483E+000	3.57650E+000	10	...........
	36	0.493333	9.06658E-001	5.99308E-003	0.00000E+000	5.43368E-003	3.59960E-001	-1.16981E+000	3.57650E+000	10	...........
	37	0.506667	9.12958E-001	5.99203E-003	0.00000E+000	5.47047E-003	3.59960E-001	-1.17940E+000	3.57650E+000	10	...........
	38	0.52	9.19168E-001	5.99435E-003	0.00000E+000	5.50982E-003	3.59960E-001	-1.17440E+000	3.57650E+000	10	...........
	39	0.533333	9.25346E-001	5.99426E-003	0.00000E+000	5.54677E-003	3.59960E-001	-1.16978E+000	3.57650E+000	10	...........
	40	0.546667	9.31455E-001	5.99905E-003	0.00000E+000	5.58784E-003	3.59960E-001	-1.17967E+000	3.57650E+000	10	...........
	41	0.56	9.37555E-001	5.99610E-003	0.00000E+000	5.62167E-003	3.59960E-001	-1.17455E+000	3.57650E+000	10	...........
	42	0.573333	9.43508E-001	5.98923E-003	0.00000E+000	5.65089E-003	3.59960E-001	-1.16951E+000	3.57650E+000	10	...........
	43	0.586667	9.49558E-001	5.99641E-003	0.00000E+000	5.69394E-003	3.59960E-001	-1.17942E+000	3.57650E+000	10	...........
	44	0.6	9.55482E-001	5.99151E-003	0.00000E+000	5.72478E-003	3.59960E-001	-1.17487E+000	3.57650E+000	10	...........
	45	0.613333	9.61372E-001	5.99591E-003	0.00000E+000	5.76430E-003	3.59960E-001	-1.16996E+000	3.57650E+000	10	...........
	46	0.626667	9.67193E-001	5.99272E-003	0.00000E+000	5.79611E-003	3.59960E-001	-1.17969E+000	3.57650E+000	10	...........
	47	0.64	9.72979E-001	5.99240E-003	0.00000E+000	5.83048E-003	3.59960E-001	-1.17462E+000	3.57650E+000	10	...........
	48	0.653333	9.78749E-001	5.98847E-003	0.00000E+000	5.86121E-003	3.59960E-001	-1.16970E+000	3.57650E+000	10	...........
	49	0.666667	9.84433E-001	5.99433E-003	0.00000E+000	5.90102E-003	3.59960E-001	-1.17970E+000	3.57650E+000	10	...........
	50	0.68	9.90018E-001	5.98961E-003	0.00000E+000	5.92982E-003	3.59960E-001	-1.17457E+000	3.57650E+000	10	...........
	51	0.693333	9.95601E-001	5.99682E-003	0.00000E+000	5.97044E-003	3.59960E-001	-1.16935E+000	3.57650E+000	10	...........
	52	0.698333	9.99437E-001	5.99031E-003	0.00000E+000	5.98694E-003	3.59960E-001	-1.18405E+000	3.57650E+000	10	...........
STARTTIMEOFFSET	QUANT	1529.883	Start Time Offset (s)