File: Data/CV_CRGO300517_1/PWRCCD_CRGO300517_1/CHARGE_DISCHARGE/CHARGE_#536.DTA
EXPLAIN
TAG	PWR800_CHARGE
TITLE	LABEL	PWR Cyclic Charge Discharge (Cell) - Charge Step	Test &Identifier
DATE	LABEL	22-6-2017	Date
TIME	LABEL	15:57:19	Time
NOTES	NOTES	3	&Notes...
	supercap test cell
	0.6mg
	6M KOH
PSTAT	PSTAT	IFC5000-01520	Potentiostat
CAPACITY	QUANT	1.00000E-003	Capacity (A-hr)
CELLTYPE	SELECTOR	1	&Cell Type
WORKINGCONNECTION	SELECTOR	0	&Working Lead
MAXCHARGETIME	VARIABLEANDUNITS	1.00000E+002	s	1.00000E+002	second(s)	Max &Charge Time
CHARGECURRENT	QUANT	6.00000E-003	&Charge Current (A)
VOLTAGEFINISH	TWOPARAM	F	1.00000E-003	3.60000E+003	&Voltage Finish	 I (A) < 	Max Time(s)
SAMPLETIME	QUANT	1.00000E-002	Sa&mple Period (s)
CHARGESTOPAT1	MULTIPARAM	4	1.00000E+000	Charge Stop At &1	Voltage > Limit	V
CHARGESTOPAT2	MULTIPARAM	0	0.00000E+000	Charge Stop At &2	None	N/A
AESBHCSELECTOR	TOGGLE	F	Save Both Half Cells
IRCOMP	TOGGLE	F	IR &Measure
EOC	QUANT	0	Open Circuit (V)
SEQUENCER	TOGGLE	TRUE	Run as Sequence
PSTATMODEL	IQUANT	53	Pstat Model
PSTATSECTION	LABEL	IFC5000-01520	Pstat Section
PSTATSERIALNO	LABEL	01520	Pstat Serial Number
CTRLMODE	IQUANT	0	Control Mode
ELECTROMETER	IQUANT	1	RE=0 or CS=1
IESTAB	IQUANT	0	I/E Stability
CASPEED	IQUANT	4	Control Amp Speed
CONVENTION	IQUANT	1	Current Convention
ICHRANGE	IQUANT	2	Ich Range
ICHRANGEMODE	TOGGLE	T	Ich Auto Range
ICHOFFSETENABLE	TOGGLE	F	Ich Offset Enable
ICHOFFSET	QUANT	0	Ich Offset (V)
ICHFILTER	IQUANT	1	Ich Filter
VCHRANGE	IQUANT	2	Vch Range
VCHRANGEMODE	TOGGLE	T	Vch Auto Range
VCHOFFSETENABLE	TOGGLE	F	Vch Offset Enable
VCHOFFSET	QUANT	0	Vch Offset (V)
VCHFILTER	IQUANT	1	Vch Filter
IERANGELOWERLIMIT	IQUANT	9	I/E Range Lower Limit
IERANGEMODE	TOGGLE	F	I/E AutoRange
IERANGE	IQUANT	10	I/E Range
ACHSELECT	IQUANT	1	Ach Select
ACHRANGE	IQUANT	2	Ach Range
ACHOFFSETENABLE	TOGGLE	F	Ach Offset Enable
ACHOFFSET	QUANT	0	Ach Offset (V)
ACHFILTER	IQUANT	1	Ach Filter
CABLEID	IQUANT	14	Cable ID
DCCALDATE	LABEL	20-10-2016	DC Calibration Date
ACCALDATE	LABEL	12/3/2015	AC Calibration Date
FRAMEWORKVERSION	QUANT	7.01	Framework Version
INSTRUMENTVERSION	LABEL	4.00	Instrument Version
CURVE	TABLE	58
	Pt	T	Vf	Im	Vu	Pwr	Sig	Ach	Temp	IERange	Over
	#	s	V	A	V	W	V	V	deg C	#	bits
	0	0.013333	6.34002E-001	5.99514E-003	0.00000E+000	3.80093E-003	3.59960E-001	-1.10579E+000	3.57640E+000	10	...........
	1	0.026667	6.43005E-001	5.99233E-003	0.00000E+000	3.85310E-003	3.59960E-001	-1.09994E+000	3.57640E+000	10	...........
	2	0.04	6.51206E-001	5.99705E-003	0.00000E+000	3.90531E-003	3.59960E-001	-1.10765E+000	3.57640E+000	10	...........
	3	0.053333	6.58967E-001	5.99164E-003	0.00000E+000	3.94829E-003	3.59960E-001	-1.10617E+000	3.57640E+000	10	...........
	4	0.066667	6.66442E-001	5.99223E-003	0.00000E+000	3.99347E-003	3.59960E-001	-1.10075E+000	3.57640E+000	10	...........
	5	0.08	6.73763E-001	5.99579E-003	0.00000E+000	4.03975E-003	3.59960E-001	-1.10869E+000	3.57640E+000	10	...........
	6	0.093333	6.80896E-001	5.99290E-003	0.00000E+000	4.08054E-003	3.59960E-001	-1.10737E+000	3.57640E+000	10	...........
	7	0.106667	6.87915E-001	5.99619E-003	0.00000E+000	4.12487E-003	3.59960E-001	-1.10183E+000	3.57640E+000	10	...........
	8	0.12	6.94942E-001	5.99390E-003	0.00000E+000	4.16541E-003	3.59960E-001	-1.10962E+000	3.57640E+000	10	...........
	9	0.133333	7.01846E-001	5.99412E-003	0.00000E+000	4.20695E-003	3.59960E-001	-1.10811E+000	3.57640E+000	10	...........
	10	0.146667	7.08678E-001	5.99166E-003	0.00000E+000	4.24616E-003	3.59960E-001	-1.10302E+000	3.57640E+000	10	...........
	11	0.16	7.15458E-001	5.99341E-003	0.00000E+000	4.28803E-003	3.59960E-001	-1.11103E+000	3.57640E+000	10	...........
	12	0.173333	7.22219E-001	5.99132E-003	0.00000E+000	4.32704E-003	3.59960E-001	-1.10884E+000	3.57640E+000	10	...........
	13	0.186667	7.28861E-001	5.99253E-003	0.00000E+000	4.36772E-003	3.59960E-001	-1.10354E+000	3.57642E+000	10	...........
	14	0.2	7.35519E-001	5.99405E-003	0.00000E+000	4.40874E-003	3.59960E-001	-1.11187E+000	3.57670E+000	10	...........
	15	0.213333	7.42212E-001	5.99730E-003	0.00000E+000	4.45127E-003	3.59960E-001	-1.10970E+000	3.57670E+000	10	...........
	16	0.226667	7.48825E-001	5.99501E-003	0.00000E+000	4.48921E-003	3.59960E-001	-1.10480E+000	3.57670E+000	10	...........
	17	0.24	7.55424E-001	5.99178E-003	0.00000E+000	4.52633E-003	3.59960E-001	-1.11283E+000	3.57670E+000	10	...........
	18	0.253333	7.61992E-001	5.99224E-003	0.00000E+000	4.56604E-003	3.59960E-001	-1.11067E+000	3.57670E+000	10	...........
	19	0.266667	7.68510E-001	5.99042E-003	0.00000E+000	4.60370E-003	3.59960E-001	-1.10566E+000	3.57670E+000	10	...........
	20	0.28	7.75037E-001	5.99120E-003	0.00000E+000	4.64341E-003	3.59960E-001	-1.11407E+000	3.57670E+000	10	...........
	21	0.293333	7.81586E-001	5.99753E-003	0.00000E+000	4.68758E-003	3.59960E-001	-1.11177E+000	3.57670E+000	10	...........
	22	0.306667	7.88076E-001	5.99699E-003	0.00000E+000	4.72608E-003	3.59960E-001	-1.10639E+000	3.57670E+000	10	...........
	23	0.32	7.94565E-001	5.99303E-003	0.00000E+000	4.76186E-003	3.59960E-001	-1.11498E+000	3.57670E+000	10	...........
	24	0.333333	8.01029E-001	5.99680E-003	0.00000E+000	4.80361E-003	3.59960E-001	-1.11225E+000	3.57670E+000	10	...........
	25	0.346667	8.07435E-001	5.99340E-003	0.00000E+000	4.83928E-003	3.59960E-001	-1.10737E+000	3.57670E+000	10	...........
	26	0.36	8.13856E-001	5.99093E-003	0.00000E+000	4.87576E-003	3.59960E-001	-1.11582E+000	3.57670E+000	10	...........
	27	0.373333	8.20330E-001	5.99468E-003	0.00000E+000	4.91761E-003	3.59960E-001	-1.11297E+000	3.57670E+000	10	...........
	28	0.386667	8.26736E-001	5.99516E-003	0.00000E+000	4.95641E-003	3.59960E-001	-1.10827E+000	3.57670E+000	10	...........
	29	0.4	8.33113E-001	5.99099E-003	0.00000E+000	4.99117E-003	3.59960E-001	-1.11678E+000	3.57670E+000	10	...........
	30	0.413333	8.39471E-001	5.99133E-003	0.00000E+000	5.02955E-003	3.59960E-001	-1.11382E+000	3.57670E+000	10	...........
	31	0.426667	8.45832E-001	5.99075E-003	0.00000E+000	5.06716E-003	3.59960E-001	-1.10919E+000	3.57670E+000	10	...........
	32	0.44	8.52183E-001	5.99535E-003	0.00000E+000	5.10913E-003	3.59960E-001	-1.11791E+000	3.57670E+000	10	...........
	33	0.453333	8.58505E-001	5.99662E-003	0.00000E+000	5.14813E-003	3.59960E-001	-1.11468E+000	3.57670E+000	10	...........
	34	0.466667	8.64756E-001	5.99344E-003	0.00000E+000	5.18286E-003	3.59960E-001	-1.10988E+000	3.57670E+000	10	...........
	35	0.48	8.71024E-001	5.99844E-003	0.00000E+000	5.22479E-003	3.59960E-001	-1.11872E+000	3.57670E+000	10	...........
	36	0.493333	8.77269E-001	5.99751E-003	0.00000E+000	5.26142E-003	3.59960E-001	-1.11533E+000	3.57670E+000	10	...........
	37	0.506667	8.83517E-001	5.98991E-003	0.00000E+000	5.29219E-003	3.59960E-001	-1.11060E+000	3.57670E+000	10	...........
	38	0.52	8.89737E-001	5.98869E-003	0.00000E+000	5.32836E-003	3.59960E-001	-1.11944E+000	3.57670E+000	10	...........
	39	0.533333	8.95873E-001	5.99086E-003	0.00000E+000	5.36705E-003	3.59960E-001	-1.11600E+000	3.57670E+000	10	...........
	40	0.546667	9.02038E-001	5.99018E-003	0.00000E+000	5.40337E-003	3.59960E-001	-1.11161E+000	3.57670E+000	10	...........
	41	0.56	9.08165E-001	5.99430E-003	0.00000E+000	5.44382E-003	3.59960E-001	-1.12061E+000	3.57670E+000	10	...........
	42	0.573333	9.14216E-001	5.99251E-003	0.00000E+000	5.47845E-003	3.59960E-001	-1.11688E+000	3.57670E+000	10	...........
	43	0.586667	9.20277E-001	5.99478E-003	0.00000E+000	5.51686E-003	3.59960E-001	-1.11234E+000	3.57670E+000	10	...........
	44	0.6	9.26319E-001	5.99133E-003	0.00000E+000	5.54988E-003	3.59960E-001	-1.12134E+000	3.57670E+000	10	...........
	45	0.613333	9.32320E-001	5.99086E-003	0.00000E+000	5.58540E-003	3.59960E-001	-1.11741E+000	3.57670E+000	10	...........
	46	0.626667	9.38262E-001	5.99585E-003	0.00000E+000	5.62568E-003	3.59960E-001	-1.11308E+000	3.57670E+000	10	...........
	47	0.64	9.44141E-001	5.99482E-003	0.00000E+000	5.65996E-003	3.59960E-001	-1.12217E+000	3.57670E+000	10	...........
	48	0.653333	9.50002E-001	5.99336E-003	0.00000E+000	5.69371E-003	3.59960E-001	-1.11770E+000	3.57670E+000	10	...........
	49	0.666667	9.55818E-001	5.99365E-003	0.00000E+000	5.72883E-003	3.59960E-001	-1.11322E+000	3.57670E+000	10	...........
	50	0.68	9.61592E-001	5.99389E-003	0.00000E+000	5.76367E-003	3.59960E-001	-1.12264E+000	3.57670E+000	10	...........
	51	0.693333	9.67331E-001	5.99220E-003	0.00000E+000	5.79643E-003	3.59960E-001	-1.11845E+000	3.57670E+000	10	...........
	52	0.706667	9.73054E-001	5.98991E-003	0.00000E+000	5.82851E-003	3.59960E-001	-1.11409E+000	3.57670E+000	10	...........
	53	0.72	9.78721E-001	5.99386E-003	0.00000E+000	5.86632E-003	3.59960E-001	-1.12353E+000	3.57670E+000	10	...........
	54	0.733333	9.84307E-001	5.99556E-003	0.00000E+000	5.90148E-003	3.59960E-001	-1.11886E+000	3.57670E+000	10	...........
	55	0.746667	9.89886E-001	5.98933E-003	0.00000E+000	5.92875E-003	3.59960E-001	-1.11453E+000	3.57670E+000	10	...........
	56	0.76	9.95357E-001	5.99619E-003	0.00000E+000	5.96835E-003	3.59960E-001	-1.12424E+000	3.57670E+000	10	...........
	57	0.766667	9.99509E-001	5.99344E-003	0.00000E+000	5.99049E-003	3.59960E-001	-1.11043E+000	3.57670E+000	10	...........
STARTTIMEOFFSET	QUANT	914.2017	Start Time Offset (s)