File: Data/CV_CRGO300517_1/PWRCCD_CRGO300517_1/CHARGE_DISCHARGE/CHARGE_#502.DTA
EXPLAIN
TAG	PWR800_CHARGE
TITLE	LABEL	PWR Cyclic Charge Discharge (Cell) - Charge Step	Test &Identifier
DATE	LABEL	22-6-2017	Date
TIME	LABEL	15:56:00	Time
NOTES	NOTES	3	&Notes...
	supercap test cell
	0.6mg
	6M KOH
PSTAT	PSTAT	IFC5000-01520	Potentiostat
CAPACITY	QUANT	1.00000E-003	Capacity (A-hr)
CELLTYPE	SELECTOR	1	&Cell Type
WORKINGCONNECTION	SELECTOR	0	&Working Lead
MAXCHARGETIME	VARIABLEANDUNITS	1.00000E+002	s	1.00000E+002	second(s)	Max &Charge Time
CHARGECURRENT	QUANT	6.00000E-003	&Charge Current (A)
VOLTAGEFINISH	TWOPARAM	F	1.00000E-003	3.60000E+003	&Voltage Finish	 I (A) < 	Max Time(s)
SAMPLETIME	QUANT	1.00000E-002	Sa&mple Period (s)
CHARGESTOPAT1	MULTIPARAM	4	1.00000E+000	Charge Stop At &1	Voltage > Limit	V
CHARGESTOPAT2	MULTIPARAM	0	0.00000E+000	Charge Stop At &2	None	N/A
AESBHCSELECTOR	TOGGLE	F	Save Both Half Cells
IRCOMP	TOGGLE	F	IR &Measure
EOC	QUANT	0	Open Circuit (V)
SEQUENCER	TOGGLE	TRUE	Run as Sequence
PSTATMODEL	IQUANT	53	Pstat Model
PSTATSECTION	LABEL	IFC5000-01520	Pstat Section
PSTATSERIALNO	LABEL	01520	Pstat Serial Number
CTRLMODE	IQUANT	0	Control Mode
ELECTROMETER	IQUANT	1	RE=0 or CS=1
IESTAB	IQUANT	0	I/E Stability
CASPEED	IQUANT	4	Control Amp Speed
CONVENTION	IQUANT	1	Current Convention
ICHRANGE	IQUANT	2	Ich Range
ICHRANGEMODE	TOGGLE	T	Ich Auto Range
ICHOFFSETENABLE	TOGGLE	F	Ich Offset Enable
ICHOFFSET	QUANT	0	Ich Offset (V)
ICHFILTER	IQUANT	1	Ich Filter
VCHRANGE	IQUANT	2	Vch Range
VCHRANGEMODE	TOGGLE	T	Vch Auto Range
VCHOFFSETENABLE	TOGGLE	F	Vch Offset Enable
VCHOFFSET	QUANT	0	Vch Offset (V)
VCHFILTER	IQUANT	1	Vch Filter
IERANGELOWERLIMIT	IQUANT	9	I/E Range Lower Limit
IERANGEMODE	TOGGLE	F	I/E AutoRange
IERANGE	IQUANT	10	I/E Range
ACHSELECT	IQUANT	1	Ach Select
ACHRANGE	IQUANT	2	Ach Range
ACHOFFSETENABLE	TOGGLE	F	Ach Offset Enable
ACHOFFSET	QUANT	0	Ach Offset (V)
ACHFILTER	IQUANT	1	Ach Filter
CABLEID	IQUANT	14	Cable ID
DCCALDATE	LABEL	20-10-2016	DC Calibration Date
ACCALDATE	LABEL	12/3/2015	AC Calibration Date
FRAMEWORKVERSION	QUANT	7.01	Framework Version
INSTRUMENTVERSION	LABEL	4.00	Instrument Version
CURVE	TABLE	58
	Pt	T	Vf	Im	Vu	Pwr	Sig	Ach	Temp	IERange	Over
	#	s	V	A	V	W	V	V	deg C	#	bits
	0	0.013333	6.32567E-001	5.99704E-003	0.00000E+000	3.79353E-003	3.59960E-001	-1.12614E+000	3.57670E+000	10	...........
	1	0.026667	6.41440E-001	5.99308E-003	0.00000E+000	3.84420E-003	3.59960E-001	-1.13272E+000	3.57670E+000	10	...........
	2	0.04	6.49622E-001	5.98911E-003	0.00000E+000	3.89066E-003	3.59960E-001	-1.12272E+000	3.57670E+000	10	...........
	3	0.053333	6.57380E-001	5.99493E-003	0.00000E+000	3.94095E-003	3.59960E-001	-1.12567E+000	3.57670E+000	10	...........
	4	0.066667	6.64835E-001	5.99722E-003	0.00000E+000	3.98716E-003	3.59960E-001	-1.13256E+000	3.57670E+000	10	...........
	5	0.08	6.72139E-001	5.99069E-003	0.00000E+000	4.02658E-003	3.59960E-001	-1.12258E+000	3.57670E+000	10	...........
	6	0.093333	6.79244E-001	5.99506E-003	0.00000E+000	4.07211E-003	3.59960E-001	-1.12549E+000	3.57670E+000	10	...........
	7	0.106667	6.86219E-001	5.98982E-003	0.00000E+000	4.11033E-003	3.59960E-001	-1.13215E+000	3.57670E+000	10	...........
	8	0.12	6.93237E-001	5.99820E-003	0.00000E+000	4.15818E-003	3.59960E-001	-1.12218E+000	3.57670E+000	10	...........
	9	0.133333	7.00081E-001	5.98922E-003	0.00000E+000	4.19294E-003	3.59960E-001	-1.12546E+000	3.57670E+000	10	...........
	10	0.146667	7.06864E-001	5.99098E-003	0.00000E+000	4.23481E-003	3.59960E-001	-1.13215E+000	3.57670E+000	10	...........
	11	0.16	7.13597E-001	5.99295E-003	0.00000E+000	4.27655E-003	3.59960E-001	-1.12215E+000	3.57670E+000	10	...........
	12	0.173333	7.20371E-001	5.99577E-003	0.00000E+000	4.31918E-003	3.59960E-001	-1.12516E+000	3.57670E+000	10	...........
	13	0.186667	7.26992E-001	5.99536E-003	0.00000E+000	4.35857E-003	3.59960E-001	-1.13146E+000	3.57670E+000	10	...........
	14	0.2	7.33618E-001	5.99373E-003	0.00000E+000	4.39711E-003	3.59960E-001	-1.12204E+000	3.57670E+000	10	...........
	15	0.213333	7.40278E-001	5.99143E-003	0.00000E+000	4.43533E-003	3.59960E-001	-1.12518E+000	3.57670E+000	10	...........
	16	0.226667	7.46868E-001	5.99805E-003	0.00000E+000	4.47975E-003	3.59960E-001	-1.13155E+000	3.57670E+000	10	...........
	17	0.24	7.53425E-001	5.99632E-003	0.00000E+000	4.51778E-003	3.59960E-001	-1.12191E+000	3.57670E+000	10	...........
	18	0.253333	7.59968E-001	5.99471E-003	0.00000E+000	4.55579E-003	3.59960E-001	-1.12511E+000	3.57670E+000	10	...........
	19	0.266667	7.66456E-001	5.99486E-003	0.00000E+000	4.59479E-003	3.59960E-001	-1.13162E+000	3.57670E+000	10	...........
	20	0.28	7.72975E-001	5.99736E-003	0.00000E+000	4.63581E-003	3.59960E-001	-1.12213E+000	3.57670E+000	10	...........
	21	0.293333	7.79475E-001	5.99342E-003	0.00000E+000	4.67172E-003	3.59960E-001	-1.12537E+000	3.57670E+000	10	...........
	22	0.306667	7.85962E-001	5.99563E-003	0.00000E+000	4.71234E-003	3.59960E-001	-1.13144E+000	3.57670E+000	10	...........
	23	0.32	7.92411E-001	5.99094E-003	0.00000E+000	4.74729E-003	3.59960E-001	-1.12186E+000	3.57670E+000	10	...........
	24	0.333333	7.98936E-001	5.99068E-003	0.00000E+000	4.78617E-003	3.59960E-001	-1.12566E+000	3.57670E+000	10	...........
	25	0.346667	8.05351E-001	5.99582E-003	0.00000E+000	4.82873E-003	3.59960E-001	-1.13158E+000	3.57670E+000	10	...........
	26	0.36	8.11731E-001	5.99774E-003	0.00000E+000	4.86855E-003	3.59960E-001	-1.12228E+000	3.57670E+000	10	...........
	27	0.373333	8.18122E-001	5.99450E-003	0.00000E+000	4.90423E-003	3.59960E-001	-1.12586E+000	3.57670E+000	10	...........
	28	0.386667	8.24519E-001	5.99416E-003	0.00000E+000	4.94230E-003	3.59960E-001	-1.13167E+000	3.57670E+000	10	...........
	29	0.4	8.30848E-001	5.99373E-003	0.00000E+000	4.97988E-003	3.59960E-001	-1.12254E+000	3.57670E+000	10	...........
	30	0.413333	8.37188E-001	5.98938E-003	0.00000E+000	5.01423E-003	3.59960E-001	-1.12613E+000	3.57670E+000	10	...........
	31	0.426667	8.43500E-001	5.99167E-003	0.00000E+000	5.05398E-003	3.59960E-001	-1.13176E+000	3.57670E+000	10	...........
	32	0.44	8.49850E-001	5.99542E-003	0.00000E+000	5.09520E-003	3.59960E-001	-1.12262E+000	3.57670E+000	10	...........
	33	0.453333	8.56115E-001	5.99260E-003	0.00000E+000	5.13035E-003	3.59960E-001	-1.12634E+000	3.57670E+000	10	...........
	34	0.466667	8.62396E-001	5.99785E-003	0.00000E+000	5.17252E-003	3.59960E-001	-1.13183E+000	3.57670E+000	10	...........
	35	0.48	8.68652E-001	6.00036E-003	0.00000E+000	5.21223E-003	3.59960E-001	-1.12270E+000	3.57670E+000	10	...........
	36	0.493333	8.74888E-001	5.98885E-003	0.00000E+000	5.23957E-003	3.59960E-001	-1.12623E+000	3.57670E+000	10	...........
	37	0.506667	8.81095E-001	5.98996E-003	0.00000E+000	5.27773E-003	3.59960E-001	-1.13160E+000	3.57670E+000	10	...........
	38	0.52	8.87324E-001	5.99407E-003	0.00000E+000	5.31868E-003	3.59960E-001	-1.12255E+000	3.57670E+000	10	...........
	39	0.533333	8.93471E-001	5.99334E-003	0.00000E+000	5.35488E-003	3.59960E-001	-1.12650E+000	3.57670E+000	10	...........
	40	0.546667	8.99639E-001	5.99488E-003	0.00000E+000	5.39323E-003	3.59960E-001	-1.13137E+000	3.57670E+000	10	...........
	41	0.56	9.05753E-001	5.99253E-003	0.00000E+000	5.42775E-003	3.59960E-001	-1.12226E+000	3.57670E+000	10	...........
	42	0.573333	9.11836E-001	5.99761E-003	0.00000E+000	5.46884E-003	3.59960E-001	-1.12609E+000	3.57670E+000	10	...........
	43	0.586667	9.17875E-001	5.99208E-003	0.00000E+000	5.49998E-003	3.59960E-001	-1.13106E+000	3.57670E+000	10	...........
	44	0.6	9.23918E-001	5.99712E-003	0.00000E+000	5.54085E-003	3.59960E-001	-1.12219E+000	3.57670E+000	10	...........
	45	0.613333	9.29826E-001	5.99310E-003	0.00000E+000	5.57254E-003	3.59960E-001	-1.12644E+000	3.57670E+000	10	...........
	46	0.626667	9.35771E-001	5.99849E-003	0.00000E+000	5.61321E-003	3.59960E-001	-1.13104E+000	3.57670E+000	10	...........
	47	0.64	9.41687E-001	5.99114E-003	0.00000E+000	5.64178E-003	3.59960E-001	-1.12198E+000	3.57670E+000	10	...........
	48	0.653333	9.47552E-001	5.99238E-003	0.00000E+000	5.67810E-003	3.59960E-001	-1.12659E+000	3.57670E+000	10	...........
	49	0.666667	9.53403E-001	5.99507E-003	0.00000E+000	5.71572E-003	3.59960E-001	-1.13115E+000	3.57670E+000	10	...........
	50	0.68	9.59194E-001	5.99127E-003	0.00000E+000	5.74679E-003	3.59960E-001	-1.12220E+000	3.57670E+000	10	...........
	51	0.693333	9.64916E-001	5.99393E-003	0.00000E+000	5.78364E-003	3.59960E-001	-1.12649E+000	3.57670E+000	10	...........
	52	0.706667	9.70627E-001	5.99365E-003	0.00000E+000	5.81759E-003	3.59960E-001	-1.13088E+000	3.57670E+000	10	...........
	53	0.72	9.76333E-001	5.99349E-003	0.00000E+000	5.85164E-003	3.59960E-001	-1.12217E+000	3.57670E+000	10	...........
	54	0.733333	9.81937E-001	5.99355E-003	0.00000E+000	5.88529E-003	3.59960E-001	-1.12666E+000	3.57670E+000	10	...........
	55	0.746667	9.87516E-001	5.99653E-003	0.00000E+000	5.92167E-003	3.59960E-001	-1.13108E+000	3.57670E+000	10	...........
	56	0.76	9.93056E-001	5.99623E-003	0.00000E+000	5.95460E-003	3.59960E-001	-1.12217E+000	3.57670E+000	10	...........
	57	0.771667	9.98218E-001	5.98822E-003	0.00000E+000	5.97755E-003	3.59960E-001	-1.12890E+000	3.57670E+000	10	...........
STARTTIMEOFFSET	QUANT	862.1086	Start Time Offset (s)