File: Data/CV_CRGO300517_1/PWRCCD_CRGO300517_1/CHARGE_DISCHARGE/CHARGE_#183.DTA
EXPLAIN
TAG	PWR800_CHARGE
TITLE	LABEL	PWR Cyclic Charge Discharge (Cell) - Charge Step	Test &Identifier
DATE	LABEL	22-6-2017	Date
TIME	LABEL	15:43:05	Time
NOTES	NOTES	3	&Notes...
	supercap test cell
	0.6mg
	6M KOH
PSTAT	PSTAT	IFC5000-01520	Potentiostat
CAPACITY	QUANT	1.00000E-003	Capacity (A-hr)
CELLTYPE	SELECTOR	1	&Cell Type
WORKINGCONNECTION	SELECTOR	0	&Working Lead
MAXCHARGETIME	VARIABLEANDUNITS	1.00000E+002	s	1.00000E+002	second(s)	Max &Charge Time
CHARGECURRENT	QUANT	6.00000E-003	&Charge Current (A)
VOLTAGEFINISH	TWOPARAM	F	1.00000E-003	3.60000E+003	&Voltage Finish	 I (A) < 	Max Time(s)
SAMPLETIME	QUANT	1.00000E-002	Sa&mple Period (s)
CHARGESTOPAT1	MULTIPARAM	4	1.00000E+000	Charge Stop At &1	Voltage > Limit	V
CHARGESTOPAT2	MULTIPARAM	0	0.00000E+000	Charge Stop At &2	None	N/A
AESBHCSELECTOR	TOGGLE	F	Save Both Half Cells
IRCOMP	TOGGLE	F	IR &Measure
EOC	QUANT	0	Open Circuit (V)
SEQUENCER	TOGGLE	TRUE	Run as Sequence
PSTATMODEL	IQUANT	53	Pstat Model
PSTATSECTION	LABEL	IFC5000-01520	Pstat Section
PSTATSERIALNO	LABEL	01520	Pstat Serial Number
CTRLMODE	IQUANT	0	Control Mode
ELECTROMETER	IQUANT	1	RE=0 or CS=1
IESTAB	IQUANT	0	I/E Stability
CASPEED	IQUANT	4	Control Amp Speed
CONVENTION	IQUANT	1	Current Convention
ICHRANGE	IQUANT	2	Ich Range
ICHRANGEMODE	TOGGLE	T	Ich Auto Range
ICHOFFSETENABLE	TOGGLE	F	Ich Offset Enable
ICHOFFSET	QUANT	0	Ich Offset (V)
ICHFILTER	IQUANT	1	Ich Filter
VCHRANGE	IQUANT	2	Vch Range
VCHRANGEMODE	TOGGLE	T	Vch Auto Range
VCHOFFSETENABLE	TOGGLE	F	Vch Offset Enable
VCHOFFSET	QUANT	0	Vch Offset (V)
VCHFILTER	IQUANT	1	Vch Filter
IERANGELOWERLIMIT	IQUANT	9	I/E Range Lower Limit
IERANGEMODE	TOGGLE	F	I/E AutoRange
IERANGE	IQUANT	10	I/E Range
ACHSELECT	IQUANT	1	Ach Select
ACHRANGE	IQUANT	2	Ach Range
ACHOFFSETENABLE	TOGGLE	F	Ach Offset Enable
ACHOFFSET	QUANT	0	Ach Offset (V)
ACHFILTER	IQUANT	1	Ach Filter
CABLEID	IQUANT	14	Cable ID
DCCALDATE	LABEL	20-10-2016	DC Calibration Date
ACCALDATE	LABEL	12/3/2015	AC Calibration Date
FRAMEWORKVERSION	QUANT	7.01	Framework Version
INSTRUMENTVERSION	LABEL	4.00	Instrument Version
CURVE	TABLE	66
	Pt	T	Vf	Im	Vu	Pwr	Sig	Ach	Temp	IERange	Over
	#	s	V	A	V	W	V	V	deg C	#	bits
	0	0.013333	6.03514E-001	5.99451E-003	0.00000E+000	3.61777E-003	3.59960E-001	-1.08216E+000	3.57820E+000	10	...........
	1	0.026667	6.11956E-001	5.99527E-003	0.00000E+000	3.66884E-003	3.59960E-001	-1.09274E+000	3.57820E+000	10	...........
	2	0.04	6.19741E-001	5.99005E-003	0.00000E+000	3.71228E-003	3.59960E-001	-1.08367E+000	3.57820E+000	10	...........
	3	0.053333	6.27084E-001	5.99739E-003	0.00000E+000	3.76086E-003	3.59960E-001	-1.08235E+000	3.57820E+000	10	...........
	4	0.066667	6.34129E-001	5.99753E-003	0.00000E+000	3.80320E-003	3.59960E-001	-1.09310E+000	3.57820E+000	10	...........
	5	0.08	6.41033E-001	5.99464E-003	0.00000E+000	3.84276E-003	3.59960E-001	-1.08384E+000	3.57820E+000	10	...........
	6	0.093333	6.47784E-001	5.99561E-003	0.00000E+000	3.88386E-003	3.59960E-001	-1.08215E+000	3.57820E+000	10	...........
	7	0.106667	6.54406E-001	5.99190E-003	0.00000E+000	3.92114E-003	3.59960E-001	-1.09259E+000	3.57820E+000	10	...........
	8	0.12	6.60967E-001	5.99477E-003	0.00000E+000	3.96235E-003	3.59960E-001	-1.08356E+000	3.57820E+000	10	...........
	9	0.133333	6.67465E-001	5.99402E-003	0.00000E+000	4.00080E-003	3.59960E-001	-1.08199E+000	3.57820E+000	10	...........
	10	0.146667	6.73821E-001	5.99073E-003	0.00000E+000	4.03668E-003	3.59960E-001	-1.09223E+000	3.57820E+000	10	...........
	11	0.16	6.80170E-001	5.98986E-003	0.00000E+000	4.07412E-003	3.59960E-001	-1.08316E+000	3.57820E+000	10	...........
	12	0.173333	6.86507E-001	5.99216E-003	0.00000E+000	4.11366E-003	3.59960E-001	-1.08148E+000	3.57820E+000	10	...........
	13	0.186667	6.92815E-001	5.98925E-003	0.00000E+000	4.14945E-003	3.59960E-001	-1.09203E+000	3.57820E+000	10	...........
	14	0.2	6.99069E-001	5.99077E-003	0.00000E+000	4.18796E-003	3.59960E-001	-1.08297E+000	3.57820E+000	10	...........
	15	0.213333	7.05295E-001	5.99179E-003	0.00000E+000	4.22598E-003	3.59960E-001	-1.08146E+000	3.57820E+000	10	...........
	16	0.226667	7.11452E-001	5.98966E-003	0.00000E+000	4.26136E-003	3.59960E-001	-1.09216E+000	3.57820E+000	10	...........
	17	0.24	7.17696E-001	5.99469E-003	0.00000E+000	4.30236E-003	3.59960E-001	-1.08294E+000	3.57820E+000	10	...........
	18	0.253333	7.23867E-001	5.99425E-003	0.00000E+000	4.33904E-003	3.59960E-001	-1.08138E+000	3.57820E+000	10	...........
	19	0.266667	7.30029E-001	5.99264E-003	0.00000E+000	4.37481E-003	3.59960E-001	-1.09217E+000	3.57820E+000	10	...........
	20	0.28	7.36170E-001	5.99381E-003	0.00000E+000	4.41247E-003	3.59960E-001	-1.08304E+000	3.57820E+000	10	...........
	21	0.293333	7.42311E-001	5.99283E-003	0.00000E+000	4.44855E-003	3.59960E-001	-1.08141E+000	3.57820E+000	10	...........
	22	0.306667	7.48431E-001	5.98983E-003	0.00000E+000	4.48297E-003	3.59960E-001	-1.09200E+000	3.57820E+000	10	...........
	23	0.32	7.54553E-001	5.99235E-003	0.00000E+000	4.52155E-003	3.59960E-001	-1.08291E+000	3.57820E+000	10	...........
	24	0.333333	7.60632E-001	5.99810E-003	0.00000E+000	4.56234E-003	3.59960E-001	-1.08159E+000	3.57820E+000	10	...........
	25	0.346667	7.66745E-001	5.99657E-003	0.00000E+000	4.59784E-003	3.59960E-001	-1.09186E+000	3.57820E+000	10	...........
	26	0.36	7.72817E-001	5.99318E-003	0.00000E+000	4.63163E-003	3.59960E-001	-1.08320E+000	3.57820E+000	10	...........
	27	0.373333	7.78924E-001	5.99366E-003	0.00000E+000	4.66860E-003	3.59960E-001	-1.08138E+000	3.57820E+000	10	...........
	28	0.386667	7.84991E-001	5.99408E-003	0.00000E+000	4.70530E-003	3.59960E-001	-1.09213E+000	3.57820E+000	10	...........
	29	0.4	7.91056E-001	5.99792E-003	0.00000E+000	4.74469E-003	3.59960E-001	-1.08326E+000	3.57820E+000	10	...........
	30	0.413333	7.97141E-001	5.99757E-003	0.00000E+000	4.78091E-003	3.59960E-001	-1.08166E+000	3.57820E+000	10	...........
	31	0.426667	8.03216E-001	5.99964E-003	0.00000E+000	4.81901E-003	3.59960E-001	-1.09207E+000	3.57820E+000	10	...........
	32	0.44	8.09233E-001	5.99494E-003	0.00000E+000	4.85130E-003	3.59960E-001	-1.08329E+000	3.57820E+000	10	...........
	33	0.453333	8.15277E-001	5.99234E-003	0.00000E+000	4.88542E-003	3.59960E-001	-1.08137E+000	3.57820E+000	10	...........
	34	0.466667	8.21318E-001	5.99710E-003	0.00000E+000	4.92552E-003	3.59960E-001	-1.09184E+000	3.57820E+000	10	...........
	35	0.48	8.27351E-001	5.99303E-003	0.00000E+000	4.95834E-003	3.59960E-001	-1.08261E+000	3.57820E+000	10	...........
	36	0.493333	8.33365E-001	5.99611E-003	0.00000E+000	4.99694E-003	3.59960E-001	-1.08079E+000	3.57820E+000	10	...........
	37	0.506667	8.39351E-001	5.99934E-003	0.00000E+000	5.03555E-003	3.59960E-001	-1.09151E+000	3.57820E+000	10	...........
	38	0.52	8.45391E-001	5.99239E-003	0.00000E+000	5.06591E-003	3.59960E-001	-1.08269E+000	3.57820E+000	10	...........
	39	0.533333	8.51404E-001	5.99124E-003	0.00000E+000	5.10096E-003	3.59960E-001	-1.08080E+000	3.57837E+000	10	...........
	40	0.546667	8.57364E-001	5.99179E-003	0.00000E+000	5.13714E-003	3.59960E-001	-1.09154E+000	3.57840E+000	10	...........
	41	0.56	8.63313E-001	5.99575E-003	0.00000E+000	5.17621E-003	3.59960E-001	-1.08260E+000	3.57840E+000	10	...........
	42	0.573333	8.69309E-001	5.99492E-003	0.00000E+000	5.21144E-003	3.59960E-001	-1.08082E+000	3.57840E+000	10	...........
	43	0.586667	8.75249E-001	5.99203E-003	0.00000E+000	5.24452E-003	3.59960E-001	-1.09129E+000	3.57840E+000	10	...........
	44	0.6	8.81171E-001	5.99521E-003	0.00000E+000	5.28281E-003	3.59960E-001	-1.08248E+000	3.57840E+000	10	...........
	45	0.613333	8.87083E-001	5.99462E-003	0.00000E+000	5.31772E-003	3.59960E-001	-1.08080E+000	3.57840E+000	10	...........
	46	0.626667	8.92959E-001	5.99875E-003	0.00000E+000	5.35664E-003	3.59960E-001	-1.09150E+000	3.57840E+000	10	...........
	47	0.64	8.98847E-001	5.99399E-003	0.00000E+000	5.38768E-003	3.59960E-001	-1.08229E+000	3.57840E+000	10	...........
	48	0.653333	9.04718E-001	5.99561E-003	0.00000E+000	5.42433E-003	3.59960E-001	-1.08062E+000	3.57840E+000	10	...........
	49	0.666667	9.10568E-001	5.99341E-003	0.00000E+000	5.45741E-003	3.59960E-001	-1.09117E+000	3.57840E+000	10	...........
	50	0.68	9.16408E-001	5.99132E-003	0.00000E+000	5.49049E-003	3.59960E-001	-1.08226E+000	3.57840E+000	10	...........
	51	0.693333	9.22255E-001	5.99562E-003	0.00000E+000	5.52949E-003	3.59960E-001	-1.08072E+000	3.57840E+000	10	...........
	52	0.706667	9.28021E-001	5.99362E-003	0.00000E+000	5.56221E-003	3.59960E-001	-1.09133E+000	3.57840E+000	10	...........
	53	0.72	9.33736E-001	5.99352E-003	0.00000E+000	5.59636E-003	3.59960E-001	-1.08240E+000	3.57840E+000	10	...........
	54	0.733333	9.39453E-001	5.99243E-003	0.00000E+000	5.62960E-003	3.59960E-001	-1.08064E+000	3.57840E+000	10	...........
	55	0.746667	9.45177E-001	5.99583E-003	0.00000E+000	5.66712E-003	3.59960E-001	-1.09132E+000	3.57840E+000	10	...........
	56	0.76	9.50868E-001	5.99276E-003	0.00000E+000	5.69832E-003	3.59960E-001	-1.08243E+000	3.57840E+000	10	...........
	57	0.773333	9.56479E-001	5.99163E-003	0.00000E+000	5.73087E-003	3.59960E-001	-1.08071E+000	3.57840E+000	10	...........
	58	0.786667	9.62110E-001	5.99233E-003	0.00000E+000	5.76528E-003	3.59960E-001	-1.09102E+000	3.57840E+000	10	...........
	59	0.8	9.67672E-001	5.99100E-003	0.00000E+000	5.79732E-003	3.59960E-001	-1.08192E+000	3.57840E+000	10	...........
	60	0.813333	9.73199E-001	5.99514E-003	0.00000E+000	5.83446E-003	3.59960E-001	-1.08043E+000	3.57840E+000	10	...........
	61	0.826667	9.78721E-001	5.99350E-003	0.00000E+000	5.86596E-003	3.59960E-001	-1.09115E+000	3.57840E+000	10	...........
	62	0.84	9.84178E-001	5.99764E-003	0.00000E+000	5.90275E-003	3.59960E-001	-1.08197E+000	3.57840E+000	10	...........
	63	0.853333	9.89613E-001	5.99512E-003	0.00000E+000	5.93284E-003	3.59960E-001	-1.08035E+000	3.57840E+000	10	...........
	64	0.866667	9.95017E-001	5.99202E-003	0.00000E+000	5.96216E-003	3.59960E-001	-1.09095E+000	3.57840E+000	10	...........
	65	0.873333	9.99084E-001	5.99262E-003	0.00000E+000	5.98713E-003	3.59960E-001	-1.07140E+000	3.57840E+000	10	...........
STARTTIMEOFFSET	QUANT	343.5551	Start Time Offset (s)