File: Data/CV_CRGO300517_1/PWRCCD_CRGO300517_1/CHARGE_DISCHARGE/CHARGE_#831.DTA
EXPLAIN
TAG	PWR800_CHARGE
TITLE	LABEL	PWR Cyclic Charge Discharge (Cell) - Charge Step	Test &Identifier
DATE	LABEL	22-6-2017	Date
TIME	LABEL	16:08:26	Time
NOTES	NOTES	3	&Notes...
	supercap test cell
	0.6mg
	6M KOH
PSTAT	PSTAT	IFC5000-01520	Potentiostat
CAPACITY	QUANT	1.00000E-003	Capacity (A-hr)
CELLTYPE	SELECTOR	1	&Cell Type
WORKINGCONNECTION	SELECTOR	0	&Working Lead
MAXCHARGETIME	VARIABLEANDUNITS	1.00000E+002	s	1.00000E+002	second(s)	Max &Charge Time
CHARGECURRENT	QUANT	6.00000E-003	&Charge Current (A)
VOLTAGEFINISH	TWOPARAM	F	1.00000E-003	3.60000E+003	&Voltage Finish	 I (A) < 	Max Time(s)
SAMPLETIME	QUANT	1.00000E-002	Sa&mple Period (s)
CHARGESTOPAT1	MULTIPARAM	4	1.00000E+000	Charge Stop At &1	Voltage > Limit	V
CHARGESTOPAT2	MULTIPARAM	0	0.00000E+000	Charge Stop At &2	None	N/A
AESBHCSELECTOR	TOGGLE	F	Save Both Half Cells
IRCOMP	TOGGLE	F	IR &Measure
EOC	QUANT	0	Open Circuit (V)
SEQUENCER	TOGGLE	TRUE	Run as Sequence
PSTATMODEL	IQUANT	53	Pstat Model
PSTATSECTION	LABEL	IFC5000-01520	Pstat Section
PSTATSERIALNO	LABEL	01520	Pstat Serial Number
CTRLMODE	IQUANT	0	Control Mode
ELECTROMETER	IQUANT	1	RE=0 or CS=1
IESTAB	IQUANT	0	I/E Stability
CASPEED	IQUANT	4	Control Amp Speed
CONVENTION	IQUANT	1	Current Convention
ICHRANGE	IQUANT	2	Ich Range
ICHRANGEMODE	TOGGLE	T	Ich Auto Range
ICHOFFSETENABLE	TOGGLE	F	Ich Offset Enable
ICHOFFSET	QUANT	0	Ich Offset (V)
ICHFILTER	IQUANT	1	Ich Filter
VCHRANGE	IQUANT	2	Vch Range
VCHRANGEMODE	TOGGLE	T	Vch Auto Range
VCHOFFSETENABLE	TOGGLE	F	Vch Offset Enable
VCHOFFSET	QUANT	0	Vch Offset (V)
VCHFILTER	IQUANT	1	Vch Filter
IERANGELOWERLIMIT	IQUANT	9	I/E Range Lower Limit
IERANGEMODE	TOGGLE	F	I/E AutoRange
IERANGE	IQUANT	10	I/E Range
ACHSELECT	IQUANT	1	Ach Select
ACHRANGE	IQUANT	2	Ach Range
ACHOFFSETENABLE	TOGGLE	F	Ach Offset Enable
ACHOFFSET	QUANT	0	Ach Offset (V)
ACHFILTER	IQUANT	1	Ach Filter
CABLEID	IQUANT	14	Cable ID
DCCALDATE	LABEL	20-10-2016	DC Calibration Date
ACCALDATE	LABEL	12/3/2015	AC Calibration Date
FRAMEWORKVERSION	QUANT	7.01	Framework Version
INSTRUMENTVERSION	LABEL	4.00	Instrument Version
CURVE	TABLE	54
	Pt	T	Vf	Im	Vu	Pwr	Sig	Ach	Temp	IERange	Over
	#	s	V	A	V	W	V	V	deg C	#	bits
	0	0.013333	6.50012E-001	5.99826E-003	0.00000E+000	3.89894E-003	3.59960E-001	-1.16233E+000	3.57650E+000	10	...........
	1	0.026667	6.59228E-001	5.98847E-003	0.00000E+000	3.94777E-003	3.59960E-001	-1.16568E+000	3.57650E+000	10	...........
	2	0.04	6.67757E-001	5.99637E-003	0.00000E+000	4.00412E-003	3.59960E-001	-1.17248E+000	3.57650E+000	10	...........
	3	0.053333	6.75750E-001	5.99449E-003	0.00000E+000	4.05078E-003	3.59960E-001	-1.16214E+000	3.57650E+000	10	...........
	4	0.066667	6.83508E-001	5.99646E-003	0.00000E+000	4.09863E-003	3.59960E-001	-1.16544E+000	3.57650E+000	10	...........
	5	0.08	6.91010E-001	5.99070E-003	0.00000E+000	4.13963E-003	3.59960E-001	-1.17229E+000	3.57650E+000	10	...........
	6	0.093333	6.98444E-001	5.98967E-003	0.00000E+000	4.18345E-003	3.59960E-001	-1.16227E+000	3.57650E+000	10	...........
	7	0.106667	7.05736E-001	5.99130E-003	0.00000E+000	4.22828E-003	3.59960E-001	-1.16558E+000	3.57650E+000	10	...........
	8	0.12	7.12910E-001	5.99408E-003	0.00000E+000	4.27324E-003	3.59960E-001	-1.17211E+000	3.57650E+000	10	...........
	9	0.133333	7.20070E-001	5.99370E-003	0.00000E+000	4.31588E-003	3.59960E-001	-1.16195E+000	3.57650E+000	10	...........
	10	0.146667	7.27137E-001	5.99360E-003	0.00000E+000	4.35817E-003	3.59960E-001	-1.16550E+000	3.57650E+000	10	...........
	11	0.16	7.34102E-001	5.99443E-003	0.00000E+000	4.40052E-003	3.59960E-001	-1.17220E+000	3.57650E+000	10	...........
	12	0.173333	7.41062E-001	5.99742E-003	0.00000E+000	4.44446E-003	3.59960E-001	-1.16198E+000	3.57650E+000	10	...........
	13	0.186667	7.47976E-001	5.99486E-003	0.00000E+000	4.48401E-003	3.59960E-001	-1.16533E+000	3.57650E+000	10	...........
	14	0.2	7.54877E-001	5.99377E-003	0.00000E+000	4.52456E-003	3.59960E-001	-1.17215E+000	3.57650E+000	10	...........
	15	0.213333	7.61701E-001	5.99237E-003	0.00000E+000	4.56440E-003	3.59960E-001	-1.16204E+000	3.57650E+000	10	...........
	16	0.226667	7.68528E-001	5.99513E-003	0.00000E+000	4.60743E-003	3.59960E-001	-1.16520E+000	3.57650E+000	10	...........
	17	0.24	7.75320E-001	5.99543E-003	0.00000E+000	4.64837E-003	3.59960E-001	-1.17229E+000	3.57650E+000	10	...........
	18	0.253333	7.82095E-001	5.99321E-003	0.00000E+000	4.68726E-003	3.59960E-001	-1.16179E+000	3.57650E+000	10	...........
	19	0.266667	7.88760E-001	5.99628E-003	0.00000E+000	4.72963E-003	3.59960E-001	-1.16487E+000	3.57650E+000	10	...........
	20	0.28	7.95500E-001	5.99046E-003	0.00000E+000	4.76541E-003	3.59960E-001	-1.17190E+000	3.57650E+000	10	...........
	21	0.293333	8.02185E-001	5.99970E-003	0.00000E+000	4.81286E-003	3.59960E-001	-1.16162E+000	3.57650E+000	10	...........
	22	0.306667	8.08847E-001	5.99269E-003	0.00000E+000	4.84717E-003	3.59960E-001	-1.16500E+000	3.57650E+000	10	...........
	23	0.32	8.15486E-001	5.99526E-003	0.00000E+000	4.88905E-003	3.59960E-001	-1.17178E+000	3.57650E+000	10	...........
	24	0.333333	8.22152E-001	5.99793E-003	0.00000E+000	4.93121E-003	3.59960E-001	-1.16148E+000	3.57650E+000	10	...........
	25	0.346667	8.28683E-001	5.99548E-003	0.00000E+000	4.96835E-003	3.59960E-001	-1.16472E+000	3.57650E+000	10	...........
	26	0.36	8.35192E-001	5.99530E-003	0.00000E+000	5.00723E-003	3.59960E-001	-1.17202E+000	3.57650E+000	10	...........
	27	0.373333	8.41693E-001	5.99084E-003	0.00000E+000	5.04245E-003	3.59960E-001	-1.16161E+000	3.57650E+000	10	...........
	28	0.386667	8.48247E-001	5.99640E-003	0.00000E+000	5.08642E-003	3.59960E-001	-1.16465E+000	3.57650E+000	10	...........
	29	0.4	8.54739E-001	5.99976E-003	0.00000E+000	5.12823E-003	3.59960E-001	-1.17182E+000	3.57650E+000	10	...........
	30	0.413333	8.61203E-001	5.99624E-003	0.00000E+000	5.16398E-003	3.59960E-001	-1.16151E+000	3.57650E+000	10	...........
	31	0.426667	8.67631E-001	5.99671E-003	0.00000E+000	5.20293E-003	3.59960E-001	-1.16466E+000	3.57650E+000	10	...........
	32	0.44	8.74099E-001	5.99185E-003	0.00000E+000	5.23747E-003	3.59960E-001	-1.17192E+000	3.57650E+000	10	...........
	33	0.453333	8.80489E-001	5.99442E-003	0.00000E+000	5.27802E-003	3.59960E-001	-1.16133E+000	3.57650E+000	10	...........
	34	0.466667	8.86885E-001	5.99693E-003	0.00000E+000	5.31859E-003	3.59960E-001	-1.16448E+000	3.57650E+000	10	...........
	35	0.48	8.93186E-001	5.99527E-003	0.00000E+000	5.35489E-003	3.59960E-001	-1.17184E+000	3.57650E+000	10	...........
	36	0.493333	8.99467E-001	5.99324E-003	0.00000E+000	5.39072E-003	3.59960E-001	-1.16157E+000	3.57650E+000	10	...........
	37	0.506667	9.05705E-001	5.99407E-003	0.00000E+000	5.42886E-003	3.59960E-001	-1.16471E+000	3.57650E+000	10	...........
	38	0.52	9.11951E-001	5.99151E-003	0.00000E+000	5.46396E-003	3.59960E-001	-1.17189E+000	3.57650E+000	10	...........
	39	0.533333	9.18157E-001	5.99596E-003	0.00000E+000	5.50524E-003	3.59960E-001	-1.16147E+000	3.57650E+000	10	...........
	40	0.546667	9.24321E-001	5.99520E-003	0.00000E+000	5.54149E-003	3.59960E-001	-1.16465E+000	3.57650E+000	10	...........
	41	0.56	9.30381E-001	5.99457E-003	0.00000E+000	5.57724E-003	3.59960E-001	-1.17189E+000	3.57650E+000	10	...........
	42	0.573333	9.36407E-001	5.99962E-003	0.00000E+000	5.61809E-003	3.59960E-001	-1.16133E+000	3.57650E+000	10	...........
	43	0.586667	9.42395E-001	5.99368E-003	0.00000E+000	5.64841E-003	3.59960E-001	-1.16412E+000	3.57650E+000	10	...........
	44	0.6	9.48434E-001	5.99085E-003	0.00000E+000	5.68192E-003	3.59960E-001	-1.17146E+000	3.57650E+000	10	...........
	45	0.613333	9.54330E-001	5.99394E-003	0.00000E+000	5.72019E-003	3.59960E-001	-1.16106E+000	3.57650E+000	10	...........
	46	0.626667	9.60189E-001	5.99037E-003	0.00000E+000	5.75189E-003	3.59960E-001	-1.16441E+000	3.57650E+000	10	...........
	47	0.64	9.65983E-001	5.99510E-003	0.00000E+000	5.79116E-003	3.59960E-001	-1.17178E+000	3.57650E+000	10	...........
	48	0.653333	9.71792E-001	5.99372E-003	0.00000E+000	5.82465E-003	3.59960E-001	-1.16096E+000	3.57650E+000	10	...........
	49	0.666667	9.77548E-001	5.99407E-003	0.00000E+000	5.85950E-003	3.59960E-001	-1.16396E+000	3.57650E+000	10	...........
	50	0.68	9.83194E-001	5.99401E-003	0.00000E+000	5.89327E-003	3.59960E-001	-1.17143E+000	3.57650E+000	10	...........
	51	0.693333	9.88787E-001	5.99157E-003	0.00000E+000	5.92439E-003	3.59960E-001	-1.16135E+000	3.57650E+000	10	...........
	52	0.706667	9.94344E-001	5.99304E-003	0.00000E+000	5.95915E-003	3.59960E-001	-1.16410E+000	3.57650E+000	10	...........
	53	0.715	9.98872E-001	5.99960E-003	0.00000E+000	5.99283E-003	3.59960E-001	-1.17020E+000	3.57650E+000	10	...........
STARTTIMEOFFSET	QUANT	1348.427	Start Time Offset (s)