File: Data/CV_CRGO300517_1/PWRCCD_CRGO300517_1/CHARGE_DISCHARGE/CHARGE_#34.DTA
EXPLAIN
TAG	PWR800_CHARGE
TITLE	LABEL	PWR Cyclic Charge Discharge (Cell) - Charge Step	Test &Identifier
DATE	LABEL	22-6-2017	Date
TIME	LABEL	15:36:32	Time
NOTES	NOTES	3	&Notes...
	supercap test cell
	0.6mg
	6M KOH
PSTAT	PSTAT	IFC5000-01520	Potentiostat
CAPACITY	QUANT	1.00000E-003	Capacity (A-hr)
CELLTYPE	SELECTOR	1	&Cell Type
WORKINGCONNECTION	SELECTOR	0	&Working Lead
MAXCHARGETIME	VARIABLEANDUNITS	1.00000E+002	s	1.00000E+002	second(s)	Max &Charge Time
CHARGECURRENT	QUANT	6.00000E-003	&Charge Current (A)
VOLTAGEFINISH	TWOPARAM	F	1.00000E-003	3.60000E+003	&Voltage Finish	 I (A) < 	Max Time(s)
SAMPLETIME	QUANT	1.00000E-002	Sa&mple Period (s)
CHARGESTOPAT1	MULTIPARAM	4	1.00000E+000	Charge Stop At &1	Voltage > Limit	V
CHARGESTOPAT2	MULTIPARAM	0	0.00000E+000	Charge Stop At &2	None	N/A
AESBHCSELECTOR	TOGGLE	F	Save Both Half Cells
IRCOMP	TOGGLE	F	IR &Measure
EOC	QUANT	0	Open Circuit (V)
SEQUENCER	TOGGLE	TRUE	Run as Sequence
PSTATMODEL	IQUANT	53	Pstat Model
PSTATSECTION	LABEL	IFC5000-01520	Pstat Section
PSTATSERIALNO	LABEL	01520	Pstat Serial Number
CTRLMODE	IQUANT	0	Control Mode
ELECTROMETER	IQUANT	1	RE=0 or CS=1
IESTAB	IQUANT	0	I/E Stability
CASPEED	IQUANT	4	Control Amp Speed
CONVENTION	IQUANT	1	Current Convention
ICHRANGE	IQUANT	2	Ich Range
ICHRANGEMODE	TOGGLE	T	Ich Auto Range
ICHOFFSETENABLE	TOGGLE	F	Ich Offset Enable
ICHOFFSET	QUANT	0	Ich Offset (V)
ICHFILTER	IQUANT	1	Ich Filter
VCHRANGE	IQUANT	2	Vch Range
VCHRANGEMODE	TOGGLE	T	Vch Auto Range
VCHOFFSETENABLE	TOGGLE	F	Vch Offset Enable
VCHOFFSET	QUANT	0	Vch Offset (V)
VCHFILTER	IQUANT	1	Vch Filter
IERANGELOWERLIMIT	IQUANT	9	I/E Range Lower Limit
IERANGEMODE	TOGGLE	F	I/E AutoRange
IERANGE	IQUANT	10	I/E Range
ACHSELECT	IQUANT	1	Ach Select
ACHRANGE	IQUANT	2	Ach Range
ACHOFFSETENABLE	TOGGLE	F	Ach Offset Enable
ACHOFFSET	QUANT	0	Ach Offset (V)
ACHFILTER	IQUANT	1	Ach Filter
CABLEID	IQUANT	14	Cable ID
DCCALDATE	LABEL	20-10-2016	DC Calibration Date
ACCALDATE	LABEL	12/3/2015	AC Calibration Date
FRAMEWORKVERSION	QUANT	7.01	Framework Version
INSTRUMENTVERSION	LABEL	4.00	Instrument Version
CURVE	TABLE	76
	Pt	T	Vf	Im	Vu	Pwr	Sig	Ach	Temp	IERange	Over
	#	s	V	A	V	W	V	V	deg C	#	bits
	0	0.013333	5.67720E-001	5.99412E-003	0.00000E+000	3.40298E-003	3.59960E-001	-1.02350E+000	3.57750E+000	10	...........
	1	0.026667	5.75755E-001	5.99164E-003	0.00000E+000	3.44972E-003	3.59960E-001	-1.02841E+000	3.57750E+000	10	...........
	2	0.04	5.83092E-001	5.99236E-003	0.00000E+000	3.49410E-003	3.59960E-001	-1.03341E+000	3.57750E+000	10	...........
	3	0.053333	5.90105E-001	5.99252E-003	0.00000E+000	3.53621E-003	3.59960E-001	-1.02382E+000	3.57750E+000	10	...........
	4	0.066667	5.96766E-001	5.99601E-003	0.00000E+000	3.57822E-003	3.59960E-001	-1.02860E+000	3.57750E+000	10	...........
	5	0.08	6.03271E-001	5.99459E-003	0.00000E+000	3.61637E-003	3.59960E-001	-1.03362E+000	3.57750E+000	10	...........
	6	0.093333	6.09630E-001	5.99423E-003	0.00000E+000	3.65426E-003	3.59960E-001	-1.02333E+000	3.57750E+000	10	...........
	7	0.106667	6.15948E-001	5.99521E-003	0.00000E+000	3.69274E-003	3.59960E-001	-1.02856E+000	3.57750E+000	10	...........
	8	0.12	6.22111E-001	5.99385E-003	0.00000E+000	3.72884E-003	3.59960E-001	-1.03383E+000	3.57750E+000	10	...........
	9	0.133333	6.28149E-001	5.99380E-003	0.00000E+000	3.76500E-003	3.59960E-001	-1.02350E+000	3.57750E+000	10	...........
	10	0.146667	6.34185E-001	5.99592E-003	0.00000E+000	3.80252E-003	3.59960E-001	-1.02848E+000	3.57750E+000	10	...........
	11	0.16	6.40187E-001	5.99404E-003	0.00000E+000	3.83731E-003	3.59960E-001	-1.03325E+000	3.57750E+000	10	...........
	12	0.173333	6.46133E-001	5.99159E-003	0.00000E+000	3.87137E-003	3.59960E-001	-1.02354E+000	3.57750E+000	10	...........
	13	0.186667	6.52033E-001	5.99351E-003	0.00000E+000	3.90797E-003	3.59960E-001	-1.02837E+000	3.57750E+000	10	...........
	14	0.2	6.57916E-001	5.99464E-003	0.00000E+000	3.94397E-003	3.59960E-001	-1.03306E+000	3.57750E+000	10	...........
	15	0.213333	6.63713E-001	5.99428E-003	0.00000E+000	3.97849E-003	3.59960E-001	-1.02276E+000	3.57750E+000	10	...........
	16	0.226667	6.69563E-001	5.99544E-003	0.00000E+000	4.01432E-003	3.59960E-001	-1.02786E+000	3.57750E+000	10	...........
	17	0.24	6.75343E-001	5.99403E-003	0.00000E+000	4.04803E-003	3.59960E-001	-1.03270E+000	3.57750E+000	10	...........
	18	0.253333	6.81135E-001	5.99250E-003	0.00000E+000	4.08170E-003	3.59960E-001	-1.02296E+000	3.57750E+000	10	...........
	19	0.266667	6.86839E-001	5.99258E-003	0.00000E+000	4.11594E-003	3.59960E-001	-1.02800E+000	3.57750E+000	10	...........
	20	0.28	6.92562E-001	5.99292E-003	0.00000E+000	4.15046E-003	3.59960E-001	-1.03265E+000	3.57750E+000	10	...........
	21	0.293333	6.98270E-001	5.99565E-003	0.00000E+000	4.18658E-003	3.59960E-001	-1.02262E+000	3.57750E+000	10	...........
	22	0.306667	7.03988E-001	5.99318E-003	0.00000E+000	4.21913E-003	3.59960E-001	-1.02788E+000	3.57750E+000	10	...........
	23	0.32	7.09653E-001	5.99556E-003	0.00000E+000	4.25477E-003	3.59960E-001	-1.03279E+000	3.57750E+000	10	...........
	24	0.333333	7.15371E-001	5.99778E-003	0.00000E+000	4.29064E-003	3.59960E-001	-1.02274E+000	3.57750E+000	10	...........
	25	0.346667	7.21116E-001	5.99525E-003	0.00000E+000	4.32327E-003	3.59960E-001	-1.02779E+000	3.57750E+000	10	...........
	26	0.36	7.26737E-001	5.99664E-003	0.00000E+000	4.35798E-003	3.59960E-001	-1.03251E+000	3.57750E+000	10	...........
	27	0.373333	7.32415E-001	5.99268E-003	0.00000E+000	4.38913E-003	3.59960E-001	-1.02257E+000	3.57750E+000	10	...........
	28	0.386667	7.38081E-001	5.99462E-003	0.00000E+000	4.42451E-003	3.59960E-001	-1.02796E+000	3.57750E+000	10	...........
	29	0.4	7.43773E-001	5.99442E-003	0.00000E+000	4.45849E-003	3.59960E-001	-1.03272E+000	3.57750E+000	10	...........
	30	0.413333	7.49438E-001	5.99396E-003	0.00000E+000	4.49210E-003	3.59960E-001	-1.02271E+000	3.57750E+000	10	...........
	31	0.426667	7.55125E-001	5.99684E-003	0.00000E+000	4.52836E-003	3.59960E-001	-1.02791E+000	3.57750E+000	10	...........
	32	0.44	7.60754E-001	5.99450E-003	0.00000E+000	4.56034E-003	3.59960E-001	-1.03280E+000	3.57750E+000	10	...........
	33	0.453333	7.66408E-001	5.99265E-003	0.00000E+000	4.59282E-003	3.59960E-001	-1.02298E+000	3.57750E+000	10	...........
	34	0.466667	7.72081E-001	5.99457E-003	0.00000E+000	4.62830E-003	3.59960E-001	-1.02815E+000	3.57750E+000	10	...........
	35	0.48	7.77752E-001	5.99414E-003	0.00000E+000	4.66195E-003	3.59960E-001	-1.03265E+000	3.57750E+000	10	...........
	36	0.493333	7.83435E-001	5.99442E-003	0.00000E+000	4.69624E-003	3.59960E-001	-1.02271E+000	3.57750E+000	10	...........
	37	0.506667	7.89106E-001	5.99273E-003	0.00000E+000	4.72890E-003	3.59960E-001	-1.02780E+000	3.57750E+000	10	...........
	38	0.52	7.94806E-001	5.99529E-003	0.00000E+000	4.76509E-003	3.59960E-001	-1.03222E+000	3.57750E+000	10	...........
	39	0.533333	8.00469E-001	5.99238E-003	0.00000E+000	4.79672E-003	3.59960E-001	-1.02238E+000	3.57750E+000	10	...........
	40	0.546667	8.06121E-001	5.99658E-003	0.00000E+000	4.83397E-003	3.59960E-001	-1.02784E+000	3.57750E+000	10	...........
	41	0.56	8.11769E-001	5.99264E-003	0.00000E+000	4.86464E-003	3.59960E-001	-1.03209E+000	3.57750E+000	10	...........
	42	0.573333	8.17408E-001	5.99032E-003	0.00000E+000	4.89653E-003	3.59960E-001	-1.02236E+000	3.57750E+000	10	...........
	43	0.586667	8.23086E-001	5.99280E-003	0.00000E+000	4.93259E-003	3.59960E-001	-1.02777E+000	3.57750E+000	10	...........
	44	0.6	8.28734E-001	5.99307E-003	0.00000E+000	4.96667E-003	3.59960E-001	-1.03203E+000	3.57750E+000	10	...........
	45	0.613333	8.34341E-001	5.99358E-003	0.00000E+000	5.00069E-003	3.59960E-001	-1.02222E+000	3.57750E+000	10	...........
	46	0.626667	8.39991E-001	5.99319E-003	0.00000E+000	5.03422E-003	3.59960E-001	-1.02743E+000	3.57750E+000	10	...........
	47	0.64	8.45679E-001	5.99227E-003	0.00000E+000	5.06754E-003	3.59960E-001	-1.03201E+000	3.57750E+000	10	...........
	48	0.653333	8.51327E-001	5.99485E-003	0.00000E+000	5.10357E-003	3.59960E-001	-1.02242E+000	3.57750E+000	10	...........
	49	0.666667	8.56987E-001	5.99607E-003	0.00000E+000	5.13855E-003	3.59960E-001	-1.02781E+000	3.57750E+000	10	...........
	50	0.68	8.62664E-001	5.99330E-003	0.00000E+000	5.17021E-003	3.59960E-001	-1.03201E+000	3.57750E+000	10	...........
	51	0.693333	8.68290E-001	5.99346E-003	0.00000E+000	5.20406E-003	3.59960E-001	-1.02219E+000	3.57750E+000	10	...........
	52	0.706667	8.73934E-001	5.99500E-003	0.00000E+000	5.23923E-003	3.59960E-001	-1.02770E+000	3.57750E+000	10	...........
	53	0.72	8.79559E-001	5.99680E-003	0.00000E+000	5.27454E-003	3.59960E-001	-1.03230E+000	3.57750E+000	10	...........
	54	0.733333	8.85189E-001	5.99074E-003	0.00000E+000	5.30293E-003	3.59960E-001	-1.02243E+000	3.57750E+000	10	...........
	55	0.746667	8.90787E-001	5.99440E-003	0.00000E+000	5.33973E-003	3.59960E-001	-1.02816E+000	3.57750E+000	10	...........
	56	0.76	8.96388E-001	5.99322E-003	0.00000E+000	5.37225E-003	3.59960E-001	-1.03186E+000	3.57750E+000	10	...........
	57	0.773333	9.02009E-001	5.99166E-003	0.00000E+000	5.40453E-003	3.59960E-001	-1.02233E+000	3.57750E+000	10	...........
	58	0.786667	9.07601E-001	5.99513E-003	0.00000E+000	5.44118E-003	3.59960E-001	-1.02810E+000	3.57750E+000	10	...........
	59	0.8	9.13193E-001	5.99474E-003	0.00000E+000	5.47436E-003	3.59960E-001	-1.03215E+000	3.57750E+000	10	...........
	60	0.813333	9.18754E-001	5.99038E-003	0.00000E+000	5.50369E-003	3.59960E-001	-1.02205E+000	3.57750E+000	10	...........
	61	0.826667	9.24379E-001	5.99706E-003	0.00000E+000	5.54355E-003	3.59960E-001	-1.02758E+000	3.57750E+000	10	...........
	62	0.84	9.29912E-001	5.99376E-003	0.00000E+000	5.57367E-003	3.59960E-001	-1.03157E+000	3.57750E+000	10	...........
	63	0.853333	9.35410E-001	5.99303E-003	0.00000E+000	5.60594E-003	3.59960E-001	-1.02192E+000	3.57750E+000	10	...........
	64	0.866667	9.40940E-001	5.99162E-003	0.00000E+000	5.63775E-003	3.59960E-001	-1.02758E+000	3.57750E+000	10	...........
	65	0.88	9.46435E-001	5.99442E-003	0.00000E+000	5.67333E-003	3.59960E-001	-1.03158E+000	3.57750E+000	10	...........
	66	0.893333	9.51929E-001	5.99745E-003	0.00000E+000	5.70915E-003	3.59960E-001	-1.02178E+000	3.57750E+000	10	...........
	67	0.906667	9.57346E-001	5.99257E-003	0.00000E+000	5.73696E-003	3.59960E-001	-1.02761E+000	3.57750E+000	10	...........
	68	0.92	9.62769E-001	5.99153E-003	0.00000E+000	5.76846E-003	3.59960E-001	-1.03159E+000	3.57750E+000	10	...........
	69	0.933333	9.68196E-001	5.99503E-003	0.00000E+000	5.80437E-003	3.59960E-001	-1.02185E+000	3.57750E+000	10	...........
	70	0.946667	9.73570E-001	5.99522E-003	0.00000E+000	5.83677E-003	3.59960E-001	-1.02763E+000	3.57750E+000	10	...........
	71	0.96	9.78921E-001	5.99007E-003	0.00000E+000	5.86380E-003	3.59960E-001	-1.03120E+000	3.57750E+000	10	...........
	72	0.97333	9.84211E-001	5.99604E-003	0.00000E+000	5.90137E-003	3.59960E-001	-1.02178E+000	3.57750E+000	10	...........
	73	0.98667	9.89545E-001	5.99636E-003	0.00000E+000	5.93367E-003	3.59960E-001	-1.02781E+000	3.57750E+000	10	...........
	74	1	9.94751E-001	5.99326E-003	0.00000E+000	5.96180E-003	3.59960E-001	-1.03143E+000	3.57750E+000	10	...........
	75	1.00833	9.99048E-001	5.99618E-003	0.00000E+000	5.99047E-003	3.59960E-001	-1.01660E+000	3.57724E+000	10	...........
STARTTIMEOFFSET	QUANT	68.93333	Start Time Offset (s)