File: Data/CV_CRGO300517_1/PWRCCD_CRGO300517_1/CHARGE_DISCHARGE/CHARGE_#723.DTA
EXPLAIN
TAG	PWR800_CHARGE
TITLE	LABEL	PWR Cyclic Charge Discharge (Cell) - Charge Step	Test &Identifier
DATE	LABEL	22-6-2017	Date
TIME	LABEL	16:04:25	Time
NOTES	NOTES	3	&Notes...
	supercap test cell
	0.6mg
	6M KOH
PSTAT	PSTAT	IFC5000-01520	Potentiostat
CAPACITY	QUANT	1.00000E-003	Capacity (A-hr)
CELLTYPE	SELECTOR	1	&Cell Type
WORKINGCONNECTION	SELECTOR	0	&Working Lead
MAXCHARGETIME	VARIABLEANDUNITS	1.00000E+002	s	1.00000E+002	second(s)	Max &Charge Time
CHARGECURRENT	QUANT	6.00000E-003	&Charge Current (A)
VOLTAGEFINISH	TWOPARAM	F	1.00000E-003	3.60000E+003	&Voltage Finish	 I (A) < 	Max Time(s)
SAMPLETIME	QUANT	1.00000E-002	Sa&mple Period (s)
CHARGESTOPAT1	MULTIPARAM	4	1.00000E+000	Charge Stop At &1	Voltage > Limit	V
CHARGESTOPAT2	MULTIPARAM	0	0.00000E+000	Charge Stop At &2	None	N/A
AESBHCSELECTOR	TOGGLE	F	Save Both Half Cells
IRCOMP	TOGGLE	F	IR &Measure
EOC	QUANT	0	Open Circuit (V)
SEQUENCER	TOGGLE	TRUE	Run as Sequence
PSTATMODEL	IQUANT	53	Pstat Model
PSTATSECTION	LABEL	IFC5000-01520	Pstat Section
PSTATSERIALNO	LABEL	01520	Pstat Serial Number
CTRLMODE	IQUANT	0	Control Mode
ELECTROMETER	IQUANT	1	RE=0 or CS=1
IESTAB	IQUANT	0	I/E Stability
CASPEED	IQUANT	4	Control Amp Speed
CONVENTION	IQUANT	1	Current Convention
ICHRANGE	IQUANT	2	Ich Range
ICHRANGEMODE	TOGGLE	T	Ich Auto Range
ICHOFFSETENABLE	TOGGLE	F	Ich Offset Enable
ICHOFFSET	QUANT	0	Ich Offset (V)
ICHFILTER	IQUANT	1	Ich Filter
VCHRANGE	IQUANT	2	Vch Range
VCHRANGEMODE	TOGGLE	T	Vch Auto Range
VCHOFFSETENABLE	TOGGLE	F	Vch Offset Enable
VCHOFFSET	QUANT	0	Vch Offset (V)
VCHFILTER	IQUANT	1	Vch Filter
IERANGELOWERLIMIT	IQUANT	9	I/E Range Lower Limit
IERANGEMODE	TOGGLE	F	I/E AutoRange
IERANGE	IQUANT	10	I/E Range
ACHSELECT	IQUANT	1	Ach Select
ACHRANGE	IQUANT	2	Ach Range
ACHOFFSETENABLE	TOGGLE	F	Ach Offset Enable
ACHOFFSET	QUANT	0	Ach Offset (V)
ACHFILTER	IQUANT	1	Ach Filter
CABLEID	IQUANT	14	Cable ID
DCCALDATE	LABEL	20-10-2016	DC Calibration Date
ACCALDATE	LABEL	12/3/2015	AC Calibration Date
FRAMEWORKVERSION	QUANT	7.01	Framework Version
INSTRUMENTVERSION	LABEL	4.00	Instrument Version
CURVE	TABLE	55
	Pt	T	Vf	Im	Vu	Pwr	Sig	Ach	Temp	IERange	Over
	#	s	V	A	V	W	V	V	deg C	#	bits
	0	0.013333	6.44453E-001	5.99590E-003	0.00000E+000	3.86407E-003	3.59960E-001	-1.16601E+000	3.57780E+000	10	...........
	1	0.026667	6.53563E-001	5.99054E-003	0.00000E+000	3.91520E-003	3.59960E-001	-1.15782E+000	3.57780E+000	10	...........
	2	0.04	6.61947E-001	5.99168E-003	0.00000E+000	3.96617E-003	3.59960E-001	-1.15488E+000	3.57780E+000	10	...........
	3	0.053333	6.69921E-001	5.99580E-003	0.00000E+000	4.01671E-003	3.59960E-001	-1.16613E+000	3.57780E+000	10	...........
	4	0.066667	6.77575E-001	5.99610E-003	0.00000E+000	4.06280E-003	3.59960E-001	-1.15741E+000	3.57780E+000	10	...........
	5	0.08	6.85029E-001	5.99467E-003	0.00000E+000	4.10652E-003	3.59960E-001	-1.15474E+000	3.57780E+000	10	...........
	6	0.093333	6.92373E-001	5.99488E-003	0.00000E+000	4.15069E-003	3.59960E-001	-1.16554E+000	3.57780E+000	10	...........
	7	0.106667	6.99558E-001	5.99516E-003	0.00000E+000	4.19396E-003	3.59960E-001	-1.15717E+000	3.57780E+000	10	...........
	8	0.12	7.06677E-001	5.99478E-003	0.00000E+000	4.23637E-003	3.59960E-001	-1.15418E+000	3.57780E+000	10	...........
	9	0.133333	7.13672E-001	5.99479E-003	0.00000E+000	4.27832E-003	3.59960E-001	-1.16541E+000	3.57780E+000	10	...........
	10	0.146667	7.20699E-001	5.99323E-003	0.00000E+000	4.31932E-003	3.59960E-001	-1.15699E+000	3.57780E+000	10	...........
	11	0.16	7.27615E-001	5.99464E-003	0.00000E+000	4.36178E-003	3.59960E-001	-1.15437E+000	3.57780E+000	10	...........
	12	0.173333	7.34448E-001	5.99185E-003	0.00000E+000	4.40070E-003	3.59960E-001	-1.16541E+000	3.57780E+000	10	...........
	13	0.186667	7.41296E-001	5.99374E-003	0.00000E+000	4.44313E-003	3.59960E-001	-1.15689E+000	3.57780E+000	10	...........
	14	0.2	7.48131E-001	5.99556E-003	0.00000E+000	4.48547E-003	3.59960E-001	-1.15439E+000	3.57780E+000	10	...........
	15	0.213333	7.54890E-001	5.98848E-003	0.00000E+000	4.52064E-003	3.59960E-001	-1.16551E+000	3.57780E+000	10	...........
	16	0.226667	7.61636E-001	5.99370E-003	0.00000E+000	4.56501E-003	3.59960E-001	-1.15702E+000	3.57780E+000	10	...........
	17	0.24	7.68375E-001	5.99023E-003	0.00000E+000	4.60274E-003	3.59960E-001	-1.15428E+000	3.57780E+000	10	...........
	18	0.253333	7.75065E-001	5.99292E-003	0.00000E+000	4.64490E-003	3.59960E-001	-1.16520E+000	3.57780E+000	10	...........
	19	0.266667	7.81777E-001	5.98849E-003	0.00000E+000	4.68167E-003	3.59960E-001	-1.15660E+000	3.57780E+000	10	...........
	20	0.28	7.88448E-001	5.99382E-003	0.00000E+000	4.72582E-003	3.59960E-001	-1.15425E+000	3.57780E+000	10	...........
	21	0.293333	7.95121E-001	5.99153E-003	0.00000E+000	4.76399E-003	3.59960E-001	-1.16549E+000	3.57780E+000	10	...........
	22	0.306667	8.01759E-001	5.99189E-003	0.00000E+000	4.80406E-003	3.59960E-001	-1.15680E+000	3.57780E+000	10	...........
	23	0.32	8.08348E-001	5.99684E-003	0.00000E+000	4.84753E-003	3.59960E-001	-1.15434E+000	3.57780E+000	10	...........
	24	0.333333	8.14892E-001	5.99095E-003	0.00000E+000	4.88198E-003	3.59960E-001	-1.16539E+000	3.57780E+000	10	...........
	25	0.346667	8.21484E-001	5.99515E-003	0.00000E+000	4.92492E-003	3.59960E-001	-1.15676E+000	3.57780E+000	10	...........
	26	0.36	8.28003E-001	5.99303E-003	0.00000E+000	4.96225E-003	3.59960E-001	-1.15449E+000	3.57780E+000	10	...........
	27	0.373333	8.34484E-001	5.99556E-003	0.00000E+000	5.00320E-003	3.59960E-001	-1.16549E+000	3.57780E+000	10	...........
	28	0.386667	8.40961E-001	5.99754E-003	0.00000E+000	5.04370E-003	3.59960E-001	-1.15651E+000	3.57780E+000	10	...........
	29	0.4	8.47411E-001	5.99359E-003	0.00000E+000	5.07904E-003	3.59960E-001	-1.15397E+000	3.57780E+000	10	...........
	30	0.413333	8.53822E-001	5.99577E-003	0.00000E+000	5.11933E-003	3.59960E-001	-1.16513E+000	3.57780E+000	10	...........
	31	0.426667	8.60267E-001	5.99753E-003	0.00000E+000	5.15948E-003	3.59960E-001	-1.15615E+000	3.57780E+000	10	...........
	32	0.44	8.66677E-001	5.99467E-003	0.00000E+000	5.19544E-003	3.59960E-001	-1.15397E+000	3.57780E+000	10	...........
	33	0.453333	8.73061E-001	5.99647E-003	0.00000E+000	5.23528E-003	3.59960E-001	-1.16506E+000	3.57780E+000	10	...........
	34	0.466667	8.79389E-001	5.99087E-003	0.00000E+000	5.26831E-003	3.59960E-001	-1.15592E+000	3.57780E+000	10	...........
	35	0.48	8.85719E-001	5.99259E-003	0.00000E+000	5.30775E-003	3.59960E-001	-1.15407E+000	3.57780E+000	10	...........
	36	0.493333	8.92025E-001	5.99758E-003	0.00000E+000	5.34999E-003	3.59960E-001	-1.16512E+000	3.57780E+000	10	...........
	37	0.506667	8.98249E-001	5.99096E-003	0.00000E+000	5.38138E-003	3.59960E-001	-1.15599E+000	3.57780E+000	10	...........
	38	0.52	9.04445E-001	5.99310E-003	0.00000E+000	5.42043E-003	3.59960E-001	-1.15398E+000	3.57780E+000	10	...........
	39	0.533333	9.10622E-001	5.99715E-003	0.00000E+000	5.46114E-003	3.59960E-001	-1.16516E+000	3.57780E+000	10	...........
	40	0.546667	9.16752E-001	5.99709E-003	0.00000E+000	5.49784E-003	3.59960E-001	-1.15607E+000	3.57780E+000	10	...........
	41	0.56	9.22915E-001	5.99681E-003	0.00000E+000	5.53455E-003	3.59960E-001	-1.15403E+000	3.57780E+000	10	...........
	42	0.573333	9.28975E-001	5.99391E-003	0.00000E+000	5.56819E-003	3.59960E-001	-1.16502E+000	3.57780E+000	10	...........
	43	0.586667	9.35000E-001	5.99429E-003	0.00000E+000	5.60466E-003	3.59960E-001	-1.15571E+000	3.57780E+000	10	...........
	44	0.6	9.40980E-001	5.99361E-003	0.00000E+000	5.63987E-003	3.59960E-001	-1.15372E+000	3.57780E+000	10	...........
	45	0.613333	9.46938E-001	5.99574E-003	0.00000E+000	5.67760E-003	3.59960E-001	-1.16514E+000	3.57780E+000	10	...........
	46	0.626667	9.52874E-001	5.99532E-003	0.00000E+000	5.71279E-003	3.59960E-001	-1.15604E+000	3.57780E+000	10	...........
	47	0.64	9.58696E-001	5.99472E-003	0.00000E+000	5.74711E-003	3.59960E-001	-1.15419E+000	3.57780E+000	10	...........
	48	0.653333	9.64455E-001	5.98990E-003	0.00000E+000	5.77699E-003	3.59960E-001	-1.16519E+000	3.57780E+000	10	...........
	49	0.666667	9.70238E-001	5.99558E-003	0.00000E+000	5.81713E-003	3.59960E-001	-1.15575E+000	3.57780E+000	10	...........
	50	0.68	9.75981E-001	5.99269E-003	0.00000E+000	5.84875E-003	3.59960E-001	-1.15407E+000	3.57780E+000	10	...........
	51	0.693333	9.81635E-001	5.99635E-003	0.00000E+000	5.88622E-003	3.59960E-001	-1.16520E+000	3.57780E+000	10	...........
	52	0.706667	9.87248E-001	5.99561E-003	0.00000E+000	5.91915E-003	3.59960E-001	-1.15599E+000	3.57780E+000	10	...........
	53	0.72	9.92799E-001	5.99277E-003	0.00000E+000	5.94961E-003	3.59960E-001	-1.15387E+000	3.57780E+000	10	...........
	54	0.731667	9.98028E-001	5.99659E-003	0.00000E+000	5.98476E-003	3.59960E-001	-1.16628E+000	3.57780E+000	10	...........
STARTTIMEOFFSET	QUANT	1192.85	Start Time Offset (s)