File: Data/CV_CRGO300517_1/PWRCCD_CRGO300517_1/CHARGE_DISCHARGE/CHARGE_#99.DTA
EXPLAIN
TAG	PWR800_CHARGE
TITLE	LABEL	PWR Cyclic Charge Discharge (Cell) - Charge Step	Test &Identifier
DATE	LABEL	22-6-2017	Date
TIME	LABEL	15:39:27	Time
NOTES	NOTES	3	&Notes...
	supercap test cell
	0.6mg
	6M KOH
PSTAT	PSTAT	IFC5000-01520	Potentiostat
CAPACITY	QUANT	1.00000E-003	Capacity (A-hr)
CELLTYPE	SELECTOR	1	&Cell Type
WORKINGCONNECTION	SELECTOR	0	&Working Lead
MAXCHARGETIME	VARIABLEANDUNITS	1.00000E+002	s	1.00000E+002	second(s)	Max &Charge Time
CHARGECURRENT	QUANT	6.00000E-003	&Charge Current (A)
VOLTAGEFINISH	TWOPARAM	F	1.00000E-003	3.60000E+003	&Voltage Finish	 I (A) < 	Max Time(s)
SAMPLETIME	QUANT	1.00000E-002	Sa&mple Period (s)
CHARGESTOPAT1	MULTIPARAM	4	1.00000E+000	Charge Stop At &1	Voltage > Limit	V
CHARGESTOPAT2	MULTIPARAM	0	0.00000E+000	Charge Stop At &2	None	N/A
AESBHCSELECTOR	TOGGLE	F	Save Both Half Cells
IRCOMP	TOGGLE	F	IR &Measure
EOC	QUANT	0	Open Circuit (V)
SEQUENCER	TOGGLE	TRUE	Run as Sequence
PSTATMODEL	IQUANT	53	Pstat Model
PSTATSECTION	LABEL	IFC5000-01520	Pstat Section
PSTATSERIALNO	LABEL	01520	Pstat Serial Number
CTRLMODE	IQUANT	0	Control Mode
ELECTROMETER	IQUANT	1	RE=0 or CS=1
IESTAB	IQUANT	0	I/E Stability
CASPEED	IQUANT	4	Control Amp Speed
CONVENTION	IQUANT	1	Current Convention
ICHRANGE	IQUANT	2	Ich Range
ICHRANGEMODE	TOGGLE	T	Ich Auto Range
ICHOFFSETENABLE	TOGGLE	F	Ich Offset Enable
ICHOFFSET	QUANT	0	Ich Offset (V)
ICHFILTER	IQUANT	1	Ich Filter
VCHRANGE	IQUANT	2	Vch Range
VCHRANGEMODE	TOGGLE	T	Vch Auto Range
VCHOFFSETENABLE	TOGGLE	F	Vch Offset Enable
VCHOFFSET	QUANT	0	Vch Offset (V)
VCHFILTER	IQUANT	1	Vch Filter
IERANGELOWERLIMIT	IQUANT	9	I/E Range Lower Limit
IERANGEMODE	TOGGLE	F	I/E AutoRange
IERANGE	IQUANT	10	I/E Range
ACHSELECT	IQUANT	1	Ach Select
ACHRANGE	IQUANT	2	Ach Range
ACHOFFSETENABLE	TOGGLE	F	Ach Offset Enable
ACHOFFSET	QUANT	0	Ach Offset (V)
ACHFILTER	IQUANT	1	Ach Filter
CABLEID	IQUANT	14	Cable ID
DCCALDATE	LABEL	20-10-2016	DC Calibration Date
ACCALDATE	LABEL	12/3/2015	AC Calibration Date
FRAMEWORKVERSION	QUANT	7.01	Framework Version
INSTRUMENTVERSION	LABEL	4.00	Instrument Version
CURVE	TABLE	70
	Pt	T	Vf	Im	Vu	Pwr	Sig	Ach	Temp	IERange	Over
	#	s	V	A	V	W	V	V	deg C	#	bits
	0	0.013333	5.88418E-001	5.99718E-003	0.00000E+000	3.52885E-003	3.59960E-001	-1.06932E+000	3.57700E+000	10	...........
	1	0.026667	5.96657E-001	5.98874E-003	0.00000E+000	3.57323E-003	3.59960E-001	-1.07032E+000	3.57700E+000	10	...........
	2	0.04	6.04223E-001	5.99215E-003	0.00000E+000	3.62059E-003	3.59960E-001	-1.06275E+000	3.57700E+000	10	...........
	3	0.053333	6.11423E-001	5.99472E-003	0.00000E+000	3.66531E-003	3.59960E-001	-1.06965E+000	3.57700E+000	10	...........
	4	0.066667	6.18360E-001	5.99297E-003	0.00000E+000	3.70581E-003	3.59960E-001	-1.07070E+000	3.57700E+000	10	...........
	5	0.08	6.25095E-001	5.99322E-003	0.00000E+000	3.74633E-003	3.59960E-001	-1.06316E+000	3.57700E+000	10	...........
	6	0.093333	6.31644E-001	5.99217E-003	0.00000E+000	3.78492E-003	3.59960E-001	-1.07009E+000	3.57700E+000	10	...........
	7	0.106667	6.38090E-001	5.99391E-003	0.00000E+000	3.82465E-003	3.59960E-001	-1.07093E+000	3.57700E+000	10	...........
	8	0.12	6.44488E-001	5.99591E-003	0.00000E+000	3.86429E-003	3.59960E-001	-1.06323E+000	3.57700E+000	10	...........
	9	0.133333	6.50774E-001	5.99504E-003	0.00000E+000	3.90142E-003	3.59960E-001	-1.06969E+000	3.57700E+000	10	...........
	10	0.146667	6.57012E-001	5.99427E-003	0.00000E+000	3.93831E-003	3.59960E-001	-1.07085E+000	3.57700E+000	10	...........
	11	0.16	6.63208E-001	5.99647E-003	0.00000E+000	3.97691E-003	3.59960E-001	-1.06311E+000	3.57700E+000	10	...........
	12	0.173333	6.69387E-001	5.99415E-003	0.00000E+000	4.01240E-003	3.59960E-001	-1.06926E+000	3.57700E+000	10	...........
	13	0.186667	6.75470E-001	5.99572E-003	0.00000E+000	4.04993E-003	3.59960E-001	-1.07047E+000	3.57700E+000	10	...........
	14	0.2	6.81539E-001	5.99625E-003	0.00000E+000	4.08668E-003	3.59960E-001	-1.06214E+000	3.57700E+000	10	...........
	15	0.213333	6.87585E-001	5.99776E-003	0.00000E+000	4.12396E-003	3.59960E-001	-1.06869E+000	3.57700E+000	10	...........
	16	0.226667	6.93626E-001	5.99070E-003	0.00000E+000	4.15531E-003	3.59960E-001	-1.07008E+000	3.57700E+000	10	...........
	17	0.24	6.99612E-001	5.99189E-003	0.00000E+000	4.19200E-003	3.59960E-001	-1.06197E+000	3.57700E+000	10	...........
	18	0.253333	7.05596E-001	5.99336E-003	0.00000E+000	4.22890E-003	3.59960E-001	-1.06802E+000	3.57700E+000	10	...........
	19	0.266667	7.11554E-001	5.99518E-003	0.00000E+000	4.26589E-003	3.59960E-001	-1.06936E+000	3.57700E+000	10	...........
	20	0.28	7.17581E-001	5.99147E-003	0.00000E+000	4.29936E-003	3.59960E-001	-1.06112E+000	3.57708E+000	10	...........
	21	0.293333	7.23533E-001	5.99844E-003	0.00000E+000	4.34007E-003	3.59960E-001	-1.06725E+000	3.57720E+000	10	...........
	22	0.306667	7.29489E-001	5.99500E-003	0.00000E+000	4.37329E-003	3.59960E-001	-1.06852E+000	3.57720E+000	10	...........
	23	0.32	7.35350E-001	5.99567E-003	0.00000E+000	4.40891E-003	3.59960E-001	-1.06001E+000	3.57720E+000	10	...........
	24	0.333333	7.41337E-001	5.99297E-003	0.00000E+000	4.44281E-003	3.59960E-001	-1.06573E+000	3.57720E+000	10	...........
	25	0.346667	7.47257E-001	5.98992E-003	0.00000E+000	4.47601E-003	3.59960E-001	-1.06729E+000	3.57720E+000	10	...........
	26	0.36	7.53156E-001	5.99729E-003	0.00000E+000	4.51689E-003	3.59960E-001	-1.05892E+000	3.57720E+000	10	...........
	27	0.373333	7.59060E-001	5.99283E-003	0.00000E+000	4.54892E-003	3.59960E-001	-1.06468E+000	3.57720E+000	10	...........
	28	0.386667	7.64952E-001	5.99567E-003	0.00000E+000	4.58640E-003	3.59960E-001	-1.06616E+000	3.57720E+000	10	...........
	29	0.4	7.70893E-001	5.99381E-003	0.00000E+000	4.62059E-003	3.59960E-001	-1.05790E+000	3.57720E+000	10	...........
	30	0.413333	7.76808E-001	5.99331E-003	0.00000E+000	4.65565E-003	3.59960E-001	-1.06402E+000	3.57720E+000	10	...........
	31	0.426667	7.82709E-001	5.99539E-003	0.00000E+000	4.69264E-003	3.59960E-001	-1.06589E+000	3.57720E+000	10	...........
	32	0.44	7.88618E-001	5.99545E-003	0.00000E+000	4.72812E-003	3.59960E-001	-1.05747E+000	3.57720E+000	10	...........
	33	0.453333	7.94515E-001	5.99210E-003	0.00000E+000	4.76082E-003	3.59960E-001	-1.06337E+000	3.57720E+000	10	...........
	34	0.466667	8.00423E-001	5.99022E-003	0.00000E+000	4.79471E-003	3.59960E-001	-1.06543E+000	3.57720E+000	10	...........
	35	0.48	8.06304E-001	5.99302E-003	0.00000E+000	4.83219E-003	3.59960E-001	-1.05776E+000	3.57720E+000	10	...........
	36	0.493333	8.12166E-001	5.99529E-003	0.00000E+000	4.86917E-003	3.59960E-001	-1.06359E+000	3.57720E+000	10	...........
	37	0.506667	8.18028E-001	5.99017E-003	0.00000E+000	4.90013E-003	3.59960E-001	-1.06618E+000	3.57720E+000	10	...........
	38	0.52	8.23880E-001	5.98960E-003	0.00000E+000	4.93471E-003	3.59960E-001	-1.05735E+000	3.57720E+000	10	...........
	39	0.533333	8.29775E-001	5.99650E-003	0.00000E+000	4.97575E-003	3.59960E-001	-1.06326E+000	3.57720E+000	10	...........
	40	0.546667	8.35669E-001	5.98920E-003	0.00000E+000	5.00499E-003	3.59960E-001	-1.06611E+000	3.57720E+000	10	...........
	41	0.56	8.41522E-001	5.99421E-003	0.00000E+000	5.04426E-003	3.59960E-001	-1.05791E+000	3.57720E+000	10	...........
	42	0.573333	8.47374E-001	5.99593E-003	0.00000E+000	5.08079E-003	3.59960E-001	-1.06377E+000	3.57720E+000	10	...........
	43	0.586667	8.53235E-001	5.99470E-003	0.00000E+000	5.11489E-003	3.59960E-001	-1.06651E+000	3.57720E+000	10	...........
	44	0.6	8.59053E-001	5.99205E-003	0.00000E+000	5.14749E-003	3.59960E-001	-1.05801E+000	3.57720E+000	10	...........
	45	0.613333	8.64917E-001	5.99499E-003	0.00000E+000	5.18517E-003	3.59960E-001	-1.06399E+000	3.57720E+000	10	...........
	46	0.626667	8.70737E-001	5.99442E-003	0.00000E+000	5.21956E-003	3.59960E-001	-1.06672E+000	3.57720E+000	10	...........
	47	0.64	8.76568E-001	5.99309E-003	0.00000E+000	5.25336E-003	3.59960E-001	-1.05824E+000	3.57720E+000	10	...........
	48	0.653333	8.82358E-001	5.99547E-003	0.00000E+000	5.29015E-003	3.59960E-001	-1.06379E+000	3.57720E+000	10	...........
	49	0.666667	8.88169E-001	5.99499E-003	0.00000E+000	5.32456E-003	3.59960E-001	-1.06673E+000	3.57720E+000	10	...........
	50	0.68	8.93945E-001	5.99012E-003	0.00000E+000	5.35484E-003	3.59960E-001	-1.05835E+000	3.57720E+000	10	...........
	51	0.693333	8.99719E-001	5.99184E-003	0.00000E+000	5.39098E-003	3.59960E-001	-1.06374E+000	3.57720E+000	10	...........
	52	0.706667	9.05445E-001	5.99540E-003	0.00000E+000	5.42850E-003	3.59960E-001	-1.06663E+000	3.57720E+000	10	...........
	53	0.72	9.11197E-001	5.99543E-003	0.00000E+000	5.46302E-003	3.59960E-001	-1.05808E+000	3.57720E+000	10	...........
	54	0.733333	9.16863E-001	5.99755E-003	0.00000E+000	5.49893E-003	3.59960E-001	-1.06358E+000	3.57720E+000	10	...........
	55	0.746667	9.22632E-001	5.99046E-003	0.00000E+000	5.52699E-003	3.59960E-001	-1.06682E+000	3.57720E+000	10	...........
	56	0.76	9.28284E-001	5.99657E-003	0.00000E+000	5.56651E-003	3.59960E-001	-1.05828E+000	3.57720E+000	10	...........
	57	0.773333	9.33951E-001	5.99923E-003	0.00000E+000	5.60298E-003	3.59960E-001	-1.06337E+000	3.57720E+000	10	...........
	58	0.786667	9.39552E-001	5.99247E-003	0.00000E+000	5.63023E-003	3.59960E-001	-1.06660E+000	3.57720E+000	10	...........
	59	0.8	9.45171E-001	5.99211E-003	0.00000E+000	5.66357E-003	3.59960E-001	-1.05781E+000	3.57720E+000	10	...........
	60	0.813333	9.50786E-001	5.99229E-003	0.00000E+000	5.69738E-003	3.59960E-001	-1.06317E+000	3.57720E+000	10	...........
	61	0.826667	9.56349E-001	5.99836E-003	0.00000E+000	5.73653E-003	3.59960E-001	-1.06647E+000	3.57720E+000	10	...........
	62	0.84	9.61896E-001	5.99383E-003	0.00000E+000	5.76545E-003	3.59960E-001	-1.05724E+000	3.57720E+000	10	...........
	63	0.853333	9.67416E-001	5.99739E-003	0.00000E+000	5.80197E-003	3.59960E-001	-1.06209E+000	3.57720E+000	10	...........
	64	0.866667	9.72903E-001	5.98968E-003	0.00000E+000	5.82738E-003	3.59960E-001	-1.06544E+000	3.57720E+000	10	...........
	65	0.88	9.78358E-001	5.99669E-003	0.00000E+000	5.86691E-003	3.59960E-001	-1.05637E+000	3.57720E+000	10	...........
	66	0.893333	9.83762E-001	5.99205E-003	0.00000E+000	5.89475E-003	3.59960E-001	-1.06146E+000	3.57720E+000	10	...........
	67	0.906667	9.89171E-001	5.99317E-003	0.00000E+000	5.92827E-003	3.59960E-001	-1.06466E+000	3.57720E+000	10	...........
	68	0.92	9.94472E-001	5.99432E-003	0.00000E+000	5.96119E-003	3.59960E-001	-1.05545E+000	3.57720E+000	10	...........
	69	0.928333	9.98843E-001	5.99579E-003	0.00000E+000	5.98886E-003	3.59960E-001	-1.06856E+000	3.57720E+000	10	...........
STARTTIMEOFFSET	QUANT	193.3683	Start Time Offset (s)