File: Data/CV_CRGO300517_1/PWRCCD_CRGO300517_1/CHARGE_DISCHARGE/CHARGE_#602.DTA
EXPLAIN
TAG	PWR800_CHARGE
TITLE	LABEL	PWR Cyclic Charge Discharge (Cell) - Charge Step	Test &Identifier
DATE	LABEL	22-6-2017	Date
TIME	LABEL	15:59:50	Time
NOTES	NOTES	3	&Notes...
	supercap test cell
	0.6mg
	6M KOH
PSTAT	PSTAT	IFC5000-01520	Potentiostat
CAPACITY	QUANT	1.00000E-003	Capacity (A-hr)
CELLTYPE	SELECTOR	1	&Cell Type
WORKINGCONNECTION	SELECTOR	0	&Working Lead
MAXCHARGETIME	VARIABLEANDUNITS	1.00000E+002	s	1.00000E+002	second(s)	Max &Charge Time
CHARGECURRENT	QUANT	6.00000E-003	&Charge Current (A)
VOLTAGEFINISH	TWOPARAM	F	1.00000E-003	3.60000E+003	&Voltage Finish	 I (A) < 	Max Time(s)
SAMPLETIME	QUANT	1.00000E-002	Sa&mple Period (s)
CHARGESTOPAT1	MULTIPARAM	4	1.00000E+000	Charge Stop At &1	Voltage > Limit	V
CHARGESTOPAT2	MULTIPARAM	0	0.00000E+000	Charge Stop At &2	None	N/A
AESBHCSELECTOR	TOGGLE	F	Save Both Half Cells
IRCOMP	TOGGLE	F	IR &Measure
EOC	QUANT	0	Open Circuit (V)
SEQUENCER	TOGGLE	TRUE	Run as Sequence
PSTATMODEL	IQUANT	53	Pstat Model
PSTATSECTION	LABEL	IFC5000-01520	Pstat Section
PSTATSERIALNO	LABEL	01520	Pstat Serial Number
CTRLMODE	IQUANT	0	Control Mode
ELECTROMETER	IQUANT	1	RE=0 or CS=1
IESTAB	IQUANT	0	I/E Stability
CASPEED	IQUANT	4	Control Amp Speed
CONVENTION	IQUANT	1	Current Convention
ICHRANGE	IQUANT	2	Ich Range
ICHRANGEMODE	TOGGLE	T	Ich Auto Range
ICHOFFSETENABLE	TOGGLE	F	Ich Offset Enable
ICHOFFSET	QUANT	0	Ich Offset (V)
ICHFILTER	IQUANT	1	Ich Filter
VCHRANGE	IQUANT	2	Vch Range
VCHRANGEMODE	TOGGLE	T	Vch Auto Range
VCHOFFSETENABLE	TOGGLE	F	Vch Offset Enable
VCHOFFSET	QUANT	0	Vch Offset (V)
VCHFILTER	IQUANT	1	Vch Filter
IERANGELOWERLIMIT	IQUANT	9	I/E Range Lower Limit
IERANGEMODE	TOGGLE	F	I/E AutoRange
IERANGE	IQUANT	10	I/E Range
ACHSELECT	IQUANT	1	Ach Select
ACHRANGE	IQUANT	2	Ach Range
ACHOFFSETENABLE	TOGGLE	F	Ach Offset Enable
ACHOFFSET	QUANT	0	Ach Offset (V)
ACHFILTER	IQUANT	1	Ach Filter
CABLEID	IQUANT	14	Cable ID
DCCALDATE	LABEL	20-10-2016	DC Calibration Date
ACCALDATE	LABEL	12/3/2015	AC Calibration Date
FRAMEWORKVERSION	QUANT	7.01	Framework Version
INSTRUMENTVERSION	LABEL	4.00	Instrument Version
CURVE	TABLE	57
	Pt	T	Vf	Im	Vu	Pwr	Sig	Ach	Temp	IERange	Over
	#	s	V	A	V	W	V	V	deg C	#	bits
	0	0.013333	6.38604E-001	5.99341E-003	0.00000E+000	3.82741E-003	3.59960E-001	-1.14658E+000	3.57640E+000	10	...........
	1	0.026667	6.47632E-001	5.99535E-003	0.00000E+000	3.88278E-003	3.59960E-001	-1.15467E+000	3.57640E+000	10	...........
	2	0.04	6.55858E-001	5.99383E-003	0.00000E+000	3.93110E-003	3.59960E-001	-1.15305E+000	3.57640E+000	10	...........
	3	0.053333	6.63730E-001	5.98916E-003	0.00000E+000	3.97518E-003	3.59960E-001	-1.14617E+000	3.57640E+000	10	...........
	4	0.066667	6.71317E-001	5.99354E-003	0.00000E+000	4.02357E-003	3.59960E-001	-1.15417E+000	3.57640E+000	10	...........
	5	0.08	6.78626E-001	5.99409E-003	0.00000E+000	4.06775E-003	3.59960E-001	-1.15284E+000	3.57640E+000	10	...........
	6	0.093333	6.85859E-001	5.99259E-003	0.00000E+000	4.11007E-003	3.59960E-001	-1.14633E+000	3.57640E+000	10	...........
	7	0.106667	6.92993E-001	5.99337E-003	0.00000E+000	4.15337E-003	3.59960E-001	-1.15409E+000	3.57640E+000	10	...........
	8	0.12	6.99971E-001	5.98965E-003	0.00000E+000	4.19258E-003	3.59960E-001	-1.15244E+000	3.57640E+000	10	...........
	9	0.133333	7.06936E-001	5.99235E-003	0.00000E+000	4.23621E-003	3.59960E-001	-1.14574E+000	3.57640E+000	10	...........
	10	0.146667	7.13739E-001	5.99501E-003	0.00000E+000	4.27888E-003	3.59960E-001	-1.15343E+000	3.57640E+000	10	...........
	11	0.16	7.20661E-001	5.99286E-003	0.00000E+000	4.31882E-003	3.59960E-001	-1.15242E+000	3.57640E+000	10	...........
	12	0.173333	7.27428E-001	5.99536E-003	0.00000E+000	4.36119E-003	3.59960E-001	-1.14575E+000	3.57640E+000	10	...........
	13	0.186667	7.34161E-001	5.99451E-003	0.00000E+000	4.40093E-003	3.59960E-001	-1.15339E+000	3.57640E+000	10	...........
	14	0.2	7.40907E-001	5.99118E-003	0.00000E+000	4.43891E-003	3.59960E-001	-1.15220E+000	3.57640E+000	10	...........
	15	0.213333	7.47642E-001	5.99399E-003	0.00000E+000	4.48136E-003	3.59960E-001	-1.14565E+000	3.57640E+000	10	...........
	16	0.226667	7.54301E-001	5.99670E-003	0.00000E+000	4.52332E-003	3.59960E-001	-1.15331E+000	3.57640E+000	10	...........
	17	0.24	7.60943E-001	5.99858E-003	0.00000E+000	4.56458E-003	3.59960E-001	-1.15241E+000	3.57640E+000	10	...........
	18	0.253333	7.67563E-001	5.99419E-003	0.00000E+000	4.60092E-003	3.59960E-001	-1.14543E+000	3.57640E+000	10	...........
	19	0.266667	7.74197E-001	5.99479E-003	0.00000E+000	4.64115E-003	3.59960E-001	-1.15304E+000	3.57640E+000	10	...........
	20	0.28	7.80764E-001	5.99279E-003	0.00000E+000	4.67896E-003	3.59960E-001	-1.15234E+000	3.57640E+000	10	...........
	21	0.293333	7.87319E-001	5.99665E-003	0.00000E+000	4.72128E-003	3.59960E-001	-1.14554E+000	3.57640E+000	10	...........
	22	0.306667	7.93870E-001	5.99121E-003	0.00000E+000	4.75625E-003	3.59960E-001	-1.15298E+000	3.57640E+000	10	...........
	23	0.32	8.00386E-001	5.99555E-003	0.00000E+000	4.79876E-003	3.59960E-001	-1.15233E+000	3.57640E+000	10	...........
	24	0.333333	8.06870E-001	5.99643E-003	0.00000E+000	4.83834E-003	3.59960E-001	-1.14543E+000	3.57660E+000	10	...........
	25	0.346667	8.13359E-001	5.99377E-003	0.00000E+000	4.87509E-003	3.59960E-001	-1.15302E+000	3.57660E+000	10	...........
	26	0.36	8.19814E-001	5.99554E-003	0.00000E+000	4.91523E-003	3.59960E-001	-1.15248E+000	3.57660E+000	10	...........
	27	0.373333	8.26282E-001	5.99725E-003	0.00000E+000	4.95542E-003	3.59960E-001	-1.14540E+000	3.57660E+000	10	...........
	28	0.386667	8.32696E-001	5.99361E-003	0.00000E+000	4.99086E-003	3.59960E-001	-1.15296E+000	3.57660E+000	10	...........
	29	0.4	8.39084E-001	5.99668E-003	0.00000E+000	5.03172E-003	3.59960E-001	-1.15235E+000	3.57660E+000	10	...........
	30	0.413333	8.45498E-001	5.99433E-003	0.00000E+000	5.06820E-003	3.59960E-001	-1.14545E+000	3.57660E+000	10	...........
	31	0.426667	8.51875E-001	5.99124E-003	0.00000E+000	5.10379E-003	3.59960E-001	-1.15282E+000	3.57660E+000	10	...........
	32	0.44	8.58244E-001	5.99501E-003	0.00000E+000	5.14518E-003	3.59960E-001	-1.15244E+000	3.57660E+000	10	...........
	33	0.453333	8.64568E-001	5.99364E-003	0.00000E+000	5.18190E-003	3.59960E-001	-1.14521E+000	3.57660E+000	10	...........
	34	0.466667	8.70896E-001	5.99503E-003	0.00000E+000	5.22105E-003	3.59960E-001	-1.15238E+000	3.57660E+000	10	...........
	35	0.48	8.77170E-001	5.99758E-003	0.00000E+000	5.26089E-003	3.59960E-001	-1.15212E+000	3.57660E+000	10	...........
	36	0.493333	8.83430E-001	5.99054E-003	0.00000E+000	5.29222E-003	3.59960E-001	-1.14516E+000	3.57660E+000	10	...........
	37	0.506667	8.89678E-001	5.99012E-003	0.00000E+000	5.32928E-003	3.59960E-001	-1.15246E+000	3.57660E+000	10	...........
	38	0.52	8.95873E-001	5.99725E-003	0.00000E+000	5.37278E-003	3.59960E-001	-1.15243E+000	3.57660E+000	10	...........
	39	0.533333	9.02026E-001	5.99246E-003	0.00000E+000	5.40535E-003	3.59960E-001	-1.14514E+000	3.57660E+000	10	...........
	40	0.546667	9.08208E-001	5.99131E-003	0.00000E+000	5.44135E-003	3.59960E-001	-1.15211E+000	3.57660E+000	10	...........
	41	0.56	9.14280E-001	5.99342E-003	0.00000E+000	5.47966E-003	3.59960E-001	-1.15221E+000	3.57660E+000	10	...........
	42	0.573333	9.20372E-001	5.99414E-003	0.00000E+000	5.51683E-003	3.59960E-001	-1.14504E+000	3.57660E+000	10	...........
	43	0.586667	9.26467E-001	5.99352E-003	0.00000E+000	5.55280E-003	3.59960E-001	-1.15198E+000	3.57660E+000	10	...........
	44	0.6	9.32454E-001	5.98938E-003	0.00000E+000	5.58482E-003	3.59960E-001	-1.15231E+000	3.57660E+000	10	...........
	45	0.613333	9.38390E-001	5.99699E-003	0.00000E+000	5.62752E-003	3.59960E-001	-1.14488E+000	3.57660E+000	10	...........
	46	0.626667	9.44303E-001	5.99456E-003	0.00000E+000	5.66069E-003	3.59960E-001	-1.15201E+000	3.57660E+000	10	...........
	47	0.64	9.50212E-001	5.99157E-003	0.00000E+000	5.69326E-003	3.59960E-001	-1.15244E+000	3.57660E+000	10	...........
	48	0.653333	9.56036E-001	5.99318E-003	0.00000E+000	5.72969E-003	3.59960E-001	-1.14494E+000	3.57660E+000	10	...........
	49	0.666667	9.61827E-001	5.99237E-003	0.00000E+000	5.76363E-003	3.59960E-001	-1.15216E+000	3.57660E+000	10	...........
	50	0.68	9.67606E-001	5.99516E-003	0.00000E+000	5.80095E-003	3.59960E-001	-1.15244E+000	3.57660E+000	10	...........
	51	0.693333	9.73350E-001	5.99371E-003	0.00000E+000	5.83398E-003	3.59960E-001	-1.14513E+000	3.57660E+000	10	...........
	52	0.706667	9.78970E-001	5.99430E-003	0.00000E+000	5.86824E-003	3.59960E-001	-1.15226E+000	3.57660E+000	10	...........
	53	0.72	9.84633E-001	5.99237E-003	0.00000E+000	5.90029E-003	3.59960E-001	-1.15268E+000	3.57660E+000	10	...........
	54	0.733333	9.90173E-001	5.99258E-003	0.00000E+000	5.93369E-003	3.59960E-001	-1.14515E+000	3.57660E+000	10	...........
	55	0.746667	9.95636E-001	5.99248E-003	0.00000E+000	5.96633E-003	3.59960E-001	-1.15190E+000	3.57660E+000	10	...........
	56	0.751667	9.99467E-001	5.99752E-003	0.00000E+000	5.99432E-003	3.59960E-001	-1.14136E+000	3.57660E+000	10	...........
STARTTIMEOFFSET	QUANT	1013.937	Start Time Offset (s)