File: Data/CV_CRGO300517_1/PWRCCD_CRGO300517_1/CHARGE_DISCHARGE/CHARGE_#674.DTA
EXPLAIN
TAG	PWR800_CHARGE
TITLE	LABEL	PWR Cyclic Charge Discharge (Cell) - Charge Step	Test &Identifier
DATE	LABEL	22-6-2017	Date
TIME	LABEL	16:02:34	Time
NOTES	NOTES	3	&Notes...
	supercap test cell
	0.6mg
	6M KOH
PSTAT	PSTAT	IFC5000-01520	Potentiostat
CAPACITY	QUANT	1.00000E-003	Capacity (A-hr)
CELLTYPE	SELECTOR	1	&Cell Type
WORKINGCONNECTION	SELECTOR	0	&Working Lead
MAXCHARGETIME	VARIABLEANDUNITS	1.00000E+002	s	1.00000E+002	second(s)	Max &Charge Time
CHARGECURRENT	QUANT	6.00000E-003	&Charge Current (A)
VOLTAGEFINISH	TWOPARAM	F	1.00000E-003	3.60000E+003	&Voltage Finish	 I (A) < 	Max Time(s)
SAMPLETIME	QUANT	1.00000E-002	Sa&mple Period (s)
CHARGESTOPAT1	MULTIPARAM	4	1.00000E+000	Charge Stop At &1	Voltage > Limit	V
CHARGESTOPAT2	MULTIPARAM	0	0.00000E+000	Charge Stop At &2	None	N/A
AESBHCSELECTOR	TOGGLE	F	Save Both Half Cells
IRCOMP	TOGGLE	F	IR &Measure
EOC	QUANT	0	Open Circuit (V)
SEQUENCER	TOGGLE	TRUE	Run as Sequence
PSTATMODEL	IQUANT	53	Pstat Model
PSTATSECTION	LABEL	IFC5000-01520	Pstat Section
PSTATSERIALNO	LABEL	01520	Pstat Serial Number
CTRLMODE	IQUANT	0	Control Mode
ELECTROMETER	IQUANT	1	RE=0 or CS=1
IESTAB	IQUANT	0	I/E Stability
CASPEED	IQUANT	4	Control Amp Speed
CONVENTION	IQUANT	1	Current Convention
ICHRANGE	IQUANT	2	Ich Range
ICHRANGEMODE	TOGGLE	T	Ich Auto Range
ICHOFFSETENABLE	TOGGLE	F	Ich Offset Enable
ICHOFFSET	QUANT	0	Ich Offset (V)
ICHFILTER	IQUANT	1	Ich Filter
VCHRANGE	IQUANT	2	Vch Range
VCHRANGEMODE	TOGGLE	T	Vch Auto Range
VCHOFFSETENABLE	TOGGLE	F	Vch Offset Enable
VCHOFFSET	QUANT	0	Vch Offset (V)
VCHFILTER	IQUANT	1	Vch Filter
IERANGELOWERLIMIT	IQUANT	9	I/E Range Lower Limit
IERANGEMODE	TOGGLE	F	I/E AutoRange
IERANGE	IQUANT	10	I/E Range
ACHSELECT	IQUANT	1	Ach Select
ACHRANGE	IQUANT	2	Ach Range
ACHOFFSETENABLE	TOGGLE	F	Ach Offset Enable
ACHOFFSET	QUANT	0	Ach Offset (V)
ACHFILTER	IQUANT	1	Ach Filter
CABLEID	IQUANT	14	Cable ID
DCCALDATE	LABEL	20-10-2016	DC Calibration Date
ACCALDATE	LABEL	12/3/2015	AC Calibration Date
FRAMEWORKVERSION	QUANT	7.01	Framework Version
INSTRUMENTVERSION	LABEL	4.00	Instrument Version
CURVE	TABLE	56
	Pt	T	Vf	Im	Vu	Pwr	Sig	Ach	Temp	IERange	Over
	#	s	V	A	V	W	V	V	deg C	#	bits
	0	0.013333	6.41792E-001	5.99653E-003	0.00000E+000	3.84853E-003	3.59960E-001	-1.15076E+000	3.57750E+000	10	...........
	1	0.026667	6.50850E-001	5.98829E-003	0.00000E+000	3.89748E-003	3.59960E-001	-1.16032E+000	3.57750E+000	10	...........
	2	0.04	6.59169E-001	5.99058E-003	0.00000E+000	3.94881E-003	3.59960E-001	-1.15521E+000	3.57750E+000	10	...........
	3	0.053333	6.67091E-001	5.99968E-003	0.00000E+000	4.00234E-003	3.59960E-001	-1.15075E+000	3.57750E+000	10	...........
	4	0.066667	6.74679E-001	5.99450E-003	0.00000E+000	4.04436E-003	3.59960E-001	-1.16065E+000	3.57750E+000	10	...........
	5	0.08	6.82118E-001	5.99665E-003	0.00000E+000	4.09042E-003	3.59960E-001	-1.15530E+000	3.57750E+000	10	...........
	6	0.093333	6.89385E-001	5.99001E-003	0.00000E+000	4.12942E-003	3.59960E-001	-1.15053E+000	3.57750E+000	10	...........
	7	0.106667	6.96594E-001	5.99536E-003	0.00000E+000	4.17633E-003	3.59960E-001	-1.16045E+000	3.57750E+000	10	...........
	8	0.12	7.03618E-001	5.99301E-003	0.00000E+000	4.21679E-003	3.59960E-001	-1.15527E+000	3.57750E+000	10	...........
	9	0.133333	7.10596E-001	5.99978E-003	0.00000E+000	4.26342E-003	3.59960E-001	-1.15079E+000	3.57750E+000	10	...........
	10	0.146667	7.17512E-001	5.99550E-003	0.00000E+000	4.30185E-003	3.59960E-001	-1.16061E+000	3.57750E+000	10	...........
	11	0.16	7.24437E-001	5.99354E-003	0.00000E+000	4.34194E-003	3.59960E-001	-1.15517E+000	3.57750E+000	10	...........
	12	0.173333	7.31272E-001	5.99204E-003	0.00000E+000	4.38181E-003	3.59960E-001	-1.15045E+000	3.57750E+000	10	...........
	13	0.186667	7.38091E-001	5.98920E-003	0.00000E+000	4.42058E-003	3.59960E-001	-1.16061E+000	3.57750E+000	10	...........
	14	0.2	7.44906E-001	5.99531E-003	0.00000E+000	4.46595E-003	3.59960E-001	-1.15529E+000	3.57750E+000	10	...........
	15	0.213333	7.51632E-001	5.99281E-003	0.00000E+000	4.50439E-003	3.59960E-001	-1.15053E+000	3.57750E+000	10	...........
	16	0.226667	7.58363E-001	5.99548E-003	0.00000E+000	4.54675E-003	3.59960E-001	-1.16011E+000	3.57750E+000	10	...........
	17	0.24	7.65016E-001	5.99598E-003	0.00000E+000	4.58702E-003	3.59960E-001	-1.15457E+000	3.57750E+000	10	...........
	18	0.253333	7.71712E-001	5.99583E-003	0.00000E+000	4.62705E-003	3.59960E-001	-1.15004E+000	3.57750E+000	10	...........
	19	0.266667	7.78317E-001	5.99268E-003	0.00000E+000	4.66420E-003	3.59960E-001	-1.16040E+000	3.57728E+000	10	...........
	20	0.28	7.84993E-001	5.99400E-003	0.00000E+000	4.70525E-003	3.59960E-001	-1.15477E+000	3.57720E+000	10	...........
	21	0.293333	7.91598E-001	5.99300E-003	0.00000E+000	4.74405E-003	3.59960E-001	-1.15013E+000	3.57720E+000	10	...........
	22	0.306667	7.98157E-001	5.99127E-003	0.00000E+000	4.78197E-003	3.59960E-001	-1.16033E+000	3.57720E+000	10	...........
	23	0.32	8.04702E-001	5.99274E-003	0.00000E+000	4.82237E-003	3.59960E-001	-1.15460E+000	3.57720E+000	10	...........
	24	0.333333	8.11245E-001	5.99295E-003	0.00000E+000	4.86175E-003	3.59960E-001	-1.15021E+000	3.57720E+000	10	...........
	25	0.346667	8.17764E-001	5.99031E-003	0.00000E+000	4.89866E-003	3.59960E-001	-1.16040E+000	3.57720E+000	10	...........
	26	0.36	8.24309E-001	5.99179E-003	0.00000E+000	4.93909E-003	3.59960E-001	-1.15428E+000	3.57720E+000	10	...........
	27	0.373333	8.30773E-001	5.99541E-003	0.00000E+000	4.98082E-003	3.59960E-001	-1.14991E+000	3.57720E+000	10	...........
	28	0.386667	8.37271E-001	5.99124E-003	0.00000E+000	5.01629E-003	3.59960E-001	-1.16022E+000	3.57720E+000	10	...........
	29	0.4	8.43751E-001	5.99137E-003	0.00000E+000	5.05523E-003	3.59960E-001	-1.15431E+000	3.57720E+000	10	...........
	30	0.413333	8.50187E-001	5.99864E-003	0.00000E+000	5.09997E-003	3.59960E-001	-1.14994E+000	3.57720E+000	10	...........
	31	0.426667	8.56583E-001	5.99165E-003	0.00000E+000	5.13235E-003	3.59960E-001	-1.16020E+000	3.57720E+000	10	...........
	32	0.44	8.62948E-001	5.99370E-003	0.00000E+000	5.17225E-003	3.59960E-001	-1.15406E+000	3.57720E+000	10	...........
	33	0.453333	8.69313E-001	5.99460E-003	0.00000E+000	5.21119E-003	3.59960E-001	-1.15011E+000	3.57720E+000	10	...........
	34	0.466667	8.75644E-001	5.99503E-003	0.00000E+000	5.24952E-003	3.59960E-001	-1.16050E+000	3.57720E+000	10	...........
	35	0.48	8.81913E-001	5.99108E-003	0.00000E+000	5.28361E-003	3.59960E-001	-1.15427E+000	3.57720E+000	10	...........
	36	0.493333	8.88163E-001	5.99383E-003	0.00000E+000	5.32350E-003	3.59960E-001	-1.14985E+000	3.57720E+000	10	...........
	37	0.506667	8.94410E-001	5.99137E-003	0.00000E+000	5.35874E-003	3.59960E-001	-1.16057E+000	3.57720E+000	10	...........
	38	0.52	9.00637E-001	5.99441E-003	0.00000E+000	5.39879E-003	3.59960E-001	-1.15406E+000	3.57720E+000	10	...........
	39	0.533333	9.06817E-001	5.99341E-003	0.00000E+000	5.43492E-003	3.59960E-001	-1.14987E+000	3.57720E+000	10	...........
	40	0.546667	9.12961E-001	5.99346E-003	0.00000E+000	5.47179E-003	3.59960E-001	-1.16024E+000	3.57720E+000	10	...........
	41	0.56	9.19062E-001	5.99301E-003	0.00000E+000	5.50794E-003	3.59960E-001	-1.15347E+000	3.57720E+000	10	...........
	42	0.573333	9.25183E-001	5.99603E-003	0.00000E+000	5.54743E-003	3.59960E-001	-1.14947E+000	3.57720E+000	10	...........
	43	0.586667	9.31205E-001	5.99568E-003	0.00000E+000	5.58321E-003	3.59960E-001	-1.16019E+000	3.57720E+000	10	...........
	44	0.6	9.37192E-001	5.99671E-003	0.00000E+000	5.62007E-003	3.59960E-001	-1.15362E+000	3.57720E+000	10	...........
	45	0.613333	9.43137E-001	5.99207E-003	0.00000E+000	5.65134E-003	3.59960E-001	-1.14982E+000	3.57720E+000	10	...........
	46	0.626667	9.49091E-001	5.99469E-003	0.00000E+000	5.68951E-003	3.59960E-001	-1.16002E+000	3.57720E+000	10	...........
	47	0.64	9.54939E-001	5.99058E-003	0.00000E+000	5.72063E-003	3.59960E-001	-1.15338E+000	3.57720E+000	10	...........
	48	0.653333	9.60764E-001	5.99066E-003	0.00000E+000	5.75562E-003	3.59960E-001	-1.14965E+000	3.57720E+000	10	...........
	49	0.666667	9.66497E-001	5.99173E-003	0.00000E+000	5.79098E-003	3.59960E-001	-1.16040E+000	3.57720E+000	10	...........
	50	0.68	9.72300E-001	5.99080E-003	0.00000E+000	5.82485E-003	3.59960E-001	-1.15342E+000	3.57720E+000	10	...........
	51	0.693333	9.78017E-001	5.99165E-003	0.00000E+000	5.85994E-003	3.59960E-001	-1.14956E+000	3.57720E+000	10	...........
	52	0.706667	9.83617E-001	5.99632E-003	0.00000E+000	5.89808E-003	3.59960E-001	-1.16008E+000	3.57720E+000	10	...........
	53	0.72	9.89229E-001	5.99424E-003	0.00000E+000	5.92967E-003	3.59960E-001	-1.15354E+000	3.57720E+000	10	...........
	54	0.733333	9.94736E-001	6.00048E-003	0.00000E+000	5.96889E-003	3.59960E-001	-1.14977E+000	3.57720E+000	10	...........
	55	0.741667	9.99204E-001	5.98843E-003	0.00000E+000	5.98367E-003	3.59960E-001	-1.16394E+000	3.57720E+000	10	...........
STARTTIMEOFFSET	QUANT	1120.96	Start Time Offset (s)