File: Data/CV_CRGO300517_1/PWRCCD_CRGO300517_1/CHARGE_DISCHARGE/CHARGE_#138.DTA
EXPLAIN
TAG	PWR800_CHARGE
TITLE	LABEL	PWR Cyclic Charge Discharge (Cell) - Charge Step	Test &Identifier
DATE	LABEL	22-6-2017	Date
TIME	LABEL	15:41:10	Time
NOTES	NOTES	3	&Notes...
	supercap test cell
	0.6mg
	6M KOH
PSTAT	PSTAT	IFC5000-01520	Potentiostat
CAPACITY	QUANT	1.00000E-003	Capacity (A-hr)
CELLTYPE	SELECTOR	1	&Cell Type
WORKINGCONNECTION	SELECTOR	0	&Working Lead
MAXCHARGETIME	VARIABLEANDUNITS	1.00000E+002	s	1.00000E+002	second(s)	Max &Charge Time
CHARGECURRENT	QUANT	6.00000E-003	&Charge Current (A)
VOLTAGEFINISH	TWOPARAM	F	1.00000E-003	3.60000E+003	&Voltage Finish	 I (A) < 	Max Time(s)
SAMPLETIME	QUANT	1.00000E-002	Sa&mple Period (s)
CHARGESTOPAT1	MULTIPARAM	4	1.00000E+000	Charge Stop At &1	Voltage > Limit	V
CHARGESTOPAT2	MULTIPARAM	0	0.00000E+000	Charge Stop At &2	None	N/A
AESBHCSELECTOR	TOGGLE	F	Save Both Half Cells
IRCOMP	TOGGLE	F	IR &Measure
EOC	QUANT	0	Open Circuit (V)
SEQUENCER	TOGGLE	TRUE	Run as Sequence
PSTATMODEL	IQUANT	53	Pstat Model
PSTATSECTION	LABEL	IFC5000-01520	Pstat Section
PSTATSERIALNO	LABEL	01520	Pstat Serial Number
CTRLMODE	IQUANT	0	Control Mode
ELECTROMETER	IQUANT	1	RE=0 or CS=1
IESTAB	IQUANT	0	I/E Stability
CASPEED	IQUANT	4	Control Amp Speed
CONVENTION	IQUANT	1	Current Convention
ICHRANGE	IQUANT	2	Ich Range
ICHRANGEMODE	TOGGLE	T	Ich Auto Range
ICHOFFSETENABLE	TOGGLE	F	Ich Offset Enable
ICHOFFSET	QUANT	0	Ich Offset (V)
ICHFILTER	IQUANT	1	Ich Filter
VCHRANGE	IQUANT	2	Vch Range
VCHRANGEMODE	TOGGLE	T	Vch Auto Range
VCHOFFSETENABLE	TOGGLE	F	Vch Offset Enable
VCHOFFSET	QUANT	0	Vch Offset (V)
VCHFILTER	IQUANT	1	Vch Filter
IERANGELOWERLIMIT	IQUANT	9	I/E Range Lower Limit
IERANGEMODE	TOGGLE	F	I/E AutoRange
IERANGE	IQUANT	10	I/E Range
ACHSELECT	IQUANT	1	Ach Select
ACHRANGE	IQUANT	2	Ach Range
ACHOFFSETENABLE	TOGGLE	F	Ach Offset Enable
ACHOFFSET	QUANT	0	Ach Offset (V)
ACHFILTER	IQUANT	1	Ach Filter
CABLEID	IQUANT	14	Cable ID
DCCALDATE	LABEL	20-10-2016	DC Calibration Date
ACCALDATE	LABEL	12/3/2015	AC Calibration Date
FRAMEWORKVERSION	QUANT	7.01	Framework Version
INSTRUMENTVERSION	LABEL	4.00	Instrument Version
CURVE	TABLE	68
	Pt	T	Vf	Im	Vu	Pwr	Sig	Ach	Temp	IERange	Over
	#	s	V	A	V	W	V	V	deg C	#	bits
	0	0.013333	5.96072E-001	5.99697E-003	0.00000E+000	3.57463E-003	3.59960E-001	-1.07711E+000	3.57830E+000	10	...........
	1	0.026667	6.04385E-001	5.99592E-003	0.00000E+000	3.62385E-003	3.59960E-001	-1.07545E+000	3.57830E+000	10	...........
	2	0.04	6.12034E-001	5.99182E-003	0.00000E+000	3.66720E-003	3.59960E-001	-1.06910E+000	3.57830E+000	10	...........
	3	0.053333	6.19376E-001	5.99140E-003	0.00000E+000	3.71093E-003	3.59960E-001	-1.07699E+000	3.57830E+000	10	...........
	4	0.066667	6.26332E-001	5.99525E-003	0.00000E+000	3.75502E-003	3.59960E-001	-1.07541E+000	3.57830E+000	10	...........
	5	0.08	6.33110E-001	5.99311E-003	0.00000E+000	3.79430E-003	3.59960E-001	-1.06894E+000	3.57830E+000	10	...........
	6	0.093333	6.39781E-001	5.99625E-003	0.00000E+000	3.83629E-003	3.59960E-001	-1.07681E+000	3.57830E+000	10	...........
	7	0.106667	6.46346E-001	5.99428E-003	0.00000E+000	3.87438E-003	3.59960E-001	-1.07505E+000	3.57830E+000	10	...........
	8	0.12	6.52807E-001	5.99351E-003	0.00000E+000	3.91260E-003	3.59960E-001	-1.06849E+000	3.57830E+000	10	...........
	9	0.133333	6.59217E-001	5.99657E-003	0.00000E+000	3.95304E-003	3.59960E-001	-1.07618E+000	3.57830E+000	10	...........
	10	0.146667	6.65503E-001	5.99868E-003	0.00000E+000	3.99214E-003	3.59960E-001	-1.07529E+000	3.57830E+000	10	...........
	11	0.16	6.71778E-001	5.99322E-003	0.00000E+000	4.02611E-003	3.59960E-001	-1.06857E+000	3.57830E+000	10	...........
	12	0.173333	6.78064E-001	5.98847E-003	0.00000E+000	4.06057E-003	3.59960E-001	-1.07617E+000	3.57830E+000	10	...........
	13	0.186667	6.84235E-001	5.99397E-003	0.00000E+000	4.10128E-003	3.59960E-001	-1.07502E+000	3.57830E+000	10	...........
	14	0.2	6.90397E-001	5.99871E-003	0.00000E+000	4.14150E-003	3.59960E-001	-1.06854E+000	3.57830E+000	10	...........
	15	0.213333	6.96586E-001	5.99336E-003	0.00000E+000	4.17489E-003	3.59960E-001	-1.07602E+000	3.57830E+000	10	...........
	16	0.226667	7.02659E-001	5.99004E-003	0.00000E+000	4.20895E-003	3.59960E-001	-1.07508E+000	3.57830E+000	10	...........
	17	0.24	7.08721E-001	5.99103E-003	0.00000E+000	4.24597E-003	3.59960E-001	-1.06820E+000	3.57830E+000	10	...........
	18	0.253333	7.14869E-001	5.99452E-003	0.00000E+000	4.28530E-003	3.59960E-001	-1.07603E+000	3.57830E+000	10	...........
	19	0.266667	7.21000E-001	5.99321E-003	0.00000E+000	4.32110E-003	3.59960E-001	-1.07514E+000	3.57830E+000	10	...........
	20	0.28	7.27081E-001	5.99683E-003	0.00000E+000	4.36018E-003	3.59960E-001	-1.06838E+000	3.57830E+000	10	...........
	21	0.293333	7.33135E-001	5.99710E-003	0.00000E+000	4.39668E-003	3.59960E-001	-1.07587E+000	3.57830E+000	10	...........
	22	0.306667	7.39150E-001	5.99236E-003	0.00000E+000	4.42925E-003	3.59960E-001	-1.07506E+000	3.57830E+000	10	...........
	23	0.32	7.45204E-001	5.99413E-003	0.00000E+000	4.46684E-003	3.59960E-001	-1.06830E+000	3.57830E+000	10	...........
	24	0.333333	7.51233E-001	5.99261E-003	0.00000E+000	4.50185E-003	3.59960E-001	-1.07573E+000	3.57830E+000	10	...........
	25	0.346667	7.57275E-001	5.99312E-003	0.00000E+000	4.53845E-003	3.59960E-001	-1.07535E+000	3.57830E+000	10	...........
	26	0.36	7.63270E-001	5.99215E-003	0.00000E+000	4.57363E-003	3.59960E-001	-1.06855E+000	3.57830E+000	10	...........
	27	0.373333	7.69305E-001	5.99709E-003	0.00000E+000	4.61359E-003	3.59960E-001	-1.07563E+000	3.57830E+000	10	...........
	28	0.386667	7.75308E-001	5.99651E-003	0.00000E+000	4.64915E-003	3.59960E-001	-1.07514E+000	3.57830E+000	10	...........
	29	0.4	7.81299E-001	5.99615E-003	0.00000E+000	4.68479E-003	3.59960E-001	-1.06835E+000	3.57830E+000	10	...........
	30	0.413333	7.87277E-001	5.99576E-003	0.00000E+000	4.72032E-003	3.59960E-001	-1.07572E+000	3.57830E+000	10	...........
	31	0.426667	7.93285E-001	5.99193E-003	0.00000E+000	4.75331E-003	3.59960E-001	-1.07490E+000	3.57830E+000	10	...........
	32	0.44	7.99289E-001	5.99457E-003	0.00000E+000	4.79139E-003	3.59960E-001	-1.06784E+000	3.57830E+000	10	...........
	33	0.453333	8.05239E-001	5.99232E-003	0.00000E+000	4.82525E-003	3.59960E-001	-1.07505E+000	3.57830E+000	10	...........
	34	0.466667	8.11224E-001	5.99265E-003	0.00000E+000	4.86139E-003	3.59960E-001	-1.07500E+000	3.57830E+000	10	...........
	35	0.48	8.17184E-001	5.99165E-003	0.00000E+000	4.89628E-003	3.59960E-001	-1.06792E+000	3.57830E+000	10	...........
	36	0.493333	8.23152E-001	5.99373E-003	0.00000E+000	4.93375E-003	3.59960E-001	-1.07480E+000	3.57830E+000	10	...........
	37	0.506667	8.29081E-001	5.99290E-003	0.00000E+000	4.96860E-003	3.59960E-001	-1.07479E+000	3.57830E+000	10	...........
	38	0.52	8.35047E-001	5.99435E-003	0.00000E+000	5.00557E-003	3.59960E-001	-1.06776E+000	3.57830E+000	10	...........
	39	0.533333	8.40970E-001	5.99462E-003	0.00000E+000	5.04129E-003	3.59960E-001	-1.07498E+000	3.57830E+000	10	...........
	40	0.546667	8.46952E-001	5.99318E-003	0.00000E+000	5.07593E-003	3.59960E-001	-1.07522E+000	3.57830E+000	10	...........
	41	0.56	8.52833E-001	5.99439E-003	0.00000E+000	5.11221E-003	3.59960E-001	-1.06782E+000	3.57830E+000	10	...........
	42	0.573333	8.58730E-001	5.99375E-003	0.00000E+000	5.14702E-003	3.59960E-001	-1.07469E+000	3.57830E+000	10	...........
	43	0.586667	8.64629E-001	5.99283E-003	0.00000E+000	5.18158E-003	3.59960E-001	-1.07495E+000	3.57775E+000	10	...........
	44	0.6	8.70567E-001	5.99611E-003	0.00000E+000	5.22002E-003	3.59960E-001	-1.06783E+000	3.57720E+000	10	...........
	45	0.613333	8.76456E-001	5.99501E-003	0.00000E+000	5.25436E-003	3.59960E-001	-1.07479E+000	3.57720E+000	10	...........
	46	0.626667	8.82339E-001	5.99428E-003	0.00000E+000	5.28899E-003	3.59960E-001	-1.07499E+000	3.57720E+000	10	...........
	47	0.64	8.88190E-001	5.99360E-003	0.00000E+000	5.32346E-003	3.59960E-001	-1.06771E+000	3.57720E+000	10	...........
	48	0.653333	8.94082E-001	5.99613E-003	0.00000E+000	5.36103E-003	3.59960E-001	-1.07462E+000	3.57720E+000	10	...........
	49	0.666667	8.99894E-001	5.99659E-003	0.00000E+000	5.39630E-003	3.59960E-001	-1.07543E+000	3.57720E+000	10	...........
	50	0.68	9.05693E-001	5.99799E-003	0.00000E+000	5.43234E-003	3.59960E-001	-1.06816E+000	3.57720E+000	10	...........
	51	0.693333	9.11490E-001	5.99620E-003	0.00000E+000	5.46548E-003	3.59960E-001	-1.07472E+000	3.57720E+000	10	...........
	52	0.706667	9.17323E-001	5.99820E-003	0.00000E+000	5.50229E-003	3.59960E-001	-1.07525E+000	3.57720E+000	10	...........
	53	0.72	9.23084E-001	5.99492E-003	0.00000E+000	5.53381E-003	3.59960E-001	-1.06799E+000	3.57720E+000	10	...........
	54	0.733333	9.28811E-001	5.99206E-003	0.00000E+000	5.56549E-003	3.59960E-001	-1.07460E+000	3.57720E+000	10	...........
	55	0.746667	9.34561E-001	5.99390E-003	0.00000E+000	5.60166E-003	3.59960E-001	-1.07520E+000	3.57720E+000	10	...........
	56	0.76	9.40194E-001	5.99534E-003	0.00000E+000	5.63678E-003	3.59960E-001	-1.06774E+000	3.57720E+000	10	...........
	57	0.773333	9.45853E-001	5.99648E-003	0.00000E+000	5.67179E-003	3.59960E-001	-1.07412E+000	3.57720E+000	10	...........
	58	0.786667	9.51494E-001	5.99379E-003	0.00000E+000	5.70305E-003	3.59960E-001	-1.07515E+000	3.57720E+000	10	...........
	59	0.8	9.57102E-001	5.99333E-003	0.00000E+000	5.73623E-003	3.59960E-001	-1.06768E+000	3.57720E+000	10	...........
	60	0.813333	9.62655E-001	5.99235E-003	0.00000E+000	5.76857E-003	3.59960E-001	-1.07422E+000	3.57720E+000	10	...........
	61	0.826667	9.68222E-001	5.99504E-003	0.00000E+000	5.80453E-003	3.59960E-001	-1.07522E+000	3.57720E+000	10	...........
	62	0.84	9.73757E-001	5.99184E-003	0.00000E+000	5.83460E-003	3.59960E-001	-1.06746E+000	3.57720E+000	10	...........
	63	0.853333	9.79244E-001	5.99513E-003	0.00000E+000	5.87069E-003	3.59960E-001	-1.07410E+000	3.57720E+000	10	...........
	64	0.866667	9.84686E-001	5.99675E-003	0.00000E+000	5.90492E-003	3.59960E-001	-1.07528E+000	3.57720E+000	10	...........
	65	0.88	9.90093E-001	5.99681E-003	0.00000E+000	5.93739E-003	3.59960E-001	-1.06779E+000	3.57720E+000	10	...........
	66	0.893333	9.95437E-001	5.99798E-003	0.00000E+000	5.97062E-003	3.59960E-001	-1.07399E+000	3.57720E+000	10	...........
	67	0.9	9.99434E-001	5.99387E-003	0.00000E+000	5.99048E-003	3.59960E-001	-1.06868E+000	3.57720E+000	10	...........
STARTTIMEOFFSET	QUANT	264.2117	Start Time Offset (s)