File: Data/CV_CRGO300517_1/PWRCCD_CRGO300517_1/CHARGE_DISCHARGE/CHARGE_#459.DTA
EXPLAIN
TAG	PWR800_CHARGE
TITLE	LABEL	PWR Cyclic Charge Discharge (Cell) - Charge Step	Test &Identifier
DATE	LABEL	22-6-2017	Date
TIME	LABEL	15:54:18	Time
NOTES	NOTES	3	&Notes...
	supercap test cell
	0.6mg
	6M KOH
PSTAT	PSTAT	IFC5000-01520	Potentiostat
CAPACITY	QUANT	1.00000E-003	Capacity (A-hr)
CELLTYPE	SELECTOR	1	&Cell Type
WORKINGCONNECTION	SELECTOR	0	&Working Lead
MAXCHARGETIME	VARIABLEANDUNITS	1.00000E+002	s	1.00000E+002	second(s)	Max &Charge Time
CHARGECURRENT	QUANT	6.00000E-003	&Charge Current (A)
VOLTAGEFINISH	TWOPARAM	F	1.00000E-003	3.60000E+003	&Voltage Finish	 I (A) < 	Max Time(s)
SAMPLETIME	QUANT	1.00000E-002	Sa&mple Period (s)
CHARGESTOPAT1	MULTIPARAM	4	1.00000E+000	Charge Stop At &1	Voltage > Limit	V
CHARGESTOPAT2	MULTIPARAM	0	0.00000E+000	Charge Stop At &2	None	N/A
AESBHCSELECTOR	TOGGLE	F	Save Both Half Cells
IRCOMP	TOGGLE	F	IR &Measure
EOC	QUANT	0	Open Circuit (V)
SEQUENCER	TOGGLE	TRUE	Run as Sequence
PSTATMODEL	IQUANT	53	Pstat Model
PSTATSECTION	LABEL	IFC5000-01520	Pstat Section
PSTATSERIALNO	LABEL	01520	Pstat Serial Number
CTRLMODE	IQUANT	0	Control Mode
ELECTROMETER	IQUANT	1	RE=0 or CS=1
IESTAB	IQUANT	0	I/E Stability
CASPEED	IQUANT	4	Control Amp Speed
CONVENTION	IQUANT	1	Current Convention
ICHRANGE	IQUANT	2	Ich Range
ICHRANGEMODE	TOGGLE	T	Ich Auto Range
ICHOFFSETENABLE	TOGGLE	F	Ich Offset Enable
ICHOFFSET	QUANT	0	Ich Offset (V)
ICHFILTER	IQUANT	1	Ich Filter
VCHRANGE	IQUANT	2	Vch Range
VCHRANGEMODE	TOGGLE	T	Vch Auto Range
VCHOFFSETENABLE	TOGGLE	F	Vch Offset Enable
VCHOFFSET	QUANT	0	Vch Offset (V)
VCHFILTER	IQUANT	1	Vch Filter
IERANGELOWERLIMIT	IQUANT	9	I/E Range Lower Limit
IERANGEMODE	TOGGLE	F	I/E AutoRange
IERANGE	IQUANT	10	I/E Range
ACHSELECT	IQUANT	1	Ach Select
ACHRANGE	IQUANT	2	Ach Range
ACHOFFSETENABLE	TOGGLE	F	Ach Offset Enable
ACHOFFSET	QUANT	0	Ach Offset (V)
ACHFILTER	IQUANT	1	Ach Filter
CABLEID	IQUANT	14	Cable ID
DCCALDATE	LABEL	20-10-2016	DC Calibration Date
ACCALDATE	LABEL	12/3/2015	AC Calibration Date
FRAMEWORKVERSION	QUANT	7.01	Framework Version
INSTRUMENTVERSION	LABEL	4.00	Instrument Version
CURVE	TABLE	59
	Pt	T	Vf	Im	Vu	Pwr	Sig	Ach	Temp	IERange	Over
	#	s	V	A	V	W	V	V	deg C	#	bits
	0	0.013333	6.28769E-001	5.99215E-003	0.00000E+000	3.76768E-003	3.59960E-001	-1.12792E+000	3.57650E+000	10	...........
	1	0.026667	6.37558E-001	5.99177E-003	0.00000E+000	3.82010E-003	3.59960E-001	-1.13092E+000	3.57650E+000	10	...........
	2	0.04	6.45684E-001	5.99389E-003	0.00000E+000	3.87016E-003	3.59960E-001	-1.13816E+000	3.57650E+000	10	...........
	3	0.053333	6.53351E-001	5.99427E-003	0.00000E+000	3.91636E-003	3.59960E-001	-1.12828E+000	3.57650E+000	10	...........
	4	0.066667	6.60820E-001	5.99302E-003	0.00000E+000	3.96031E-003	3.59960E-001	-1.13092E+000	3.57650E+000	10	...........
	5	0.08	6.68044E-001	5.99576E-003	0.00000E+000	4.00543E-003	3.59960E-001	-1.13813E+000	3.57650E+000	10	...........
	6	0.093333	6.75145E-001	5.99571E-003	0.00000E+000	4.04797E-003	3.59960E-001	-1.12816E+000	3.57650E+000	10	...........
	7	0.106667	6.82088E-001	5.99762E-003	0.00000E+000	4.09090E-003	3.59960E-001	-1.13119E+000	3.57650E+000	10	...........
	8	0.12	6.88972E-001	5.99428E-003	0.00000E+000	4.12989E-003	3.59960E-001	-1.13840E+000	3.57650E+000	10	...........
	9	0.133333	6.95827E-001	5.99233E-003	0.00000E+000	4.16962E-003	3.59960E-001	-1.12840E+000	3.57650E+000	10	...........
	10	0.146667	7.02554E-001	6.00124E-003	0.00000E+000	4.21619E-003	3.59960E-001	-1.13100E+000	3.57650E+000	10	...........
	11	0.16	7.09225E-001	5.99146E-003	0.00000E+000	4.24929E-003	3.59960E-001	-1.13835E+000	3.57650E+000	10	...........
	12	0.173333	7.15918E-001	5.99609E-003	0.00000E+000	4.29270E-003	3.59960E-001	-1.12838E+000	3.57650E+000	10	...........
	13	0.186667	7.22529E-001	5.99403E-003	0.00000E+000	4.33086E-003	3.59960E-001	-1.13136E+000	3.57650E+000	10	...........
	14	0.2	7.29116E-001	5.99414E-003	0.00000E+000	4.37042E-003	3.59960E-001	-1.13812E+000	3.57650E+000	10	...........
	15	0.213333	7.35649E-001	5.99788E-003	0.00000E+000	4.41233E-003	3.59960E-001	-1.12790E+000	3.57650E+000	10	...........
	16	0.226667	7.42222E-001	5.99548E-003	0.00000E+000	4.44998E-003	3.59960E-001	-1.13085E+000	3.57650E+000	10	...........
	17	0.24	7.48765E-001	5.99451E-003	0.00000E+000	4.48848E-003	3.59960E-001	-1.13824E+000	3.57650E+000	10	...........
	18	0.253333	7.55309E-001	5.99083E-003	0.00000E+000	4.52492E-003	3.59960E-001	-1.12835E+000	3.57668E+000	10	...........
	19	0.266667	7.61790E-001	5.99201E-003	0.00000E+000	4.56465E-003	3.59960E-001	-1.13107E+000	3.57670E+000	10	...........
	20	0.28	7.68230E-001	5.99245E-003	0.00000E+000	4.60357E-003	3.59960E-001	-1.13809E+000	3.57670E+000	10	...........
	21	0.293333	7.74658E-001	5.99351E-003	0.00000E+000	4.64292E-003	3.59960E-001	-1.12823E+000	3.57670E+000	10	...........
	22	0.306667	7.81074E-001	5.99470E-003	0.00000E+000	4.68231E-003	3.59960E-001	-1.13106E+000	3.57670E+000	10	...........
	23	0.32	7.87505E-001	5.99165E-003	0.00000E+000	4.71846E-003	3.59960E-001	-1.13839E+000	3.57670E+000	10	...........
	24	0.333333	7.93937E-001	5.99173E-003	0.00000E+000	4.75705E-003	3.59960E-001	-1.12826E+000	3.57670E+000	10	...........
	25	0.346667	8.00338E-001	5.99578E-003	0.00000E+000	4.79865E-003	3.59960E-001	-1.13106E+000	3.57670E+000	10	...........
	26	0.36	8.06656E-001	5.99576E-003	0.00000E+000	4.83652E-003	3.59960E-001	-1.13823E+000	3.57670E+000	10	...........
	27	0.373333	8.13026E-001	5.99327E-003	0.00000E+000	4.87268E-003	3.59960E-001	-1.12835E+000	3.57670E+000	10	...........
	28	0.386667	8.19405E-001	5.99314E-003	0.00000E+000	4.91081E-003	3.59960E-001	-1.13127E+000	3.57670E+000	10	...........
	29	0.4	8.25761E-001	5.99229E-003	0.00000E+000	4.94820E-003	3.59960E-001	-1.13864E+000	3.57670E+000	10	...........
	30	0.413333	8.32059E-001	5.99439E-003	0.00000E+000	4.98769E-003	3.59960E-001	-1.12844E+000	3.57670E+000	10	...........
	31	0.426667	8.38362E-001	5.99457E-003	0.00000E+000	5.02562E-003	3.59960E-001	-1.13130E+000	3.57670E+000	10	...........
	32	0.44	8.44682E-001	5.99547E-003	0.00000E+000	5.06426E-003	3.59960E-001	-1.13889E+000	3.57670E+000	10	...........
	33	0.453333	8.50983E-001	5.99780E-003	0.00000E+000	5.10402E-003	3.59960E-001	-1.12880E+000	3.57670E+000	10	...........
	34	0.466667	8.57240E-001	5.99763E-003	0.00000E+000	5.14141E-003	3.59960E-001	-1.13142E+000	3.57670E+000	10	...........
	35	0.48	8.63442E-001	5.99573E-003	0.00000E+000	5.17697E-003	3.59960E-001	-1.13870E+000	3.57670E+000	10	...........
	36	0.493333	8.69681E-001	5.99260E-003	0.00000E+000	5.21165E-003	3.59960E-001	-1.12877E+000	3.57670E+000	10	...........
	37	0.506667	8.75902E-001	5.99445E-003	0.00000E+000	5.25055E-003	3.59960E-001	-1.13147E+000	3.57670E+000	10	...........
	38	0.52	8.82043E-001	5.99385E-003	0.00000E+000	5.28684E-003	3.59960E-001	-1.13860E+000	3.57670E+000	10	...........
	39	0.533333	8.88185E-001	5.99219E-003	0.00000E+000	5.32217E-003	3.59960E-001	-1.12841E+000	3.57670E+000	10	...........
	40	0.546667	8.94327E-001	5.99324E-003	0.00000E+000	5.35992E-003	3.59960E-001	-1.13124E+000	3.57670E+000	10	...........
	41	0.56	9.00432E-001	5.99374E-003	0.00000E+000	5.39696E-003	3.59960E-001	-1.13876E+000	3.57670E+000	10	...........
	42	0.573333	9.06516E-001	5.99329E-003	0.00000E+000	5.43301E-003	3.59960E-001	-1.12867E+000	3.57670E+000	10	...........
	43	0.586667	9.12545E-001	5.99726E-003	0.00000E+000	5.47278E-003	3.59960E-001	-1.13137E+000	3.57670E+000	10	...........
	44	0.6	9.18559E-001	5.99244E-003	0.00000E+000	5.50440E-003	3.59960E-001	-1.13857E+000	3.57670E+000	10	...........
	45	0.613333	9.24590E-001	5.99335E-003	0.00000E+000	5.54139E-003	3.59960E-001	-1.12864E+000	3.57670E+000	10	...........
	46	0.626667	9.30535E-001	5.99590E-003	0.00000E+000	5.57939E-003	3.59960E-001	-1.13112E+000	3.57670E+000	10	...........
	47	0.64	9.36415E-001	5.99591E-003	0.00000E+000	5.61466E-003	3.59960E-001	-1.13866E+000	3.57670E+000	10	...........
	48	0.653333	9.42294E-001	5.99821E-003	0.00000E+000	5.65208E-003	3.59960E-001	-1.12878E+000	3.57670E+000	10	...........
	49	0.666667	9.48167E-001	5.99586E-003	0.00000E+000	5.68508E-003	3.59960E-001	-1.13125E+000	3.57670E+000	10	...........
	50	0.68	9.53987E-001	5.99782E-003	0.00000E+000	5.72184E-003	3.59960E-001	-1.13884E+000	3.57670E+000	10	...........
	51	0.693333	9.59742E-001	5.99541E-003	0.00000E+000	5.75404E-003	3.59960E-001	-1.12879E+000	3.57670E+000	10	...........
	52	0.706667	9.65460E-001	5.99549E-003	0.00000E+000	5.78841E-003	3.59960E-001	-1.13155E+000	3.57670E+000	10	...........
	53	0.72	9.71186E-001	5.99642E-003	0.00000E+000	5.82364E-003	3.59960E-001	-1.13933E+000	3.57670E+000	10	...........
	54	0.733333	9.76834E-001	5.99772E-003	0.00000E+000	5.85878E-003	3.59960E-001	-1.12917E+000	3.57670E+000	10	...........
	55	0.746667	9.82409E-001	5.99120E-003	0.00000E+000	5.88581E-003	3.59960E-001	-1.13181E+000	3.57670E+000	10	...........
	56	0.76	9.87946E-001	5.99669E-003	0.00000E+000	5.92441E-003	3.59960E-001	-1.13954E+000	3.57670E+000	10	...........
	57	0.773333	9.93432E-001	5.99305E-003	0.00000E+000	5.95369E-003	3.59960E-001	-1.12957E+000	3.57670E+000	10	...........
	58	0.785	9.98595E-001	5.99317E-003	0.00000E+000	5.98475E-003	3.59960E-001	-1.13456E+000	3.57670E+000	10	...........
STARTTIMEOFFSET	QUANT	795.4984	Start Time Offset (s)