File: Data/CV_CRGO300517_1/PWRCCD_CRGO300517_1/CHARGE_DISCHARGE/CHARGE_#32.DTA
EXPLAIN
TAG	PWR800_CHARGE
TITLE	LABEL	PWR Cyclic Charge Discharge (Cell) - Charge Step	Test &Identifier
DATE	LABEL	22-6-2017	Date
TIME	LABEL	15:36:26	Time
NOTES	NOTES	3	&Notes...
	supercap test cell
	0.6mg
	6M KOH
PSTAT	PSTAT	IFC5000-01520	Potentiostat
CAPACITY	QUANT	1.00000E-003	Capacity (A-hr)
CELLTYPE	SELECTOR	1	&Cell Type
WORKINGCONNECTION	SELECTOR	0	&Working Lead
MAXCHARGETIME	VARIABLEANDUNITS	1.00000E+002	s	1.00000E+002	second(s)	Max &Charge Time
CHARGECURRENT	QUANT	6.00000E-003	&Charge Current (A)
VOLTAGEFINISH	TWOPARAM	F	1.00000E-003	3.60000E+003	&Voltage Finish	 I (A) < 	Max Time(s)
SAMPLETIME	QUANT	1.00000E-002	Sa&mple Period (s)
CHARGESTOPAT1	MULTIPARAM	4	1.00000E+000	Charge Stop At &1	Voltage > Limit	V
CHARGESTOPAT2	MULTIPARAM	0	0.00000E+000	Charge Stop At &2	None	N/A
AESBHCSELECTOR	TOGGLE	F	Save Both Half Cells
IRCOMP	TOGGLE	F	IR &Measure
EOC	QUANT	0	Open Circuit (V)
SEQUENCER	TOGGLE	TRUE	Run as Sequence
PSTATMODEL	IQUANT	53	Pstat Model
PSTATSECTION	LABEL	IFC5000-01520	Pstat Section
PSTATSERIALNO	LABEL	01520	Pstat Serial Number
CTRLMODE	IQUANT	0	Control Mode
ELECTROMETER	IQUANT	1	RE=0 or CS=1
IESTAB	IQUANT	0	I/E Stability
CASPEED	IQUANT	4	Control Amp Speed
CONVENTION	IQUANT	1	Current Convention
ICHRANGE	IQUANT	2	Ich Range
ICHRANGEMODE	TOGGLE	T	Ich Auto Range
ICHOFFSETENABLE	TOGGLE	F	Ich Offset Enable
ICHOFFSET	QUANT	0	Ich Offset (V)
ICHFILTER	IQUANT	1	Ich Filter
VCHRANGE	IQUANT	2	Vch Range
VCHRANGEMODE	TOGGLE	T	Vch Auto Range
VCHOFFSETENABLE	TOGGLE	F	Vch Offset Enable
VCHOFFSET	QUANT	0	Vch Offset (V)
VCHFILTER	IQUANT	1	Vch Filter
IERANGELOWERLIMIT	IQUANT	9	I/E Range Lower Limit
IERANGEMODE	TOGGLE	F	I/E AutoRange
IERANGE	IQUANT	10	I/E Range
ACHSELECT	IQUANT	1	Ach Select
ACHRANGE	IQUANT	2	Ach Range
ACHOFFSETENABLE	TOGGLE	F	Ach Offset Enable
ACHOFFSET	QUANT	0	Ach Offset (V)
ACHFILTER	IQUANT	1	Ach Filter
CABLEID	IQUANT	14	Cable ID
DCCALDATE	LABEL	20-10-2016	DC Calibration Date
ACCALDATE	LABEL	12/3/2015	AC Calibration Date
FRAMEWORKVERSION	QUANT	7.01	Framework Version
INSTRUMENTVERSION	LABEL	4.00	Instrument Version
CURVE	TABLE	76
	Pt	T	Vf	Im	Vu	Pwr	Sig	Ach	Temp	IERange	Over
	#	s	V	A	V	W	V	V	deg C	#	bits
	0	0.013333	5.66956E-001	5.99471E-003	0.00000E+000	3.39874E-003	3.59960E-001	-1.03253E+000	3.57750E+000	10	...........
	1	0.026667	5.74973E-001	5.99458E-003	0.00000E+000	3.44672E-003	3.59960E-001	-1.02206E+000	3.57750E+000	10	...........
	2	0.04	5.82265E-001	5.99202E-003	0.00000E+000	3.48894E-003	3.59960E-001	-1.02690E+000	3.57750E+000	10	...........
	3	0.053333	5.89253E-001	5.99176E-003	0.00000E+000	3.53066E-003	3.59960E-001	-1.03272E+000	3.57750E+000	10	...........
	4	0.066667	5.95953E-001	5.99198E-003	0.00000E+000	3.57094E-003	3.59960E-001	-1.02223E+000	3.57750E+000	10	...........
	5	0.08	6.02441E-001	5.99311E-003	0.00000E+000	3.61050E-003	3.59960E-001	-1.02671E+000	3.57750E+000	10	...........
	6	0.093333	6.08757E-001	5.99641E-003	0.00000E+000	3.65036E-003	3.59960E-001	-1.03252E+000	3.57750E+000	10	...........
	7	0.106667	6.15094E-001	5.99488E-003	0.00000E+000	3.68741E-003	3.59960E-001	-1.02201E+000	3.57750E+000	10	...........
	8	0.12	6.21231E-001	5.99356E-003	0.00000E+000	3.72339E-003	3.59960E-001	-1.02685E+000	3.57750E+000	10	...........
	9	0.133333	6.27291E-001	5.99445E-003	0.00000E+000	3.76026E-003	3.59960E-001	-1.03272E+000	3.57750E+000	10	...........
	10	0.146667	6.33298E-001	5.99202E-003	0.00000E+000	3.79474E-003	3.59960E-001	-1.02188E+000	3.57750E+000	10	...........
	11	0.16	6.39316E-001	5.99565E-003	0.00000E+000	3.83311E-003	3.59960E-001	-1.02660E+000	3.57750E+000	10	...........
	12	0.173333	6.45262E-001	5.99693E-003	0.00000E+000	3.86959E-003	3.59960E-001	-1.03245E+000	3.57750E+000	10	...........
	13	0.186667	6.51110E-001	5.99408E-003	0.00000E+000	3.90281E-003	3.59960E-001	-1.02208E+000	3.57750E+000	10	...........
	14	0.2	6.56938E-001	5.99494E-003	0.00000E+000	3.93831E-003	3.59960E-001	-1.02665E+000	3.57750E+000	10	...........
	15	0.213333	6.62754E-001	5.99142E-003	0.00000E+000	3.97084E-003	3.59960E-001	-1.03262E+000	3.57750E+000	10	...........
	16	0.226667	6.68628E-001	5.99809E-003	0.00000E+000	4.01049E-003	3.59960E-001	-1.02209E+000	3.57750E+000	10	...........
	17	0.24	6.74346E-001	5.99302E-003	0.00000E+000	4.04137E-003	3.59960E-001	-1.02665E+000	3.57750E+000	10	...........
	18	0.253333	6.80086E-001	5.99519E-003	0.00000E+000	4.07724E-003	3.59960E-001	-1.03296E+000	3.57750E+000	10	...........
	19	0.266667	6.85814E-001	5.99412E-003	0.00000E+000	4.11085E-003	3.59960E-001	-1.02213E+000	3.57750E+000	10	...........
	20	0.28	6.91550E-001	5.99046E-003	0.00000E+000	4.14271E-003	3.59960E-001	-1.02640E+000	3.57750E+000	10	...........
	21	0.293333	6.97277E-001	5.99520E-003	0.00000E+000	4.18031E-003	3.59960E-001	-1.03272E+000	3.57750E+000	10	...........
	22	0.306667	7.02953E-001	5.99435E-003	0.00000E+000	4.21375E-003	3.59960E-001	-1.02217E+000	3.57750E+000	10	...........
	23	0.32	7.08644E-001	5.99623E-003	0.00000E+000	4.24919E-003	3.59960E-001	-1.02650E+000	3.57750E+000	10	...........
	24	0.333333	7.14327E-001	5.99280E-003	0.00000E+000	4.28082E-003	3.59960E-001	-1.03237E+000	3.57750E+000	10	...........
	25	0.346667	7.20041E-001	5.99231E-003	0.00000E+000	4.31471E-003	3.59960E-001	-1.02163E+000	3.57750E+000	10	...........
	26	0.36	7.25714E-001	5.99119E-003	0.00000E+000	4.34789E-003	3.59960E-001	-1.02594E+000	3.57750E+000	10	...........
	27	0.373333	7.31357E-001	5.99297E-003	0.00000E+000	4.38300E-003	3.59960E-001	-1.03246E+000	3.57750E+000	10	...........
	28	0.386667	7.37024E-001	5.99612E-003	0.00000E+000	4.41928E-003	3.59960E-001	-1.02184E+000	3.57750E+000	10	...........
	29	0.4	7.42710E-001	5.99140E-003	0.00000E+000	4.44988E-003	3.59960E-001	-1.02608E+000	3.57750E+000	10	...........
	30	0.413333	7.48361E-001	5.99479E-003	0.00000E+000	4.48627E-003	3.59960E-001	-1.03242E+000	3.57750E+000	10	...........
	31	0.426667	7.54021E-001	5.99354E-003	0.00000E+000	4.51925E-003	3.59960E-001	-1.02150E+000	3.57750E+000	10	...........
	32	0.44	7.59654E-001	5.99007E-003	0.00000E+000	4.55038E-003	3.59960E-001	-1.02598E+000	3.57750E+000	10	...........
	33	0.453333	7.65271E-001	5.99701E-003	0.00000E+000	4.58934E-003	3.59960E-001	-1.03261E+000	3.57750E+000	10	...........
	34	0.466667	7.70947E-001	5.99389E-003	0.00000E+000	4.62097E-003	3.59960E-001	-1.02167E+000	3.57750E+000	10	...........
	35	0.48	7.76569E-001	5.99185E-003	0.00000E+000	4.65309E-003	3.59960E-001	-1.02566E+000	3.57750E+000	10	...........
	36	0.493333	7.82247E-001	5.99538E-003	0.00000E+000	4.68987E-003	3.59960E-001	-1.03223E+000	3.57750E+000	10	...........
	37	0.506667	7.87889E-001	5.99594E-003	0.00000E+000	4.72414E-003	3.59960E-001	-1.02165E+000	3.57750E+000	10	...........
	38	0.52	7.93535E-001	5.99717E-003	0.00000E+000	4.75897E-003	3.59960E-001	-1.02590E+000	3.57750E+000	10	...........
	39	0.533333	7.99215E-001	5.99489E-003	0.00000E+000	4.79120E-003	3.59960E-001	-1.03261E+000	3.57750E+000	10	...........
	40	0.546667	8.04868E-001	5.99525E-003	0.00000E+000	4.82539E-003	3.59960E-001	-1.02147E+000	3.57750E+000	10	...........
	41	0.56	8.10496E-001	5.99665E-003	0.00000E+000	4.86026E-003	3.59960E-001	-1.02555E+000	3.57750E+000	10	...........
	42	0.573333	8.16168E-001	5.99494E-003	0.00000E+000	4.89288E-003	3.59960E-001	-1.03254E+000	3.57750E+000	10	...........
	43	0.586667	8.21864E-001	5.99696E-003	0.00000E+000	4.92869E-003	3.59960E-001	-1.02173E+000	3.57750E+000	10	...........
	44	0.6	8.27513E-001	5.99433E-003	0.00000E+000	4.96039E-003	3.59960E-001	-1.02574E+000	3.57910E+000	10	...........
	45	0.613333	8.33146E-001	5.99575E-003	0.00000E+000	4.99534E-003	3.59960E-001	-1.03246E+000	3.58070E+000	10	...........
	46	0.626667	8.38792E-001	5.99266E-003	0.00000E+000	5.02660E-003	3.59960E-001	-1.02135E+000	3.58070E+000	10	...........
	47	0.64	8.44453E-001	5.99582E-003	0.00000E+000	5.06318E-003	3.59960E-001	-1.02545E+000	3.58070E+000	10	...........
	48	0.653333	8.50076E-001	5.99602E-003	0.00000E+000	5.09708E-003	3.59960E-001	-1.03227E+000	3.58070E+000	10	...........
	49	0.666667	8.55727E-001	5.98993E-003	0.00000E+000	5.12575E-003	3.59960E-001	-1.02122E+000	3.58070E+000	10	...........
	50	0.68	8.61370E-001	5.99545E-003	0.00000E+000	5.16430E-003	3.59960E-001	-1.02519E+000	3.58070E+000	10	...........
	51	0.693333	8.67011E-001	5.99275E-003	0.00000E+000	5.19578E-003	3.59960E-001	-1.03187E+000	3.58070E+000	10	...........
	52	0.706667	8.72653E-001	5.99385E-003	0.00000E+000	5.23056E-003	3.59960E-001	-1.02114E+000	3.58070E+000	10	...........
	53	0.72	8.78245E-001	5.99011E-003	0.00000E+000	5.26078E-003	3.59960E-001	-1.02527E+000	3.58070E+000	10	...........
	54	0.733333	8.83885E-001	5.99304E-003	0.00000E+000	5.29716E-003	3.59960E-001	-1.03208E+000	3.58070E+000	10	...........
	55	0.746667	8.89456E-001	5.99623E-003	0.00000E+000	5.33338E-003	3.59960E-001	-1.02094E+000	3.58070E+000	10	...........
	56	0.76	8.95073E-001	5.99359E-003	0.00000E+000	5.36470E-003	3.59960E-001	-1.02491E+000	3.58070E+000	10	...........
	57	0.773333	9.00636E-001	5.99226E-003	0.00000E+000	5.39684E-003	3.59960E-001	-1.03186E+000	3.58070E+000	10	...........
	58	0.786667	9.06217E-001	5.99188E-003	0.00000E+000	5.42994E-003	3.59960E-001	-1.02111E+000	3.58070E+000	10	...........
	59	0.8	9.11785E-001	5.99520E-003	0.00000E+000	5.46633E-003	3.59960E-001	-1.02500E+000	3.58070E+000	10	...........
	60	0.813333	9.17347E-001	5.99409E-003	0.00000E+000	5.49866E-003	3.59960E-001	-1.03193E+000	3.58070E+000	10	...........
	61	0.826667	9.22954E-001	5.99476E-003	0.00000E+000	5.53289E-003	3.59960E-001	-1.02079E+000	3.58070E+000	10	...........
	62	0.84	9.28479E-001	5.99495E-003	0.00000E+000	5.56618E-003	3.59960E-001	-1.02501E+000	3.58070E+000	10	...........
	63	0.853333	9.33998E-001	5.99592E-003	0.00000E+000	5.60018E-003	3.59960E-001	-1.03232E+000	3.58070E+000	10	...........
	64	0.866667	9.39538E-001	5.99457E-003	0.00000E+000	5.63213E-003	3.59960E-001	-1.02120E+000	3.58070E+000	10	...........
	65	0.88	9.45039E-001	5.99520E-003	0.00000E+000	5.66570E-003	3.59960E-001	-1.02502E+000	3.58070E+000	10	...........
	66	0.893333	9.50546E-001	5.99277E-003	0.00000E+000	5.69640E-003	3.59960E-001	-1.03214E+000	3.58070E+000	10	...........
	67	0.906667	9.55955E-001	5.99595E-003	0.00000E+000	5.73186E-003	3.59960E-001	-1.02125E+000	3.58070E+000	10	...........
	68	0.92	9.61331E-001	5.99153E-003	0.00000E+000	5.75984E-003	3.59960E-001	-1.02519E+000	3.58070E+000	10	...........
	69	0.933333	9.66728E-001	5.99416E-003	0.00000E+000	5.79472E-003	3.59960E-001	-1.03237E+000	3.58070E+000	10	...........
	70	0.946667	9.72161E-001	5.99353E-003	0.00000E+000	5.82668E-003	3.59960E-001	-1.02111E+000	3.58070E+000	10	...........
	71	0.96	9.77516E-001	5.99414E-003	0.00000E+000	5.85936E-003	3.59960E-001	-1.02464E+000	3.58070E+000	10	...........
	72	0.97333	9.82858E-001	5.99399E-003	0.00000E+000	5.89124E-003	3.59960E-001	-1.03174E+000	3.58070E+000	10	...........
	73	0.98667	9.88153E-001	5.99157E-003	0.00000E+000	5.92059E-003	3.59960E-001	-1.02083E+000	3.58070E+000	10	...........
	74	1	9.93458E-001	5.99860E-003	0.00000E+000	5.95936E-003	3.59960E-001	-1.02474E+000	3.58070E+000	10	...........
	75	1.01167	9.98421E-001	5.99490E-003	0.00000E+000	5.98543E-003	3.59960E-001	-1.03148E+000	3.58070E+000	10	...........
STARTTIMEOFFSET	QUANT	64.91833	Start Time Offset (s)