File: Data/CV_CRGO300517_1/PWRCCD_CRGO300517_1/CHARGE_DISCHARGE/CHARGE_#910.DTA
EXPLAIN
TAG	PWR800_CHARGE
TITLE	LABEL	PWR Cyclic Charge Discharge (Cell) - Charge Step	Test &Identifier
DATE	LABEL	22-6-2017	Date
TIME	LABEL	16:11:21	Time
NOTES	NOTES	3	&Notes...
	supercap test cell
	0.6mg
	6M KOH
PSTAT	PSTAT	IFC5000-01520	Potentiostat
CAPACITY	QUANT	1.00000E-003	Capacity (A-hr)
CELLTYPE	SELECTOR	1	&Cell Type
WORKINGCONNECTION	SELECTOR	0	&Working Lead
MAXCHARGETIME	VARIABLEANDUNITS	1.00000E+002	s	1.00000E+002	second(s)	Max &Charge Time
CHARGECURRENT	QUANT	6.00000E-003	&Charge Current (A)
VOLTAGEFINISH	TWOPARAM	F	1.00000E-003	3.60000E+003	&Voltage Finish	 I (A) < 	Max Time(s)
SAMPLETIME	QUANT	1.00000E-002	Sa&mple Period (s)
CHARGESTOPAT1	MULTIPARAM	4	1.00000E+000	Charge Stop At &1	Voltage > Limit	V
CHARGESTOPAT2	MULTIPARAM	0	0.00000E+000	Charge Stop At &2	None	N/A
AESBHCSELECTOR	TOGGLE	F	Save Both Half Cells
IRCOMP	TOGGLE	F	IR &Measure
EOC	QUANT	0	Open Circuit (V)
SEQUENCER	TOGGLE	TRUE	Run as Sequence
PSTATMODEL	IQUANT	53	Pstat Model
PSTATSECTION	LABEL	IFC5000-01520	Pstat Section
PSTATSERIALNO	LABEL	01520	Pstat Serial Number
CTRLMODE	IQUANT	0	Control Mode
ELECTROMETER	IQUANT	1	RE=0 or CS=1
IESTAB	IQUANT	0	I/E Stability
CASPEED	IQUANT	4	Control Amp Speed
CONVENTION	IQUANT	1	Current Convention
ICHRANGE	IQUANT	2	Ich Range
ICHRANGEMODE	TOGGLE	T	Ich Auto Range
ICHOFFSETENABLE	TOGGLE	F	Ich Offset Enable
ICHOFFSET	QUANT	0	Ich Offset (V)
ICHFILTER	IQUANT	1	Ich Filter
VCHRANGE	IQUANT	2	Vch Range
VCHRANGEMODE	TOGGLE	T	Vch Auto Range
VCHOFFSETENABLE	TOGGLE	F	Vch Offset Enable
VCHOFFSET	QUANT	0	Vch Offset (V)
VCHFILTER	IQUANT	1	Vch Filter
IERANGELOWERLIMIT	IQUANT	9	I/E Range Lower Limit
IERANGEMODE	TOGGLE	F	I/E AutoRange
IERANGE	IQUANT	10	I/E Range
ACHSELECT	IQUANT	1	Ach Select
ACHRANGE	IQUANT	2	Ach Range
ACHOFFSETENABLE	TOGGLE	F	Ach Offset Enable
ACHOFFSET	QUANT	0	Ach Offset (V)
ACHFILTER	IQUANT	1	Ach Filter
CABLEID	IQUANT	14	Cable ID
DCCALDATE	LABEL	20-10-2016	DC Calibration Date
ACCALDATE	LABEL	12/3/2015	AC Calibration Date
FRAMEWORKVERSION	QUANT	7.01	Framework Version
INSTRUMENTVERSION	LABEL	4.00	Instrument Version
CURVE	TABLE	53
	Pt	T	Vf	Im	Vu	Pwr	Sig	Ach	Temp	IERange	Over
	#	s	V	A	V	W	V	V	deg C	#	bits
	0	0.013333	6.53385E-001	5.99366E-003	0.00000E+000	3.91616E-003	3.59960E-001	-1.17355E+000	3.57780E+000	10	...........
	1	0.026667	6.62661E-001	5.99504E-003	0.00000E+000	3.97268E-003	3.59960E-001	-1.16762E+000	3.57780E+000	10	...........
	2	0.04	6.71205E-001	5.99379E-003	0.00000E+000	4.02306E-003	3.59960E-001	-1.17629E+000	3.57780E+000	10	...........
	3	0.053333	6.79274E-001	5.99562E-003	0.00000E+000	4.07267E-003	3.59960E-001	-1.17348E+000	3.57780E+000	10	...........
	4	0.066667	6.87076E-001	5.99378E-003	0.00000E+000	4.11818E-003	3.59960E-001	-1.16745E+000	3.57780E+000	10	...........
	5	0.08	6.94716E-001	5.99086E-003	0.00000E+000	4.16195E-003	3.59960E-001	-1.17612E+000	3.57780E+000	10	...........
	6	0.093333	7.02139E-001	5.99344E-003	0.00000E+000	4.20822E-003	3.59960E-001	-1.17350E+000	3.57780E+000	10	...........
	7	0.106667	7.09477E-001	5.99183E-003	0.00000E+000	4.25106E-003	3.59960E-001	-1.16759E+000	3.57780E+000	10	...........
	8	0.12	7.16718E-001	5.99222E-003	0.00000E+000	4.29473E-003	3.59960E-001	-1.17594E+000	3.57780E+000	10	...........
	9	0.133333	7.23893E-001	5.99144E-003	0.00000E+000	4.33717E-003	3.59960E-001	-1.17337E+000	3.57780E+000	10	...........
	10	0.146667	7.30947E-001	5.99292E-003	0.00000E+000	4.38050E-003	3.59960E-001	-1.16734E+000	3.57780E+000	10	...........
	11	0.16	7.37970E-001	5.99404E-003	0.00000E+000	4.42342E-003	3.59960E-001	-1.17618E+000	3.57780E+000	10	...........
	12	0.173333	7.45003E-001	5.99524E-003	0.00000E+000	4.46648E-003	3.59960E-001	-1.17361E+000	3.57780E+000	10	...........
	13	0.186667	7.51952E-001	5.99279E-003	0.00000E+000	4.50629E-003	3.59960E-001	-1.16776E+000	3.57780E+000	10	...........
	14	0.2	7.58882E-001	5.99038E-003	0.00000E+000	4.54599E-003	3.59960E-001	-1.17595E+000	3.57780E+000	10	...........
	15	0.213333	7.65731E-001	5.99453E-003	0.00000E+000	4.59020E-003	3.59960E-001	-1.17336E+000	3.57780E+000	10	...........
	16	0.226667	7.72626E-001	5.99825E-003	0.00000E+000	4.63440E-003	3.59960E-001	-1.16735E+000	3.57780E+000	10	...........
	17	0.24	7.79439E-001	5.99005E-003	0.00000E+000	4.66887E-003	3.59960E-001	-1.17596E+000	3.57780E+000	10	...........
	18	0.253333	7.86234E-001	5.99421E-003	0.00000E+000	4.71285E-003	3.59960E-001	-1.17332E+000	3.57780E+000	10	...........
	19	0.266667	7.93009E-001	5.98874E-003	0.00000E+000	4.74913E-003	3.59960E-001	-1.16695E+000	3.57780E+000	10	...........
	20	0.28	7.99764E-001	5.98796E-003	0.00000E+000	4.78895E-003	3.59960E-001	-1.17521E+000	3.57780E+000	10	...........
	21	0.293333	8.06456E-001	5.99821E-003	0.00000E+000	4.83730E-003	3.59960E-001	-1.17325E+000	3.57780E+000	10	...........
	22	0.306667	8.13134E-001	5.99262E-003	0.00000E+000	4.87280E-003	3.59960E-001	-1.16718E+000	3.57780E+000	10	...........
	23	0.32	8.19847E-001	5.99338E-003	0.00000E+000	4.91366E-003	3.59960E-001	-1.17549E+000	3.57780E+000	10	...........
	24	0.333333	8.26490E-001	5.99286E-003	0.00000E+000	4.95304E-003	3.59960E-001	-1.17279E+000	3.57780E+000	10	...........
	25	0.346667	8.33113E-001	5.99164E-003	0.00000E+000	4.99172E-003	3.59960E-001	-1.16662E+000	3.57780E+000	10	...........
	26	0.36	8.39696E-001	5.98963E-003	0.00000E+000	5.02947E-003	3.59960E-001	-1.17516E+000	3.57780E+000	10	...........
	27	0.373333	8.46311E-001	5.99444E-003	0.00000E+000	5.07316E-003	3.59960E-001	-1.17313E+000	3.57780E+000	10	...........
	28	0.386667	8.52836E-001	5.99464E-003	0.00000E+000	5.11244E-003	3.59960E-001	-1.16677E+000	3.57780E+000	10	...........
	29	0.4	8.59332E-001	5.99230E-003	0.00000E+000	5.14937E-003	3.59960E-001	-1.17517E+000	3.57780E+000	10	...........
	30	0.413333	8.65789E-001	5.99591E-003	0.00000E+000	5.19119E-003	3.59960E-001	-1.17309E+000	3.57780E+000	10	...........
	31	0.426667	8.72254E-001	5.98626E-003	0.00000E+000	5.22154E-003	3.59960E-001	-1.16685E+000	3.57780E+000	10	...........
	32	0.44	8.78683E-001	5.99453E-003	0.00000E+000	5.26729E-003	3.59960E-001	-1.17526E+000	3.57780E+000	10	...........
	33	0.453333	8.85086E-001	5.99213E-003	0.00000E+000	5.30356E-003	3.59960E-001	-1.17309E+000	3.57780E+000	10	...........
	34	0.466667	8.91460E-001	5.99607E-003	0.00000E+000	5.34525E-003	3.59960E-001	-1.16671E+000	3.57780E+000	10	...........
	35	0.48	8.97771E-001	5.99334E-003	0.00000E+000	5.38065E-003	3.59960E-001	-1.17487E+000	3.57780E+000	10	...........
	36	0.493333	9.04025E-001	5.99483E-003	0.00000E+000	5.41948E-003	3.59960E-001	-1.17333E+000	3.57780E+000	10	...........
	37	0.506667	9.10295E-001	5.99363E-003	0.00000E+000	5.45597E-003	3.59960E-001	-1.16693E+000	3.57780E+000	10	...........
	38	0.52	9.16519E-001	5.99856E-003	0.00000E+000	5.49779E-003	3.59960E-001	-1.17512E+000	3.57780E+000	10	...........
	39	0.533333	9.22740E-001	5.99342E-003	0.00000E+000	5.53037E-003	3.59960E-001	-1.17291E+000	3.57780E+000	10	...........
	40	0.546667	9.28879E-001	5.99496E-003	0.00000E+000	5.56859E-003	3.59960E-001	-1.16670E+000	3.57780E+000	10	...........
	41	0.56	9.34910E-001	5.98983E-003	0.00000E+000	5.59995E-003	3.59960E-001	-1.17485E+000	3.57780E+000	10	...........
	42	0.573333	9.40916E-001	5.99498E-003	0.00000E+000	5.64077E-003	3.59960E-001	-1.17299E+000	3.57780E+000	10	...........
	43	0.586667	9.46967E-001	5.99621E-003	0.00000E+000	5.67821E-003	3.59960E-001	-1.16637E+000	3.57780E+000	10	...........
	44	0.6	9.52915E-001	5.98917E-003	0.00000E+000	5.70717E-003	3.59960E-001	-1.17438E+000	3.57780E+000	10	...........
	45	0.613333	9.58796E-001	5.99371E-003	0.00000E+000	5.74675E-003	3.59960E-001	-1.17253E+000	3.57780E+000	10	...........
	46	0.626667	9.64643E-001	5.99469E-003	0.00000E+000	5.78274E-003	3.59960E-001	-1.16636E+000	3.57780E+000	10	...........
	47	0.64	9.70461E-001	5.99475E-003	0.00000E+000	5.81767E-003	3.59960E-001	-1.17445E+000	3.57780E+000	10	...........
	48	0.653333	9.76231E-001	5.99183E-003	0.00000E+000	5.84941E-003	3.59960E-001	-1.17271E+000	3.57780E+000	10	...........
	49	0.666667	9.81921E-001	5.99728E-003	0.00000E+000	5.88885E-003	3.59960E-001	-1.16627E+000	3.57780E+000	10	...........
	50	0.68	9.87552E-001	5.99269E-003	0.00000E+000	5.91809E-003	3.59960E-001	-1.17424E+000	3.57780E+000	10	...........
	51	0.693333	9.93138E-001	5.99164E-003	0.00000E+000	5.95053E-003	3.59960E-001	-1.17268E+000	3.57780E+000	10	...........
	52	0.705	9.98351E-001	5.99291E-003	0.00000E+000	5.98302E-003	3.59960E-001	-1.16459E+000	3.57780E+000	10	...........
STARTTIMEOFFSET	QUANT	1460.092	Start Time Offset (s)