File: Data/CV_CRGO300517_1/PWRCCD_CRGO300517_1/CHARGE_DISCHARGE/CHARGE_#927.DTA
EXPLAIN
TAG	PWR800_CHARGE
TITLE	LABEL	PWR Cyclic Charge Discharge (Cell) - Charge Step	Test &Identifier
DATE	LABEL	22-6-2017	Date
TIME	LABEL	16:11:58	Time
NOTES	NOTES	3	&Notes...
	supercap test cell
	0.6mg
	6M KOH
PSTAT	PSTAT	IFC5000-01520	Potentiostat
CAPACITY	QUANT	1.00000E-003	Capacity (A-hr)
CELLTYPE	SELECTOR	1	&Cell Type
WORKINGCONNECTION	SELECTOR	0	&Working Lead
MAXCHARGETIME	VARIABLEANDUNITS	1.00000E+002	s	1.00000E+002	second(s)	Max &Charge Time
CHARGECURRENT	QUANT	6.00000E-003	&Charge Current (A)
VOLTAGEFINISH	TWOPARAM	F	1.00000E-003	3.60000E+003	&Voltage Finish	 I (A) < 	Max Time(s)
SAMPLETIME	QUANT	1.00000E-002	Sa&mple Period (s)
CHARGESTOPAT1	MULTIPARAM	4	1.00000E+000	Charge Stop At &1	Voltage > Limit	V
CHARGESTOPAT2	MULTIPARAM	0	0.00000E+000	Charge Stop At &2	None	N/A
AESBHCSELECTOR	TOGGLE	F	Save Both Half Cells
IRCOMP	TOGGLE	F	IR &Measure
EOC	QUANT	0	Open Circuit (V)
SEQUENCER	TOGGLE	TRUE	Run as Sequence
PSTATMODEL	IQUANT	53	Pstat Model
PSTATSECTION	LABEL	IFC5000-01520	Pstat Section
PSTATSERIALNO	LABEL	01520	Pstat Serial Number
CTRLMODE	IQUANT	0	Control Mode
ELECTROMETER	IQUANT	1	RE=0 or CS=1
IESTAB	IQUANT	0	I/E Stability
CASPEED	IQUANT	4	Control Amp Speed
CONVENTION	IQUANT	1	Current Convention
ICHRANGE	IQUANT	2	Ich Range
ICHRANGEMODE	TOGGLE	T	Ich Auto Range
ICHOFFSETENABLE	TOGGLE	F	Ich Offset Enable
ICHOFFSET	QUANT	0	Ich Offset (V)
ICHFILTER	IQUANT	1	Ich Filter
VCHRANGE	IQUANT	2	Vch Range
VCHRANGEMODE	TOGGLE	T	Vch Auto Range
VCHOFFSETENABLE	TOGGLE	F	Vch Offset Enable
VCHOFFSET	QUANT	0	Vch Offset (V)
VCHFILTER	IQUANT	1	Vch Filter
IERANGELOWERLIMIT	IQUANT	9	I/E Range Lower Limit
IERANGEMODE	TOGGLE	F	I/E AutoRange
IERANGE	IQUANT	10	I/E Range
ACHSELECT	IQUANT	1	Ach Select
ACHRANGE	IQUANT	2	Ach Range
ACHOFFSETENABLE	TOGGLE	F	Ach Offset Enable
ACHOFFSET	QUANT	0	Ach Offset (V)
ACHFILTER	IQUANT	1	Ach Filter
CABLEID	IQUANT	14	Cable ID
DCCALDATE	LABEL	20-10-2016	DC Calibration Date
ACCALDATE	LABEL	12/3/2015	AC Calibration Date
FRAMEWORKVERSION	QUANT	7.01	Framework Version
INSTRUMENTVERSION	LABEL	4.00	Instrument Version
CURVE	TABLE	53
	Pt	T	Vf	Im	Vu	Pwr	Sig	Ach	Temp	IERange	Over
	#	s	V	A	V	W	V	V	deg C	#	bits
	0	0.013333	6.54236E-001	5.99258E-003	0.00000E+000	3.92056E-003	3.59960E-001	-1.17070E+000	3.57850E+000	10	...........
	1	0.026667	6.63495E-001	5.99604E-003	0.00000E+000	3.97834E-003	3.59960E-001	-1.17895E+000	3.57850E+000	10	...........
	2	0.04	6.72053E-001	5.99915E-003	0.00000E+000	4.03175E-003	3.59960E-001	-1.17680E+000	3.57850E+000	10	...........
	3	0.053333	6.80123E-001	5.99653E-003	0.00000E+000	4.07838E-003	3.59960E-001	-1.17092E+000	3.57850E+000	10	...........
	4	0.066667	6.87924E-001	5.99576E-003	0.00000E+000	4.12463E-003	3.59960E-001	-1.17933E+000	3.57850E+000	10	...........
	5	0.08	6.95569E-001	5.99672E-003	0.00000E+000	4.17113E-003	3.59960E-001	-1.17667E+000	3.57850E+000	10	...........
	6	0.093333	7.03040E-001	5.99621E-003	0.00000E+000	4.21558E-003	3.59960E-001	-1.17071E+000	3.57850E+000	10	...........
	7	0.106667	7.10353E-001	5.99328E-003	0.00000E+000	4.25735E-003	3.59960E-001	-1.17937E+000	3.57850E+000	10	...........
	8	0.12	7.17613E-001	5.98952E-003	0.00000E+000	4.29816E-003	3.59960E-001	-1.17682E+000	3.57850E+000	10	...........
	9	0.133333	7.24792E-001	5.99331E-003	0.00000E+000	4.34391E-003	3.59960E-001	-1.17101E+000	3.57850E+000	10	...........
	10	0.146667	7.31905E-001	5.99504E-003	0.00000E+000	4.38780E-003	3.59960E-001	-1.17921E+000	3.57850E+000	10	...........
	11	0.16	7.38924E-001	5.99287E-003	0.00000E+000	4.42828E-003	3.59960E-001	-1.17644E+000	3.57850E+000	10	...........
	12	0.173333	7.45965E-001	5.98892E-003	0.00000E+000	4.46753E-003	3.59960E-001	-1.17081E+000	3.57850E+000	10	...........
	13	0.186667	7.52911E-001	5.99914E-003	0.00000E+000	4.51682E-003	3.59960E-001	-1.17934E+000	3.57850E+000	10	...........
	14	0.2	7.59806E-001	5.99722E-003	0.00000E+000	4.55673E-003	3.59960E-001	-1.17654E+000	3.57850E+000	10	...........
	15	0.213333	7.66671E-001	5.99102E-003	0.00000E+000	4.59314E-003	3.59960E-001	-1.17036E+000	3.57850E+000	10	...........
	16	0.226667	7.73564E-001	5.99250E-003	0.00000E+000	4.63558E-003	3.59960E-001	-1.17871E+000	3.57850E+000	10	...........
	17	0.24	7.80384E-001	5.98962E-003	0.00000E+000	4.67420E-003	3.59960E-001	-1.17574E+000	3.57850E+000	10	...........
	18	0.253333	7.87175E-001	5.99047E-003	0.00000E+000	4.71555E-003	3.59960E-001	-1.17031E+000	3.57850E+000	10	...........
	19	0.266667	7.93995E-001	5.99729E-003	0.00000E+000	4.76182E-003	3.59960E-001	-1.17894E+000	3.57850E+000	10	...........
	20	0.28	8.00729E-001	6.00131E-003	0.00000E+000	4.80542E-003	3.59960E-001	-1.17540E+000	3.57850E+000	10	...........
	21	0.293333	8.07443E-001	5.99613E-003	0.00000E+000	4.84153E-003	3.59960E-001	-1.16976E+000	3.57850E+000	10	...........
	22	0.306667	8.14148E-001	5.99236E-003	0.00000E+000	4.87867E-003	3.59960E-001	-1.17868E+000	3.57850E+000	10	...........
	23	0.32	8.20843E-001	5.99502E-003	0.00000E+000	4.92097E-003	3.59960E-001	-1.17570E+000	3.57850E+000	10	...........
	24	0.333333	8.27539E-001	5.99322E-003	0.00000E+000	4.95962E-003	3.59960E-001	-1.16995E+000	3.57850E+000	10	...........
	25	0.346667	8.34105E-001	5.99357E-003	0.00000E+000	4.99927E-003	3.59960E-001	-1.17850E+000	3.57850E+000	10	...........
	26	0.36	8.40723E-001	5.99768E-003	0.00000E+000	5.04239E-003	3.59960E-001	-1.17517E+000	3.57850E+000	10	...........
	27	0.373333	8.47355E-001	5.99401E-003	0.00000E+000	5.07905E-003	3.59960E-001	-1.16965E+000	3.57850E+000	10	...........
	28	0.386667	8.53846E-001	5.99316E-003	0.00000E+000	5.11723E-003	3.59960E-001	-1.17870E+000	3.57850E+000	10	...........
	29	0.4	8.60369E-001	5.99778E-003	0.00000E+000	5.16030E-003	3.59960E-001	-1.17517E+000	3.57850E+000	10	...........
	30	0.413333	8.66874E-001	5.99705E-003	0.00000E+000	5.19868E-003	3.59960E-001	-1.16929E+000	3.57850E+000	10	...........
	31	0.426667	8.73333E-001	5.99621E-003	0.00000E+000	5.23669E-003	3.59960E-001	-1.17829E+000	3.57850E+000	10	...........
	32	0.44	8.79757E-001	5.99489E-003	0.00000E+000	5.27404E-003	3.59960E-001	-1.17505E+000	3.57850E+000	10	...........
	33	0.453333	8.86167E-001	5.99610E-003	0.00000E+000	5.31354E-003	3.59960E-001	-1.16964E+000	3.57850E+000	10	...........
	34	0.466667	8.92488E-001	5.99200E-003	0.00000E+000	5.34779E-003	3.59960E-001	-1.17869E+000	3.57850E+000	10	...........
	35	0.48	8.98819E-001	5.99115E-003	0.00000E+000	5.38496E-003	3.59960E-001	-1.17477E+000	3.57850E+000	10	...........
	36	0.493333	9.05105E-001	5.99966E-003	0.00000E+000	5.43033E-003	3.59960E-001	-1.16933E+000	3.57850E+000	10	...........
	37	0.506667	9.11332E-001	5.99791E-003	0.00000E+000	5.46609E-003	3.59960E-001	-1.17849E+000	3.57850E+000	10	...........
	38	0.52	9.17543E-001	5.99449E-003	0.00000E+000	5.50021E-003	3.59960E-001	-1.17487E+000	3.57850E+000	10	...........
	39	0.533333	9.23790E-001	5.99361E-003	0.00000E+000	5.53684E-003	3.59960E-001	-1.16905E+000	3.57850E+000	10	...........
	40	0.546667	9.29898E-001	5.98737E-003	0.00000E+000	5.56764E-003	3.59960E-001	-1.17799E+000	3.57850E+000	10	...........
	41	0.56	9.35997E-001	5.99029E-003	0.00000E+000	5.60689E-003	3.59960E-001	-1.17387E+000	3.57693E+000	10	...........
	42	0.573333	9.41991E-001	5.99253E-003	0.00000E+000	5.64491E-003	3.59960E-001	-1.16860E+000	3.57670E+000	10	...........
	43	0.586667	9.48015E-001	5.98760E-003	0.00000E+000	5.67633E-003	3.59960E-001	-1.17816E+000	3.57670E+000	10	...........
	44	0.6	9.53998E-001	5.99777E-003	0.00000E+000	5.72186E-003	3.59960E-001	-1.17413E+000	3.57670E+000	10	...........
	45	0.613333	9.59869E-001	5.99691E-003	0.00000E+000	5.75625E-003	3.59960E-001	-1.16848E+000	3.57670E+000	10	...........
	46	0.626667	9.65731E-001	5.99203E-003	0.00000E+000	5.78669E-003	3.59960E-001	-1.17782E+000	3.57670E+000	10	...........
	47	0.64	9.71511E-001	5.99238E-003	0.00000E+000	5.82167E-003	3.59960E-001	-1.17386E+000	3.57670E+000	10	...........
	48	0.653333	9.77298E-001	5.99166E-003	0.00000E+000	5.85564E-003	3.59960E-001	-1.16884E+000	3.57670E+000	10	...........
	49	0.666667	9.82945E-001	5.99060E-003	0.00000E+000	5.88843E-003	3.59960E-001	-1.17805E+000	3.57670E+000	10	...........
	50	0.68	9.88598E-001	5.99404E-003	0.00000E+000	5.92570E-003	3.59960E-001	-1.17381E+000	3.57670E+000	10	...........
	51	0.693333	9.94164E-001	5.99180E-003	0.00000E+000	5.95683E-003	3.59960E-001	-1.16820E+000	3.57670E+000	10	...........
	52	0.701667	9.98708E-001	5.99673E-003	0.00000E+000	5.98898E-003	3.59960E-001	-1.18259E+000	3.57670E+000	10	...........
STARTTIMEOFFSET	QUANT	1483.894	Start Time Offset (s)