File: Data/CV_CRGO300517_1/PWRCCD_CRGO300517_1/CHARGE_DISCHARGE/CHARGE_#652.DTA
EXPLAIN
TAG	PWR800_CHARGE
TITLE	LABEL	PWR Cyclic Charge Discharge (Cell) - Charge Step	Test &Identifier
DATE	LABEL	22-6-2017	Date
TIME	LABEL	16:01:45	Time
NOTES	NOTES	3	&Notes...
	supercap test cell
	0.6mg
	6M KOH
PSTAT	PSTAT	IFC5000-01520	Potentiostat
CAPACITY	QUANT	1.00000E-003	Capacity (A-hr)
CELLTYPE	SELECTOR	1	&Cell Type
WORKINGCONNECTION	SELECTOR	0	&Working Lead
MAXCHARGETIME	VARIABLEANDUNITS	1.00000E+002	s	1.00000E+002	second(s)	Max &Charge Time
CHARGECURRENT	QUANT	6.00000E-003	&Charge Current (A)
VOLTAGEFINISH	TWOPARAM	F	1.00000E-003	3.60000E+003	&Voltage Finish	 I (A) < 	Max Time(s)
SAMPLETIME	QUANT	1.00000E-002	Sa&mple Period (s)
CHARGESTOPAT1	MULTIPARAM	4	1.00000E+000	Charge Stop At &1	Voltage > Limit	V
CHARGESTOPAT2	MULTIPARAM	0	0.00000E+000	Charge Stop At &2	None	N/A
AESBHCSELECTOR	TOGGLE	F	Save Both Half Cells
IRCOMP	TOGGLE	F	IR &Measure
EOC	QUANT	0	Open Circuit (V)
SEQUENCER	TOGGLE	TRUE	Run as Sequence
PSTATMODEL	IQUANT	53	Pstat Model
PSTATSECTION	LABEL	IFC5000-01520	Pstat Section
PSTATSERIALNO	LABEL	01520	Pstat Serial Number
CTRLMODE	IQUANT	0	Control Mode
ELECTROMETER	IQUANT	1	RE=0 or CS=1
IESTAB	IQUANT	0	I/E Stability
CASPEED	IQUANT	4	Control Amp Speed
CONVENTION	IQUANT	1	Current Convention
ICHRANGE	IQUANT	2	Ich Range
ICHRANGEMODE	TOGGLE	T	Ich Auto Range
ICHOFFSETENABLE	TOGGLE	F	Ich Offset Enable
ICHOFFSET	QUANT	0	Ich Offset (V)
ICHFILTER	IQUANT	1	Ich Filter
VCHRANGE	IQUANT	2	Vch Range
VCHRANGEMODE	TOGGLE	T	Vch Auto Range
VCHOFFSETENABLE	TOGGLE	F	Vch Offset Enable
VCHOFFSET	QUANT	0	Vch Offset (V)
VCHFILTER	IQUANT	1	Vch Filter
IERANGELOWERLIMIT	IQUANT	9	I/E Range Lower Limit
IERANGEMODE	TOGGLE	F	I/E AutoRange
IERANGE	IQUANT	10	I/E Range
ACHSELECT	IQUANT	1	Ach Select
ACHRANGE	IQUANT	2	Ach Range
ACHOFFSETENABLE	TOGGLE	F	Ach Offset Enable
ACHOFFSET	QUANT	0	Ach Offset (V)
ACHFILTER	IQUANT	1	Ach Filter
CABLEID	IQUANT	14	Cable ID
DCCALDATE	LABEL	20-10-2016	DC Calibration Date
ACCALDATE	LABEL	12/3/2015	AC Calibration Date
FRAMEWORKVERSION	QUANT	7.01	Framework Version
INSTRUMENTVERSION	LABEL	4.00	Instrument Version
CURVE	TABLE	56
	Pt	T	Vf	Im	Vu	Pwr	Sig	Ach	Temp	IERange	Over
	#	s	V	A	V	W	V	V	deg C	#	bits
	0	0.013333	6.41163E-001	5.99669E-003	0.00000E+000	3.84485E-003	3.59960E-001	-1.15725E+000	3.57640E+000	10	...........
	1	0.026667	6.50193E-001	5.99641E-003	0.00000E+000	3.89883E-003	3.59960E-001	-1.15816E+000	3.57640E+000	10	...........
	2	0.04	6.58440E-001	5.99619E-003	0.00000E+000	3.94813E-003	3.59960E-001	-1.15048E+000	3.57640E+000	10	...........
	3	0.053333	6.66329E-001	5.99189E-003	0.00000E+000	3.99257E-003	3.59960E-001	-1.15718E+000	3.57640E+000	10	...........
	4	0.066667	6.73935E-001	5.99437E-003	0.00000E+000	4.03981E-003	3.59960E-001	-1.15811E+000	3.57652E+000	10	...........
	5	0.08	6.81310E-001	5.98883E-003	0.00000E+000	4.08025E-003	3.59960E-001	-1.15029E+000	3.57660E+000	10	...........
	6	0.093333	6.88566E-001	5.99829E-003	0.00000E+000	4.13022E-003	3.59960E-001	-1.15746E+000	3.57660E+000	10	...........
	7	0.106667	6.95699E-001	5.99114E-003	0.00000E+000	4.16803E-003	3.59960E-001	-1.15800E+000	3.57660E+000	10	...........
	8	0.12	7.02785E-001	5.99917E-003	0.00000E+000	4.21613E-003	3.59960E-001	-1.15038E+000	3.57660E+000	10	...........
	9	0.133333	7.09707E-001	5.99538E-003	0.00000E+000	4.25496E-003	3.59960E-001	-1.15714E+000	3.57660E+000	10	...........
	10	0.146667	7.16676E-001	5.99526E-003	0.00000E+000	4.29666E-003	3.59960E-001	-1.15783E+000	3.57660E+000	10	...........
	11	0.16	7.23559E-001	5.99310E-003	0.00000E+000	4.33637E-003	3.59960E-001	-1.15030E+000	3.57660E+000	10	...........
	12	0.173333	7.30322E-001	5.99231E-003	0.00000E+000	4.37632E-003	3.59960E-001	-1.15716E+000	3.57660E+000	10	...........
	13	0.186667	7.37081E-001	5.99296E-003	0.00000E+000	4.41729E-003	3.59960E-001	-1.15773E+000	3.57660E+000	10	...........
	14	0.2	7.43836E-001	5.99657E-003	0.00000E+000	4.46046E-003	3.59960E-001	-1.15004E+000	3.57660E+000	10	...........
	15	0.213333	7.50561E-001	5.99127E-003	0.00000E+000	4.49681E-003	3.59960E-001	-1.15698E+000	3.57660E+000	10	...........
	16	0.226667	7.57250E-001	5.99491E-003	0.00000E+000	4.53965E-003	3.59960E-001	-1.15789E+000	3.57660E+000	10	...........
	17	0.24	7.63899E-001	5.99418E-003	0.00000E+000	4.57895E-003	3.59960E-001	-1.15033E+000	3.57660E+000	10	...........
	18	0.253333	7.70520E-001	5.99720E-003	0.00000E+000	4.62097E-003	3.59960E-001	-1.15729E+000	3.57660E+000	10	...........
	19	0.266667	7.77160E-001	5.99135E-003	0.00000E+000	4.65624E-003	3.59960E-001	-1.15779E+000	3.57660E+000	10	...........
	20	0.28	7.83740E-001	5.99601E-003	0.00000E+000	4.69932E-003	3.59960E-001	-1.15047E+000	3.57660E+000	10	...........
	21	0.293333	7.90295E-001	5.99187E-003	0.00000E+000	4.73535E-003	3.59960E-001	-1.15728E+000	3.57660E+000	10	...........
	22	0.306667	7.96935E-001	5.99523E-003	0.00000E+000	4.77781E-003	3.59960E-001	-1.15803E+000	3.57660E+000	10	...........
	23	0.32	8.03456E-001	5.99718E-003	0.00000E+000	4.81847E-003	3.59960E-001	-1.15031E+000	3.57660E+000	10	...........
	24	0.333333	8.09919E-001	5.99856E-003	0.00000E+000	4.85834E-003	3.59960E-001	-1.15672E+000	3.57660E+000	10	...........
	25	0.346667	8.16401E-001	5.98876E-003	0.00000E+000	4.88923E-003	3.59960E-001	-1.15747E+000	3.57660E+000	10	...........
	26	0.36	8.22909E-001	5.99197E-003	0.00000E+000	4.93084E-003	3.59960E-001	-1.15007E+000	3.57660E+000	10	...........
	27	0.373333	8.29350E-001	5.98960E-003	0.00000E+000	4.96747E-003	3.59960E-001	-1.15701E+000	3.57660E+000	10	...........
	28	0.386667	8.35811E-001	5.99414E-003	0.00000E+000	5.00996E-003	3.59960E-001	-1.15738E+000	3.57660E+000	10	...........
	29	0.4	8.42253E-001	5.99759E-003	0.00000E+000	5.05149E-003	3.59960E-001	-1.14983E+000	3.57660E+000	10	...........
	30	0.413333	8.48706E-001	5.99766E-003	0.00000E+000	5.09025E-003	3.59960E-001	-1.15689E+000	3.57660E+000	10	...........
	31	0.426667	8.55062E-001	5.99861E-003	0.00000E+000	5.12918E-003	3.59960E-001	-1.15748E+000	3.57660E+000	10	...........
	32	0.44	8.61421E-001	5.98993E-003	0.00000E+000	5.15986E-003	3.59960E-001	-1.15000E+000	3.57660E+000	10	...........
	33	0.453333	8.67800E-001	5.99591E-003	0.00000E+000	5.20325E-003	3.59960E-001	-1.15665E+000	3.57660E+000	10	...........
	34	0.466667	8.74125E-001	5.99856E-003	0.00000E+000	5.24349E-003	3.59960E-001	-1.15733E+000	3.57660E+000	10	...........
	35	0.48	8.80412E-001	5.99323E-003	0.00000E+000	5.27651E-003	3.59960E-001	-1.14981E+000	3.57660E+000	10	...........
	36	0.493333	8.86683E-001	5.99363E-003	0.00000E+000	5.31446E-003	3.59960E-001	-1.15691E+000	3.57660E+000	10	...........
	37	0.506667	8.92856E-001	5.99332E-003	0.00000E+000	5.35117E-003	3.59960E-001	-1.15757E+000	3.57660E+000	10	...........
	38	0.52	8.99099E-001	5.98774E-003	0.00000E+000	5.38357E-003	3.59960E-001	-1.15002E+000	3.57660E+000	10	...........
	39	0.533333	9.05224E-001	5.98898E-003	0.00000E+000	5.42137E-003	3.59960E-001	-1.15665E+000	3.57660E+000	10	...........
	40	0.546667	9.11400E-001	5.99481E-003	0.00000E+000	5.46367E-003	3.59960E-001	-1.15732E+000	3.57660E+000	10	...........
	41	0.56	9.17496E-001	5.99424E-003	0.00000E+000	5.49969E-003	3.59960E-001	-1.14997E+000	3.57660E+000	10	...........
	42	0.573333	9.23624E-001	5.99757E-003	0.00000E+000	5.53950E-003	3.59960E-001	-1.15710E+000	3.57660E+000	10	...........
	43	0.586667	9.29664E-001	5.98948E-003	0.00000E+000	5.56821E-003	3.59960E-001	-1.15750E+000	3.57660E+000	10	...........
	44	0.6	9.35658E-001	6.00025E-003	0.00000E+000	5.61418E-003	3.59960E-001	-1.14981E+000	3.57660E+000	10	...........
	45	0.613333	9.41604E-001	5.99266E-003	0.00000E+000	5.64272E-003	3.59960E-001	-1.15668E+000	3.57660E+000	10	...........
	46	0.626667	9.47533E-001	5.99149E-003	0.00000E+000	5.67713E-003	3.59960E-001	-1.15758E+000	3.57660E+000	10	...........
	47	0.64	9.53430E-001	5.99636E-003	0.00000E+000	5.71711E-003	3.59960E-001	-1.14996E+000	3.57660E+000	10	...........
	48	0.653333	9.59231E-001	5.99196E-003	0.00000E+000	5.74767E-003	3.59960E-001	-1.15648E+000	3.57660E+000	10	...........
	49	0.666667	9.64979E-001	5.99469E-003	0.00000E+000	5.78475E-003	3.59960E-001	-1.15693E+000	3.57660E+000	10	...........
	50	0.68	9.70731E-001	5.99278E-003	0.00000E+000	5.81738E-003	3.59960E-001	-1.14968E+000	3.57660E+000	10	...........
	51	0.693333	9.76470E-001	5.99521E-003	0.00000E+000	5.85414E-003	3.59960E-001	-1.15665E+000	3.57660E+000	10	...........
	52	0.706667	9.82094E-001	5.99278E-003	0.00000E+000	5.88547E-003	3.59960E-001	-1.15752E+000	3.57660E+000	10	...........
	53	0.72	9.87688E-001	5.99103E-003	0.00000E+000	5.91727E-003	3.59960E-001	-1.14962E+000	3.57660E+000	10	...........
	54	0.733333	9.93236E-001	6.00068E-003	0.00000E+000	5.96009E-003	3.59960E-001	-1.15670E+000	3.57660E+000	10	...........
	55	0.745	9.98439E-001	5.99842E-003	0.00000E+000	5.98905E-003	3.59960E-001	-1.15635E+000	3.57660E+000	10	...........
STARTTIMEOFFSET	QUANT	1088.453	Start Time Offset (s)