File: Data/CV_CRGO300517_1/PWRCCD_CRGO300517_1/CHARGE_DISCHARGE/CHARGE_#489.DTA
EXPLAIN
TAG	PWR800_CHARGE
TITLE	LABEL	PWR Cyclic Charge Discharge (Cell) - Charge Step	Test &Identifier
DATE	LABEL	22-6-2017	Date
TIME	LABEL	15:55:30	Time
NOTES	NOTES	3	&Notes...
	supercap test cell
	0.6mg
	6M KOH
PSTAT	PSTAT	IFC5000-01520	Potentiostat
CAPACITY	QUANT	1.00000E-003	Capacity (A-hr)
CELLTYPE	SELECTOR	1	&Cell Type
WORKINGCONNECTION	SELECTOR	0	&Working Lead
MAXCHARGETIME	VARIABLEANDUNITS	1.00000E+002	s	1.00000E+002	second(s)	Max &Charge Time
CHARGECURRENT	QUANT	6.00000E-003	&Charge Current (A)
VOLTAGEFINISH	TWOPARAM	F	1.00000E-003	3.60000E+003	&Voltage Finish	 I (A) < 	Max Time(s)
SAMPLETIME	QUANT	1.00000E-002	Sa&mple Period (s)
CHARGESTOPAT1	MULTIPARAM	4	1.00000E+000	Charge Stop At &1	Voltage > Limit	V
CHARGESTOPAT2	MULTIPARAM	0	0.00000E+000	Charge Stop At &2	None	N/A
AESBHCSELECTOR	TOGGLE	F	Save Both Half Cells
IRCOMP	TOGGLE	F	IR &Measure
EOC	QUANT	0	Open Circuit (V)
SEQUENCER	TOGGLE	TRUE	Run as Sequence
PSTATMODEL	IQUANT	53	Pstat Model
PSTATSECTION	LABEL	IFC5000-01520	Pstat Section
PSTATSERIALNO	LABEL	01520	Pstat Serial Number
CTRLMODE	IQUANT	0	Control Mode
ELECTROMETER	IQUANT	1	RE=0 or CS=1
IESTAB	IQUANT	0	I/E Stability
CASPEED	IQUANT	4	Control Amp Speed
CONVENTION	IQUANT	1	Current Convention
ICHRANGE	IQUANT	2	Ich Range
ICHRANGEMODE	TOGGLE	T	Ich Auto Range
ICHOFFSETENABLE	TOGGLE	F	Ich Offset Enable
ICHOFFSET	QUANT	0	Ich Offset (V)
ICHFILTER	IQUANT	1	Ich Filter
VCHRANGE	IQUANT	2	Vch Range
VCHRANGEMODE	TOGGLE	T	Vch Auto Range
VCHOFFSETENABLE	TOGGLE	F	Vch Offset Enable
VCHOFFSET	QUANT	0	Vch Offset (V)
VCHFILTER	IQUANT	1	Vch Filter
IERANGELOWERLIMIT	IQUANT	9	I/E Range Lower Limit
IERANGEMODE	TOGGLE	F	I/E AutoRange
IERANGE	IQUANT	10	I/E Range
ACHSELECT	IQUANT	1	Ach Select
ACHRANGE	IQUANT	2	Ach Range
ACHOFFSETENABLE	TOGGLE	F	Ach Offset Enable
ACHOFFSET	QUANT	0	Ach Offset (V)
ACHFILTER	IQUANT	1	Ach Filter
CABLEID	IQUANT	14	Cable ID
DCCALDATE	LABEL	20-10-2016	DC Calibration Date
ACCALDATE	LABEL	12/3/2015	AC Calibration Date
FRAMEWORKVERSION	QUANT	7.01	Framework Version
INSTRUMENTVERSION	LABEL	4.00	Instrument Version
CURVE	TABLE	59
	Pt	T	Vf	Im	Vu	Pwr	Sig	Ach	Temp	IERange	Over
	#	s	V	A	V	W	V	V	deg C	#	bits
	0	0.013333	6.31375E-001	5.99033E-003	0.00000E+000	3.78214E-003	3.59960E-001	-1.12957E+000	3.57650E+000	10	...........
	1	0.026667	6.40262E-001	5.99222E-003	0.00000E+000	3.83659E-003	3.59960E-001	-1.13954E+000	3.57650E+000	10	...........
	2	0.04	6.48381E-001	5.99635E-003	0.00000E+000	3.88792E-003	3.59960E-001	-1.13295E+000	3.57650E+000	10	...........
	3	0.053333	6.56117E-001	5.99467E-003	0.00000E+000	3.93320E-003	3.59960E-001	-1.12916E+000	3.57650E+000	10	...........
	4	0.066667	6.63561E-001	5.99285E-003	0.00000E+000	3.97662E-003	3.59960E-001	-1.13942E+000	3.57650E+000	10	...........
	5	0.08	6.70850E-001	5.99448E-003	0.00000E+000	4.02140E-003	3.59960E-001	-1.13289E+000	3.57650E+000	10	...........
	6	0.093333	6.77945E-001	5.99464E-003	0.00000E+000	4.06403E-003	3.59960E-001	-1.12871E+000	3.57650E+000	10	...........
	7	0.106667	6.84940E-001	5.99613E-003	0.00000E+000	4.10699E-003	3.59960E-001	-1.13910E+000	3.57650E+000	10	...........
	8	0.12	6.91826E-001	5.99329E-003	0.00000E+000	4.14632E-003	3.59960E-001	-1.13313E+000	3.57650E+000	10	...........
	9	0.133333	6.98690E-001	5.99310E-003	0.00000E+000	4.18732E-003	3.59960E-001	-1.12933E+000	3.57650E+000	10	...........
	10	0.146667	7.05468E-001	5.99562E-003	0.00000E+000	4.22971E-003	3.59960E-001	-1.13925E+000	3.57650E+000	10	...........
	11	0.16	7.12166E-001	5.99699E-003	0.00000E+000	4.27086E-003	3.59960E-001	-1.13297E+000	3.57650E+000	10	...........
	12	0.173333	7.18899E-001	5.99662E-003	0.00000E+000	4.31096E-003	3.59960E-001	-1.12924E+000	3.57650E+000	10	...........
	13	0.186667	7.25573E-001	5.99495E-003	0.00000E+000	4.34977E-003	3.59960E-001	-1.13931E+000	3.57650E+000	10	...........
	14	0.2	7.32150E-001	5.99427E-003	0.00000E+000	4.38871E-003	3.59960E-001	-1.13313E+000	3.57650E+000	10	...........
	15	0.213333	7.38762E-001	5.99520E-003	0.00000E+000	4.42903E-003	3.59960E-001	-1.12894E+000	3.57652E+000	10	...........
	16	0.226667	7.45360E-001	5.99422E-003	0.00000E+000	4.46785E-003	3.59960E-001	-1.13920E+000	3.57670E+000	10	...........
	17	0.24	7.51902E-001	5.99670E-003	0.00000E+000	4.50893E-003	3.59960E-001	-1.13314E+000	3.57670E+000	10	...........
	18	0.253333	7.58433E-001	5.99437E-003	0.00000E+000	4.54633E-003	3.59960E-001	-1.12948E+000	3.57670E+000	10	...........
	19	0.266667	7.64950E-001	5.99595E-003	0.00000E+000	4.58660E-003	3.59960E-001	-1.13958E+000	3.57670E+000	10	...........
	20	0.28	7.71436E-001	5.98994E-003	0.00000E+000	4.62086E-003	3.59960E-001	-1.13331E+000	3.57670E+000	10	...........
	21	0.293333	7.77898E-001	5.99616E-003	0.00000E+000	4.66440E-003	3.59960E-001	-1.12960E+000	3.57670E+000	10	...........
	22	0.306667	7.84384E-001	5.99592E-003	0.00000E+000	4.70310E-003	3.59960E-001	-1.13977E+000	3.57670E+000	10	...........
	23	0.32	7.90847E-001	5.99199E-003	0.00000E+000	4.73874E-003	3.59960E-001	-1.13360E+000	3.57670E+000	10	...........
	24	0.333333	7.97280E-001	5.99173E-003	0.00000E+000	4.77709E-003	3.59960E-001	-1.12945E+000	3.57670E+000	10	...........
	25	0.346667	8.03670E-001	5.99213E-003	0.00000E+000	4.81570E-003	3.59960E-001	-1.13956E+000	3.57670E+000	10	...........
	26	0.36	8.10071E-001	5.99596E-003	0.00000E+000	4.85716E-003	3.59960E-001	-1.13332E+000	3.57670E+000	10	...........
	27	0.373333	8.16427E-001	5.99513E-003	0.00000E+000	4.89459E-003	3.59960E-001	-1.12967E+000	3.57670E+000	10	...........
	28	0.386667	8.22800E-001	5.99154E-003	0.00000E+000	4.92984E-003	3.59960E-001	-1.13976E+000	3.57670E+000	10	...........
	29	0.4	8.29152E-001	5.99548E-003	0.00000E+000	4.97117E-003	3.59960E-001	-1.13390E+000	3.57670E+000	10	...........
	30	0.413333	8.35472E-001	5.99452E-003	0.00000E+000	5.00825E-003	3.59960E-001	-1.12974E+000	3.57670E+000	10	...........
	31	0.426667	8.41792E-001	5.99207E-003	0.00000E+000	5.04408E-003	3.59960E-001	-1.13960E+000	3.57670E+000	10	...........
	32	0.44	8.48125E-001	5.99377E-003	0.00000E+000	5.08347E-003	3.59960E-001	-1.13388E+000	3.57670E+000	10	...........
	33	0.453333	8.54349E-001	5.99141E-003	0.00000E+000	5.11876E-003	3.59960E-001	-1.12970E+000	3.57670E+000	10	...........
	34	0.466667	8.60579E-001	6.00092E-003	0.00000E+000	5.16426E-003	3.59960E-001	-1.13973E+000	3.57670E+000	10	...........
	35	0.48	8.66782E-001	5.99182E-003	0.00000E+000	5.19360E-003	3.59960E-001	-1.13420E+000	3.57670E+000	10	...........
	36	0.493333	8.73060E-001	5.99733E-003	0.00000E+000	5.23602E-003	3.59960E-001	-1.13009E+000	3.57670E+000	10	...........
	37	0.506667	8.79239E-001	5.99091E-003	0.00000E+000	5.26745E-003	3.59960E-001	-1.14003E+000	3.57670E+000	10	...........
	38	0.52	8.85427E-001	5.99595E-003	0.00000E+000	5.30897E-003	3.59960E-001	-1.13451E+000	3.57670E+000	10	...........
	39	0.533333	8.91565E-001	5.99257E-003	0.00000E+000	5.34277E-003	3.59960E-001	-1.13015E+000	3.57670E+000	10	...........
	40	0.546667	8.97709E-001	5.99368E-003	0.00000E+000	5.38058E-003	3.59960E-001	-1.14022E+000	3.57670E+000	10	...........
	41	0.56	9.03800E-001	5.99257E-003	0.00000E+000	5.41608E-003	3.59960E-001	-1.13459E+000	3.57670E+000	10	...........
	42	0.573333	9.09909E-001	5.99341E-003	0.00000E+000	5.45346E-003	3.59960E-001	-1.13047E+000	3.57670E+000	10	...........
	43	0.586667	9.15943E-001	5.99571E-003	0.00000E+000	5.49173E-003	3.59960E-001	-1.14044E+000	3.57670E+000	10	...........
	44	0.6	9.22039E-001	5.99311E-003	0.00000E+000	5.52588E-003	3.59960E-001	-1.13505E+000	3.57670E+000	10	...........
	45	0.613333	9.27995E-001	5.99619E-003	0.00000E+000	5.56443E-003	3.59960E-001	-1.13081E+000	3.57670E+000	10	...........
	46	0.626667	9.33924E-001	5.99276E-003	0.00000E+000	5.59678E-003	3.59960E-001	-1.14044E+000	3.57670E+000	10	...........
	47	0.64	9.39780E-001	5.99502E-003	0.00000E+000	5.63400E-003	3.59960E-001	-1.13498E+000	3.57670E+000	10	...........
	48	0.653333	9.45648E-001	5.99474E-003	0.00000E+000	5.66891E-003	3.59960E-001	-1.13077E+000	3.57670E+000	10	...........
	49	0.666667	9.51509E-001	5.99026E-003	0.00000E+000	5.69978E-003	3.59960E-001	-1.14068E+000	3.57670E+000	10	...........
	50	0.68	9.57266E-001	5.99042E-003	0.00000E+000	5.73443E-003	3.59960E-001	-1.13508E+000	3.57670E+000	10	...........
	51	0.693333	9.62998E-001	5.99669E-003	0.00000E+000	5.77480E-003	3.59960E-001	-1.13075E+000	3.57670E+000	10	...........
	52	0.706667	9.68707E-001	5.99925E-003	0.00000E+000	5.81151E-003	3.59960E-001	-1.14073E+000	3.57670E+000	10	...........
	53	0.72	9.74427E-001	5.99560E-003	0.00000E+000	5.84227E-003	3.59960E-001	-1.13525E+000	3.57670E+000	10	...........
	54	0.733333	9.80027E-001	5.99629E-003	0.00000E+000	5.87653E-003	3.59960E-001	-1.13112E+000	3.57670E+000	10	...........
	55	0.746667	9.85591E-001	5.99367E-003	0.00000E+000	5.90730E-003	3.59960E-001	-1.14076E+000	3.57670E+000	10	...........
	56	0.76	9.91127E-001	5.99068E-003	0.00000E+000	5.93753E-003	3.59960E-001	-1.13543E+000	3.57670E+000	10	...........
	57	0.773333	9.96653E-001	5.99325E-003	0.00000E+000	5.97319E-003	3.59960E-001	-1.13150E+000	3.57670E+000	10	...........
	58	0.776667	1.00003E+000	5.99642E-003	0.00000E+000	5.99659E-003	3.59960E-001	-1.14517E+000	3.57670E+000	10	...........
STARTTIMEOFFSET	QUANT	842.0637	Start Time Offset (s)