File: Data/CV_CRGO300517_1/PWRCCD_CRGO300517_1/CHARGE_DISCHARGE/CHARGE_#134.DTA
EXPLAIN
TAG	PWR800_CHARGE
TITLE	LABEL	PWR Cyclic Charge Discharge (Cell) - Charge Step	Test &Identifier
DATE	LABEL	22-6-2017	Date
TIME	LABEL	15:41:00	Time
NOTES	NOTES	3	&Notes...
	supercap test cell
	0.6mg
	6M KOH
PSTAT	PSTAT	IFC5000-01520	Potentiostat
CAPACITY	QUANT	1.00000E-003	Capacity (A-hr)
CELLTYPE	SELECTOR	1	&Cell Type
WORKINGCONNECTION	SELECTOR	0	&Working Lead
MAXCHARGETIME	VARIABLEANDUNITS	1.00000E+002	s	1.00000E+002	second(s)	Max &Charge Time
CHARGECURRENT	QUANT	6.00000E-003	&Charge Current (A)
VOLTAGEFINISH	TWOPARAM	F	1.00000E-003	3.60000E+003	&Voltage Finish	 I (A) < 	Max Time(s)
SAMPLETIME	QUANT	1.00000E-002	Sa&mple Period (s)
CHARGESTOPAT1	MULTIPARAM	4	1.00000E+000	Charge Stop At &1	Voltage > Limit	V
CHARGESTOPAT2	MULTIPARAM	0	0.00000E+000	Charge Stop At &2	None	N/A
AESBHCSELECTOR	TOGGLE	F	Save Both Half Cells
IRCOMP	TOGGLE	F	IR &Measure
EOC	QUANT	0	Open Circuit (V)
SEQUENCER	TOGGLE	TRUE	Run as Sequence
PSTATMODEL	IQUANT	53	Pstat Model
PSTATSECTION	LABEL	IFC5000-01520	Pstat Section
PSTATSERIALNO	LABEL	01520	Pstat Serial Number
CTRLMODE	IQUANT	0	Control Mode
ELECTROMETER	IQUANT	1	RE=0 or CS=1
IESTAB	IQUANT	0	I/E Stability
CASPEED	IQUANT	4	Control Amp Speed
CONVENTION	IQUANT	1	Current Convention
ICHRANGE	IQUANT	2	Ich Range
ICHRANGEMODE	TOGGLE	T	Ich Auto Range
ICHOFFSETENABLE	TOGGLE	F	Ich Offset Enable
ICHOFFSET	QUANT	0	Ich Offset (V)
ICHFILTER	IQUANT	1	Ich Filter
VCHRANGE	IQUANT	2	Vch Range
VCHRANGEMODE	TOGGLE	T	Vch Auto Range
VCHOFFSETENABLE	TOGGLE	F	Vch Offset Enable
VCHOFFSET	QUANT	0	Vch Offset (V)
VCHFILTER	IQUANT	1	Vch Filter
IERANGELOWERLIMIT	IQUANT	9	I/E Range Lower Limit
IERANGEMODE	TOGGLE	F	I/E AutoRange
IERANGE	IQUANT	10	I/E Range
ACHSELECT	IQUANT	1	Ach Select
ACHRANGE	IQUANT	2	Ach Range
ACHOFFSETENABLE	TOGGLE	F	Ach Offset Enable
ACHOFFSET	QUANT	0	Ach Offset (V)
ACHFILTER	IQUANT	1	Ach Filter
CABLEID	IQUANT	14	Cable ID
DCCALDATE	LABEL	20-10-2016	DC Calibration Date
ACCALDATE	LABEL	12/3/2015	AC Calibration Date
FRAMEWORKVERSION	QUANT	7.01	Framework Version
INSTRUMENTVERSION	LABEL	4.00	Instrument Version
CURVE	TABLE	68
	Pt	T	Vf	Im	Vu	Pwr	Sig	Ach	Temp	IERange	Over
	#	s	V	A	V	W	V	V	deg C	#	bits
	0	0.013333	5.94768E-001	5.99183E-003	0.00000E+000	3.56375E-003	3.59960E-001	-1.06761E+000	3.57730E+000	10	...........
	1	0.026667	6.03076E-001	5.99472E-003	0.00000E+000	3.61527E-003	3.59960E-001	-1.06597E+000	3.57730E+000	10	...........
	2	0.04	6.10736E-001	5.99212E-003	0.00000E+000	3.65961E-003	3.59960E-001	-1.07656E+000	3.57730E+000	10	...........
	3	0.053333	6.18068E-001	5.99175E-003	0.00000E+000	3.70331E-003	3.59960E-001	-1.06752E+000	3.57730E+000	10	...........
	4	0.066667	6.25014E-001	5.99107E-003	0.00000E+000	3.74450E-003	3.59960E-001	-1.06597E+000	3.57730E+000	10	...........
	5	0.08	6.31792E-001	5.99357E-003	0.00000E+000	3.78669E-003	3.59960E-001	-1.07681E+000	3.57730E+000	10	...........
	6	0.093333	6.38454E-001	5.99549E-003	0.00000E+000	3.82785E-003	3.59960E-001	-1.06756E+000	3.57730E+000	10	...........
	7	0.106667	6.44994E-001	5.99767E-003	0.00000E+000	3.86846E-003	3.59960E-001	-1.06556E+000	3.57730E+000	10	...........
	8	0.12	6.51450E-001	5.99528E-003	0.00000E+000	3.90563E-003	3.59960E-001	-1.07638E+000	3.57730E+000	10	...........
	9	0.133333	6.57843E-001	5.99171E-003	0.00000E+000	3.94160E-003	3.59960E-001	-1.06692E+000	3.57730E+000	10	...........
	10	0.146667	6.64167E-001	5.99216E-003	0.00000E+000	3.97980E-003	3.59960E-001	-1.06543E+000	3.57730E+000	10	...........
	11	0.16	6.70461E-001	5.99378E-003	0.00000E+000	4.01860E-003	3.59960E-001	-1.07604E+000	3.57730E+000	10	...........
	12	0.173333	6.76738E-001	5.99232E-003	0.00000E+000	4.05523E-003	3.59960E-001	-1.06686E+000	3.57730E+000	10	...........
	13	0.186667	6.82909E-001	5.99451E-003	0.00000E+000	4.09371E-003	3.59960E-001	-1.06497E+000	3.57730E+000	10	...........
	14	0.2	6.89049E-001	5.99793E-003	0.00000E+000	4.13287E-003	3.59960E-001	-1.07600E+000	3.57730E+000	10	...........
	15	0.213333	6.95204E-001	5.99609E-003	0.00000E+000	4.16850E-003	3.59960E-001	-1.06697E+000	3.57730E+000	10	...........
	16	0.226667	7.01314E-001	5.99516E-003	0.00000E+000	4.20449E-003	3.59960E-001	-1.06538E+000	3.57730E+000	10	...........
	17	0.24	7.07457E-001	5.99381E-003	0.00000E+000	4.24036E-003	3.59960E-001	-1.07575E+000	3.57730E+000	10	...........
	18	0.253333	7.13514E-001	5.99583E-003	0.00000E+000	4.27811E-003	3.59960E-001	-1.06676E+000	3.57730E+000	10	...........
	19	0.266667	7.19647E-001	5.99542E-003	0.00000E+000	4.31458E-003	3.59960E-001	-1.06521E+000	3.57730E+000	10	...........
	20	0.28	7.25670E-001	5.99055E-003	0.00000E+000	4.34716E-003	3.59960E-001	-1.07605E+000	3.57730E+000	10	...........
	21	0.293333	7.31727E-001	5.98875E-003	0.00000E+000	4.38213E-003	3.59960E-001	-1.06689E+000	3.57730E+000	10	...........
	22	0.306667	7.37757E-001	5.99199E-003	0.00000E+000	4.42063E-003	3.59960E-001	-1.06500E+000	3.57730E+000	10	...........
	23	0.32	7.43782E-001	5.99499E-003	0.00000E+000	4.45896E-003	3.59960E-001	-1.07576E+000	3.57730E+000	10	...........
	24	0.333333	7.49789E-001	5.99247E-003	0.00000E+000	4.49309E-003	3.59960E-001	-1.06695E+000	3.57730E+000	10	...........
	25	0.346667	7.55794E-001	5.99464E-003	0.00000E+000	4.53071E-003	3.59960E-001	-1.06531E+000	3.57730E+000	10	...........
	26	0.36	7.61791E-001	5.99188E-003	0.00000E+000	4.56456E-003	3.59960E-001	-1.07597E+000	3.57730E+000	10	...........
	27	0.373333	7.67781E-001	5.99526E-003	0.00000E+000	4.60305E-003	3.59960E-001	-1.06688E+000	3.57730E+000	10	...........
	28	0.386667	7.73774E-001	5.99673E-003	0.00000E+000	4.64012E-003	3.59960E-001	-1.06493E+000	3.57730E+000	10	...........
	29	0.4	7.79805E-001	5.99428E-003	0.00000E+000	4.67437E-003	3.59960E-001	-1.07586E+000	3.57730E+000	10	...........
	30	0.413333	7.85771E-001	5.99359E-003	0.00000E+000	4.70959E-003	3.59960E-001	-1.06696E+000	3.57730E+000	10	...........
	31	0.426667	7.91812E-001	5.99496E-003	0.00000E+000	4.74688E-003	3.59960E-001	-1.06503E+000	3.57730E+000	10	...........
	32	0.44	7.97772E-001	5.99454E-003	0.00000E+000	4.78228E-003	3.59960E-001	-1.07554E+000	3.57730E+000	10	...........
	33	0.453333	8.03788E-001	5.99396E-003	0.00000E+000	4.81787E-003	3.59960E-001	-1.06637E+000	3.57730E+000	10	...........
	34	0.466667	8.09715E-001	5.99674E-003	0.00000E+000	4.85565E-003	3.59960E-001	-1.06452E+000	3.57730E+000	10	...........
	35	0.48	8.15666E-001	5.99316E-003	0.00000E+000	4.88841E-003	3.59960E-001	-1.07541E+000	3.57730E+000	10	...........
	36	0.493333	8.21626E-001	5.99644E-003	0.00000E+000	4.92683E-003	3.59960E-001	-1.06661E+000	3.57730E+000	10	...........
	37	0.506667	8.27601E-001	5.99610E-003	0.00000E+000	4.96238E-003	3.59960E-001	-1.06454E+000	3.57730E+000	10	...........
	38	0.52	8.33531E-001	5.99369E-003	0.00000E+000	4.99593E-003	3.59960E-001	-1.07531E+000	3.57730E+000	10	...........
	39	0.533333	8.39436E-001	5.99360E-003	0.00000E+000	5.03125E-003	3.59960E-001	-1.06655E+000	3.57730E+000	10	...........
	40	0.546667	8.45432E-001	5.99522E-003	0.00000E+000	5.06855E-003	3.59960E-001	-1.06462E+000	3.57730E+000	10	...........
	41	0.56	8.51346E-001	5.99018E-003	0.00000E+000	5.09972E-003	3.59960E-001	-1.07519E+000	3.57730E+000	10	...........
	42	0.573333	8.57249E-001	5.99542E-003	0.00000E+000	5.13957E-003	3.59960E-001	-1.06638E+000	3.57730E+000	10	...........
	43	0.586667	8.63157E-001	5.99167E-003	0.00000E+000	5.17176E-003	3.59960E-001	-1.06432E+000	3.57730E+000	10	...........
	44	0.6	8.69109E-001	5.99580E-003	0.00000E+000	5.21101E-003	3.59960E-001	-1.07530E+000	3.57730E+000	10	...........
	45	0.613333	8.74939E-001	5.99779E-003	0.00000E+000	5.24770E-003	3.59960E-001	-1.06665E+000	3.57730E+000	10	...........
	46	0.626667	8.80790E-001	5.99456E-003	0.00000E+000	5.27995E-003	3.59960E-001	-1.06445E+000	3.57730E+000	10	...........
	47	0.64	8.86668E-001	5.99456E-003	0.00000E+000	5.31519E-003	3.59960E-001	-1.07501E+000	3.57730E+000	10	...........
	48	0.653333	8.92480E-001	5.99883E-003	0.00000E+000	5.35384E-003	3.59960E-001	-1.06644E+000	3.57730E+000	10	...........
	49	0.666667	8.98318E-001	5.99365E-003	0.00000E+000	5.38420E-003	3.59960E-001	-1.06458E+000	3.57730E+000	10	...........
	50	0.68	9.04164E-001	5.99018E-003	0.00000E+000	5.41611E-003	3.59960E-001	-1.07528E+000	3.57730E+000	10	...........
	51	0.693333	9.09984E-001	5.99070E-003	0.00000E+000	5.45145E-003	3.59960E-001	-1.06682E+000	3.57730E+000	10	...........
	52	0.706667	9.15763E-001	5.99343E-003	0.00000E+000	5.48856E-003	3.59960E-001	-1.06441E+000	3.57730E+000	10	...........
	53	0.72	9.21545E-001	5.99494E-003	0.00000E+000	5.52461E-003	3.59960E-001	-1.07503E+000	3.57730E+000	10	...........
	54	0.733333	9.27305E-001	5.99481E-003	0.00000E+000	5.55902E-003	3.59960E-001	-1.06663E+000	3.57730E+000	10	...........
	55	0.746667	9.32999E-001	5.98887E-003	0.00000E+000	5.58761E-003	3.59960E-001	-1.06451E+000	3.57730E+000	10	...........
	56	0.76	9.38700E-001	5.99372E-003	0.00000E+000	5.62630E-003	3.59960E-001	-1.07512E+000	3.57730E+000	10	...........
	57	0.773333	9.44352E-001	5.99131E-003	0.00000E+000	5.65791E-003	3.59960E-001	-1.06600E+000	3.57730E+000	10	...........
	58	0.786667	9.50012E-001	5.99264E-003	0.00000E+000	5.69308E-003	3.59960E-001	-1.06382E+000	3.57730E+000	10	...........
	59	0.8	9.55629E-001	5.99143E-003	0.00000E+000	5.72559E-003	3.59960E-001	-1.07470E+000	3.57730E+000	10	...........
	60	0.813333	9.61176E-001	5.99304E-003	0.00000E+000	5.76037E-003	3.59960E-001	-1.06652E+000	3.57730E+000	10	...........
	61	0.826667	9.66729E-001	5.99109E-003	0.00000E+000	5.79176E-003	3.59960E-001	-1.06407E+000	3.57730E+000	10	...........
	62	0.84	9.72251E-001	5.99649E-003	0.00000E+000	5.83010E-003	3.59960E-001	-1.07463E+000	3.57730E+000	10	...........
	63	0.853333	9.77781E-001	5.99096E-003	0.00000E+000	5.85785E-003	3.59960E-001	-1.06622E+000	3.57730E+000	10	...........
	64	0.866667	9.83196E-001	5.99117E-003	0.00000E+000	5.89050E-003	3.59960E-001	-1.06414E+000	3.57757E+000	10	...........
	65	0.88	9.88581E-001	5.99530E-003	0.00000E+000	5.92684E-003	3.59960E-001	-1.07502E+000	3.57840E+000	10	...........
	66	0.893333	9.93962E-001	5.99491E-003	0.00000E+000	5.95871E-003	3.59960E-001	-1.06633E+000	3.57840E+000	10	...........
	67	0.903333	9.98635E-001	5.99209E-003	0.00000E+000	5.98392E-003	3.59960E-001	-1.06564E+000	3.57840E+000	10	...........
STARTTIMEOFFSET	QUANT	257.0433	Start Time Offset (s)