File: Data/CV_CRGO300517_1/PWRCCD_CRGO300517_1/CHARGE_DISCHARGE/CHARGE_#641.DTA
EXPLAIN
TAG	PWR800_CHARGE
TITLE	LABEL	PWR Cyclic Charge Discharge (Cell) - Charge Step	Test &Identifier
DATE	LABEL	22-6-2017	Date
TIME	LABEL	16:01:19	Time
NOTES	NOTES	3	&Notes...
	supercap test cell
	0.6mg
	6M KOH
PSTAT	PSTAT	IFC5000-01520	Potentiostat
CAPACITY	QUANT	1.00000E-003	Capacity (A-hr)
CELLTYPE	SELECTOR	1	&Cell Type
WORKINGCONNECTION	SELECTOR	0	&Working Lead
MAXCHARGETIME	VARIABLEANDUNITS	1.00000E+002	s	1.00000E+002	second(s)	Max &Charge Time
CHARGECURRENT	QUANT	6.00000E-003	&Charge Current (A)
VOLTAGEFINISH	TWOPARAM	F	1.00000E-003	3.60000E+003	&Voltage Finish	 I (A) < 	Max Time(s)
SAMPLETIME	QUANT	1.00000E-002	Sa&mple Period (s)
CHARGESTOPAT1	MULTIPARAM	4	1.00000E+000	Charge Stop At &1	Voltage > Limit	V
CHARGESTOPAT2	MULTIPARAM	0	0.00000E+000	Charge Stop At &2	None	N/A
AESBHCSELECTOR	TOGGLE	F	Save Both Half Cells
IRCOMP	TOGGLE	F	IR &Measure
EOC	QUANT	0	Open Circuit (V)
SEQUENCER	TOGGLE	TRUE	Run as Sequence
PSTATMODEL	IQUANT	53	Pstat Model
PSTATSECTION	LABEL	IFC5000-01520	Pstat Section
PSTATSERIALNO	LABEL	01520	Pstat Serial Number
CTRLMODE	IQUANT	0	Control Mode
ELECTROMETER	IQUANT	1	RE=0 or CS=1
IESTAB	IQUANT	0	I/E Stability
CASPEED	IQUANT	4	Control Amp Speed
CONVENTION	IQUANT	1	Current Convention
ICHRANGE	IQUANT	2	Ich Range
ICHRANGEMODE	TOGGLE	T	Ich Auto Range
ICHOFFSETENABLE	TOGGLE	F	Ich Offset Enable
ICHOFFSET	QUANT	0	Ich Offset (V)
ICHFILTER	IQUANT	1	Ich Filter
VCHRANGE	IQUANT	2	Vch Range
VCHRANGEMODE	TOGGLE	T	Vch Auto Range
VCHOFFSETENABLE	TOGGLE	F	Vch Offset Enable
VCHOFFSET	QUANT	0	Vch Offset (V)
VCHFILTER	IQUANT	1	Vch Filter
IERANGELOWERLIMIT	IQUANT	9	I/E Range Lower Limit
IERANGEMODE	TOGGLE	F	I/E AutoRange
IERANGE	IQUANT	10	I/E Range
ACHSELECT	IQUANT	1	Ach Select
ACHRANGE	IQUANT	2	Ach Range
ACHOFFSETENABLE	TOGGLE	F	Ach Offset Enable
ACHOFFSET	QUANT	0	Ach Offset (V)
ACHFILTER	IQUANT	1	Ach Filter
CABLEID	IQUANT	14	Cable ID
DCCALDATE	LABEL	20-10-2016	DC Calibration Date
ACCALDATE	LABEL	12/3/2015	AC Calibration Date
FRAMEWORKVERSION	QUANT	7.01	Framework Version
INSTRUMENTVERSION	LABEL	4.00	Instrument Version
CURVE	TABLE	56
	Pt	T	Vf	Im	Vu	Pwr	Sig	Ach	Temp	IERange	Over
	#	s	V	A	V	W	V	V	deg C	#	bits
	0	0.013333	6.40052E-001	5.99226E-003	0.00000E+000	3.83536E-003	3.59960E-001	-1.14878E+000	3.57640E+000	10	...........
	1	0.026667	6.49036E-001	5.99337E-003	0.00000E+000	3.88991E-003	3.59960E-001	-1.15331E+000	3.57640E+000	10	...........
	2	0.04	6.57325E-001	5.99010E-003	0.00000E+000	3.93744E-003	3.59960E-001	-1.15785E+000	3.57640E+000	10	...........
	3	0.053333	6.65222E-001	5.98757E-003	0.00000E+000	3.98306E-003	3.59960E-001	-1.14853E+000	3.57640E+000	10	...........
	4	0.066667	6.72822E-001	5.99224E-003	0.00000E+000	4.03171E-003	3.59960E-001	-1.15313E+000	3.57640E+000	10	...........
	5	0.08	6.80260E-001	5.99524E-003	0.00000E+000	4.07832E-003	3.59960E-001	-1.15791E+000	3.57640E+000	10	...........
	6	0.093333	6.87491E-001	5.99622E-003	0.00000E+000	4.12235E-003	3.59960E-001	-1.14869E+000	3.57640E+000	10	...........
	7	0.106667	6.94610E-001	5.99796E-003	0.00000E+000	4.16624E-003	3.59960E-001	-1.15303E+000	3.57640E+000	10	...........
	8	0.12	7.01657E-001	5.99505E-003	0.00000E+000	4.20647E-003	3.59960E-001	-1.15781E+000	3.57640E+000	10	...........
	9	0.133333	7.08601E-001	5.99148E-003	0.00000E+000	4.24557E-003	3.59960E-001	-1.14853E+000	3.57640E+000	10	...........
	10	0.146667	7.15480E-001	5.99670E-003	0.00000E+000	4.29052E-003	3.59960E-001	-1.15305E+000	3.57640E+000	10	...........
	11	0.16	7.22413E-001	5.99157E-003	0.00000E+000	4.32838E-003	3.59960E-001	-1.15781E+000	3.57640E+000	10	...........
	12	0.173333	7.29235E-001	5.99331E-003	0.00000E+000	4.37053E-003	3.59960E-001	-1.14869E+000	3.57640E+000	10	...........
	13	0.186667	7.36018E-001	5.99090E-003	0.00000E+000	4.40941E-003	3.59960E-001	-1.15292E+000	3.57640E+000	10	...........
	14	0.2	7.42800E-001	5.99605E-003	0.00000E+000	4.45387E-003	3.59960E-001	-1.15770E+000	3.57640E+000	10	...........
	15	0.213333	7.49505E-001	5.99150E-003	0.00000E+000	4.49066E-003	3.59960E-001	-1.14857E+000	3.57640E+000	10	...........
	16	0.226667	7.56210E-001	5.99970E-003	0.00000E+000	4.53703E-003	3.59960E-001	-1.15288E+000	3.57640E+000	10	...........
	17	0.24	7.62830E-001	5.98949E-003	0.00000E+000	4.56897E-003	3.59960E-001	-1.15775E+000	3.57640E+000	10	...........
	18	0.253333	7.69469E-001	5.99233E-003	0.00000E+000	4.61091E-003	3.59960E-001	-1.14830E+000	3.57640E+000	10	...........
	19	0.266667	7.76072E-001	5.98876E-003	0.00000E+000	4.64772E-003	3.59960E-001	-1.15261E+000	3.57640E+000	10	...........
	20	0.28	7.82687E-001	5.99169E-003	0.00000E+000	4.68962E-003	3.59960E-001	-1.15761E+000	3.57640E+000	10	...........
	21	0.293333	7.89287E-001	5.99061E-003	0.00000E+000	4.72831E-003	3.59960E-001	-1.14808E+000	3.57640E+000	10	...........
	22	0.306667	7.95837E-001	5.99400E-003	0.00000E+000	4.77025E-003	3.59960E-001	-1.15235E+000	3.57640E+000	10	...........
	23	0.32	8.02397E-001	5.99423E-003	0.00000E+000	4.80975E-003	3.59960E-001	-1.15710E+000	3.57640E+000	10	...........
	24	0.333333	8.08913E-001	5.99580E-003	0.00000E+000	4.85009E-003	3.59960E-001	-1.14792E+000	3.57640E+000	10	...........
	25	0.346667	8.15446E-001	5.99219E-003	0.00000E+000	4.88630E-003	3.59960E-001	-1.15225E+000	3.57640E+000	10	...........
	26	0.36	8.21972E-001	5.99304E-003	0.00000E+000	4.92611E-003	3.59960E-001	-1.15730E+000	3.57655E+000	10	...........
	27	0.373333	8.28426E-001	5.99764E-003	0.00000E+000	4.96860E-003	3.59960E-001	-1.14794E+000	3.57660E+000	10	...........
	28	0.386667	8.34845E-001	5.99123E-003	0.00000E+000	5.00175E-003	3.59960E-001	-1.15205E+000	3.57660E+000	10	...........
	29	0.4	8.41283E-001	5.99214E-003	0.00000E+000	5.04109E-003	3.59960E-001	-1.15699E+000	3.57660E+000	10	...........
	30	0.413333	8.47730E-001	5.99377E-003	0.00000E+000	5.08110E-003	3.59960E-001	-1.14802E+000	3.57660E+000	10	...........
	31	0.426667	8.54081E-001	5.99326E-003	0.00000E+000	5.11873E-003	3.59960E-001	-1.15186E+000	3.57660E+000	10	...........
	32	0.44	8.60431E-001	5.99367E-003	0.00000E+000	5.15714E-003	3.59960E-001	-1.15708E+000	3.57660E+000	10	...........
	33	0.453333	8.66770E-001	5.99572E-003	0.00000E+000	5.19691E-003	3.59960E-001	-1.14782E+000	3.57660E+000	10	...........
	34	0.466667	8.73103E-001	5.99717E-003	0.00000E+000	5.23615E-003	3.59960E-001	-1.15191E+000	3.57660E+000	10	...........
	35	0.48	8.79389E-001	5.99377E-003	0.00000E+000	5.27086E-003	3.59960E-001	-1.15700E+000	3.57660E+000	10	...........
	36	0.493333	8.85644E-001	5.99159E-003	0.00000E+000	5.30642E-003	3.59960E-001	-1.14763E+000	3.57660E+000	10	...........
	37	0.506667	8.91901E-001	5.99153E-003	0.00000E+000	5.34385E-003	3.59960E-001	-1.15196E+000	3.57660E+000	10	...........
	38	0.52	8.98123E-001	5.98816E-003	0.00000E+000	5.37810E-003	3.59960E-001	-1.15707E+000	3.57660E+000	10	...........
	39	0.533333	9.04289E-001	5.99337E-003	0.00000E+000	5.41974E-003	3.59960E-001	-1.14760E+000	3.57660E+000	10	...........
	40	0.546667	9.10441E-001	5.99486E-003	0.00000E+000	5.45796E-003	3.59960E-001	-1.15171E+000	3.57660E+000	10	...........
	41	0.56	9.16563E-001	5.99481E-003	0.00000E+000	5.49463E-003	3.59960E-001	-1.15712E+000	3.57660E+000	10	...........
	42	0.573333	9.22715E-001	5.99342E-003	0.00000E+000	5.53022E-003	3.59960E-001	-1.14757E+000	3.57660E+000	10	...........
	43	0.586667	9.28719E-001	5.99138E-003	0.00000E+000	5.56431E-003	3.59960E-001	-1.15175E+000	3.57660E+000	10	...........
	44	0.6	9.34686E-001	5.99156E-003	0.00000E+000	5.60023E-003	3.59960E-001	-1.15683E+000	3.57660E+000	10	...........
	45	0.613333	9.40640E-001	5.99238E-003	0.00000E+000	5.63667E-003	3.59960E-001	-1.14731E+000	3.57660E+000	10	...........
	46	0.626667	9.46579E-001	5.99516E-003	0.00000E+000	5.67489E-003	3.59960E-001	-1.15133E+000	3.57660E+000	10	...........
	47	0.64	9.52515E-001	5.99843E-003	0.00000E+000	5.71360E-003	3.59960E-001	-1.15691E+000	3.57660E+000	10	...........
	48	0.653333	9.58341E-001	5.99615E-003	0.00000E+000	5.74636E-003	3.59960E-001	-1.14732E+000	3.57660E+000	10	...........
	49	0.666667	9.64082E-001	5.99192E-003	0.00000E+000	5.77671E-003	3.59960E-001	-1.15122E+000	3.57660E+000	10	...........
	50	0.68	9.69827E-001	5.99380E-003	0.00000E+000	5.81295E-003	3.59960E-001	-1.15677E+000	3.57660E+000	10	...........
	51	0.693333	9.75566E-001	5.98800E-003	0.00000E+000	5.84169E-003	3.59960E-001	-1.14732E+000	3.57660E+000	10	...........
	52	0.706667	9.81180E-001	5.99347E-003	0.00000E+000	5.88067E-003	3.59960E-001	-1.15152E+000	3.57660E+000	10	...........
	53	0.72	9.86768E-001	5.99629E-003	0.00000E+000	5.91695E-003	3.59960E-001	-1.15684E+000	3.57660E+000	10	...........
	54	0.733333	9.92335E-001	5.99829E-003	0.00000E+000	5.95231E-003	3.59960E-001	-1.14713E+000	3.57660E+000	10	...........
	55	0.746667	9.97867E-001	5.99245E-003	0.00000E+000	5.97966E-003	3.59960E-001	-1.15131E+000	3.57660E+000	10	...........
STARTTIMEOFFSET	QUANT	1072.117	Start Time Offset (s)