File: Data/CV_CRGO300517_1/PWRCCD_CRGO300517_1/CHARGE_DISCHARGE/CHARGE_#10.DTA
EXPLAIN
TAG	PWR800_CHARGE
TITLE	LABEL	PWR Cyclic Charge Discharge (Cell) - Charge Step	Test &Identifier
DATE	LABEL	22-6-2017	Date
TIME	LABEL	15:35:23	Time
NOTES	NOTES	3	&Notes...
	supercap test cell
	0.6mg
	6M KOH
PSTAT	PSTAT	IFC5000-01520	Potentiostat
CAPACITY	QUANT	1.00000E-003	Capacity (A-hr)
CELLTYPE	SELECTOR	1	&Cell Type
WORKINGCONNECTION	SELECTOR	0	&Working Lead
MAXCHARGETIME	VARIABLEANDUNITS	1.00000E+002	s	1.00000E+002	second(s)	Max &Charge Time
CHARGECURRENT	QUANT	6.00000E-003	&Charge Current (A)
VOLTAGEFINISH	TWOPARAM	F	1.00000E-003	3.60000E+003	&Voltage Finish	 I (A) < 	Max Time(s)
SAMPLETIME	QUANT	1.00000E-002	Sa&mple Period (s)
CHARGESTOPAT1	MULTIPARAM	4	1.00000E+000	Charge Stop At &1	Voltage > Limit	V
CHARGESTOPAT2	MULTIPARAM	0	0.00000E+000	Charge Stop At &2	None	N/A
AESBHCSELECTOR	TOGGLE	F	Save Both Half Cells
IRCOMP	TOGGLE	F	IR &Measure
EOC	QUANT	0	Open Circuit (V)
SEQUENCER	TOGGLE	TRUE	Run as Sequence
PSTATMODEL	IQUANT	53	Pstat Model
PSTATSECTION	LABEL	IFC5000-01520	Pstat Section
PSTATSERIALNO	LABEL	01520	Pstat Serial Number
CTRLMODE	IQUANT	0	Control Mode
ELECTROMETER	IQUANT	1	RE=0 or CS=1
IESTAB	IQUANT	0	I/E Stability
CASPEED	IQUANT	4	Control Amp Speed
CONVENTION	IQUANT	1	Current Convention
ICHRANGE	IQUANT	2	Ich Range
ICHRANGEMODE	TOGGLE	T	Ich Auto Range
ICHOFFSETENABLE	TOGGLE	F	Ich Offset Enable
ICHOFFSET	QUANT	0	Ich Offset (V)
ICHFILTER	IQUANT	1	Ich Filter
VCHRANGE	IQUANT	2	Vch Range
VCHRANGEMODE	TOGGLE	T	Vch Auto Range
VCHOFFSETENABLE	TOGGLE	F	Vch Offset Enable
VCHOFFSET	QUANT	0	Vch Offset (V)
VCHFILTER	IQUANT	1	Vch Filter
IERANGELOWERLIMIT	IQUANT	9	I/E Range Lower Limit
IERANGEMODE	TOGGLE	F	I/E AutoRange
IERANGE	IQUANT	10	I/E Range
ACHSELECT	IQUANT	1	Ach Select
ACHRANGE	IQUANT	2	Ach Range
ACHOFFSETENABLE	TOGGLE	F	Ach Offset Enable
ACHOFFSET	QUANT	0	Ach Offset (V)
ACHFILTER	IQUANT	1	Ach Filter
CABLEID	IQUANT	14	Cable ID
DCCALDATE	LABEL	20-10-2016	DC Calibration Date
ACCALDATE	LABEL	12/3/2015	AC Calibration Date
FRAMEWORKVERSION	QUANT	7.01	Framework Version
INSTRUMENTVERSION	LABEL	4.00	Instrument Version
CURVE	TABLE	80
	Pt	T	Vf	Im	Vu	Pwr	Sig	Ach	Temp	IERange	Over
	#	s	V	A	V	W	V	V	deg C	#	bits
	0	0.013333	5.54924E-001	5.99232E-003	0.00000E+000	3.32529E-003	3.59960E-001	-1.01036E+000	3.57722E+000	10	...........
	1	0.026667	5.62872E-001	5.99353E-003	0.00000E+000	3.37359E-003	3.59960E-001	-1.00842E+000	3.57740E+000	10	...........
	2	0.04	5.70151E-001	5.99632E-003	0.00000E+000	3.41881E-003	3.59960E-001	-1.02038E+000	3.57740E+000	10	...........
	3	0.053333	5.77006E-001	5.99430E-003	0.00000E+000	3.45875E-003	3.59960E-001	-1.01046E+000	3.57740E+000	10	...........
	4	0.066667	5.83581E-001	5.99859E-003	0.00000E+000	3.50066E-003	3.59960E-001	-1.00839E+000	3.57740E+000	10	...........
	5	0.08	5.90020E-001	5.99245E-003	0.00000E+000	3.53566E-003	3.59960E-001	-1.02003E+000	3.57740E+000	10	...........
	6	0.093333	5.96225E-001	5.99263E-003	0.00000E+000	3.57296E-003	3.59960E-001	-1.01049E+000	3.57740E+000	10	...........
	7	0.106667	6.02314E-001	5.99400E-003	0.00000E+000	3.61027E-003	3.59960E-001	-1.00848E+000	3.57740E+000	10	...........
	8	0.12	6.08322E-001	5.99487E-003	0.00000E+000	3.64681E-003	3.59960E-001	-1.02006E+000	3.57740E+000	10	...........
	9	0.133333	6.14291E-001	5.99129E-003	0.00000E+000	3.68040E-003	3.59960E-001	-1.01042E+000	3.57740E+000	10	...........
	10	0.146667	6.20202E-001	5.99492E-003	0.00000E+000	3.71806E-003	3.59960E-001	-1.00832E+000	3.57740E+000	10	...........
	11	0.16	6.26054E-001	5.99003E-003	0.00000E+000	3.75008E-003	3.59960E-001	-1.02012E+000	3.57740E+000	10	...........
	12	0.173333	6.31817E-001	5.99440E-003	0.00000E+000	3.78736E-003	3.59960E-001	-1.01067E+000	3.57740E+000	10	...........
	13	0.186667	6.37575E-001	5.99594E-003	0.00000E+000	3.82286E-003	3.59960E-001	-1.00836E+000	3.57740E+000	10	...........
	14	0.2	6.43291E-001	5.99184E-003	0.00000E+000	3.85450E-003	3.59960E-001	-1.02004E+000	3.57740E+000	10	...........
	15	0.213333	6.48945E-001	5.99519E-003	0.00000E+000	3.89055E-003	3.59960E-001	-1.01071E+000	3.57740E+000	10	...........
	16	0.226667	6.54613E-001	5.99428E-003	0.00000E+000	3.92393E-003	3.59960E-001	-1.00818E+000	3.57740E+000	10	...........
	17	0.24	6.60185E-001	5.99585E-003	0.00000E+000	3.95837E-003	3.59960E-001	-1.01999E+000	3.57740E+000	10	...........
	18	0.253333	6.65825E-001	5.99332E-003	0.00000E+000	3.99051E-003	3.59960E-001	-1.01028E+000	3.57740E+000	10	...........
	19	0.266667	6.71444E-001	5.99277E-003	0.00000E+000	4.02381E-003	3.59960E-001	-1.00753E+000	3.57740E+000	10	...........
	20	0.28	6.76987E-001	5.99412E-003	0.00000E+000	4.05794E-003	3.59960E-001	-1.01915E+000	3.57740E+000	10	...........
	21	0.293333	6.82555E-001	5.98897E-003	0.00000E+000	4.08781E-003	3.59960E-001	-1.01040E+000	3.57740E+000	10	...........
	22	0.306667	6.88101E-001	5.99338E-003	0.00000E+000	4.12406E-003	3.59960E-001	-1.00772E+000	3.57740E+000	10	...........
	23	0.32	6.93632E-001	5.99096E-003	0.00000E+000	4.15552E-003	3.59960E-001	-1.01902E+000	3.57740E+000	10	...........
	24	0.333333	6.99129E-001	5.99234E-003	0.00000E+000	4.18942E-003	3.59960E-001	-1.01009E+000	3.57740E+000	10	...........
	25	0.346667	7.04641E-001	5.99573E-003	0.00000E+000	4.22484E-003	3.59960E-001	-1.00770E+000	3.57740E+000	10	...........
	26	0.36	7.10119E-001	5.99475E-003	0.00000E+000	4.25699E-003	3.59960E-001	-1.01937E+000	3.57740E+000	10	...........
	27	0.373333	7.15649E-001	5.99459E-003	0.00000E+000	4.29003E-003	3.59960E-001	-1.01042E+000	3.57740E+000	10	...........
	28	0.386667	7.21195E-001	5.99578E-003	0.00000E+000	4.32413E-003	3.59960E-001	-1.00766E+000	3.57740E+000	10	...........
	29	0.4	7.26663E-001	5.99699E-003	0.00000E+000	4.35779E-003	3.59960E-001	-1.01891E+000	3.57740E+000	10	...........
	30	0.413333	7.32126E-001	5.99340E-003	0.00000E+000	4.38792E-003	3.59960E-001	-1.01031E+000	3.57740E+000	10	...........
	31	0.426667	7.37621E-001	5.99764E-003	0.00000E+000	4.42398E-003	3.59960E-001	-1.00745E+000	3.57740E+000	10	...........
	32	0.44	7.43138E-001	5.99323E-003	0.00000E+000	4.45379E-003	3.59960E-001	-1.01903E+000	3.57740E+000	10	...........
	33	0.453333	7.48609E-001	5.99252E-003	0.00000E+000	4.48605E-003	3.59960E-001	-1.01022E+000	3.57740E+000	10	...........
	34	0.466667	7.54102E-001	5.99351E-003	0.00000E+000	4.51972E-003	3.59960E-001	-1.00723E+000	3.57740E+000	10	...........
	35	0.48	7.59604E-001	5.99705E-003	0.00000E+000	4.55538E-003	3.59960E-001	-1.01900E+000	3.57740E+000	10	...........
	36	0.493333	7.65070E-001	5.99574E-003	0.00000E+000	4.58716E-003	3.59960E-001	-1.01033E+000	3.57740E+000	10	...........
	37	0.506667	7.70590E-001	5.99362E-003	0.00000E+000	4.61863E-003	3.59960E-001	-1.00751E+000	3.57740E+000	10	...........
	38	0.52	7.76107E-001	5.99626E-003	0.00000E+000	4.65374E-003	3.59960E-001	-1.01902E+000	3.57740E+000	10	...........
	39	0.533333	7.81598E-001	5.99165E-003	0.00000E+000	4.68307E-003	3.59960E-001	-1.01027E+000	3.57740E+000	10	...........
	40	0.546667	7.87044E-001	5.99468E-003	0.00000E+000	4.71808E-003	3.59960E-001	-1.00772E+000	3.57740E+000	10	...........
	41	0.56	7.92542E-001	5.99183E-003	0.00000E+000	4.74878E-003	3.59960E-001	-1.01897E+000	3.57740E+000	10	...........
	42	0.573333	7.98002E-001	5.99275E-003	0.00000E+000	4.78222E-003	3.59960E-001	-1.01018E+000	3.57740E+000	10	...........
	43	0.586667	8.03481E-001	5.99235E-003	0.00000E+000	4.81474E-003	3.59960E-001	-1.00692E+000	3.57740E+000	10	...........
	44	0.6	8.08943E-001	5.99246E-003	0.00000E+000	4.84756E-003	3.59960E-001	-1.01847E+000	3.57740E+000	10	...........
	45	0.613333	8.14463E-001	5.99393E-003	0.00000E+000	4.88183E-003	3.59960E-001	-1.01013E+000	3.57740E+000	10	...........
	46	0.626667	8.19992E-001	5.99594E-003	0.00000E+000	4.91663E-003	3.59960E-001	-1.00719E+000	3.57740E+000	10	...........
	47	0.64	8.25456E-001	5.99300E-003	0.00000E+000	4.94696E-003	3.59960E-001	-1.01842E+000	3.57740E+000	10	...........
	48	0.653333	8.30953E-001	5.99391E-003	0.00000E+000	4.98065E-003	3.59960E-001	-1.00995E+000	3.57740E+000	10	...........
	49	0.666667	8.36415E-001	5.99032E-003	0.00000E+000	5.01039E-003	3.59960E-001	-1.00677E+000	3.57740E+000	10	...........
	50	0.68	8.41899E-001	5.99229E-003	0.00000E+000	5.04490E-003	3.59960E-001	-1.01842E+000	3.57740E+000	10	...........
	51	0.693333	8.47403E-001	5.99263E-003	0.00000E+000	5.07817E-003	3.59960E-001	-1.01002E+000	3.57740E+000	10	...........
	52	0.706667	8.52908E-001	5.99309E-003	0.00000E+000	5.11156E-003	3.59960E-001	-1.00678E+000	3.57740E+000	10	...........
	53	0.72	8.58383E-001	5.99370E-003	0.00000E+000	5.14489E-003	3.59960E-001	-1.01823E+000	3.57740E+000	10	...........
	54	0.733333	8.63896E-001	5.99114E-003	0.00000E+000	5.17572E-003	3.59960E-001	-1.01006E+000	3.57740E+000	10	...........
	55	0.746667	8.69384E-001	5.99204E-003	0.00000E+000	5.20939E-003	3.59960E-001	-1.00678E+000	3.57740E+000	10	...........
	56	0.76	8.74866E-001	5.99427E-003	0.00000E+000	5.24419E-003	3.59960E-001	-1.01825E+000	3.57740E+000	10	...........
	57	0.773333	8.80287E-001	5.99220E-003	0.00000E+000	5.27485E-003	3.59960E-001	-1.01003E+000	3.57740E+000	10	...........
	58	0.786667	8.85762E-001	5.99618E-003	0.00000E+000	5.31119E-003	3.59960E-001	-1.00664E+000	3.57740E+000	10	...........
	59	0.8	8.91261E-001	5.99580E-003	0.00000E+000	5.34383E-003	3.59960E-001	-1.01814E+000	3.57740E+000	10	...........
	60	0.813333	8.96702E-001	5.99326E-003	0.00000E+000	5.37417E-003	3.59960E-001	-1.01028E+000	3.57740E+000	10	...........
	61	0.826667	9.02164E-001	5.99304E-003	0.00000E+000	5.40671E-003	3.59960E-001	-1.00698E+000	3.57740E+000	10	...........
	62	0.84	9.07591E-001	5.99474E-003	0.00000E+000	5.44077E-003	3.59960E-001	-1.01821E+000	3.57740E+000	10	...........
	63	0.853333	9.13026E-001	5.99428E-003	0.00000E+000	5.47293E-003	3.59960E-001	-1.01029E+000	3.57740E+000	10	...........
	64	0.866667	9.18499E-001	5.99521E-003	0.00000E+000	5.50659E-003	3.59960E-001	-1.00681E+000	3.57740E+000	10	...........
	65	0.88	9.23960E-001	5.99679E-003	0.00000E+000	5.54079E-003	3.59960E-001	-1.01817E+000	3.57740E+000	10	...........
	66	0.893333	9.29387E-001	5.99508E-003	0.00000E+000	5.57175E-003	3.59960E-001	-1.01021E+000	3.57740E+000	10	...........
	67	0.906667	9.34751E-001	5.99226E-003	0.00000E+000	5.60127E-003	3.59960E-001	-1.00625E+000	3.57740E+000	10	...........
	68	0.92	9.40129E-001	5.99152E-003	0.00000E+000	5.63280E-003	3.59960E-001	-1.01757E+000	3.57740E+000	10	...........
	69	0.933333	9.45524E-001	5.99132E-003	0.00000E+000	5.66494E-003	3.59960E-001	-1.00996E+000	3.57740E+000	10	...........
	70	0.946667	9.50868E-001	5.99443E-003	0.00000E+000	5.69991E-003	3.59960E-001	-1.00657E+000	3.57740E+000	10	...........
	71	0.96	9.56204E-001	5.99454E-003	0.00000E+000	5.73201E-003	3.59960E-001	-1.01769E+000	3.57740E+000	10	...........
	72	0.97333	9.61522E-001	5.99181E-003	0.00000E+000	5.76126E-003	3.59960E-001	-1.01021E+000	3.57740E+000	10	...........
	73	0.98667	9.66820E-001	5.99263E-003	0.00000E+000	5.79380E-003	3.59960E-001	-1.00632E+000	3.57740E+000	10	...........
	74	1	9.72125E-001	5.99160E-003	0.00000E+000	5.82458E-003	3.59960E-001	-1.01741E+000	3.57740E+000	10	...........
	75	1.01333	9.77434E-001	5.99331E-003	0.00000E+000	5.85807E-003	3.59960E-001	-1.00991E+000	3.57737E+000	10	...........
	76	1.02667	9.82655E-001	5.99155E-003	0.00000E+000	5.88763E-003	3.59960E-001	-1.00614E+000	3.57720E+000	10	...........
	77	1.04	9.87866E-001	5.99137E-003	0.00000E+000	5.91867E-003	3.59960E-001	-1.01689E+000	3.57720E+000	10	...........
	78	1.05333	9.93049E-001	5.99406E-003	0.00000E+000	5.95240E-003	3.59960E-001	-1.00934E+000	3.57720E+000	10	...........
	79	1.06667	9.98207E-001	5.98999E-003	0.00000E+000	5.97925E-003	3.59960E-001	-1.00564E+000	3.57720E+000	10	...........
STARTTIMEOFFSET	QUANT	19.63833	Start Time Offset (s)