File: Data/CV_CRGO300517_1/PWRCCD_CRGO300517_1/CHARGE_DISCHARGE/CHARGE_#412.DTA
EXPLAIN
TAG	PWR800_CHARGE
TITLE	LABEL	PWR Cyclic Charge Discharge (Cell) - Charge Step	Test &Identifier
DATE	LABEL	22-6-2017	Date
TIME	LABEL	15:52:27	Time
NOTES	NOTES	3	&Notes...
	supercap test cell
	0.6mg
	6M KOH
PSTAT	PSTAT	IFC5000-01520	Potentiostat
CAPACITY	QUANT	1.00000E-003	Capacity (A-hr)
CELLTYPE	SELECTOR	1	&Cell Type
WORKINGCONNECTION	SELECTOR	0	&Working Lead
MAXCHARGETIME	VARIABLEANDUNITS	1.00000E+002	s	1.00000E+002	second(s)	Max &Charge Time
CHARGECURRENT	QUANT	6.00000E-003	&Charge Current (A)
VOLTAGEFINISH	TWOPARAM	F	1.00000E-003	3.60000E+003	&Voltage Finish	 I (A) < 	Max Time(s)
SAMPLETIME	QUANT	1.00000E-002	Sa&mple Period (s)
CHARGESTOPAT1	MULTIPARAM	4	1.00000E+000	Charge Stop At &1	Voltage > Limit	V
CHARGESTOPAT2	MULTIPARAM	0	0.00000E+000	Charge Stop At &2	None	N/A
AESBHCSELECTOR	TOGGLE	F	Save Both Half Cells
IRCOMP	TOGGLE	F	IR &Measure
EOC	QUANT	0	Open Circuit (V)
SEQUENCER	TOGGLE	TRUE	Run as Sequence
PSTATMODEL	IQUANT	53	Pstat Model
PSTATSECTION	LABEL	IFC5000-01520	Pstat Section
PSTATSERIALNO	LABEL	01520	Pstat Serial Number
CTRLMODE	IQUANT	0	Control Mode
ELECTROMETER	IQUANT	1	RE=0 or CS=1
IESTAB	IQUANT	0	I/E Stability
CASPEED	IQUANT	4	Control Amp Speed
CONVENTION	IQUANT	1	Current Convention
ICHRANGE	IQUANT	2	Ich Range
ICHRANGEMODE	TOGGLE	T	Ich Auto Range
ICHOFFSETENABLE	TOGGLE	F	Ich Offset Enable
ICHOFFSET	QUANT	0	Ich Offset (V)
ICHFILTER	IQUANT	1	Ich Filter
VCHRANGE	IQUANT	2	Vch Range
VCHRANGEMODE	TOGGLE	T	Vch Auto Range
VCHOFFSETENABLE	TOGGLE	F	Vch Offset Enable
VCHOFFSET	QUANT	0	Vch Offset (V)
VCHFILTER	IQUANT	1	Vch Filter
IERANGELOWERLIMIT	IQUANT	9	I/E Range Lower Limit
IERANGEMODE	TOGGLE	F	I/E AutoRange
IERANGE	IQUANT	10	I/E Range
ACHSELECT	IQUANT	1	Ach Select
ACHRANGE	IQUANT	2	Ach Range
ACHOFFSETENABLE	TOGGLE	F	Ach Offset Enable
ACHOFFSET	QUANT	0	Ach Offset (V)
ACHFILTER	IQUANT	1	Ach Filter
CABLEID	IQUANT	14	Cable ID
DCCALDATE	LABEL	20-10-2016	DC Calibration Date
ACCALDATE	LABEL	12/3/2015	AC Calibration Date
FRAMEWORKVERSION	QUANT	7.01	Framework Version
INSTRUMENTVERSION	LABEL	4.00	Instrument Version
CURVE	TABLE	60
	Pt	T	Vf	Im	Vu	Pwr	Sig	Ach	Temp	IERange	Over
	#	s	V	A	V	W	V	V	deg C	#	bits
	0	0.013333	6.25712E-001	5.99814E-003	0.00000E+000	3.75311E-003	3.59960E-001	-1.12755E+000	3.57650E+000	10	...........
	1	0.026667	6.34406E-001	5.99581E-003	0.00000E+000	3.80378E-003	3.59960E-001	-1.13828E+000	3.57650E+000	10	...........
	2	0.04	6.42457E-001	5.98885E-003	0.00000E+000	3.84758E-003	3.59960E-001	-1.12871E+000	3.57650E+000	10	...........
	3	0.053333	6.50088E-001	5.99803E-003	0.00000E+000	3.89925E-003	3.59960E-001	-1.12760E+000	3.57650E+000	10	...........
	4	0.066667	6.57454E-001	5.99499E-003	0.00000E+000	3.94143E-003	3.59960E-001	-1.13830E+000	3.57657E+000	10	...........
	5	0.08	6.64635E-001	5.99246E-003	0.00000E+000	3.98280E-003	3.59960E-001	-1.12881E+000	3.57680E+000	10	...........
	6	0.093333	6.71669E-001	5.99388E-003	0.00000E+000	4.02590E-003	3.59960E-001	-1.12737E+000	3.57680E+000	10	...........
	7	0.106667	6.78599E-001	5.99580E-003	0.00000E+000	4.06875E-003	3.59960E-001	-1.13812E+000	3.57680E+000	10	...........
	8	0.12	6.85423E-001	5.99294E-003	0.00000E+000	4.10769E-003	3.59960E-001	-1.12818E+000	3.57680E+000	10	...........
	9	0.133333	6.92196E-001	5.99347E-003	0.00000E+000	4.14866E-003	3.59960E-001	-1.12696E+000	3.57680E+000	10	...........
	10	0.146667	6.98925E-001	5.99366E-003	0.00000E+000	4.18912E-003	3.59960E-001	-1.13791E+000	3.57680E+000	10	...........
	11	0.16	7.05551E-001	5.99187E-003	0.00000E+000	4.22757E-003	3.59960E-001	-1.12823E+000	3.57680E+000	10	...........
	12	0.173333	7.12145E-001	5.99806E-003	0.00000E+000	4.27149E-003	3.59960E-001	-1.12700E+000	3.57680E+000	10	...........
	13	0.186667	7.18732E-001	5.99246E-003	0.00000E+000	4.30697E-003	3.59960E-001	-1.13813E+000	3.57680E+000	10	...........
	14	0.2	7.25322E-001	6.00086E-003	0.00000E+000	4.35256E-003	3.59960E-001	-1.12834E+000	3.57680E+000	10	...........
	15	0.213333	7.31807E-001	5.99607E-003	0.00000E+000	4.38796E-003	3.59960E-001	-1.12716E+000	3.57680E+000	10	...........
	16	0.226667	7.38286E-001	5.99166E-003	0.00000E+000	4.42356E-003	3.59960E-001	-1.13782E+000	3.57680E+000	10	...........
	17	0.24	7.44807E-001	5.99652E-003	0.00000E+000	4.46625E-003	3.59960E-001	-1.12816E+000	3.57680E+000	10	...........
	18	0.253333	7.51268E-001	5.99591E-003	0.00000E+000	4.50454E-003	3.59960E-001	-1.12703E+000	3.57680E+000	10	...........
	19	0.266667	7.57734E-001	5.99299E-003	0.00000E+000	4.54109E-003	3.59960E-001	-1.13796E+000	3.57680E+000	10	...........
	20	0.28	7.64166E-001	5.99901E-003	0.00000E+000	4.58423E-003	3.59960E-001	-1.12812E+000	3.57680E+000	10	...........
	21	0.293333	7.70583E-001	5.99647E-003	0.00000E+000	4.62078E-003	3.59960E-001	-1.12694E+000	3.57680E+000	10	...........
	22	0.306667	7.76977E-001	5.99423E-003	0.00000E+000	4.65738E-003	3.59960E-001	-1.13772E+000	3.57680E+000	10	...........
	23	0.32	7.83380E-001	5.99287E-003	0.00000E+000	4.69470E-003	3.59960E-001	-1.12822E+000	3.57680E+000	10	...........
	24	0.333333	7.89746E-001	5.99354E-003	0.00000E+000	4.73338E-003	3.59960E-001	-1.12726E+000	3.57680E+000	10	...........
	25	0.346667	7.96104E-001	5.99876E-003	0.00000E+000	4.77563E-003	3.59960E-001	-1.13810E+000	3.57680E+000	10	...........
	26	0.36	8.02475E-001	5.99116E-003	0.00000E+000	4.80776E-003	3.59960E-001	-1.12844E+000	3.57680E+000	10	...........
	27	0.373333	8.08802E-001	5.99369E-003	0.00000E+000	4.84771E-003	3.59960E-001	-1.12704E+000	3.57680E+000	10	...........
	28	0.386667	8.15091E-001	5.99327E-003	0.00000E+000	4.88506E-003	3.59960E-001	-1.13821E+000	3.57680E+000	10	...........
	29	0.4	8.21380E-001	5.99386E-003	0.00000E+000	4.92324E-003	3.59960E-001	-1.12832E+000	3.57680E+000	10	...........
	30	0.413333	8.27653E-001	5.99512E-003	0.00000E+000	4.96187E-003	3.59960E-001	-1.12709E+000	3.57680E+000	10	...........
	31	0.426667	8.33933E-001	5.99310E-003	0.00000E+000	4.99784E-003	3.59960E-001	-1.13772E+000	3.57680E+000	10	...........
	32	0.44	8.40230E-001	5.99623E-003	0.00000E+000	5.03821E-003	3.59960E-001	-1.12777E+000	3.57680E+000	10	...........
	33	0.453333	8.46506E-001	5.99141E-003	0.00000E+000	5.07177E-003	3.59960E-001	-1.12686E+000	3.57680E+000	10	...........
	34	0.466667	8.52727E-001	5.99504E-003	0.00000E+000	5.11213E-003	3.59960E-001	-1.13767E+000	3.57680E+000	10	...........
	35	0.48	8.58906E-001	5.99091E-003	0.00000E+000	5.14563E-003	3.59960E-001	-1.12781E+000	3.57680E+000	10	...........
	36	0.493333	8.65078E-001	5.99269E-003	0.00000E+000	5.18414E-003	3.59960E-001	-1.12686E+000	3.57680E+000	10	...........
	37	0.506667	8.71334E-001	5.99420E-003	0.00000E+000	5.22295E-003	3.59960E-001	-1.13763E+000	3.57680E+000	10	...........
	38	0.52	8.77511E-001	5.99192E-003	0.00000E+000	5.25798E-003	3.59960E-001	-1.12779E+000	3.57680E+000	10	...........
	39	0.533333	8.83662E-001	6.00123E-003	0.00000E+000	5.30306E-003	3.59960E-001	-1.12701E+000	3.57680E+000	10	...........
	40	0.546667	8.89764E-001	5.99390E-003	0.00000E+000	5.33316E-003	3.59960E-001	-1.13769E+000	3.57680E+000	10	...........
	41	0.56	8.95853E-001	5.99430E-003	0.00000E+000	5.37001E-003	3.59960E-001	-1.12763E+000	3.57680E+000	10	...........
	42	0.573333	9.01923E-001	5.99197E-003	0.00000E+000	5.40429E-003	3.59960E-001	-1.12686E+000	3.57680E+000	10	...........
	43	0.586667	9.07964E-001	5.99112E-003	0.00000E+000	5.43972E-003	3.59960E-001	-1.13766E+000	3.57680E+000	10	...........
	44	0.6	9.14010E-001	5.99054E-003	0.00000E+000	5.47541E-003	3.59960E-001	-1.12779E+000	3.57680E+000	10	...........
	45	0.613333	9.19984E-001	5.99416E-003	0.00000E+000	5.51453E-003	3.59960E-001	-1.12705E+000	3.57680E+000	10	...........
	46	0.626667	9.25932E-001	5.99633E-003	0.00000E+000	5.55219E-003	3.59960E-001	-1.13752E+000	3.57680E+000	10	...........
	47	0.64	9.31821E-001	5.98820E-003	0.00000E+000	5.57993E-003	3.59960E-001	-1.12775E+000	3.57680E+000	10	...........
	48	0.653333	9.37702E-001	5.99415E-003	0.00000E+000	5.62072E-003	3.59960E-001	-1.12718E+000	3.57680E+000	10	...........
	49	0.666667	9.43552E-001	5.99826E-003	0.00000E+000	5.65966E-003	3.59960E-001	-1.13789E+000	3.57680E+000	10	...........
	50	0.68	9.49394E-001	5.99545E-003	0.00000E+000	5.69204E-003	3.59960E-001	-1.12784E+000	3.57680E+000	10	...........
	51	0.693333	9.55165E-001	5.99699E-003	0.00000E+000	5.72812E-003	3.59960E-001	-1.12699E+000	3.57680E+000	10	...........
	52	0.706667	9.60885E-001	5.99885E-003	0.00000E+000	5.76420E-003	3.59960E-001	-1.13756E+000	3.57680E+000	10	...........
	53	0.72	9.66644E-001	5.99530E-003	0.00000E+000	5.79533E-003	3.59960E-001	-1.12785E+000	3.57680E+000	10	...........
	54	0.733333	9.72324E-001	5.99306E-003	0.00000E+000	5.82720E-003	3.59960E-001	-1.12724E+000	3.57680E+000	10	...........
	55	0.746667	9.77958E-001	5.99545E-003	0.00000E+000	5.86330E-003	3.59960E-001	-1.13760E+000	3.57680E+000	10	...........
	56	0.76	9.83514E-001	5.99491E-003	0.00000E+000	5.89608E-003	3.59960E-001	-1.12724E+000	3.57680E+000	10	...........
	57	0.773333	9.89045E-001	5.99733E-003	0.00000E+000	5.93163E-003	3.59960E-001	-1.12659E+000	3.57680E+000	10	...........
	58	0.786667	9.94541E-001	5.99449E-003	0.00000E+000	5.96176E-003	3.59960E-001	-1.13747E+000	3.57680E+000	10	...........
	59	0.795	9.98972E-001	5.99371E-003	0.00000E+000	5.98754E-003	3.59960E-001	-1.12011E+000	3.57680E+000	10	...........
STARTTIMEOFFSET	QUANT	721.6835	Start Time Offset (s)