File: Data/CV_CRGO300517_1/PWRCCD_CRGO300517_1/CHARGE_DISCHARGE/CHARGE_#177.DTA
EXPLAIN
TAG	PWR800_CHARGE
TITLE	LABEL	PWR Cyclic Charge Discharge (Cell) - Charge Step	Test &Identifier
DATE	LABEL	22-6-2017	Date
TIME	LABEL	15:42:50	Time
NOTES	NOTES	3	&Notes...
	supercap test cell
	0.6mg
	6M KOH
PSTAT	PSTAT	IFC5000-01520	Potentiostat
CAPACITY	QUANT	1.00000E-003	Capacity (A-hr)
CELLTYPE	SELECTOR	1	&Cell Type
WORKINGCONNECTION	SELECTOR	0	&Working Lead
MAXCHARGETIME	VARIABLEANDUNITS	1.00000E+002	s	1.00000E+002	second(s)	Max &Charge Time
CHARGECURRENT	QUANT	6.00000E-003	&Charge Current (A)
VOLTAGEFINISH	TWOPARAM	F	1.00000E-003	3.60000E+003	&Voltage Finish	 I (A) < 	Max Time(s)
SAMPLETIME	QUANT	1.00000E-002	Sa&mple Period (s)
CHARGESTOPAT1	MULTIPARAM	4	1.00000E+000	Charge Stop At &1	Voltage > Limit	V
CHARGESTOPAT2	MULTIPARAM	0	0.00000E+000	Charge Stop At &2	None	N/A
AESBHCSELECTOR	TOGGLE	F	Save Both Half Cells
IRCOMP	TOGGLE	F	IR &Measure
EOC	QUANT	0	Open Circuit (V)
SEQUENCER	TOGGLE	TRUE	Run as Sequence
PSTATMODEL	IQUANT	53	Pstat Model
PSTATSECTION	LABEL	IFC5000-01520	Pstat Section
PSTATSERIALNO	LABEL	01520	Pstat Serial Number
CTRLMODE	IQUANT	0	Control Mode
ELECTROMETER	IQUANT	1	RE=0 or CS=1
IESTAB	IQUANT	0	I/E Stability
CASPEED	IQUANT	4	Control Amp Speed
CONVENTION	IQUANT	1	Current Convention
ICHRANGE	IQUANT	2	Ich Range
ICHRANGEMODE	TOGGLE	T	Ich Auto Range
ICHOFFSETENABLE	TOGGLE	F	Ich Offset Enable
ICHOFFSET	QUANT	0	Ich Offset (V)
ICHFILTER	IQUANT	1	Ich Filter
VCHRANGE	IQUANT	2	Vch Range
VCHRANGEMODE	TOGGLE	T	Vch Auto Range
VCHOFFSETENABLE	TOGGLE	F	Vch Offset Enable
VCHOFFSET	QUANT	0	Vch Offset (V)
VCHFILTER	IQUANT	1	Vch Filter
IERANGELOWERLIMIT	IQUANT	9	I/E Range Lower Limit
IERANGEMODE	TOGGLE	F	I/E AutoRange
IERANGE	IQUANT	10	I/E Range
ACHSELECT	IQUANT	1	Ach Select
ACHRANGE	IQUANT	2	Ach Range
ACHOFFSETENABLE	TOGGLE	F	Ach Offset Enable
ACHOFFSET	QUANT	0	Ach Offset (V)
ACHFILTER	IQUANT	1	Ach Filter
CABLEID	IQUANT	14	Cable ID
DCCALDATE	LABEL	20-10-2016	DC Calibration Date
ACCALDATE	LABEL	12/3/2015	AC Calibration Date
FRAMEWORKVERSION	QUANT	7.01	Framework Version
INSTRUMENTVERSION	LABEL	4.00	Instrument Version
CURVE	TABLE	66
	Pt	T	Vf	Im	Vu	Pwr	Sig	Ach	Temp	IERange	Over
	#	s	V	A	V	W	V	V	deg C	#	bits
	0	0.013333	6.02742E-001	5.99595E-003	0.00000E+000	3.61401E-003	3.59960E-001	-1.08315E+000	3.57710E+000	10	...........
	1	0.026667	6.11144E-001	5.99742E-003	0.00000E+000	3.66529E-003	3.59960E-001	-1.09384E+000	3.57710E+000	10	...........
	2	0.04	6.18947E-001	5.99265E-003	0.00000E+000	3.70913E-003	3.59960E-001	-1.08436E+000	3.57710E+000	10	...........
	3	0.053333	6.26208E-001	5.99090E-003	0.00000E+000	3.75155E-003	3.59960E-001	-1.08292E+000	3.57710E+000	10	...........
	4	0.066667	6.33252E-001	5.99161E-003	0.00000E+000	3.79420E-003	3.59960E-001	-1.09322E+000	3.57710E+000	10	...........
	5	0.08	6.40132E-001	5.99231E-003	0.00000E+000	3.83587E-003	3.59960E-001	-1.08427E+000	3.57710E+000	10	...........
	6	0.093333	6.46866E-001	5.99103E-003	0.00000E+000	3.87539E-003	3.59960E-001	-1.08282E+000	3.57710E+000	10	...........
	7	0.106667	6.53478E-001	5.99777E-003	0.00000E+000	3.91941E-003	3.59960E-001	-1.09337E+000	3.57710E+000	10	...........
	8	0.12	6.60000E-001	5.98982E-003	0.00000E+000	3.95328E-003	3.59960E-001	-1.08420E+000	3.57710E+000	10	...........
	9	0.133333	6.66447E-001	5.99070E-003	0.00000E+000	3.99249E-003	3.59960E-001	-1.08273E+000	3.57710E+000	10	...........
	10	0.146667	6.72861E-001	5.99736E-003	0.00000E+000	4.03539E-003	3.59960E-001	-1.09348E+000	3.57710E+000	10	...........
	11	0.16	6.79254E-001	5.99464E-003	0.00000E+000	4.07188E-003	3.59960E-001	-1.08435E+000	3.57710E+000	10	...........
	12	0.173333	6.85520E-001	5.99592E-003	0.00000E+000	4.11032E-003	3.59960E-001	-1.08251E+000	3.57710E+000	10	...........
	13	0.186667	6.91811E-001	5.99479E-003	0.00000E+000	4.14727E-003	3.59960E-001	-1.09314E+000	3.57710E+000	10	...........
	14	0.2	6.98029E-001	5.99400E-003	0.00000E+000	4.18398E-003	3.59960E-001	-1.08402E+000	3.57710E+000	10	...........
	15	0.213333	7.04220E-001	5.99341E-003	0.00000E+000	4.22067E-003	3.59960E-001	-1.08278E+000	3.57710E+000	10	...........
	16	0.226667	7.10407E-001	5.99335E-003	0.00000E+000	4.25772E-003	3.59960E-001	-1.09325E+000	3.57710E+000	10	...........
	17	0.24	7.16608E-001	5.99443E-003	0.00000E+000	4.29566E-003	3.59960E-001	-1.08391E+000	3.57710E+000	10	...........
	18	0.253333	7.22761E-001	5.99460E-003	0.00000E+000	4.33267E-003	3.59960E-001	-1.08221E+000	3.57710E+000	10	...........
	19	0.266667	7.28920E-001	5.99610E-003	0.00000E+000	4.37067E-003	3.59960E-001	-1.09316E+000	3.57710E+000	10	...........
	20	0.28	7.35040E-001	5.99232E-003	0.00000E+000	4.40459E-003	3.59960E-001	-1.08444E+000	3.57710E+000	10	...........
	21	0.293333	7.41168E-001	5.99347E-003	0.00000E+000	4.44217E-003	3.59960E-001	-1.08256E+000	3.57710E+000	10	...........
	22	0.306667	7.47314E-001	5.99323E-003	0.00000E+000	4.47883E-003	3.59960E-001	-1.09267E+000	3.57710E+000	10	...........
	23	0.32	7.53448E-001	5.99349E-003	0.00000E+000	4.51578E-003	3.59960E-001	-1.08339E+000	3.57710E+000	10	...........
	24	0.333333	7.59509E-001	5.99115E-003	0.00000E+000	4.55033E-003	3.59960E-001	-1.08210E+000	3.57710E+000	10	...........
	25	0.346667	7.65600E-001	5.99380E-003	0.00000E+000	4.58885E-003	3.59960E-001	-1.09284E+000	3.57710E+000	10	...........
	26	0.36	7.71660E-001	5.99573E-003	0.00000E+000	4.62666E-003	3.59960E-001	-1.08362E+000	3.57710E+000	10	...........
	27	0.373333	7.77753E-001	5.99501E-003	0.00000E+000	4.66264E-003	3.59960E-001	-1.08190E+000	3.57710E+000	10	...........
	28	0.386667	7.83822E-001	5.99521E-003	0.00000E+000	4.69917E-003	3.59960E-001	-1.09264E+000	3.57710E+000	10	...........
	29	0.4	7.89825E-001	5.99132E-003	0.00000E+000	4.73209E-003	3.59960E-001	-1.08364E+000	3.57710E+000	10	...........
	30	0.413333	7.95907E-001	5.98819E-003	0.00000E+000	4.76604E-003	3.59960E-001	-1.08215E+000	3.57710E+000	10	...........
	31	0.426667	8.01972E-001	5.99660E-003	0.00000E+000	4.80910E-003	3.59960E-001	-1.09265E+000	3.57710E+000	10	...........
	32	0.44	8.08044E-001	5.99590E-003	0.00000E+000	4.84495E-003	3.59960E-001	-1.08342E+000	3.57710E+000	10	...........
	33	0.453333	8.14075E-001	5.99776E-003	0.00000E+000	4.88262E-003	3.59960E-001	-1.08182E+000	3.57710E+000	10	...........
	34	0.466667	8.20090E-001	5.99470E-003	0.00000E+000	4.91619E-003	3.59960E-001	-1.09264E+000	3.57710E+000	10	...........
	35	0.48	8.26080E-001	5.99728E-003	0.00000E+000	4.95423E-003	3.59960E-001	-1.08379E+000	3.57710E+000	10	...........
	36	0.493333	8.32088E-001	5.99590E-003	0.00000E+000	4.98912E-003	3.59960E-001	-1.08212E+000	3.57710E+000	10	...........
	37	0.506667	8.38099E-001	5.99939E-003	0.00000E+000	5.02809E-003	3.59960E-001	-1.09234E+000	3.57710E+000	10	...........
	38	0.52	8.44133E-001	5.99791E-003	0.00000E+000	5.06303E-003	3.59960E-001	-1.08337E+000	3.57710E+000	10	...........
	39	0.533333	8.50122E-001	5.99322E-003	0.00000E+000	5.09497E-003	3.59960E-001	-1.08207E+000	3.57710E+000	10	...........
	40	0.546667	8.56073E-001	5.99713E-003	0.00000E+000	5.13398E-003	3.59960E-001	-1.09271E+000	3.57710E+000	10	...........
	41	0.56	8.62050E-001	5.99296E-003	0.00000E+000	5.16623E-003	3.59960E-001	-1.08378E+000	3.57710E+000	10	...........
	42	0.573333	8.67985E-001	5.99152E-003	0.00000E+000	5.20055E-003	3.59960E-001	-1.08215E+000	3.57710E+000	10	...........
	43	0.586667	8.73982E-001	5.99199E-003	0.00000E+000	5.23689E-003	3.59960E-001	-1.09270E+000	3.57710E+000	10	...........
	44	0.6	8.79862E-001	5.99320E-003	0.00000E+000	5.27319E-003	3.59960E-001	-1.08356E+000	3.57710E+000	10	...........
	45	0.613333	8.85749E-001	5.99414E-003	0.00000E+000	5.30930E-003	3.59960E-001	-1.08205E+000	3.57710E+000	10	...........
	46	0.626667	8.91633E-001	5.99286E-003	0.00000E+000	5.34343E-003	3.59960E-001	-1.09235E+000	3.57710E+000	10	...........
	47	0.64	8.97561E-001	5.99532E-003	0.00000E+000	5.38117E-003	3.59960E-001	-1.08312E+000	3.57710E+000	10	...........
	48	0.653333	9.03386E-001	5.99045E-003	0.00000E+000	5.41169E-003	3.59960E-001	-1.08129E+000	3.57710E+000	10	...........
	49	0.666667	9.09232E-001	5.99689E-003	0.00000E+000	5.45256E-003	3.59960E-001	-1.09213E+000	3.57710E+000	10	...........
	50	0.68	9.15021E-001	5.99328E-003	0.00000E+000	5.48398E-003	3.59960E-001	-1.08314E+000	3.57710E+000	10	...........
	51	0.693333	9.20887E-001	5.99422E-003	0.00000E+000	5.52000E-003	3.59960E-001	-1.08163E+000	3.57710E+000	10	...........
	52	0.706667	9.26698E-001	5.99061E-003	0.00000E+000	5.55149E-003	3.59960E-001	-1.09221E+000	3.57710E+000	10	...........
	53	0.72	9.32425E-001	5.99506E-003	0.00000E+000	5.58995E-003	3.59960E-001	-1.08288E+000	3.57710E+000	10	...........
	54	0.733333	9.38130E-001	5.99541E-003	0.00000E+000	5.62447E-003	3.59960E-001	-1.08145E+000	3.57710E+000	10	...........
	55	0.746667	9.43819E-001	5.99304E-003	0.00000E+000	5.65635E-003	3.59960E-001	-1.09229E+000	3.57765E+000	10	...........
	56	0.76	9.49542E-001	5.99711E-003	0.00000E+000	5.69450E-003	3.59960E-001	-1.08324E+000	3.57820E+000	10	...........
	57	0.773333	9.55185E-001	5.99207E-003	0.00000E+000	5.72354E-003	3.59960E-001	-1.08146E+000	3.57820E+000	10	...........
	58	0.786667	9.60754E-001	5.99362E-003	0.00000E+000	5.75840E-003	3.59960E-001	-1.09187E+000	3.57820E+000	10	...........
	59	0.8	9.66368E-001	5.98982E-003	0.00000E+000	5.78837E-003	3.59960E-001	-1.08272E+000	3.57820E+000	10	...........
	60	0.813333	9.71930E-001	5.99217E-003	0.00000E+000	5.82397E-003	3.59960E-001	-1.08149E+000	3.57820E+000	10	...........
	61	0.826667	9.77489E-001	5.99247E-003	0.00000E+000	5.85757E-003	3.59960E-001	-1.09232E+000	3.57820E+000	10	...........
	62	0.84	9.82921E-001	5.99208E-003	0.00000E+000	5.88974E-003	3.59960E-001	-1.08324E+000	3.57820E+000	10	...........
	63	0.853333	9.88341E-001	5.99377E-003	0.00000E+000	5.92389E-003	3.59960E-001	-1.08137E+000	3.57820E+000	10	...........
	64	0.866667	9.93745E-001	5.99379E-003	0.00000E+000	5.95630E-003	3.59960E-001	-1.09185E+000	3.57820E+000	10	...........
	65	0.876667	9.98430E-001	5.99115E-003	0.00000E+000	5.98174E-003	3.59960E-001	-1.07891E+000	3.57820E+000	10	...........
STARTTIMEOFFSET	QUANT	333.1035	Start Time Offset (s)