File: Data/CV_CRGO300517_1/PWRCCD_CRGO300517_1/CHARGE_DISCHARGE/CHARGE_#169.DTA
EXPLAIN
TAG	PWR800_CHARGE
TITLE	LABEL	PWR Cyclic Charge Discharge (Cell) - Charge Step	Test &Identifier
DATE	LABEL	22-6-2017	Date
TIME	LABEL	15:42:29	Time
NOTES	NOTES	3	&Notes...
	supercap test cell
	0.6mg
	6M KOH
PSTAT	PSTAT	IFC5000-01520	Potentiostat
CAPACITY	QUANT	1.00000E-003	Capacity (A-hr)
CELLTYPE	SELECTOR	1	&Cell Type
WORKINGCONNECTION	SELECTOR	0	&Working Lead
MAXCHARGETIME	VARIABLEANDUNITS	1.00000E+002	s	1.00000E+002	second(s)	Max &Charge Time
CHARGECURRENT	QUANT	6.00000E-003	&Charge Current (A)
VOLTAGEFINISH	TWOPARAM	F	1.00000E-003	3.60000E+003	&Voltage Finish	 I (A) < 	Max Time(s)
SAMPLETIME	QUANT	1.00000E-002	Sa&mple Period (s)
CHARGESTOPAT1	MULTIPARAM	4	1.00000E+000	Charge Stop At &1	Voltage > Limit	V
CHARGESTOPAT2	MULTIPARAM	0	0.00000E+000	Charge Stop At &2	None	N/A
AESBHCSELECTOR	TOGGLE	F	Save Both Half Cells
IRCOMP	TOGGLE	F	IR &Measure
EOC	QUANT	0	Open Circuit (V)
SEQUENCER	TOGGLE	TRUE	Run as Sequence
PSTATMODEL	IQUANT	53	Pstat Model
PSTATSECTION	LABEL	IFC5000-01520	Pstat Section
PSTATSERIALNO	LABEL	01520	Pstat Serial Number
CTRLMODE	IQUANT	0	Control Mode
ELECTROMETER	IQUANT	1	RE=0 or CS=1
IESTAB	IQUANT	0	I/E Stability
CASPEED	IQUANT	4	Control Amp Speed
CONVENTION	IQUANT	1	Current Convention
ICHRANGE	IQUANT	2	Ich Range
ICHRANGEMODE	TOGGLE	T	Ich Auto Range
ICHOFFSETENABLE	TOGGLE	F	Ich Offset Enable
ICHOFFSET	QUANT	0	Ich Offset (V)
ICHFILTER	IQUANT	1	Ich Filter
VCHRANGE	IQUANT	2	Vch Range
VCHRANGEMODE	TOGGLE	T	Vch Auto Range
VCHOFFSETENABLE	TOGGLE	F	Vch Offset Enable
VCHOFFSET	QUANT	0	Vch Offset (V)
VCHFILTER	IQUANT	1	Vch Filter
IERANGELOWERLIMIT	IQUANT	9	I/E Range Lower Limit
IERANGEMODE	TOGGLE	F	I/E AutoRange
IERANGE	IQUANT	10	I/E Range
ACHSELECT	IQUANT	1	Ach Select
ACHRANGE	IQUANT	2	Ach Range
ACHOFFSETENABLE	TOGGLE	F	Ach Offset Enable
ACHOFFSET	QUANT	0	Ach Offset (V)
ACHFILTER	IQUANT	1	Ach Filter
CABLEID	IQUANT	14	Cable ID
DCCALDATE	LABEL	20-10-2016	DC Calibration Date
ACCALDATE	LABEL	12/3/2015	AC Calibration Date
FRAMEWORKVERSION	QUANT	7.01	Framework Version
INSTRUMENTVERSION	LABEL	4.00	Instrument Version
CURVE	TABLE	66
	Pt	T	Vf	Im	Vu	Pwr	Sig	Ach	Temp	IERange	Over
	#	s	V	A	V	W	V	V	deg C	#	bits
	0	0.013333	6.01973E-001	5.99513E-003	0.00000E+000	3.60891E-003	3.59960E-001	-1.07988E+000	3.57740E+000	10	...........
	1	0.026667	6.10345E-001	5.99442E-003	0.00000E+000	3.65866E-003	3.59960E-001	-1.09002E+000	3.57740E+000	10	...........
	2	0.04	6.18117E-001	5.99274E-003	0.00000E+000	3.70421E-003	3.59960E-001	-1.08284E+000	3.57740E+000	10	...........
	3	0.053333	6.25437E-001	5.99575E-003	0.00000E+000	3.74996E-003	3.59960E-001	-1.07927E+000	3.57740E+000	10	...........
	4	0.066667	6.32423E-001	5.99230E-003	0.00000E+000	3.78967E-003	3.59960E-001	-1.08986E+000	3.57740E+000	10	...........
	5	0.08	6.39284E-001	5.99008E-003	0.00000E+000	3.82936E-003	3.59960E-001	-1.08304E+000	3.57740E+000	10	...........
	6	0.093333	6.45989E-001	5.99582E-003	0.00000E+000	3.87323E-003	3.59960E-001	-1.07904E+000	3.57740E+000	10	...........
	7	0.106667	6.52572E-001	5.98941E-003	0.00000E+000	3.90852E-003	3.59960E-001	-1.08938E+000	3.57740E+000	10	...........
	8	0.12	6.59095E-001	5.99298E-003	0.00000E+000	3.94994E-003	3.59960E-001	-1.08284E+000	3.57740E+000	10	...........
	9	0.133333	6.65529E-001	5.99427E-003	0.00000E+000	3.98936E-003	3.59960E-001	-1.07888E+000	3.57740E+000	10	...........
	10	0.146667	6.71885E-001	5.99425E-003	0.00000E+000	4.02745E-003	3.59960E-001	-1.08939E+000	3.57740E+000	10	...........
	11	0.16	6.78260E-001	5.99224E-003	0.00000E+000	4.06429E-003	3.59960E-001	-1.08287E+000	3.57740E+000	10	...........
	12	0.173333	6.84531E-001	5.99610E-003	0.00000E+000	4.10451E-003	3.59960E-001	-1.07859E+000	3.57740E+000	10	...........
	13	0.186667	6.90765E-001	5.99247E-003	0.00000E+000	4.13938E-003	3.59960E-001	-1.08880E+000	3.57740E+000	10	...........
	14	0.2	6.97004E-001	5.99230E-003	0.00000E+000	4.17666E-003	3.59960E-001	-1.08284E+000	3.57740E+000	10	...........
	15	0.213333	7.03215E-001	5.99523E-003	0.00000E+000	4.21594E-003	3.59960E-001	-1.07863E+000	3.57740E+000	10	...........
	16	0.226667	7.09409E-001	5.99224E-003	0.00000E+000	4.25095E-003	3.59960E-001	-1.08850E+000	3.57740E+000	10	...........
	17	0.24	7.15539E-001	5.99447E-003	0.00000E+000	4.28928E-003	3.59960E-001	-1.08275E+000	3.57740E+000	10	...........
	18	0.253333	7.21694E-001	5.99597E-003	0.00000E+000	4.32725E-003	3.59960E-001	-1.07895E+000	3.57740E+000	10	...........
	19	0.266667	7.27830E-001	5.99143E-003	0.00000E+000	4.36074E-003	3.59960E-001	-1.08900E+000	3.57740E+000	10	...........
	20	0.28	7.33898E-001	5.99306E-003	0.00000E+000	4.39830E-003	3.59960E-001	-1.08292E+000	3.57740E+000	10	...........
	21	0.293333	7.40018E-001	5.99523E-003	0.00000E+000	4.43658E-003	3.59960E-001	-1.07866E+000	3.57740E+000	10	...........
	22	0.306667	7.46151E-001	5.98986E-003	0.00000E+000	4.46934E-003	3.59960E-001	-1.08841E+000	3.57730E+000	10	...........
	23	0.32	7.52272E-001	5.99034E-003	0.00000E+000	4.50637E-003	3.59960E-001	-1.08278E+000	3.57720E+000	10	...........
	24	0.333333	7.58382E-001	5.99360E-003	0.00000E+000	4.54544E-003	3.59960E-001	-1.07868E+000	3.57720E+000	10	...........
	25	0.346667	7.64404E-001	5.99034E-003	0.00000E+000	4.57904E-003	3.59960E-001	-1.08805E+000	3.57720E+000	10	...........
	26	0.36	7.70517E-001	5.99255E-003	0.00000E+000	4.61736E-003	3.59960E-001	-1.08246E+000	3.57720E+000	10	...........
	27	0.373333	7.76566E-001	5.99434E-003	0.00000E+000	4.65501E-003	3.59960E-001	-1.07783E+000	3.57720E+000	10	...........
	28	0.386667	7.82652E-001	5.99241E-003	0.00000E+000	4.68998E-003	3.59960E-001	-1.08757E+000	3.57720E+000	10	...........
	29	0.4	7.88690E-001	5.99423E-003	0.00000E+000	4.72759E-003	3.59960E-001	-1.08286E+000	3.57720E+000	10	...........
	30	0.413333	7.94768E-001	5.99135E-003	0.00000E+000	4.76173E-003	3.59960E-001	-1.07793E+000	3.57720E+000	10	...........
	31	0.426667	8.00810E-001	5.99210E-003	0.00000E+000	4.79854E-003	3.59960E-001	-1.08716E+000	3.57720E+000	10	...........
	32	0.44	8.06829E-001	5.99178E-003	0.00000E+000	4.83434E-003	3.59960E-001	-1.08230E+000	3.57720E+000	10	...........
	33	0.453333	8.12845E-001	5.99631E-003	0.00000E+000	4.87407E-003	3.59960E-001	-1.07773E+000	3.57720E+000	10	...........
	34	0.466667	8.18853E-001	5.99234E-003	0.00000E+000	4.90685E-003	3.59960E-001	-1.08716E+000	3.57720E+000	10	...........
	35	0.48	8.24850E-001	5.99516E-003	0.00000E+000	4.94511E-003	3.59960E-001	-1.08260E+000	3.57720E+000	10	...........
	36	0.493333	8.30831E-001	5.99829E-003	0.00000E+000	4.98357E-003	3.59960E-001	-1.07752E+000	3.57720E+000	10	...........
	37	0.506667	8.36799E-001	5.99263E-003	0.00000E+000	5.01463E-003	3.59960E-001	-1.08661E+000	3.57720E+000	10	...........
	38	0.52	8.42777E-001	5.99573E-003	0.00000E+000	5.05307E-003	3.59960E-001	-1.08239E+000	3.57720E+000	10	...........
	39	0.533333	8.48808E-001	5.99826E-003	0.00000E+000	5.09137E-003	3.59960E-001	-1.07769E+000	3.57720E+000	10	...........
	40	0.546667	8.54787E-001	5.99123E-003	0.00000E+000	5.12122E-003	3.59960E-001	-1.08633E+000	3.57720E+000	10	...........
	41	0.56	8.60712E-001	5.99052E-003	0.00000E+000	5.15611E-003	3.59960E-001	-1.08222E+000	3.57720E+000	10	...........
	42	0.573333	8.66645E-001	5.99652E-003	0.00000E+000	5.19686E-003	3.59960E-001	-1.07717E+000	3.57720E+000	10	...........
	43	0.586667	8.72617E-001	5.99302E-003	0.00000E+000	5.22961E-003	3.59960E-001	-1.08632E+000	3.57720E+000	10	...........
	44	0.6	8.78504E-001	5.99212E-003	0.00000E+000	5.26410E-003	3.59960E-001	-1.08258E+000	3.57720E+000	10	...........
	45	0.613333	8.84449E-001	5.99259E-003	0.00000E+000	5.30014E-003	3.59960E-001	-1.07723E+000	3.57720E+000	10	...........
	46	0.626667	8.90351E-001	5.99566E-003	0.00000E+000	5.33824E-003	3.59960E-001	-1.08564E+000	3.57720E+000	10	...........
	47	0.64	8.96219E-001	5.99442E-003	0.00000E+000	5.37231E-003	3.59960E-001	-1.08229E+000	3.57720E+000	10	...........
	48	0.653333	9.02088E-001	5.99546E-003	0.00000E+000	5.40843E-003	3.59960E-001	-1.07688E+000	3.57720E+000	10	...........
	49	0.666667	9.07910E-001	5.99728E-003	0.00000E+000	5.44499E-003	3.59960E-001	-1.08530E+000	3.57720E+000	10	...........
	50	0.68	9.13750E-001	5.99351E-003	0.00000E+000	5.47657E-003	3.59960E-001	-1.08228E+000	3.57720E+000	10	...........
	51	0.693333	9.19509E-001	5.99344E-003	0.00000E+000	5.51102E-003	3.59960E-001	-1.07654E+000	3.57720E+000	10	...........
	52	0.706667	9.25334E-001	5.99525E-003	0.00000E+000	5.54761E-003	3.59960E-001	-1.08479E+000	3.57720E+000	10	...........
	53	0.72	9.31067E-001	5.99449E-003	0.00000E+000	5.58127E-003	3.59960E-001	-1.08199E+000	3.57720E+000	10	...........
	54	0.733333	9.36784E-001	5.99215E-003	0.00000E+000	5.61336E-003	3.59960E-001	-1.07662E+000	3.57720E+000	10	...........
	55	0.746667	9.42470E-001	5.99519E-003	0.00000E+000	5.65029E-003	3.59960E-001	-1.08460E+000	3.57720E+000	10	...........
	56	0.76	9.48186E-001	5.99336E-003	0.00000E+000	5.68282E-003	3.59960E-001	-1.08189E+000	3.57720E+000	10	...........
	57	0.773333	9.53816E-001	5.99649E-003	0.00000E+000	5.71955E-003	3.59960E-001	-1.07629E+000	3.57720E+000	10	...........
	58	0.786667	9.59420E-001	5.99324E-003	0.00000E+000	5.75003E-003	3.59960E-001	-1.08428E+000	3.57720E+000	10	...........
	59	0.8	9.65004E-001	5.99273E-003	0.00000E+000	5.78300E-003	3.59960E-001	-1.08202E+000	3.57720E+000	10	...........
	60	0.813333	9.70544E-001	5.99065E-003	0.00000E+000	5.81419E-003	3.59960E-001	-1.07626E+000	3.57720E+000	10	...........
	61	0.826667	9.76063E-001	5.99608E-003	0.00000E+000	5.85255E-003	3.59960E-001	-1.08391E+000	3.57720E+000	10	...........
	62	0.84	9.81553E-001	5.99503E-003	0.00000E+000	5.88444E-003	3.59960E-001	-1.08167E+000	3.57720E+000	10	...........
	63	0.853333	9.86985E-001	5.99636E-003	0.00000E+000	5.91832E-003	3.59960E-001	-1.07585E+000	3.57720E+000	10	...........
	64	0.866667	9.92384E-001	5.99645E-003	0.00000E+000	5.95078E-003	3.59960E-001	-1.08388E+000	3.57720E+000	10	...........
	65	0.88	9.97778E-001	5.98991E-003	0.00000E+000	5.97660E-003	3.59960E-001	-1.08216E+000	3.57720E+000	10	...........
STARTTIMEOFFSET	QUANT	319.1267	Start Time Offset (s)