File: Data/CV_CRGO300517_1/PWRCCD_CRGO300517_1/CHARGE_DISCHARGE/CHARGE_#479.DTA
EXPLAIN
TAG	PWR800_CHARGE
TITLE	LABEL	PWR Cyclic Charge Discharge (Cell) - Charge Step	Test &Identifier
DATE	LABEL	22-6-2017	Date
TIME	LABEL	15:55:05	Time
NOTES	NOTES	3	&Notes...
	supercap test cell
	0.6mg
	6M KOH
PSTAT	PSTAT	IFC5000-01520	Potentiostat
CAPACITY	QUANT	1.00000E-003	Capacity (A-hr)
CELLTYPE	SELECTOR	1	&Cell Type
WORKINGCONNECTION	SELECTOR	0	&Working Lead
MAXCHARGETIME	VARIABLEANDUNITS	1.00000E+002	s	1.00000E+002	second(s)	Max &Charge Time
CHARGECURRENT	QUANT	6.00000E-003	&Charge Current (A)
VOLTAGEFINISH	TWOPARAM	F	1.00000E-003	3.60000E+003	&Voltage Finish	 I (A) < 	Max Time(s)
SAMPLETIME	QUANT	1.00000E-002	Sa&mple Period (s)
CHARGESTOPAT1	MULTIPARAM	4	1.00000E+000	Charge Stop At &1	Voltage > Limit	V
CHARGESTOPAT2	MULTIPARAM	0	0.00000E+000	Charge Stop At &2	None	N/A
AESBHCSELECTOR	TOGGLE	F	Save Both Half Cells
IRCOMP	TOGGLE	F	IR &Measure
EOC	QUANT	0	Open Circuit (V)
SEQUENCER	TOGGLE	TRUE	Run as Sequence
PSTATMODEL	IQUANT	53	Pstat Model
PSTATSECTION	LABEL	IFC5000-01520	Pstat Section
PSTATSERIALNO	LABEL	01520	Pstat Serial Number
CTRLMODE	IQUANT	0	Control Mode
ELECTROMETER	IQUANT	1	RE=0 or CS=1
IESTAB	IQUANT	0	I/E Stability
CASPEED	IQUANT	4	Control Amp Speed
CONVENTION	IQUANT	1	Current Convention
ICHRANGE	IQUANT	2	Ich Range
ICHRANGEMODE	TOGGLE	T	Ich Auto Range
ICHOFFSETENABLE	TOGGLE	F	Ich Offset Enable
ICHOFFSET	QUANT	0	Ich Offset (V)
ICHFILTER	IQUANT	1	Ich Filter
VCHRANGE	IQUANT	2	Vch Range
VCHRANGEMODE	TOGGLE	T	Vch Auto Range
VCHOFFSETENABLE	TOGGLE	F	Vch Offset Enable
VCHOFFSET	QUANT	0	Vch Offset (V)
VCHFILTER	IQUANT	1	Vch Filter
IERANGELOWERLIMIT	IQUANT	9	I/E Range Lower Limit
IERANGEMODE	TOGGLE	F	I/E AutoRange
IERANGE	IQUANT	10	I/E Range
ACHSELECT	IQUANT	1	Ach Select
ACHRANGE	IQUANT	2	Ach Range
ACHOFFSETENABLE	TOGGLE	F	Ach Offset Enable
ACHOFFSET	QUANT	0	Ach Offset (V)
ACHFILTER	IQUANT	1	Ach Filter
CABLEID	IQUANT	14	Cable ID
DCCALDATE	LABEL	20-10-2016	DC Calibration Date
ACCALDATE	LABEL	12/3/2015	AC Calibration Date
FRAMEWORKVERSION	QUANT	7.01	Framework Version
INSTRUMENTVERSION	LABEL	4.00	Instrument Version
CURVE	TABLE	59
	Pt	T	Vf	Im	Vu	Pwr	Sig	Ach	Temp	IERange	Over
	#	s	V	A	V	W	V	V	deg C	#	bits
	0	0.013333	6.30696E-001	5.99100E-003	0.00000E+000	3.77850E-003	3.59960E-001	-1.14140E+000	3.57640E+000	10	...........
	1	0.026667	6.39536E-001	5.99415E-003	0.00000E+000	3.83347E-003	3.59960E-001	-1.13951E+000	3.57640E+000	10	...........
	2	0.04	6.47682E-001	5.99227E-003	0.00000E+000	3.88109E-003	3.59960E-001	-1.15056E+000	3.57640E+000	10	...........
	3	0.053333	6.55418E-001	5.99243E-003	0.00000E+000	3.92754E-003	3.59960E-001	-1.14096E+000	3.57640E+000	10	...........
	4	0.066667	6.62799E-001	5.99615E-003	0.00000E+000	3.97424E-003	3.59960E-001	-1.13915E+000	3.57640E+000	10	...........
	5	0.08	6.70071E-001	5.99328E-003	0.00000E+000	4.01592E-003	3.59960E-001	-1.14977E+000	3.57640E+000	10	...........
	6	0.093333	6.77198E-001	5.99608E-003	0.00000E+000	4.06053E-003	3.59960E-001	-1.14022E+000	3.57640E+000	10	...........
	7	0.106667	6.84158E-001	5.99320E-003	0.00000E+000	4.10030E-003	3.59960E-001	-1.13913E+000	3.57640E+000	10	...........
	8	0.12	6.91031E-001	5.99551E-003	0.00000E+000	4.14309E-003	3.59960E-001	-1.15002E+000	3.57640E+000	10	...........
	9	0.133333	6.97871E-001	5.99206E-003	0.00000E+000	4.18168E-003	3.59960E-001	-1.14037E+000	3.57640E+000	10	...........
	10	0.146667	7.04671E-001	5.99601E-003	0.00000E+000	4.22522E-003	3.59960E-001	-1.13892E+000	3.57640E+000	10	...........
	11	0.16	7.11347E-001	5.99288E-003	0.00000E+000	4.26302E-003	3.59960E-001	-1.14993E+000	3.57640E+000	10	...........
	12	0.173333	7.18037E-001	5.99544E-003	0.00000E+000	4.30495E-003	3.59960E-001	-1.14019E+000	3.57640E+000	10	...........
	13	0.186667	7.24711E-001	5.99688E-003	0.00000E+000	4.34600E-003	3.59960E-001	-1.13906E+000	3.57640E+000	10	...........
	14	0.2	7.31307E-001	5.99776E-003	0.00000E+000	4.38620E-003	3.59960E-001	-1.14984E+000	3.57640E+000	10	...........
	15	0.213333	7.37893E-001	5.99397E-003	0.00000E+000	4.42291E-003	3.59960E-001	-1.13989E+000	3.57640E+000	10	...........
	16	0.226667	7.44502E-001	5.99309E-003	0.00000E+000	4.46187E-003	3.59960E-001	-1.13902E+000	3.57640E+000	10	...........
	17	0.24	7.51013E-001	5.99481E-003	0.00000E+000	4.50218E-003	3.59960E-001	-1.14959E+000	3.57640E+000	10	...........
	18	0.253333	7.57548E-001	5.99790E-003	0.00000E+000	4.54370E-003	3.59960E-001	-1.14016E+000	3.57640E+000	10	...........
	19	0.266667	7.64018E-001	5.99381E-003	0.00000E+000	4.57938E-003	3.59960E-001	-1.13935E+000	3.57640E+000	10	...........
	20	0.28	7.70523E-001	5.99024E-003	0.00000E+000	4.61562E-003	3.59960E-001	-1.14988E+000	3.57640E+000	10	...........
	21	0.293333	7.76996E-001	5.99620E-003	0.00000E+000	4.65903E-003	3.59960E-001	-1.14030E+000	3.57647E+000	10	...........
	22	0.306667	7.83459E-001	5.98731E-003	0.00000E+000	4.69081E-003	3.59960E-001	-1.13948E+000	3.57660E+000	10	...........
	23	0.32	7.89901E-001	5.99251E-003	0.00000E+000	4.73349E-003	3.59960E-001	-1.15004E+000	3.57660E+000	10	...........
	24	0.333333	7.96360E-001	5.99146E-003	0.00000E+000	4.77136E-003	3.59960E-001	-1.13995E+000	3.57660E+000	10	...........
	25	0.346667	8.02757E-001	5.99347E-003	0.00000E+000	4.81130E-003	3.59960E-001	-1.13957E+000	3.57660E+000	10	...........
	26	0.36	8.09123E-001	5.99651E-003	0.00000E+000	4.85192E-003	3.59960E-001	-1.14987E+000	3.57660E+000	10	...........
	27	0.373333	8.15486E-001	5.99330E-003	0.00000E+000	4.88745E-003	3.59960E-001	-1.13967E+000	3.57660E+000	10	...........
	28	0.386667	8.21883E-001	5.99377E-003	0.00000E+000	4.92618E-003	3.59960E-001	-1.13931E+000	3.57660E+000	10	...........
	29	0.4	8.28214E-001	5.99466E-003	0.00000E+000	4.96486E-003	3.59960E-001	-1.14957E+000	3.57660E+000	10	...........
	30	0.413333	8.34507E-001	5.99434E-003	0.00000E+000	5.00232E-003	3.59960E-001	-1.13946E+000	3.57660E+000	10	...........
	31	0.426667	8.40849E-001	5.99246E-003	0.00000E+000	5.03875E-003	3.59960E-001	-1.13920E+000	3.57660E+000	10	...........
	32	0.44	8.47185E-001	5.99413E-003	0.00000E+000	5.07813E-003	3.59960E-001	-1.14962E+000	3.57660E+000	10	...........
	33	0.453333	8.53434E-001	5.99773E-003	0.00000E+000	5.11867E-003	3.59960E-001	-1.13956E+000	3.57660E+000	10	...........
	34	0.466667	8.59710E-001	5.99624E-003	0.00000E+000	5.15503E-003	3.59960E-001	-1.13955E+000	3.57660E+000	10	...........
	35	0.48	8.65967E-001	5.99441E-003	0.00000E+000	5.19096E-003	3.59960E-001	-1.14971E+000	3.57660E+000	10	...........
	36	0.493333	8.72240E-001	5.99215E-003	0.00000E+000	5.22660E-003	3.59960E-001	-1.13951E+000	3.57660E+000	10	...........
	37	0.506667	8.78437E-001	5.99424E-003	0.00000E+000	5.26556E-003	3.59960E-001	-1.13980E+000	3.57660E+000	10	...........
	38	0.52	8.84614E-001	5.99120E-003	0.00000E+000	5.29990E-003	3.59960E-001	-1.14980E+000	3.57660E+000	10	...........
	39	0.533333	8.90747E-001	5.99408E-003	0.00000E+000	5.33921E-003	3.59960E-001	-1.13940E+000	3.57660E+000	10	...........
	40	0.546667	8.96875E-001	5.99695E-003	0.00000E+000	5.37851E-003	3.59960E-001	-1.13974E+000	3.57660E+000	10	...........
	41	0.56	9.02952E-001	5.99272E-003	0.00000E+000	5.41114E-003	3.59960E-001	-1.14953E+000	3.57660E+000	10	...........
	42	0.573333	9.09017E-001	5.99751E-003	0.00000E+000	5.45184E-003	3.59960E-001	-1.13957E+000	3.57660E+000	10	...........
	43	0.586667	9.15078E-001	5.99694E-003	0.00000E+000	5.48767E-003	3.59960E-001	-1.14002E+000	3.57660E+000	10	...........
	44	0.6	9.21131E-001	5.99248E-003	0.00000E+000	5.51986E-003	3.59960E-001	-1.14986E+000	3.57660E+000	10	...........
	45	0.613333	9.27140E-001	5.99715E-003	0.00000E+000	5.56020E-003	3.59960E-001	-1.13983E+000	3.57660E+000	10	...........
	46	0.626667	9.33079E-001	5.99195E-003	0.00000E+000	5.59096E-003	3.59960E-001	-1.14023E+000	3.57660E+000	10	...........
	47	0.64	9.38990E-001	5.99240E-003	0.00000E+000	5.62681E-003	3.59960E-001	-1.15023E+000	3.57660E+000	10	...........
	48	0.653333	9.44885E-001	5.99285E-003	0.00000E+000	5.66256E-003	3.59960E-001	-1.13984E+000	3.57660E+000	10	...........
	49	0.666667	9.50734E-001	5.99484E-003	0.00000E+000	5.69951E-003	3.59960E-001	-1.14043E+000	3.57660E+000	10	...........
	50	0.68	9.56510E-001	5.99837E-003	0.00000E+000	5.73750E-003	3.59960E-001	-1.15012E+000	3.57660E+000	10	...........
	51	0.693333	9.62280E-001	5.99115E-003	0.00000E+000	5.76517E-003	3.59960E-001	-1.13938E+000	3.57660E+000	10	...........
	52	0.706667	9.67973E-001	5.99691E-003	0.00000E+000	5.80485E-003	3.59960E-001	-1.14021E+000	3.57660E+000	10	...........
	53	0.72	9.73699E-001	5.99550E-003	0.00000E+000	5.83782E-003	3.59960E-001	-1.14981E+000	3.57660E+000	10	...........
	54	0.733333	9.79340E-001	5.99195E-003	0.00000E+000	5.86815E-003	3.59960E-001	-1.13927E+000	3.57660E+000	10	...........
	55	0.746667	9.84880E-001	5.99385E-003	0.00000E+000	5.90322E-003	3.59960E-001	-1.14022E+000	3.57660E+000	10	...........
	56	0.76	9.90424E-001	5.99308E-003	0.00000E+000	5.93569E-003	3.59960E-001	-1.14973E+000	3.57660E+000	10	...........
	57	0.773333	9.95906E-001	5.99592E-003	0.00000E+000	5.97137E-003	3.59960E-001	-1.13926E+000	3.57660E+000	10	...........
	58	0.778333	9.99690E-001	5.98695E-003	0.00000E+000	5.98510E-003	3.59960E-001	-1.15173E+000	3.57660E+000	10	...........
STARTTIMEOFFSET	QUANT	826.5919	Start Time Offset (s)