File: Data/CV_CRGO300517_1/PWRCCD_CRGO300517_1/CHARGE_DISCHARGE/CHARGE_#852.DTA
EXPLAIN
TAG	PWR800_CHARGE
TITLE	LABEL	PWR Cyclic Charge Discharge (Cell) - Charge Step	Test &Identifier
DATE	LABEL	22-6-2017	Date
TIME	LABEL	16:09:12	Time
NOTES	NOTES	3	&Notes...
	supercap test cell
	0.6mg
	6M KOH
PSTAT	PSTAT	IFC5000-01520	Potentiostat
CAPACITY	QUANT	1.00000E-003	Capacity (A-hr)
CELLTYPE	SELECTOR	1	&Cell Type
WORKINGCONNECTION	SELECTOR	0	&Working Lead
MAXCHARGETIME	VARIABLEANDUNITS	1.00000E+002	s	1.00000E+002	second(s)	Max &Charge Time
CHARGECURRENT	QUANT	6.00000E-003	&Charge Current (A)
VOLTAGEFINISH	TWOPARAM	F	1.00000E-003	3.60000E+003	&Voltage Finish	 I (A) < 	Max Time(s)
SAMPLETIME	QUANT	1.00000E-002	Sa&mple Period (s)
CHARGESTOPAT1	MULTIPARAM	4	1.00000E+000	Charge Stop At &1	Voltage > Limit	V
CHARGESTOPAT2	MULTIPARAM	0	0.00000E+000	Charge Stop At &2	None	N/A
AESBHCSELECTOR	TOGGLE	F	Save Both Half Cells
IRCOMP	TOGGLE	F	IR &Measure
EOC	QUANT	0	Open Circuit (V)
SEQUENCER	TOGGLE	TRUE	Run as Sequence
PSTATMODEL	IQUANT	53	Pstat Model
PSTATSECTION	LABEL	IFC5000-01520	Pstat Section
PSTATSERIALNO	LABEL	01520	Pstat Serial Number
CTRLMODE	IQUANT	0	Control Mode
ELECTROMETER	IQUANT	1	RE=0 or CS=1
IESTAB	IQUANT	0	I/E Stability
CASPEED	IQUANT	4	Control Amp Speed
CONVENTION	IQUANT	1	Current Convention
ICHRANGE	IQUANT	2	Ich Range
ICHRANGEMODE	TOGGLE	T	Ich Auto Range
ICHOFFSETENABLE	TOGGLE	F	Ich Offset Enable
ICHOFFSET	QUANT	0	Ich Offset (V)
ICHFILTER	IQUANT	1	Ich Filter
VCHRANGE	IQUANT	2	Vch Range
VCHRANGEMODE	TOGGLE	T	Vch Auto Range
VCHOFFSETENABLE	TOGGLE	F	Vch Offset Enable
VCHOFFSET	QUANT	0	Vch Offset (V)
VCHFILTER	IQUANT	1	Vch Filter
IERANGELOWERLIMIT	IQUANT	9	I/E Range Lower Limit
IERANGEMODE	TOGGLE	F	I/E AutoRange
IERANGE	IQUANT	10	I/E Range
ACHSELECT	IQUANT	1	Ach Select
ACHRANGE	IQUANT	2	Ach Range
ACHOFFSETENABLE	TOGGLE	F	Ach Offset Enable
ACHOFFSET	QUANT	0	Ach Offset (V)
ACHFILTER	IQUANT	1	Ach Filter
CABLEID	IQUANT	14	Cable ID
DCCALDATE	LABEL	20-10-2016	DC Calibration Date
ACCALDATE	LABEL	12/3/2015	AC Calibration Date
FRAMEWORKVERSION	QUANT	7.01	Framework Version
INSTRUMENTVERSION	LABEL	4.00	Instrument Version
CURVE	TABLE	54
	Pt	T	Vf	Im	Vu	Pwr	Sig	Ach	Temp	IERange	Over
	#	s	V	A	V	W	V	V	deg C	#	bits
	0	0.013333	6.50575E-001	5.99321E-003	0.00000E+000	3.89903E-003	3.59960E-001	-1.16147E+000	3.57730E+000	10	...........
	1	0.026667	6.59816E-001	5.99323E-003	0.00000E+000	3.95443E-003	3.59960E-001	-1.17174E+000	3.57730E+000	10	...........
	2	0.04	6.68344E-001	5.99618E-003	0.00000E+000	4.00751E-003	3.59960E-001	-1.16599E+000	3.57730E+000	10	...........
	3	0.053333	6.76374E-001	5.99468E-003	0.00000E+000	4.05465E-003	3.59960E-001	-1.16176E+000	3.57730E+000	10	...........
	4	0.066667	6.84123E-001	5.99220E-003	0.00000E+000	4.09940E-003	3.59960E-001	-1.17163E+000	3.57730E+000	10	...........
	5	0.08	6.91687E-001	5.99255E-003	0.00000E+000	4.14497E-003	3.59960E-001	-1.16560E+000	3.57730E+000	10	...........
	6	0.093333	6.99060E-001	5.99450E-003	0.00000E+000	4.19052E-003	3.59960E-001	-1.16135E+000	3.57730E+000	10	...........
	7	0.106667	7.06390E-001	5.99889E-003	0.00000E+000	4.23756E-003	3.59960E-001	-1.17158E+000	3.57730E+000	10	...........
	8	0.12	7.13589E-001	5.99572E-003	0.00000E+000	4.27848E-003	3.59960E-001	-1.16561E+000	3.57730E+000	10	...........
	9	0.133333	7.20763E-001	5.99940E-003	0.00000E+000	4.32415E-003	3.59960E-001	-1.16133E+000	3.57730E+000	10	...........
	10	0.146667	7.27827E-001	5.99119E-003	0.00000E+000	4.36055E-003	3.59960E-001	-1.17138E+000	3.57730E+000	10	...........
	11	0.16	7.34803E-001	5.99733E-003	0.00000E+000	4.40686E-003	3.59960E-001	-1.16581E+000	3.57730E+000	10	...........
	12	0.173333	7.41760E-001	5.99486E-003	0.00000E+000	4.44674E-003	3.59960E-001	-1.16142E+000	3.57730E+000	10	...........
	13	0.186667	7.48669E-001	5.99430E-003	0.00000E+000	4.48775E-003	3.59960E-001	-1.17154E+000	3.57730E+000	10	...........
	14	0.2	7.55546E-001	5.99351E-003	0.00000E+000	4.52837E-003	3.59960E-001	-1.16597E+000	3.57730E+000	10	...........
	15	0.213333	7.62395E-001	5.99326E-003	0.00000E+000	4.56923E-003	3.59960E-001	-1.16157E+000	3.57730E+000	10	...........
	16	0.226667	7.69209E-001	5.99168E-003	0.00000E+000	4.60886E-003	3.59960E-001	-1.17145E+000	3.57730E+000	10	...........
	17	0.24	7.76031E-001	5.99728E-003	0.00000E+000	4.65407E-003	3.59960E-001	-1.16593E+000	3.57730E+000	10	...........
	18	0.253333	7.82801E-001	5.99626E-003	0.00000E+000	4.69388E-003	3.59960E-001	-1.16162E+000	3.57730E+000	10	...........
	19	0.266667	7.89535E-001	5.99317E-003	0.00000E+000	4.73181E-003	3.59960E-001	-1.17100E+000	3.57730E+000	10	...........
	20	0.28	7.96246E-001	5.99551E-003	0.00000E+000	4.77390E-003	3.59960E-001	-1.16568E+000	3.57730E+000	10	...........
	21	0.293333	8.02981E-001	5.99738E-003	0.00000E+000	4.81578E-003	3.59960E-001	-1.16105E+000	3.57730E+000	10	...........
	22	0.306667	8.09605E-001	5.99511E-003	0.00000E+000	4.85367E-003	3.59960E-001	-1.17081E+000	3.57730E+000	10	...........
	23	0.32	8.16255E-001	5.99531E-003	0.00000E+000	4.89370E-003	3.59960E-001	-1.16566E+000	3.57730E+000	10	...........
	24	0.333333	8.22914E-001	5.99580E-003	0.00000E+000	4.93403E-003	3.59960E-001	-1.16097E+000	3.57730E+000	10	...........
	25	0.346667	8.29536E-001	6.00032E-003	0.00000E+000	4.97748E-003	3.59960E-001	-1.17072E+000	3.57730E+000	10	...........
	26	0.36	8.36038E-001	5.99283E-003	0.00000E+000	5.01024E-003	3.59960E-001	-1.16556E+000	3.57730E+000	10	...........
	27	0.373333	8.42596E-001	5.99513E-003	0.00000E+000	5.05147E-003	3.59960E-001	-1.16080E+000	3.57730E+000	10	...........
	28	0.386667	8.49162E-001	5.99906E-003	0.00000E+000	5.09417E-003	3.59960E-001	-1.17070E+000	3.57693E+000	10	...........
	29	0.4	8.55637E-001	5.99307E-003	0.00000E+000	5.12789E-003	3.59960E-001	-1.16572E+000	3.57670E+000	10	...........
	30	0.413333	8.62109E-001	5.99237E-003	0.00000E+000	5.16608E-003	3.59960E-001	-1.16069E+000	3.57670E+000	10	...........
	31	0.426667	8.68570E-001	5.99247E-003	0.00000E+000	5.20488E-003	3.59960E-001	-1.17036E+000	3.57670E+000	10	...........
	32	0.44	8.74993E-001	5.99423E-003	0.00000E+000	5.24491E-003	3.59960E-001	-1.16538E+000	3.57670E+000	10	...........
	33	0.453333	8.81426E-001	5.99532E-003	0.00000E+000	5.28444E-003	3.59960E-001	-1.16064E+000	3.57670E+000	10	...........
	34	0.466667	8.87766E-001	5.99211E-003	0.00000E+000	5.31959E-003	3.59960E-001	-1.17006E+000	3.57670E+000	10	...........
	35	0.48	8.94052E-001	5.99319E-003	0.00000E+000	5.35822E-003	3.59960E-001	-1.16568E+000	3.57670E+000	10	...........
	36	0.493333	9.00343E-001	5.99584E-003	0.00000E+000	5.39831E-003	3.59960E-001	-1.16081E+000	3.57670E+000	10	...........
	37	0.506667	9.06542E-001	5.99248E-003	0.00000E+000	5.43243E-003	3.59960E-001	-1.17020E+000	3.57670E+000	10	...........
	38	0.52	9.12770E-001	5.99251E-003	0.00000E+000	5.46978E-003	3.59960E-001	-1.16547E+000	3.57670E+000	10	...........
	39	0.533333	9.18981E-001	5.99137E-003	0.00000E+000	5.50596E-003	3.59960E-001	-1.16063E+000	3.57670E+000	10	...........
	40	0.546667	9.25126E-001	5.99616E-003	0.00000E+000	5.54720E-003	3.59960E-001	-1.17014E+000	3.57670E+000	10	...........
	41	0.56	9.31239E-001	5.99515E-003	0.00000E+000	5.58291E-003	3.59960E-001	-1.16553E+000	3.57670E+000	10	...........
	42	0.573333	9.37280E-001	5.99445E-003	0.00000E+000	5.61847E-003	3.59960E-001	-1.16071E+000	3.57670E+000	10	...........
	43	0.586667	9.43297E-001	5.99197E-003	0.00000E+000	5.65220E-003	3.59960E-001	-1.16988E+000	3.57670E+000	10	...........
	44	0.6	9.49320E-001	5.99618E-003	0.00000E+000	5.69229E-003	3.59960E-001	-1.16537E+000	3.57670E+000	10	...........
	45	0.613333	9.55219E-001	5.99641E-003	0.00000E+000	5.72788E-003	3.59960E-001	-1.16044E+000	3.57670E+000	10	...........
	46	0.626667	9.61060E-001	5.99125E-003	0.00000E+000	5.75794E-003	3.59960E-001	-1.16961E+000	3.57670E+000	10	...........
	47	0.64	9.66869E-001	5.99113E-003	0.00000E+000	5.79264E-003	3.59960E-001	-1.16540E+000	3.57670E+000	10	...........
	48	0.653333	9.72641E-001	5.99340E-003	0.00000E+000	5.82942E-003	3.59960E-001	-1.16064E+000	3.57670E+000	10	...........
	49	0.666667	9.78370E-001	5.99260E-003	0.00000E+000	5.86298E-003	3.59960E-001	-1.16977E+000	3.57670E+000	10	...........
	50	0.68	9.84018E-001	5.99158E-003	0.00000E+000	5.89582E-003	3.59960E-001	-1.16575E+000	3.57670E+000	10	...........
	51	0.693333	9.89609E-001	5.99002E-003	0.00000E+000	5.92777E-003	3.59960E-001	-1.16070E+000	3.57670E+000	10	...........
	52	0.706667	9.95187E-001	6.00033E-003	0.00000E+000	5.97145E-003	3.59960E-001	-1.16992E+000	3.57670E+000	10	...........
	53	0.713333	9.99316E-001	5.99417E-003	0.00000E+000	5.99007E-003	3.59960E-001	-1.15660E+000	3.57670E+000	10	...........
STARTTIMEOFFSET	QUANT	1378.281	Start Time Offset (s)