File: Data/CV_CRGO300517_1/PWRCCD_CRGO300517_1/CHARGE_DISCHARGE/CHARGE_#835.DTA
EXPLAIN
TAG	PWR800_CHARGE
TITLE	LABEL	PWR Cyclic Charge Discharge (Cell) - Charge Step	Test &Identifier
DATE	LABEL	22-6-2017	Date
TIME	LABEL	16:08:35	Time
NOTES	NOTES	3	&Notes...
	supercap test cell
	0.6mg
	6M KOH
PSTAT	PSTAT	IFC5000-01520	Potentiostat
CAPACITY	QUANT	1.00000E-003	Capacity (A-hr)
CELLTYPE	SELECTOR	1	&Cell Type
WORKINGCONNECTION	SELECTOR	0	&Working Lead
MAXCHARGETIME	VARIABLEANDUNITS	1.00000E+002	s	1.00000E+002	second(s)	Max &Charge Time
CHARGECURRENT	QUANT	6.00000E-003	&Charge Current (A)
VOLTAGEFINISH	TWOPARAM	F	1.00000E-003	3.60000E+003	&Voltage Finish	 I (A) < 	Max Time(s)
SAMPLETIME	QUANT	1.00000E-002	Sa&mple Period (s)
CHARGESTOPAT1	MULTIPARAM	4	1.00000E+000	Charge Stop At &1	Voltage > Limit	V
CHARGESTOPAT2	MULTIPARAM	0	0.00000E+000	Charge Stop At &2	None	N/A
AESBHCSELECTOR	TOGGLE	F	Save Both Half Cells
IRCOMP	TOGGLE	F	IR &Measure
EOC	QUANT	0	Open Circuit (V)
SEQUENCER	TOGGLE	TRUE	Run as Sequence
PSTATMODEL	IQUANT	53	Pstat Model
PSTATSECTION	LABEL	IFC5000-01520	Pstat Section
PSTATSERIALNO	LABEL	01520	Pstat Serial Number
CTRLMODE	IQUANT	0	Control Mode
ELECTROMETER	IQUANT	1	RE=0 or CS=1
IESTAB	IQUANT	0	I/E Stability
CASPEED	IQUANT	4	Control Amp Speed
CONVENTION	IQUANT	1	Current Convention
ICHRANGE	IQUANT	2	Ich Range
ICHRANGEMODE	TOGGLE	T	Ich Auto Range
ICHOFFSETENABLE	TOGGLE	F	Ich Offset Enable
ICHOFFSET	QUANT	0	Ich Offset (V)
ICHFILTER	IQUANT	1	Ich Filter
VCHRANGE	IQUANT	2	Vch Range
VCHRANGEMODE	TOGGLE	T	Vch Auto Range
VCHOFFSETENABLE	TOGGLE	F	Vch Offset Enable
VCHOFFSET	QUANT	0	Vch Offset (V)
VCHFILTER	IQUANT	1	Vch Filter
IERANGELOWERLIMIT	IQUANT	9	I/E Range Lower Limit
IERANGEMODE	TOGGLE	F	I/E AutoRange
IERANGE	IQUANT	10	I/E Range
ACHSELECT	IQUANT	1	Ach Select
ACHRANGE	IQUANT	2	Ach Range
ACHOFFSETENABLE	TOGGLE	F	Ach Offset Enable
ACHOFFSET	QUANT	0	Ach Offset (V)
ACHFILTER	IQUANT	1	Ach Filter
CABLEID	IQUANT	14	Cable ID
DCCALDATE	LABEL	20-10-2016	DC Calibration Date
ACCALDATE	LABEL	12/3/2015	AC Calibration Date
FRAMEWORKVERSION	QUANT	7.01	Framework Version
INSTRUMENTVERSION	LABEL	4.00	Instrument Version
CURVE	TABLE	54
	Pt	T	Vf	Im	Vu	Pwr	Sig	Ach	Temp	IERange	Over
	#	s	V	A	V	W	V	V	deg C	#	bits
	0	0.013333	6.50462E-001	5.99447E-003	0.00000E+000	3.89918E-003	3.59960E-001	-1.15250E+000	3.57659E+000	10	...........
	1	0.026667	6.59674E-001	5.99529E-003	0.00000E+000	3.95494E-003	3.59960E-001	-1.16329E+000	3.57670E+000	10	...........
	2	0.04	6.68203E-001	5.99333E-003	0.00000E+000	4.00476E-003	3.59960E-001	-1.15336E+000	3.57670E+000	10	...........
	3	0.053333	6.76243E-001	5.99309E-003	0.00000E+000	4.05279E-003	3.59960E-001	-1.15268E+000	3.57670E+000	10	...........
	4	0.066667	6.83977E-001	5.99371E-003	0.00000E+000	4.09956E-003	3.59960E-001	-1.16305E+000	3.57670E+000	10	...........
	5	0.08	6.91531E-001	5.99407E-003	0.00000E+000	4.14509E-003	3.59960E-001	-1.15262E+000	3.57670E+000	10	...........
	6	0.093333	6.98958E-001	5.99386E-003	0.00000E+000	4.18946E-003	3.59960E-001	-1.15223E+000	3.57670E+000	10	...........
	7	0.106667	7.06224E-001	5.99338E-003	0.00000E+000	4.23267E-003	3.59960E-001	-1.16314E+000	3.57670E+000	10	...........
	8	0.12	7.13456E-001	5.99641E-003	0.00000E+000	4.27817E-003	3.59960E-001	-1.15297E+000	3.57670E+000	10	...........
	9	0.133333	7.20614E-001	5.99087E-003	0.00000E+000	4.31711E-003	3.59960E-001	-1.15264E+000	3.57670E+000	10	...........
	10	0.146667	7.27641E-001	5.99137E-003	0.00000E+000	4.35957E-003	3.59960E-001	-1.16310E+000	3.57670E+000	10	...........
	11	0.16	7.34641E-001	5.99198E-003	0.00000E+000	4.40195E-003	3.59960E-001	-1.15273E+000	3.57670E+000	10	...........
	12	0.173333	7.41615E-001	5.99089E-003	0.00000E+000	4.44293E-003	3.59960E-001	-1.15262E+000	3.57670E+000	10	...........
	13	0.186667	7.48550E-001	5.99527E-003	0.00000E+000	4.48776E-003	3.59960E-001	-1.16348E+000	3.57670E+000	10	...........
	14	0.2	7.55419E-001	5.99154E-003	0.00000E+000	4.52612E-003	3.59960E-001	-1.15328E+000	3.57670E+000	10	...........
	15	0.213333	7.62252E-001	5.99199E-003	0.00000E+000	4.56741E-003	3.59960E-001	-1.15267E+000	3.57670E+000	10	...........
	16	0.226667	7.69096E-001	5.99651E-003	0.00000E+000	4.61190E-003	3.59960E-001	-1.16335E+000	3.57670E+000	10	...........
	17	0.24	7.75926E-001	5.99475E-003	0.00000E+000	4.65148E-003	3.59960E-001	-1.15305E+000	3.57670E+000	10	...........
	18	0.253333	7.82659E-001	5.99225E-003	0.00000E+000	4.68988E-003	3.59960E-001	-1.15295E+000	3.57670E+000	10	...........
	19	0.266667	7.89361E-001	5.98628E-003	0.00000E+000	4.72534E-003	3.59960E-001	-1.16370E+000	3.57670E+000	10	...........
	20	0.28	7.96081E-001	5.99028E-003	0.00000E+000	4.76875E-003	3.59960E-001	-1.15320E+000	3.57670E+000	10	...........
	21	0.293333	8.02771E-001	5.99464E-003	0.00000E+000	4.81232E-003	3.59960E-001	-1.15325E+000	3.57670E+000	10	...........
	22	0.306667	8.09387E-001	5.99074E-003	0.00000E+000	4.84882E-003	3.59960E-001	-1.16409E+000	3.57670E+000	10	...........
	23	0.32	8.16051E-001	5.99288E-003	0.00000E+000	4.89050E-003	3.59960E-001	-1.15380E+000	3.57670E+000	10	...........
	24	0.333333	8.22668E-001	5.98998E-003	0.00000E+000	4.92777E-003	3.59960E-001	-1.15362E+000	3.57670E+000	10	...........
	25	0.346667	8.29246E-001	5.99452E-003	0.00000E+000	4.97093E-003	3.59960E-001	-1.16428E+000	3.57670E+000	10	...........
	26	0.36	8.35788E-001	5.99432E-003	0.00000E+000	5.00999E-003	3.59960E-001	-1.15372E+000	3.57670E+000	10	...........
	27	0.373333	8.42317E-001	5.99270E-003	0.00000E+000	5.04775E-003	3.59960E-001	-1.15369E+000	3.57670E+000	10	...........
	28	0.386667	8.48847E-001	6.00282E-003	0.00000E+000	5.09548E-003	3.59960E-001	-1.16439E+000	3.57670E+000	10	...........
	29	0.4	8.55345E-001	5.99410E-003	0.00000E+000	5.12703E-003	3.59960E-001	-1.15393E+000	3.57670E+000	10	...........
	30	0.413333	8.61797E-001	5.99216E-003	0.00000E+000	5.16403E-003	3.59960E-001	-1.15358E+000	3.57670E+000	10	...........
	31	0.426667	8.68260E-001	5.99936E-003	0.00000E+000	5.20901E-003	3.59960E-001	-1.16445E+000	3.57670E+000	10	...........
	32	0.44	8.74614E-001	5.99134E-003	0.00000E+000	5.24011E-003	3.59960E-001	-1.15392E+000	3.57670E+000	10	...........
	33	0.453333	8.81014E-001	5.99251E-003	0.00000E+000	5.27948E-003	3.59960E-001	-1.15437E+000	3.57670E+000	10	...........
	34	0.466667	8.87384E-001	5.99264E-003	0.00000E+000	5.31777E-003	3.59960E-001	-1.16491E+000	3.57670E+000	10	...........
	35	0.48	8.93717E-001	5.99777E-003	0.00000E+000	5.36031E-003	3.59960E-001	-1.15421E+000	3.57670E+000	10	...........
	36	0.493333	8.99984E-001	5.99323E-003	0.00000E+000	5.39381E-003	3.59960E-001	-1.15441E+000	3.57670E+000	10	...........
	37	0.506667	9.06274E-001	5.99437E-003	0.00000E+000	5.43254E-003	3.59960E-001	-1.16487E+000	3.57670E+000	10	...........
	38	0.52	9.12489E-001	5.99012E-003	0.00000E+000	5.46592E-003	3.59960E-001	-1.15443E+000	3.57670E+000	10	...........
	39	0.533333	9.18664E-001	5.98986E-003	0.00000E+000	5.50267E-003	3.59960E-001	-1.15468E+000	3.57670E+000	10	...........
	40	0.546667	9.24802E-001	5.98750E-003	0.00000E+000	5.53726E-003	3.59960E-001	-1.16510E+000	3.57670E+000	10	...........
	41	0.56	9.30937E-001	5.99487E-003	0.00000E+000	5.58084E-003	3.59960E-001	-1.15440E+000	3.57670E+000	10	...........
	42	0.573333	9.36936E-001	5.99340E-003	0.00000E+000	5.61543E-003	3.59960E-001	-1.15485E+000	3.57670E+000	10	...........
	43	0.586667	9.42964E-001	5.99523E-003	0.00000E+000	5.65329E-003	3.59960E-001	-1.16521E+000	3.57670E+000	10	...........
	44	0.6	9.48956E-001	5.99208E-003	0.00000E+000	5.68622E-003	3.59960E-001	-1.15474E+000	3.57670E+000	10	...........
	45	0.613333	9.54813E-001	5.99055E-003	0.00000E+000	5.71986E-003	3.59960E-001	-1.15477E+000	3.57670E+000	10	...........
	46	0.626667	9.60669E-001	5.99246E-003	0.00000E+000	5.75677E-003	3.59960E-001	-1.16511E+000	3.57670E+000	10	...........
	47	0.64	9.66440E-001	5.99506E-003	0.00000E+000	5.79387E-003	3.59960E-001	-1.15449E+000	3.57670E+000	10	...........
	48	0.653333	9.72247E-001	5.99213E-003	0.00000E+000	5.82584E-003	3.59960E-001	-1.15507E+000	3.57670E+000	10	...........
	49	0.666667	9.77965E-001	5.98967E-003	0.00000E+000	5.85769E-003	3.59960E-001	-1.16526E+000	3.57670E+000	10	...........
	50	0.68	9.83647E-001	5.99418E-003	0.00000E+000	5.89615E-003	3.59960E-001	-1.15463E+000	3.57670E+000	10	...........
	51	0.693333	9.89250E-001	5.99367E-003	0.00000E+000	5.92923E-003	3.59960E-001	-1.15492E+000	3.57670E+000	10	...........
	52	0.706667	9.94785E-001	5.99357E-003	0.00000E+000	5.96231E-003	3.59960E-001	-1.16496E+000	3.57670E+000	10	...........
	53	0.713333	9.98964E-001	5.99629E-003	0.00000E+000	5.99008E-003	3.59960E-001	-1.14448E+000	3.57670E+000	10	...........
STARTTIMEOFFSET	QUANT	1354.122	Start Time Offset (s)