File: Data/CV_CRGO300517_1/PWRCCD_CRGO300517_1/CHARGE_DISCHARGE/CHARGE_#728.DTA
EXPLAIN
TAG	PWR800_CHARGE
TITLE	LABEL	PWR Cyclic Charge Discharge (Cell) - Charge Step	Test &Identifier
DATE	LABEL	22-6-2017	Date
TIME	LABEL	16:04:36	Time
NOTES	NOTES	3	&Notes...
	supercap test cell
	0.6mg
	6M KOH
PSTAT	PSTAT	IFC5000-01520	Potentiostat
CAPACITY	QUANT	1.00000E-003	Capacity (A-hr)
CELLTYPE	SELECTOR	1	&Cell Type
WORKINGCONNECTION	SELECTOR	0	&Working Lead
MAXCHARGETIME	VARIABLEANDUNITS	1.00000E+002	s	1.00000E+002	second(s)	Max &Charge Time
CHARGECURRENT	QUANT	6.00000E-003	&Charge Current (A)
VOLTAGEFINISH	TWOPARAM	F	1.00000E-003	3.60000E+003	&Voltage Finish	 I (A) < 	Max Time(s)
SAMPLETIME	QUANT	1.00000E-002	Sa&mple Period (s)
CHARGESTOPAT1	MULTIPARAM	4	1.00000E+000	Charge Stop At &1	Voltage > Limit	V
CHARGESTOPAT2	MULTIPARAM	0	0.00000E+000	Charge Stop At &2	None	N/A
AESBHCSELECTOR	TOGGLE	F	Save Both Half Cells
IRCOMP	TOGGLE	F	IR &Measure
EOC	QUANT	0	Open Circuit (V)
SEQUENCER	TOGGLE	TRUE	Run as Sequence
PSTATMODEL	IQUANT	53	Pstat Model
PSTATSECTION	LABEL	IFC5000-01520	Pstat Section
PSTATSERIALNO	LABEL	01520	Pstat Serial Number
CTRLMODE	IQUANT	0	Control Mode
ELECTROMETER	IQUANT	1	RE=0 or CS=1
IESTAB	IQUANT	0	I/E Stability
CASPEED	IQUANT	4	Control Amp Speed
CONVENTION	IQUANT	1	Current Convention
ICHRANGE	IQUANT	2	Ich Range
ICHRANGEMODE	TOGGLE	T	Ich Auto Range
ICHOFFSETENABLE	TOGGLE	F	Ich Offset Enable
ICHOFFSET	QUANT	0	Ich Offset (V)
ICHFILTER	IQUANT	1	Ich Filter
VCHRANGE	IQUANT	2	Vch Range
VCHRANGEMODE	TOGGLE	T	Vch Auto Range
VCHOFFSETENABLE	TOGGLE	F	Vch Offset Enable
VCHOFFSET	QUANT	0	Vch Offset (V)
VCHFILTER	IQUANT	1	Vch Filter
IERANGELOWERLIMIT	IQUANT	9	I/E Range Lower Limit
IERANGEMODE	TOGGLE	F	I/E AutoRange
IERANGE	IQUANT	10	I/E Range
ACHSELECT	IQUANT	1	Ach Select
ACHRANGE	IQUANT	2	Ach Range
ACHOFFSETENABLE	TOGGLE	F	Ach Offset Enable
ACHOFFSET	QUANT	0	Ach Offset (V)
ACHFILTER	IQUANT	1	Ach Filter
CABLEID	IQUANT	14	Cable ID
DCCALDATE	LABEL	20-10-2016	DC Calibration Date
ACCALDATE	LABEL	12/3/2015	AC Calibration Date
FRAMEWORKVERSION	QUANT	7.01	Framework Version
INSTRUMENTVERSION	LABEL	4.00	Instrument Version
CURVE	TABLE	55
	Pt	T	Vf	Im	Vu	Pwr	Sig	Ach	Temp	IERange	Over
	#	s	V	A	V	W	V	V	deg C	#	bits
	0	0.013333	6.44910E-001	5.99399E-003	0.00000E+000	3.86559E-003	3.59960E-001	-1.15464E+000	3.57780E+000	10	...........
	1	0.026667	6.54032E-001	5.99367E-003	0.00000E+000	3.92005E-003	3.59960E-001	-1.15855E+000	3.57780E+000	10	...........
	2	0.04	6.62429E-001	5.99573E-003	0.00000E+000	3.97175E-003	3.59960E-001	-1.16467E+000	3.57780E+000	10	...........
	3	0.053333	6.70416E-001	5.99099E-003	0.00000E+000	4.01645E-003	3.59960E-001	-1.15506E+000	3.57780E+000	10	...........
	4	0.066667	6.78124E-001	5.99592E-003	0.00000E+000	4.06598E-003	3.59960E-001	-1.15871E+000	3.57780E+000	10	...........
	5	0.08	6.85588E-001	5.99700E-003	0.00000E+000	4.11147E-003	3.59960E-001	-1.16434E+000	3.57780E+000	10	...........
	6	0.093333	6.92907E-001	5.99380E-003	0.00000E+000	4.15315E-003	3.59960E-001	-1.15485E+000	3.57780E+000	10	...........
	7	0.106667	7.00109E-001	5.99599E-003	0.00000E+000	4.19785E-003	3.59960E-001	-1.15886E+000	3.57780E+000	10	...........
	8	0.12	7.07243E-001	5.99975E-003	0.00000E+000	4.24328E-003	3.59960E-001	-1.16450E+000	3.57780E+000	10	...........
	9	0.133333	7.14260E-001	5.99312E-003	0.00000E+000	4.28065E-003	3.59960E-001	-1.15468E+000	3.57780E+000	10	...........
	10	0.146667	7.21265E-001	5.99555E-003	0.00000E+000	4.32438E-003	3.59960E-001	-1.15864E+000	3.57780E+000	10	...........
	11	0.16	7.28181E-001	5.99403E-003	0.00000E+000	4.36474E-003	3.59960E-001	-1.16428E+000	3.57780E+000	10	...........
	12	0.173333	7.35071E-001	5.99597E-003	0.00000E+000	4.40747E-003	3.59960E-001	-1.15438E+000	3.57780E+000	10	...........
	13	0.186667	7.41937E-001	5.99465E-003	0.00000E+000	4.44765E-003	3.59960E-001	-1.15845E+000	3.57780E+000	10	...........
	14	0.2	7.48757E-001	5.99569E-003	0.00000E+000	4.48932E-003	3.59960E-001	-1.16401E+000	3.57780E+000	10	...........
	15	0.213333	7.55525E-001	5.99213E-003	0.00000E+000	4.52721E-003	3.59960E-001	-1.15430E+000	3.57780E+000	10	...........
	16	0.226667	7.62280E-001	5.99507E-003	0.00000E+000	4.56992E-003	3.59960E-001	-1.15855E+000	3.57780E+000	10	...........
	17	0.24	7.69016E-001	5.98896E-003	0.00000E+000	4.60561E-003	3.59960E-001	-1.16400E+000	3.57780E+000	10	...........
	18	0.253333	7.75701E-001	5.98739E-003	0.00000E+000	4.64442E-003	3.59960E-001	-1.15441E+000	3.57780E+000	10	...........
	19	0.266667	7.82387E-001	5.99108E-003	0.00000E+000	4.68734E-003	3.59960E-001	-1.15842E+000	3.57780E+000	10	...........
	20	0.28	7.89037E-001	5.99762E-003	0.00000E+000	4.73235E-003	3.59960E-001	-1.16383E+000	3.57780E+000	10	...........
	21	0.293333	7.95713E-001	5.98869E-003	0.00000E+000	4.76528E-003	3.59960E-001	-1.15436E+000	3.57780E+000	10	...........
	22	0.306667	8.02360E-001	5.99493E-003	0.00000E+000	4.81009E-003	3.59960E-001	-1.15867E+000	3.57780E+000	10	...........
	23	0.32	8.08943E-001	5.99728E-003	0.00000E+000	4.85146E-003	3.59960E-001	-1.16396E+000	3.57780E+000	10	...........
	24	0.333333	8.15521E-001	5.99084E-003	0.00000E+000	4.88565E-003	3.59960E-001	-1.15427E+000	3.57780E+000	10	...........
	25	0.346667	8.22061E-001	5.99475E-003	0.00000E+000	4.92805E-003	3.59960E-001	-1.15828E+000	3.57780E+000	10	...........
	26	0.36	8.28604E-001	5.99174E-003	0.00000E+000	4.96478E-003	3.59960E-001	-1.16372E+000	3.57780E+000	10	...........
	27	0.373333	8.35097E-001	5.99583E-003	0.00000E+000	5.00709E-003	3.59960E-001	-1.15455E+000	3.57780E+000	10	...........
	28	0.386667	8.41504E-001	5.99634E-003	0.00000E+000	5.04594E-003	3.59960E-001	-1.15863E+000	3.57780E+000	10	...........
	29	0.4	8.48000E-001	5.99445E-003	0.00000E+000	5.08329E-003	3.59960E-001	-1.16382E+000	3.57780E+000	10	...........
	30	0.413333	8.54454E-001	5.99069E-003	0.00000E+000	5.11877E-003	3.59960E-001	-1.15431E+000	3.57780E+000	10	...........
	31	0.426667	8.60860E-001	5.99448E-003	0.00000E+000	5.16041E-003	3.59960E-001	-1.15860E+000	3.57780E+000	10	...........
	32	0.44	8.67240E-001	5.99748E-003	0.00000E+000	5.20126E-003	3.59960E-001	-1.16364E+000	3.57780E+000	10	...........
	33	0.453333	8.73661E-001	5.99067E-003	0.00000E+000	5.23382E-003	3.59960E-001	-1.15426E+000	3.57780E+000	10	...........
	34	0.466667	8.80006E-001	5.99100E-003	0.00000E+000	5.27211E-003	3.59960E-001	-1.15861E+000	3.57780E+000	10	...........
	35	0.48	8.86346E-001	5.99283E-003	0.00000E+000	5.31172E-003	3.59960E-001	-1.16365E+000	3.57780E+000	10	...........
	36	0.493333	8.92607E-001	5.99578E-003	0.00000E+000	5.35188E-003	3.59960E-001	-1.15386E+000	3.57780E+000	10	...........
	37	0.506667	8.98838E-001	5.99356E-003	0.00000E+000	5.38724E-003	3.59960E-001	-1.15829E+000	3.57780E+000	10	...........
	38	0.52	9.05066E-001	5.99292E-003	0.00000E+000	5.42399E-003	3.59960E-001	-1.16309E+000	3.57780E+000	10	...........
	39	0.533333	9.11234E-001	5.99370E-003	0.00000E+000	5.46166E-003	3.59960E-001	-1.15388E+000	3.57780E+000	10	...........
	40	0.546667	9.17383E-001	6.00025E-003	0.00000E+000	5.50453E-003	3.59960E-001	-1.15839E+000	3.57780E+000	10	...........
	41	0.56	9.23547E-001	5.99189E-003	0.00000E+000	5.53379E-003	3.59960E-001	-1.16308E+000	3.57780E+000	10	...........
	42	0.573333	9.29562E-001	5.99287E-003	0.00000E+000	5.57075E-003	3.59960E-001	-1.15401E+000	3.57780E+000	10	...........
	43	0.586667	9.35611E-001	5.99056E-003	0.00000E+000	5.60483E-003	3.59960E-001	-1.15847E+000	3.57780E+000	10	...........
	44	0.6	9.41577E-001	5.99499E-003	0.00000E+000	5.64475E-003	3.59960E-001	-1.16301E+000	3.57780E+000	10	...........
	45	0.613333	9.47567E-001	5.99636E-003	0.00000E+000	5.68195E-003	3.59960E-001	-1.15379E+000	3.57780E+000	10	...........
	46	0.626667	9.53503E-001	5.99472E-003	0.00000E+000	5.71598E-003	3.59960E-001	-1.15818E+000	3.57780E+000	10	...........
	47	0.64	9.59356E-001	5.99591E-003	0.00000E+000	5.75221E-003	3.59960E-001	-1.16301E+000	3.57780E+000	10	...........
	48	0.653333	9.65161E-001	5.99595E-003	0.00000E+000	5.78706E-003	3.59960E-001	-1.15383E+000	3.57780E+000	10	...........
	49	0.666667	9.70941E-001	5.99443E-003	0.00000E+000	5.82023E-003	3.59960E-001	-1.15826E+000	3.57780E+000	10	...........
	50	0.68	9.76684E-001	5.99458E-003	0.00000E+000	5.85482E-003	3.59960E-001	-1.16277E+000	3.57780E+000	10	...........
	51	0.693333	9.82316E-001	5.99507E-003	0.00000E+000	5.88906E-003	3.59960E-001	-1.15394E+000	3.57780E+000	10	...........
	52	0.706667	9.87914E-001	5.99684E-003	0.00000E+000	5.92436E-003	3.59960E-001	-1.15863E+000	3.57780E+000	10	...........
	53	0.72	9.93475E-001	5.99163E-003	0.00000E+000	5.95254E-003	3.59960E-001	-1.16312E+000	3.57780E+000	10	...........
	54	0.73	9.98335E-001	5.99164E-003	0.00000E+000	5.98166E-003	3.59960E-001	-1.14969E+000	3.57780E+000	10	...........
STARTTIMEOFFSET	QUANT	1200.129	Start Time Offset (s)