File: Data/CV_CRGO300517_1/PWRCCD_CRGO300517_1/CHARGE_DISCHARGE/CHARGE_#434.DTA
EXPLAIN
TAG	PWR800_CHARGE
TITLE	LABEL	PWR Cyclic Charge Discharge (Cell) - Charge Step	Test &Identifier
DATE	LABEL	22-6-2017	Date
TIME	LABEL	15:53:19	Time
NOTES	NOTES	3	&Notes...
	supercap test cell
	0.6mg
	6M KOH
PSTAT	PSTAT	IFC5000-01520	Potentiostat
CAPACITY	QUANT	1.00000E-003	Capacity (A-hr)
CELLTYPE	SELECTOR	1	&Cell Type
WORKINGCONNECTION	SELECTOR	0	&Working Lead
MAXCHARGETIME	VARIABLEANDUNITS	1.00000E+002	s	1.00000E+002	second(s)	Max &Charge Time
CHARGECURRENT	QUANT	6.00000E-003	&Charge Current (A)
VOLTAGEFINISH	TWOPARAM	F	1.00000E-003	3.60000E+003	&Voltage Finish	 I (A) < 	Max Time(s)
SAMPLETIME	QUANT	1.00000E-002	Sa&mple Period (s)
CHARGESTOPAT1	MULTIPARAM	4	1.00000E+000	Charge Stop At &1	Voltage > Limit	V
CHARGESTOPAT2	MULTIPARAM	0	0.00000E+000	Charge Stop At &2	None	N/A
AESBHCSELECTOR	TOGGLE	F	Save Both Half Cells
IRCOMP	TOGGLE	F	IR &Measure
EOC	QUANT	0	Open Circuit (V)
SEQUENCER	TOGGLE	TRUE	Run as Sequence
PSTATMODEL	IQUANT	53	Pstat Model
PSTATSECTION	LABEL	IFC5000-01520	Pstat Section
PSTATSERIALNO	LABEL	01520	Pstat Serial Number
CTRLMODE	IQUANT	0	Control Mode
ELECTROMETER	IQUANT	1	RE=0 or CS=1
IESTAB	IQUANT	0	I/E Stability
CASPEED	IQUANT	4	Control Amp Speed
CONVENTION	IQUANT	1	Current Convention
ICHRANGE	IQUANT	2	Ich Range
ICHRANGEMODE	TOGGLE	T	Ich Auto Range
ICHOFFSETENABLE	TOGGLE	F	Ich Offset Enable
ICHOFFSET	QUANT	0	Ich Offset (V)
ICHFILTER	IQUANT	1	Ich Filter
VCHRANGE	IQUANT	2	Vch Range
VCHRANGEMODE	TOGGLE	T	Vch Auto Range
VCHOFFSETENABLE	TOGGLE	F	Vch Offset Enable
VCHOFFSET	QUANT	0	Vch Offset (V)
VCHFILTER	IQUANT	1	Vch Filter
IERANGELOWERLIMIT	IQUANT	9	I/E Range Lower Limit
IERANGEMODE	TOGGLE	F	I/E AutoRange
IERANGE	IQUANT	10	I/E Range
ACHSELECT	IQUANT	1	Ach Select
ACHRANGE	IQUANT	2	Ach Range
ACHOFFSETENABLE	TOGGLE	F	Ach Offset Enable
ACHOFFSET	QUANT	0	Ach Offset (V)
ACHFILTER	IQUANT	1	Ach Filter
CABLEID	IQUANT	14	Cable ID
DCCALDATE	LABEL	20-10-2016	DC Calibration Date
ACCALDATE	LABEL	12/3/2015	AC Calibration Date
FRAMEWORKVERSION	QUANT	7.01	Framework Version
INSTRUMENTVERSION	LABEL	4.00	Instrument Version
CURVE	TABLE	60
	Pt	T	Vf	Im	Vu	Pwr	Sig	Ach	Temp	IERange	Over
	#	s	V	A	V	W	V	V	deg C	#	bits
	0	0.013333	6.27109E-001	5.99843E-003	0.00000E+000	3.76167E-003	3.59960E-001	-1.14309E+000	3.57670E+000	10	...........
	1	0.026667	6.35894E-001	5.99770E-003	0.00000E+000	3.81391E-003	3.59960E-001	-1.13262E+000	3.57670E+000	10	...........
	2	0.04	6.43965E-001	5.99636E-003	0.00000E+000	3.86144E-003	3.59960E-001	-1.13231E+000	3.57670E+000	10	...........
	3	0.053333	6.51630E-001	5.99273E-003	0.00000E+000	3.90504E-003	3.59960E-001	-1.14286E+000	3.57670E+000	10	...........
	4	0.066667	6.59044E-001	5.99310E-003	0.00000E+000	3.94972E-003	3.59960E-001	-1.13250E+000	3.57670E+000	10	...........
	5	0.08	6.66301E-001	5.99822E-003	0.00000E+000	3.99662E-003	3.59960E-001	-1.13248E+000	3.57670E+000	10	...........
	6	0.093333	6.73352E-001	5.99182E-003	0.00000E+000	4.03460E-003	3.59960E-001	-1.14259E+000	3.57670E+000	10	...........
	7	0.106667	6.80317E-001	5.99277E-003	0.00000E+000	4.07698E-003	3.59960E-001	-1.13197E+000	3.57670E+000	10	...........
	8	0.12	6.87153E-001	5.99460E-003	0.00000E+000	4.11921E-003	3.59960E-001	-1.13246E+000	3.57670E+000	10	...........
	9	0.133333	6.93950E-001	5.99347E-003	0.00000E+000	4.15916E-003	3.59960E-001	-1.14284E+000	3.57670E+000	10	...........
	10	0.146667	7.00615E-001	5.99147E-003	0.00000E+000	4.19771E-003	3.59960E-001	-1.13237E+000	3.57670E+000	10	...........
	11	0.16	7.07323E-001	5.99474E-003	0.00000E+000	4.24022E-003	3.59960E-001	-1.13258E+000	3.57670E+000	10	...........
	12	0.173333	7.13963E-001	5.99298E-003	0.00000E+000	4.27877E-003	3.59960E-001	-1.14291E+000	3.57670E+000	10	...........
	13	0.186667	7.20596E-001	5.99500E-003	0.00000E+000	4.31997E-003	3.59960E-001	-1.13231E+000	3.57670E+000	10	...........
	14	0.2	7.27163E-001	5.99867E-003	0.00000E+000	4.36201E-003	3.59960E-001	-1.13268E+000	3.57670E+000	10	...........
	15	0.213333	7.33661E-001	5.98921E-003	0.00000E+000	4.39405E-003	3.59960E-001	-1.14278E+000	3.57670E+000	10	...........
	16	0.226667	7.40218E-001	5.98975E-003	0.00000E+000	4.43372E-003	3.59960E-001	-1.13201E+000	3.57670E+000	10	...........
	17	0.24	7.46739E-001	5.99534E-003	0.00000E+000	4.47695E-003	3.59960E-001	-1.13253E+000	3.57670E+000	10	...........
	18	0.253333	7.53205E-001	5.99286E-003	0.00000E+000	4.51386E-003	3.59960E-001	-1.14239E+000	3.57670E+000	10	...........
	19	0.266667	7.59679E-001	5.99593E-003	0.00000E+000	4.55498E-003	3.59960E-001	-1.13190E+000	3.57670E+000	10	...........
	20	0.28	7.66113E-001	5.99272E-003	0.00000E+000	4.59110E-003	3.59960E-001	-1.13246E+000	3.57670E+000	10	...........
	21	0.293333	7.72581E-001	5.99246E-003	0.00000E+000	4.62966E-003	3.59960E-001	-1.14237E+000	3.57670E+000	10	...........
	22	0.306667	7.78985E-001	5.98724E-003	0.00000E+000	4.66397E-003	3.59960E-001	-1.13151E+000	3.57670E+000	10	...........
	23	0.32	7.85410E-001	5.99796E-003	0.00000E+000	4.71086E-003	3.59960E-001	-1.13252E+000	3.57670E+000	10	...........
	24	0.333333	7.91796E-001	5.99378E-003	0.00000E+000	4.74585E-003	3.59960E-001	-1.14230E+000	3.57670E+000	10	...........
	25	0.346667	7.98166E-001	5.99233E-003	0.00000E+000	4.78287E-003	3.59960E-001	-1.13168E+000	3.57670E+000	10	...........
	26	0.36	8.04524E-001	5.99334E-003	0.00000E+000	4.82179E-003	3.59960E-001	-1.13236E+000	3.57670E+000	10	...........
	27	0.373333	8.10837E-001	5.99311E-003	0.00000E+000	4.85944E-003	3.59960E-001	-1.14207E+000	3.57670E+000	10	...........
	28	0.386667	8.17170E-001	5.99323E-003	0.00000E+000	4.89749E-003	3.59960E-001	-1.13153E+000	3.57670E+000	10	...........
	29	0.4	8.23492E-001	5.99220E-003	0.00000E+000	4.93453E-003	3.59960E-001	-1.13256E+000	3.57670E+000	10	...........
	30	0.413333	8.29762E-001	5.99584E-003	0.00000E+000	4.97512E-003	3.59960E-001	-1.14204E+000	3.57670E+000	10	...........
	31	0.426667	8.36080E-001	5.99695E-003	0.00000E+000	5.01393E-003	3.59960E-001	-1.13142E+000	3.57670E+000	10	...........
	32	0.44	8.42358E-001	5.99620E-003	0.00000E+000	5.05095E-003	3.59960E-001	-1.13238E+000	3.57670E+000	10	...........
	33	0.453333	8.48668E-001	5.99745E-003	0.00000E+000	5.08985E-003	3.59960E-001	-1.14213E+000	3.57670E+000	10	...........
	34	0.466667	8.54895E-001	5.99310E-003	0.00000E+000	5.12348E-003	3.59960E-001	-1.13164E+000	3.57670E+000	10	...........
	35	0.48	8.61153E-001	5.99491E-003	0.00000E+000	5.16253E-003	3.59960E-001	-1.13271E+000	3.57670E+000	10	...........
	36	0.493333	8.67315E-001	5.99084E-003	0.00000E+000	5.19594E-003	3.59960E-001	-1.14197E+000	3.57670E+000	10	...........
	37	0.506667	8.73578E-001	5.99300E-003	0.00000E+000	5.23535E-003	3.59960E-001	-1.13127E+000	3.57670E+000	10	...........
	38	0.52	8.79747E-001	5.99562E-003	0.00000E+000	5.27463E-003	3.59960E-001	-1.13275E+000	3.57670E+000	10	...........
	39	0.533333	8.85926E-001	5.99513E-003	0.00000E+000	5.31124E-003	3.59960E-001	-1.14214E+000	3.57670E+000	10	...........
	40	0.546667	8.92015E-001	5.99404E-003	0.00000E+000	5.34678E-003	3.59960E-001	-1.13139E+000	3.57670E+000	10	...........
	41	0.56	8.98094E-001	5.99199E-003	0.00000E+000	5.38137E-003	3.59960E-001	-1.13253E+000	3.57670E+000	10	...........
	42	0.573333	9.04164E-001	5.99137E-003	0.00000E+000	5.41718E-003	3.59960E-001	-1.14124E+000	3.57670E+000	10	...........
	43	0.586667	9.10245E-001	5.99451E-003	0.00000E+000	5.45647E-003	3.59960E-001	-1.13086E+000	3.57670E+000	10	...........
	44	0.6	9.16279E-001	5.99317E-003	0.00000E+000	5.49141E-003	3.59960E-001	-1.13231E+000	3.57670E+000	10	...........
	45	0.613333	9.22315E-001	5.99153E-003	0.00000E+000	5.52608E-003	3.59960E-001	-1.14152E+000	3.57670E+000	10	...........
	46	0.626667	9.28276E-001	5.99396E-003	0.00000E+000	5.56405E-003	3.59960E-001	-1.13084E+000	3.57670E+000	10	...........
	47	0.64	9.34150E-001	5.99258E-003	0.00000E+000	5.59797E-003	3.59960E-001	-1.13230E+000	3.57670E+000	10	...........
	48	0.653333	9.40028E-001	5.99687E-003	0.00000E+000	5.63722E-003	3.59960E-001	-1.14137E+000	3.57670E+000	10	...........
	49	0.666667	9.45904E-001	5.99428E-003	0.00000E+000	5.67001E-003	3.59960E-001	-1.13082E+000	3.57670E+000	10	...........
	50	0.68	9.51720E-001	5.99909E-003	0.00000E+000	5.70945E-003	3.59960E-001	-1.13248E+000	3.57670E+000	10	...........
	51	0.693333	9.57480E-001	5.99346E-003	0.00000E+000	5.73861E-003	3.59960E-001	-1.14128E+000	3.57670E+000	10	...........
	52	0.706667	9.63195E-001	5.99741E-003	0.00000E+000	5.77668E-003	3.59960E-001	-1.13056E+000	3.57670E+000	10	...........
	53	0.72	9.68875E-001	5.99066E-003	0.00000E+000	5.80420E-003	3.59960E-001	-1.13225E+000	3.57670E+000	10	...........
	54	0.733333	9.74571E-001	5.99667E-003	0.00000E+000	5.84418E-003	3.59960E-001	-1.14102E+000	3.57670E+000	10	...........
	55	0.746667	9.80189E-001	5.99719E-003	0.00000E+000	5.87838E-003	3.59960E-001	-1.13067E+000	3.57670E+000	10	...........
	56	0.76	9.85719E-001	5.99707E-003	0.00000E+000	5.91142E-003	3.59960E-001	-1.13237E+000	3.57670E+000	10	...........
	57	0.773333	9.91196E-001	6.00073E-003	0.00000E+000	5.94790E-003	3.59960E-001	-1.14106E+000	3.57670E+000	10	...........
	58	0.786667	9.96656E-001	5.99524E-003	0.00000E+000	5.97520E-003	3.59960E-001	-1.13053E+000	3.57670E+000	10	...........
	59	0.79	1.00002E+000	5.98561E-003	0.00000E+000	5.98576E-003	3.59960E-001	-1.14414E+000	3.57670E+000	10	...........
STARTTIMEOFFSET	QUANT	756.3766	Start Time Offset (s)