File: Data/CV_CRGO300517_1/PWRCCD_CRGO300517_1/CHARGE_DISCHARGE/CHARGE_#791.DTA
EXPLAIN
TAG	PWR800_CHARGE
TITLE	LABEL	PWR Cyclic Charge Discharge (Cell) - Charge Step	Test &Identifier
DATE	LABEL	22-6-2017	Date
TIME	LABEL	16:06:56	Time
NOTES	NOTES	3	&Notes...
	supercap test cell
	0.6mg
	6M KOH
PSTAT	PSTAT	IFC5000-01520	Potentiostat
CAPACITY	QUANT	1.00000E-003	Capacity (A-hr)
CELLTYPE	SELECTOR	1	&Cell Type
WORKINGCONNECTION	SELECTOR	0	&Working Lead
MAXCHARGETIME	VARIABLEANDUNITS	1.00000E+002	s	1.00000E+002	second(s)	Max &Charge Time
CHARGECURRENT	QUANT	6.00000E-003	&Charge Current (A)
VOLTAGEFINISH	TWOPARAM	F	1.00000E-003	3.60000E+003	&Voltage Finish	 I (A) < 	Max Time(s)
SAMPLETIME	QUANT	1.00000E-002	Sa&mple Period (s)
CHARGESTOPAT1	MULTIPARAM	4	1.00000E+000	Charge Stop At &1	Voltage > Limit	V
CHARGESTOPAT2	MULTIPARAM	0	0.00000E+000	Charge Stop At &2	None	N/A
AESBHCSELECTOR	TOGGLE	F	Save Both Half Cells
IRCOMP	TOGGLE	F	IR &Measure
EOC	QUANT	0	Open Circuit (V)
SEQUENCER	TOGGLE	TRUE	Run as Sequence
PSTATMODEL	IQUANT	53	Pstat Model
PSTATSECTION	LABEL	IFC5000-01520	Pstat Section
PSTATSERIALNO	LABEL	01520	Pstat Serial Number
CTRLMODE	IQUANT	0	Control Mode
ELECTROMETER	IQUANT	1	RE=0 or CS=1
IESTAB	IQUANT	0	I/E Stability
CASPEED	IQUANT	4	Control Amp Speed
CONVENTION	IQUANT	1	Current Convention
ICHRANGE	IQUANT	2	Ich Range
ICHRANGEMODE	TOGGLE	T	Ich Auto Range
ICHOFFSETENABLE	TOGGLE	F	Ich Offset Enable
ICHOFFSET	QUANT	0	Ich Offset (V)
ICHFILTER	IQUANT	1	Ich Filter
VCHRANGE	IQUANT	2	Vch Range
VCHRANGEMODE	TOGGLE	T	Vch Auto Range
VCHOFFSETENABLE	TOGGLE	F	Vch Offset Enable
VCHOFFSET	QUANT	0	Vch Offset (V)
VCHFILTER	IQUANT	1	Vch Filter
IERANGELOWERLIMIT	IQUANT	9	I/E Range Lower Limit
IERANGEMODE	TOGGLE	F	I/E AutoRange
IERANGE	IQUANT	10	I/E Range
ACHSELECT	IQUANT	1	Ach Select
ACHRANGE	IQUANT	2	Ach Range
ACHOFFSETENABLE	TOGGLE	F	Ach Offset Enable
ACHOFFSET	QUANT	0	Ach Offset (V)
ACHFILTER	IQUANT	1	Ach Filter
CABLEID	IQUANT	14	Cable ID
DCCALDATE	LABEL	20-10-2016	DC Calibration Date
ACCALDATE	LABEL	12/3/2015	AC Calibration Date
FRAMEWORKVERSION	QUANT	7.01	Framework Version
INSTRUMENTVERSION	LABEL	4.00	Instrument Version
CURVE	TABLE	54
	Pt	T	Vf	Im	Vu	Pwr	Sig	Ach	Temp	IERange	Over
	#	s	V	A	V	W	V	V	deg C	#	bits
	0	0.013333	6.48454E-001	5.99708E-003	0.00000E+000	3.88883E-003	3.59960E-001	-1.16416E+000	3.57640E+000	10	...........
	1	0.026667	6.57621E-001	5.99479E-003	0.00000E+000	3.94230E-003	3.59960E-001	-1.17454E+000	3.57640E+000	10	...........
	2	0.04	6.66032E-001	5.99631E-003	0.00000E+000	3.99373E-003	3.59960E-001	-1.16406E+000	3.57640E+000	10	...........
	3	0.053333	6.74046E-001	5.99901E-003	0.00000E+000	4.04361E-003	3.59960E-001	-1.16416E+000	3.57640E+000	10	...........
	4	0.066667	6.81779E-001	5.99155E-003	0.00000E+000	4.08491E-003	3.59960E-001	-1.17449E+000	3.57640E+000	10	...........
	5	0.08	6.89288E-001	5.98724E-003	0.00000E+000	4.12693E-003	3.59960E-001	-1.16389E+000	3.57640E+000	10	...........
	6	0.093333	6.96684E-001	5.99009E-003	0.00000E+000	4.17320E-003	3.59960E-001	-1.16388E+000	3.57640E+000	10	...........
	7	0.106667	7.03960E-001	5.99597E-003	0.00000E+000	4.22092E-003	3.59960E-001	-1.17437E+000	3.57640E+000	10	...........
	8	0.12	7.11101E-001	5.99031E-003	0.00000E+000	4.25971E-003	3.59960E-001	-1.16399E+000	3.57640E+000	10	...........
	9	0.133333	7.18277E-001	5.99726E-003	0.00000E+000	4.30770E-003	3.59960E-001	-1.16418E+000	3.57640E+000	10	...........
	10	0.146667	7.25295E-001	5.98908E-003	0.00000E+000	4.34385E-003	3.59960E-001	-1.17458E+000	3.57640E+000	10	...........
	11	0.16	7.32245E-001	5.99252E-003	0.00000E+000	4.38799E-003	3.59960E-001	-1.16360E+000	3.57640E+000	10	...........
	12	0.173333	7.39165E-001	5.99240E-003	0.00000E+000	4.42938E-003	3.59960E-001	-1.16405E+000	3.57640E+000	10	...........
	13	0.186667	7.46053E-001	5.99105E-003	0.00000E+000	4.46964E-003	3.59960E-001	-1.17446E+000	3.57640E+000	10	...........
	14	0.2	7.52904E-001	5.99643E-003	0.00000E+000	4.51474E-003	3.59960E-001	-1.16370E+000	3.57640E+000	10	...........
	15	0.213333	7.59706E-001	5.99438E-003	0.00000E+000	4.55397E-003	3.59960E-001	-1.16400E+000	3.57640E+000	10	...........
	16	0.226667	7.66484E-001	5.98784E-003	0.00000E+000	4.58958E-003	3.59960E-001	-1.17385E+000	3.57640E+000	10	...........
	17	0.24	7.73239E-001	5.99496E-003	0.00000E+000	4.63554E-003	3.59960E-001	-1.16295E+000	3.57640E+000	10	...........
	18	0.253333	7.79953E-001	5.99404E-003	0.00000E+000	4.67507E-003	3.59960E-001	-1.16373E+000	3.57640E+000	10	...........
	19	0.266667	7.86634E-001	5.99321E-003	0.00000E+000	4.71446E-003	3.59960E-001	-1.17378E+000	3.57640E+000	10	...........
	20	0.28	7.93376E-001	5.99556E-003	0.00000E+000	4.75674E-003	3.59960E-001	-1.16294E+000	3.57640E+000	10	...........
	21	0.293333	8.00039E-001	5.99615E-003	0.00000E+000	4.79715E-003	3.59960E-001	-1.16364E+000	3.57657E+000	10	...........
	22	0.306667	8.06660E-001	5.99432E-003	0.00000E+000	4.83538E-003	3.59960E-001	-1.17362E+000	3.57660E+000	10	...........
	23	0.32	8.13290E-001	5.99391E-003	0.00000E+000	4.87478E-003	3.59960E-001	-1.16288E+000	3.57660E+000	10	...........
	24	0.333333	8.19886E-001	5.99188E-003	0.00000E+000	4.91266E-003	3.59960E-001	-1.16398E+000	3.57660E+000	10	...........
	25	0.346667	8.26459E-001	5.99543E-003	0.00000E+000	4.95497E-003	3.59960E-001	-1.17357E+000	3.57660E+000	10	...........
	26	0.36	8.32981E-001	5.99435E-003	0.00000E+000	4.99318E-003	3.59960E-001	-1.16245E+000	3.57660E+000	10	...........
	27	0.373333	8.39477E-001	5.99295E-003	0.00000E+000	5.03094E-003	3.59960E-001	-1.16385E+000	3.57660E+000	10	...........
	28	0.386667	8.46011E-001	5.99352E-003	0.00000E+000	5.07058E-003	3.59960E-001	-1.17345E+000	3.57660E+000	10	...........
	29	0.4	8.52527E-001	5.99225E-003	0.00000E+000	5.10855E-003	3.59960E-001	-1.16278E+000	3.57660E+000	10	...........
	30	0.413333	8.58959E-001	5.99222E-003	0.00000E+000	5.14707E-003	3.59960E-001	-1.16400E+000	3.57660E+000	10	...........
	31	0.426667	8.65397E-001	5.99417E-003	0.00000E+000	5.18733E-003	3.59960E-001	-1.17347E+000	3.57660E+000	10	...........
	32	0.44	8.71800E-001	5.99425E-003	0.00000E+000	5.22579E-003	3.59960E-001	-1.16251E+000	3.57660E+000	10	...........
	33	0.453333	8.78139E-001	5.99123E-003	0.00000E+000	5.26113E-003	3.59960E-001	-1.16423E+000	3.57660E+000	10	...........
	34	0.466667	8.84525E-001	5.99487E-003	0.00000E+000	5.30261E-003	3.59960E-001	-1.17348E+000	3.57660E+000	10	...........
	35	0.48	8.90804E-001	5.99340E-003	0.00000E+000	5.33894E-003	3.59960E-001	-1.16275E+000	3.57660E+000	10	...........
	36	0.493333	8.97111E-001	5.99024E-003	0.00000E+000	5.37391E-003	3.59960E-001	-1.16419E+000	3.57660E+000	10	...........
	37	0.506667	9.03338E-001	5.99571E-003	0.00000E+000	5.41615E-003	3.59960E-001	-1.17336E+000	3.57660E+000	10	...........
	38	0.52	9.09557E-001	5.99066E-003	0.00000E+000	5.44885E-003	3.59960E-001	-1.16272E+000	3.57660E+000	10	...........
	39	0.533333	9.15732E-001	5.99234E-003	0.00000E+000	5.48738E-003	3.59960E-001	-1.16413E+000	3.57660E+000	10	...........
	40	0.546667	9.21904E-001	5.99548E-003	0.00000E+000	5.52726E-003	3.59960E-001	-1.17299E+000	3.57660E+000	10	...........
	41	0.56	9.28014E-001	5.99480E-003	0.00000E+000	5.56326E-003	3.59960E-001	-1.16223E+000	3.57660E+000	10	...........
	42	0.573333	9.34060E-001	5.99732E-003	0.00000E+000	5.60185E-003	3.59960E-001	-1.16396E+000	3.57660E+000	10	...........
	43	0.586667	9.40041E-001	5.99357E-003	0.00000E+000	5.63420E-003	3.59960E-001	-1.17295E+000	3.57660E+000	10	...........
	44	0.6	9.46038E-001	5.98950E-003	0.00000E+000	5.66630E-003	3.59960E-001	-1.16222E+000	3.57660E+000	10	...........
	45	0.613333	9.51979E-001	5.99510E-003	0.00000E+000	5.70720E-003	3.59960E-001	-1.16415E+000	3.57660E+000	10	...........
	46	0.626667	9.57881E-001	5.99612E-003	0.00000E+000	5.74357E-003	3.59960E-001	-1.17284E+000	3.57660E+000	10	...........
	47	0.64	9.63681E-001	5.99673E-003	0.00000E+000	5.77893E-003	3.59960E-001	-1.16218E+000	3.57660E+000	10	...........
	48	0.653333	9.69509E-001	5.99437E-003	0.00000E+000	5.81159E-003	3.59960E-001	-1.16417E+000	3.57660E+000	10	...........
	49	0.666667	9.75294E-001	5.99561E-003	0.00000E+000	5.84748E-003	3.59960E-001	-1.17285E+000	3.57660E+000	10	...........
	50	0.68	9.80962E-001	5.99115E-003	0.00000E+000	5.87709E-003	3.59960E-001	-1.16218E+000	3.57660E+000	10	...........
	51	0.693333	9.86590E-001	5.99309E-003	0.00000E+000	5.91273E-003	3.59960E-001	-1.16425E+000	3.57660E+000	10	...........
	52	0.706667	9.92154E-001	5.99646E-003	0.00000E+000	5.94941E-003	3.59960E-001	-1.17269E+000	3.57660E+000	10	...........
	53	0.72	9.97679E-001	5.98832E-003	0.00000E+000	5.97442E-003	3.59960E-001	-1.16213E+000	3.57660E+000	10	...........
STARTTIMEOFFSET	QUANT	1291.205	Start Time Offset (s)