File: Data/CV_CRGO300517_1/PWRCCD_CRGO300517_1/CHARGE_DISCHARGE/CHARGE_#929.DTA
EXPLAIN
TAG	PWR800_CHARGE
TITLE	LABEL	PWR Cyclic Charge Discharge (Cell) - Charge Step	Test &Identifier
DATE	LABEL	22-6-2017	Date
TIME	LABEL	16:12:03	Time
NOTES	NOTES	3	&Notes...
	supercap test cell
	0.6mg
	6M KOH
PSTAT	PSTAT	IFC5000-01520	Potentiostat
CAPACITY	QUANT	1.00000E-003	Capacity (A-hr)
CELLTYPE	SELECTOR	1	&Cell Type
WORKINGCONNECTION	SELECTOR	0	&Working Lead
MAXCHARGETIME	VARIABLEANDUNITS	1.00000E+002	s	1.00000E+002	second(s)	Max &Charge Time
CHARGECURRENT	QUANT	6.00000E-003	&Charge Current (A)
VOLTAGEFINISH	TWOPARAM	F	1.00000E-003	3.60000E+003	&Voltage Finish	 I (A) < 	Max Time(s)
SAMPLETIME	QUANT	1.00000E-002	Sa&mple Period (s)
CHARGESTOPAT1	MULTIPARAM	4	1.00000E+000	Charge Stop At &1	Voltage > Limit	V
CHARGESTOPAT2	MULTIPARAM	0	0.00000E+000	Charge Stop At &2	None	N/A
AESBHCSELECTOR	TOGGLE	F	Save Both Half Cells
IRCOMP	TOGGLE	F	IR &Measure
EOC	QUANT	0	Open Circuit (V)
SEQUENCER	TOGGLE	TRUE	Run as Sequence
PSTATMODEL	IQUANT	53	Pstat Model
PSTATSECTION	LABEL	IFC5000-01520	Pstat Section
PSTATSERIALNO	LABEL	01520	Pstat Serial Number
CTRLMODE	IQUANT	0	Control Mode
ELECTROMETER	IQUANT	1	RE=0 or CS=1
IESTAB	IQUANT	0	I/E Stability
CASPEED	IQUANT	4	Control Amp Speed
CONVENTION	IQUANT	1	Current Convention
ICHRANGE	IQUANT	2	Ich Range
ICHRANGEMODE	TOGGLE	T	Ich Auto Range
ICHOFFSETENABLE	TOGGLE	F	Ich Offset Enable
ICHOFFSET	QUANT	0	Ich Offset (V)
ICHFILTER	IQUANT	1	Ich Filter
VCHRANGE	IQUANT	2	Vch Range
VCHRANGEMODE	TOGGLE	T	Vch Auto Range
VCHOFFSETENABLE	TOGGLE	F	Vch Offset Enable
VCHOFFSET	QUANT	0	Vch Offset (V)
VCHFILTER	IQUANT	1	Vch Filter
IERANGELOWERLIMIT	IQUANT	9	I/E Range Lower Limit
IERANGEMODE	TOGGLE	F	I/E AutoRange
IERANGE	IQUANT	10	I/E Range
ACHSELECT	IQUANT	1	Ach Select
ACHRANGE	IQUANT	2	Ach Range
ACHOFFSETENABLE	TOGGLE	F	Ach Offset Enable
ACHOFFSET	QUANT	0	Ach Offset (V)
ACHFILTER	IQUANT	1	Ach Filter
CABLEID	IQUANT	14	Cable ID
DCCALDATE	LABEL	20-10-2016	DC Calibration Date
ACCALDATE	LABEL	12/3/2015	AC Calibration Date
FRAMEWORKVERSION	QUANT	7.01	Framework Version
INSTRUMENTVERSION	LABEL	4.00	Instrument Version
CURVE	TABLE	53
	Pt	T	Vf	Im	Vu	Pwr	Sig	Ach	Temp	IERange	Over
	#	s	V	A	V	W	V	V	deg C	#	bits
	0	0.013333	6.61992E-001	5.99447E-003	0.00000E+000	3.96829E-003	3.59960E-001	-1.16766E+000	3.57660E+000	10	...........
	1	0.026667	6.71172E-001	5.99491E-003	0.00000E+000	4.02362E-003	3.59960E-001	-1.17770E+000	3.57660E+000	10	...........
	2	0.04	6.79537E-001	5.99492E-003	0.00000E+000	4.07377E-003	3.59960E-001	-1.17199E+000	3.57660E+000	10	...........
	3	0.053333	6.87482E-001	5.98800E-003	0.00000E+000	4.11665E-003	3.59960E-001	-1.16759E+000	3.57660E+000	10	...........
	4	0.066667	6.95153E-001	5.99668E-003	0.00000E+000	4.16861E-003	3.59960E-001	-1.17758E+000	3.57660E+000	10	...........
	5	0.08	7.02612E-001	5.99186E-003	0.00000E+000	4.20995E-003	3.59960E-001	-1.17162E+000	3.57660E+000	10	...........
	6	0.093333	7.09949E-001	5.99726E-003	0.00000E+000	4.25775E-003	3.59960E-001	-1.16736E+000	3.57660E+000	10	...........
	7	0.106667	7.17159E-001	5.99636E-003	0.00000E+000	4.30034E-003	3.59960E-001	-1.17778E+000	3.57660E+000	10	...........
	8	0.12	7.24337E-001	5.99486E-003	0.00000E+000	4.34230E-003	3.59960E-001	-1.17187E+000	3.57660E+000	10	...........
	9	0.133333	7.31380E-001	5.99562E-003	0.00000E+000	4.38507E-003	3.59960E-001	-1.16729E+000	3.57660E+000	10	...........
	10	0.146667	7.38287E-001	5.99164E-003	0.00000E+000	4.42355E-003	3.59960E-001	-1.17756E+000	3.57660E+000	10	...........
	11	0.16	7.45265E-001	5.99331E-003	0.00000E+000	4.46660E-003	3.59960E-001	-1.17154E+000	3.57660E+000	10	...........
	12	0.173333	7.52135E-001	5.99428E-003	0.00000E+000	4.50851E-003	3.59960E-001	-1.16746E+000	3.57660E+000	10	...........
	13	0.186667	7.58976E-001	5.99510E-003	0.00000E+000	4.55013E-003	3.59960E-001	-1.17774E+000	3.57660E+000	10	...........
	14	0.2	7.65801E-001	5.99470E-003	0.00000E+000	4.59075E-003	3.59960E-001	-1.17137E+000	3.57660E+000	10	...........
	15	0.213333	7.72595E-001	5.99834E-003	0.00000E+000	4.63429E-003	3.59960E-001	-1.16719E+000	3.57660E+000	10	...........
	16	0.226667	7.79327E-001	5.99347E-003	0.00000E+000	4.67087E-003	3.59960E-001	-1.17747E+000	3.57660E+000	10	...........
	17	0.24	7.86072E-001	5.99541E-003	0.00000E+000	4.71282E-003	3.59960E-001	-1.17127E+000	3.57660E+000	10	...........
	18	0.253333	7.92792E-001	5.99122E-003	0.00000E+000	4.74979E-003	3.59960E-001	-1.16723E+000	3.57660E+000	10	...........
	19	0.266667	7.99426E-001	5.99615E-003	0.00000E+000	4.79348E-003	3.59960E-001	-1.17772E+000	3.57660E+000	10	...........
	20	0.28	8.06067E-001	5.99289E-003	0.00000E+000	4.83068E-003	3.59960E-001	-1.17108E+000	3.57660E+000	10	...........
	21	0.293333	8.12727E-001	5.99996E-003	0.00000E+000	4.87633E-003	3.59960E-001	-1.16705E+000	3.57660E+000	10	...........
	22	0.306667	8.19317E-001	5.98962E-003	0.00000E+000	4.90740E-003	3.59960E-001	-1.17771E+000	3.57660E+000	10	...........
	23	0.32	8.25883E-001	5.99409E-003	0.00000E+000	4.95042E-003	3.59960E-001	-1.17090E+000	3.57660E+000	10	...........
	24	0.333333	8.32383E-001	5.99633E-003	0.00000E+000	4.99124E-003	3.59960E-001	-1.16663E+000	3.57660E+000	10	...........
	25	0.346667	8.38899E-001	5.99523E-003	0.00000E+000	5.02940E-003	3.59960E-001	-1.17691E+000	3.57660E+000	10	...........
	26	0.36	8.45416E-001	5.99852E-003	0.00000E+000	5.07124E-003	3.59960E-001	-1.17042E+000	3.57660E+000	10	...........
	27	0.373333	8.51884E-001	5.99931E-003	0.00000E+000	5.11072E-003	3.59960E-001	-1.16672E+000	3.57660E+000	10	...........
	28	0.386667	8.58313E-001	5.99547E-003	0.00000E+000	5.14599E-003	3.59960E-001	-1.17742E+000	3.57660E+000	10	...........
	29	0.4	8.64743E-001	5.99247E-003	0.00000E+000	5.18194E-003	3.59960E-001	-1.17047E+000	3.57660E+000	10	...........
	30	0.413333	8.71161E-001	5.99187E-003	0.00000E+000	5.21989E-003	3.59960E-001	-1.16650E+000	3.57660E+000	10	...........
	31	0.426667	8.77536E-001	5.99417E-003	0.00000E+000	5.26010E-003	3.59960E-001	-1.17686E+000	3.57660E+000	10	...........
	32	0.44	8.83864E-001	5.98918E-003	0.00000E+000	5.29362E-003	3.59960E-001	-1.17026E+000	3.57660E+000	10	...........
	33	0.453333	8.90200E-001	5.99640E-003	0.00000E+000	5.33799E-003	3.59960E-001	-1.16669E+000	3.57660E+000	10	...........
	34	0.466667	8.96466E-001	5.99215E-003	0.00000E+000	5.37176E-003	3.59960E-001	-1.17709E+000	3.57660E+000	10	...........
	35	0.48	9.02689E-001	5.99333E-003	0.00000E+000	5.41012E-003	3.59960E-001	-1.17010E+000	3.57660E+000	10	...........
	36	0.493333	9.08858E-001	5.98899E-003	0.00000E+000	5.44314E-003	3.59960E-001	-1.16635E+000	3.57660E+000	10	...........
	37	0.506667	9.15000E-001	5.98993E-003	0.00000E+000	5.48079E-003	3.59960E-001	-1.17711E+000	3.57660E+000	10	...........
	38	0.52	9.21186E-001	5.99296E-003	0.00000E+000	5.52063E-003	3.59960E-001	-1.17015E+000	3.57660E+000	10	...........
	39	0.533333	9.27247E-001	5.99156E-003	0.00000E+000	5.55566E-003	3.59960E-001	-1.16651E+000	3.57879E+000	10	...........
	40	0.546667	9.33291E-001	5.99698E-003	0.00000E+000	5.59693E-003	3.59960E-001	-1.17711E+000	3.58010E+000	10	...........
	41	0.56	9.39264E-001	5.99183E-003	0.00000E+000	5.62791E-003	3.59960E-001	-1.17008E+000	3.58010E+000	10	...........
	42	0.573333	9.45224E-001	5.99274E-003	0.00000E+000	5.66448E-003	3.59960E-001	-1.16656E+000	3.58010E+000	10	...........
	43	0.586667	9.51162E-001	5.99198E-003	0.00000E+000	5.69934E-003	3.59960E-001	-1.17719E+000	3.58010E+000	10	...........
	44	0.6	9.56988E-001	5.98975E-003	0.00000E+000	5.73212E-003	3.59960E-001	-1.17007E+000	3.58010E+000	10	...........
	45	0.613333	9.62804E-001	5.99441E-003	0.00000E+000	5.77144E-003	3.59960E-001	-1.16621E+000	3.58010E+000	10	...........
	46	0.626667	9.68577E-001	5.99208E-003	0.00000E+000	5.80379E-003	3.59960E-001	-1.17705E+000	3.58010E+000	10	...........
	47	0.64	9.74347E-001	5.99352E-003	0.00000E+000	5.83977E-003	3.59960E-001	-1.16981E+000	3.58010E+000	10	...........
	48	0.653333	9.80007E-001	5.99032E-003	0.00000E+000	5.87055E-003	3.59960E-001	-1.16616E+000	3.58010E+000	10	...........
	49	0.666667	9.85605E-001	5.99219E-003	0.00000E+000	5.90593E-003	3.59960E-001	-1.17696E+000	3.58010E+000	10	...........
	50	0.68	9.91168E-001	5.99352E-003	0.00000E+000	5.94059E-003	3.59960E-001	-1.16914E+000	3.58010E+000	10	...........
	51	0.693333	9.96716E-001	5.99356E-003	0.00000E+000	5.97388E-003	3.59960E-001	-1.16590E+000	3.58010E+000	10	...........
	52	0.696667	1.00017E+000	5.99684E-003	0.00000E+000	5.99788E-003	3.59960E-001	-1.17931E+000	3.58010E+000	10	...........
STARTTIMEOFFSET	QUANT	1486.687	Start Time Offset (s)