File: Data/CV_CRGO300517_1/PWRCCD_CRGO300517_1/CHARGE_DISCHARGE/CHARGE_#876.DTA
EXPLAIN
TAG	PWR800_CHARGE
TITLE	LABEL	PWR Cyclic Charge Discharge (Cell) - Charge Step	Test &Identifier
DATE	LABEL	22-6-2017	Date
TIME	LABEL	16:10:05	Time
NOTES	NOTES	3	&Notes...
	supercap test cell
	0.6mg
	6M KOH
PSTAT	PSTAT	IFC5000-01520	Potentiostat
CAPACITY	QUANT	1.00000E-003	Capacity (A-hr)
CELLTYPE	SELECTOR	1	&Cell Type
WORKINGCONNECTION	SELECTOR	0	&Working Lead
MAXCHARGETIME	VARIABLEANDUNITS	1.00000E+002	s	1.00000E+002	second(s)	Max &Charge Time
CHARGECURRENT	QUANT	6.00000E-003	&Charge Current (A)
VOLTAGEFINISH	TWOPARAM	F	1.00000E-003	3.60000E+003	&Voltage Finish	 I (A) < 	Max Time(s)
SAMPLETIME	QUANT	1.00000E-002	Sa&mple Period (s)
CHARGESTOPAT1	MULTIPARAM	4	1.00000E+000	Charge Stop At &1	Voltage > Limit	V
CHARGESTOPAT2	MULTIPARAM	0	0.00000E+000	Charge Stop At &2	None	N/A
AESBHCSELECTOR	TOGGLE	F	Save Both Half Cells
IRCOMP	TOGGLE	F	IR &Measure
EOC	QUANT	0	Open Circuit (V)
SEQUENCER	TOGGLE	TRUE	Run as Sequence
PSTATMODEL	IQUANT	53	Pstat Model
PSTATSECTION	LABEL	IFC5000-01520	Pstat Section
PSTATSERIALNO	LABEL	01520	Pstat Serial Number
CTRLMODE	IQUANT	0	Control Mode
ELECTROMETER	IQUANT	1	RE=0 or CS=1
IESTAB	IQUANT	0	I/E Stability
CASPEED	IQUANT	4	Control Amp Speed
CONVENTION	IQUANT	1	Current Convention
ICHRANGE	IQUANT	2	Ich Range
ICHRANGEMODE	TOGGLE	T	Ich Auto Range
ICHOFFSETENABLE	TOGGLE	F	Ich Offset Enable
ICHOFFSET	QUANT	0	Ich Offset (V)
ICHFILTER	IQUANT	1	Ich Filter
VCHRANGE	IQUANT	2	Vch Range
VCHRANGEMODE	TOGGLE	T	Vch Auto Range
VCHOFFSETENABLE	TOGGLE	F	Vch Offset Enable
VCHOFFSET	QUANT	0	Vch Offset (V)
VCHFILTER	IQUANT	1	Vch Filter
IERANGELOWERLIMIT	IQUANT	9	I/E Range Lower Limit
IERANGEMODE	TOGGLE	F	I/E AutoRange
IERANGE	IQUANT	10	I/E Range
ACHSELECT	IQUANT	1	Ach Select
ACHRANGE	IQUANT	2	Ach Range
ACHOFFSETENABLE	TOGGLE	F	Ach Offset Enable
ACHOFFSET	QUANT	0	Ach Offset (V)
ACHFILTER	IQUANT	1	Ach Filter
CABLEID	IQUANT	14	Cable ID
DCCALDATE	LABEL	20-10-2016	DC Calibration Date
ACCALDATE	LABEL	12/3/2015	AC Calibration Date
FRAMEWORKVERSION	QUANT	7.01	Framework Version
INSTRUMENTVERSION	LABEL	4.00	Instrument Version
CURVE	TABLE	54
	Pt	T	Vf	Im	Vu	Pwr	Sig	Ach	Temp	IERange	Over
	#	s	V	A	V	W	V	V	deg C	#	bits
	0	0.013333	6.51844E-001	5.99378E-003	0.00000E+000	3.90701E-003	3.59960E-001	-1.16530E+000	3.57650E+000	10	...........
	1	0.026667	6.61099E-001	5.99569E-003	0.00000E+000	3.96374E-003	3.59960E-001	-1.17007E+000	3.57650E+000	10	...........
	2	0.04	6.69663E-001	5.99285E-003	0.00000E+000	4.01319E-003	3.59960E-001	-1.16075E+000	3.57650E+000	10	...........
	3	0.053333	6.77660E-001	5.98999E-003	0.00000E+000	4.05918E-003	3.59960E-001	-1.16512E+000	3.57650E+000	10	...........
	4	0.066667	6.85468E-001	5.99113E-003	0.00000E+000	4.10673E-003	3.59960E-001	-1.16954E+000	3.57650E+000	10	...........
	5	0.08	6.93069E-001	5.99965E-003	0.00000E+000	4.15818E-003	3.59960E-001	-1.16067E+000	3.57650E+000	10	...........
	6	0.093333	7.00512E-001	5.99208E-003	0.00000E+000	4.19752E-003	3.59960E-001	-1.16511E+000	3.57650E+000	10	...........
	7	0.106667	7.07781E-001	5.99230E-003	0.00000E+000	4.24124E-003	3.59960E-001	-1.16954E+000	3.57650E+000	10	...........
	8	0.12	7.15026E-001	5.99850E-003	0.00000E+000	4.28908E-003	3.59960E-001	-1.16049E+000	3.57650E+000	10	...........
	9	0.133333	7.22204E-001	5.99250E-003	0.00000E+000	4.32780E-003	3.59960E-001	-1.16481E+000	3.57650E+000	10	...........
	10	0.146667	7.29271E-001	5.99738E-003	0.00000E+000	4.37372E-003	3.59960E-001	-1.16945E+000	3.57650E+000	10	...........
	11	0.16	7.36280E-001	5.99596E-003	0.00000E+000	4.41471E-003	3.59960E-001	-1.16059E+000	3.57650E+000	10	...........
	12	0.173333	7.43268E-001	5.99124E-003	0.00000E+000	4.45309E-003	3.59960E-001	-1.16487E+000	3.57650E+000	10	...........
	13	0.186667	7.50217E-001	5.99654E-003	0.00000E+000	4.49871E-003	3.59960E-001	-1.16898E+000	3.57650E+000	10	...........
	14	0.2	7.57130E-001	5.99790E-003	0.00000E+000	4.54119E-003	3.59960E-001	-1.16032E+000	3.57650E+000	10	...........
	15	0.213333	7.63964E-001	5.99302E-003	0.00000E+000	4.57845E-003	3.59960E-001	-1.16524E+000	3.57650E+000	10	...........
	16	0.226667	7.70843E-001	5.99154E-003	0.00000E+000	4.61854E-003	3.59960E-001	-1.16932E+000	3.57650E+000	10	...........
	17	0.24	7.77603E-001	5.98997E-003	0.00000E+000	4.65782E-003	3.59960E-001	-1.16034E+000	3.57650E+000	10	...........
	18	0.253333	7.84384E-001	5.99698E-003	0.00000E+000	4.70394E-003	3.59960E-001	-1.16498E+000	3.57650E+000	10	...........
	19	0.266667	7.91135E-001	5.99507E-003	0.00000E+000	4.74292E-003	3.59960E-001	-1.16941E+000	3.57656E+000	10	...........
	20	0.28	7.97849E-001	5.99117E-003	0.00000E+000	4.78005E-003	3.59960E-001	-1.16062E+000	3.57660E+000	10	...........
	21	0.293333	8.04552E-001	5.99316E-003	0.00000E+000	4.82180E-003	3.59960E-001	-1.16545E+000	3.57660E+000	10	...........
	22	0.306667	8.11204E-001	5.99659E-003	0.00000E+000	4.86446E-003	3.59960E-001	-1.16926E+000	3.57660E+000	10	...........
	23	0.32	8.17873E-001	5.99128E-003	0.00000E+000	4.90010E-003	3.59960E-001	-1.16043E+000	3.57660E+000	10	...........
	24	0.333333	8.24520E-001	5.99573E-003	0.00000E+000	4.94360E-003	3.59960E-001	-1.16538E+000	3.57660E+000	10	...........
	25	0.346667	8.31133E-001	5.99088E-003	0.00000E+000	4.97922E-003	3.59960E-001	-1.16917E+000	3.57660E+000	10	...........
	26	0.36	8.37728E-001	5.99138E-003	0.00000E+000	5.01915E-003	3.59960E-001	-1.16062E+000	3.57660E+000	10	...........
	27	0.373333	8.44298E-001	5.99992E-003	0.00000E+000	5.06572E-003	3.59960E-001	-1.16524E+000	3.57660E+000	10	...........
	28	0.386667	8.50845E-001	5.99273E-003	0.00000E+000	5.09888E-003	3.59960E-001	-1.16855E+000	3.57660E+000	10	...........
	29	0.4	8.57361E-001	5.99628E-003	0.00000E+000	5.14098E-003	3.59960E-001	-1.16002E+000	3.57660E+000	10	...........
	30	0.413333	8.63835E-001	5.99692E-003	0.00000E+000	5.18035E-003	3.59960E-001	-1.16531E+000	3.57660E+000	10	...........
	31	0.426667	8.70290E-001	5.99389E-003	0.00000E+000	5.21642E-003	3.59960E-001	-1.16873E+000	3.57660E+000	10	...........
	32	0.44	8.76668E-001	5.99434E-003	0.00000E+000	5.25505E-003	3.59960E-001	-1.16001E+000	3.57660E+000	10	...........
	33	0.453333	8.83065E-001	5.99415E-003	0.00000E+000	5.29322E-003	3.59960E-001	-1.16513E+000	3.57660E+000	10	...........
	34	0.466667	8.89429E-001	5.99412E-003	0.00000E+000	5.33134E-003	3.59960E-001	-1.16858E+000	3.57660E+000	10	...........
	35	0.48	8.95770E-001	5.99478E-003	0.00000E+000	5.36995E-003	3.59960E-001	-1.16028E+000	3.57660E+000	10	...........
	36	0.493333	9.02043E-001	5.99332E-003	0.00000E+000	5.40623E-003	3.59960E-001	-1.16514E+000	3.57660E+000	10	...........
	37	0.506667	9.08250E-001	5.99317E-003	0.00000E+000	5.44329E-003	3.59960E-001	-1.16862E+000	3.57660E+000	10	...........
	38	0.52	9.14486E-001	5.99183E-003	0.00000E+000	5.47945E-003	3.59960E-001	-1.15985E+000	3.57660E+000	10	...........
	39	0.533333	9.20657E-001	5.99209E-003	0.00000E+000	5.51666E-003	3.59960E-001	-1.16496E+000	3.57660E+000	10	...........
	40	0.546667	9.26836E-001	5.99418E-003	0.00000E+000	5.55562E-003	3.59960E-001	-1.16859E+000	3.57660E+000	10	...........
	41	0.56	9.32920E-001	5.99609E-003	0.00000E+000	5.59387E-003	3.59960E-001	-1.16012E+000	3.57660E+000	10	...........
	42	0.573333	9.38951E-001	5.99356E-003	0.00000E+000	5.62766E-003	3.59960E-001	-1.16512E+000	3.57660E+000	10	...........
	43	0.586667	9.44979E-001	5.99569E-003	0.00000E+000	5.66580E-003	3.59960E-001	-1.16839E+000	3.57660E+000	10	...........
	44	0.6	9.50935E-001	5.99396E-003	0.00000E+000	5.69986E-003	3.59960E-001	-1.16038E+000	3.57660E+000	10	...........
	45	0.613333	9.56854E-001	5.99490E-003	0.00000E+000	5.73624E-003	3.59960E-001	-1.16569E+000	3.57660E+000	10	...........
	46	0.626667	9.62699E-001	5.99907E-003	0.00000E+000	5.77530E-003	3.59960E-001	-1.16901E+000	3.57660E+000	10	...........
	47	0.64	9.68486E-001	5.99111E-003	0.00000E+000	5.80231E-003	3.59960E-001	-1.16022E+000	3.57660E+000	10	...........
	48	0.653333	9.74331E-001	5.99306E-003	0.00000E+000	5.83922E-003	3.59960E-001	-1.16548E+000	3.57660E+000	10	...........
	49	0.666667	9.80007E-001	5.99227E-003	0.00000E+000	5.87246E-003	3.59960E-001	-1.16874E+000	3.57660E+000	10	...........
	50	0.68	9.85634E-001	5.99624E-003	0.00000E+000	5.91010E-003	3.59960E-001	-1.16047E+000	3.57660E+000	10	...........
	51	0.693333	9.91219E-001	5.99224E-003	0.00000E+000	5.93962E-003	3.59960E-001	-1.16563E+000	3.57660E+000	10	...........
	52	0.706667	9.96762E-001	5.99438E-003	0.00000E+000	5.97496E-003	3.59960E-001	-1.16813E+000	3.57660E+000	10	...........
	53	0.71	1.00026E+000	5.98912E-003	0.00000E+000	5.99070E-003	3.59960E-001	-1.16532E+000	3.57660E+000	10	...........
STARTTIMEOFFSET	QUANT	1412.254	Start Time Offset (s)