File: Data/CV_CRGO300517_1/PWRCCD_CRGO300517_1/CHARGE_DISCHARGE/CHARGE_#760.DTA
EXPLAIN
TAG	PWR800_CHARGE
TITLE	LABEL	PWR Cyclic Charge Discharge (Cell) - Charge Step	Test &Identifier
DATE	LABEL	22-6-2017	Date
TIME	LABEL	16:05:48	Time
NOTES	NOTES	3	&Notes...
	supercap test cell
	0.6mg
	6M KOH
PSTAT	PSTAT	IFC5000-01520	Potentiostat
CAPACITY	QUANT	1.00000E-003	Capacity (A-hr)
CELLTYPE	SELECTOR	1	&Cell Type
WORKINGCONNECTION	SELECTOR	0	&Working Lead
MAXCHARGETIME	VARIABLEANDUNITS	1.00000E+002	s	1.00000E+002	second(s)	Max &Charge Time
CHARGECURRENT	QUANT	6.00000E-003	&Charge Current (A)
VOLTAGEFINISH	TWOPARAM	F	1.00000E-003	3.60000E+003	&Voltage Finish	 I (A) < 	Max Time(s)
SAMPLETIME	QUANT	1.00000E-002	Sa&mple Period (s)
CHARGESTOPAT1	MULTIPARAM	4	1.00000E+000	Charge Stop At &1	Voltage > Limit	V
CHARGESTOPAT2	MULTIPARAM	0	0.00000E+000	Charge Stop At &2	None	N/A
AESBHCSELECTOR	TOGGLE	F	Save Both Half Cells
IRCOMP	TOGGLE	F	IR &Measure
EOC	QUANT	0	Open Circuit (V)
SEQUENCER	TOGGLE	TRUE	Run as Sequence
PSTATMODEL	IQUANT	53	Pstat Model
PSTATSECTION	LABEL	IFC5000-01520	Pstat Section
PSTATSERIALNO	LABEL	01520	Pstat Serial Number
CTRLMODE	IQUANT	0	Control Mode
ELECTROMETER	IQUANT	1	RE=0 or CS=1
IESTAB	IQUANT	0	I/E Stability
CASPEED	IQUANT	4	Control Amp Speed
CONVENTION	IQUANT	1	Current Convention
ICHRANGE	IQUANT	2	Ich Range
ICHRANGEMODE	TOGGLE	T	Ich Auto Range
ICHOFFSETENABLE	TOGGLE	F	Ich Offset Enable
ICHOFFSET	QUANT	0	Ich Offset (V)
ICHFILTER	IQUANT	1	Ich Filter
VCHRANGE	IQUANT	2	Vch Range
VCHRANGEMODE	TOGGLE	T	Vch Auto Range
VCHOFFSETENABLE	TOGGLE	F	Vch Offset Enable
VCHOFFSET	QUANT	0	Vch Offset (V)
VCHFILTER	IQUANT	1	Vch Filter
IERANGELOWERLIMIT	IQUANT	9	I/E Range Lower Limit
IERANGEMODE	TOGGLE	F	I/E AutoRange
IERANGE	IQUANT	10	I/E Range
ACHSELECT	IQUANT	1	Ach Select
ACHRANGE	IQUANT	2	Ach Range
ACHOFFSETENABLE	TOGGLE	F	Ach Offset Enable
ACHOFFSET	QUANT	0	Ach Offset (V)
ACHFILTER	IQUANT	1	Ach Filter
CABLEID	IQUANT	14	Cable ID
DCCALDATE	LABEL	20-10-2016	DC Calibration Date
ACCALDATE	LABEL	12/3/2015	AC Calibration Date
FRAMEWORKVERSION	QUANT	7.01	Framework Version
INSTRUMENTVERSION	LABEL	4.00	Instrument Version
CURVE	TABLE	55
	Pt	T	Vf	Im	Vu	Pwr	Sig	Ach	Temp	IERange	Over
	#	s	V	A	V	W	V	V	deg C	#	bits
	0	0.013333	6.46382E-001	5.99682E-003	0.00000E+000	3.87623E-003	3.59960E-001	-1.16014E+000	3.57640E+000	10	...........
	1	0.026667	6.55530E-001	5.99198E-003	0.00000E+000	3.92792E-003	3.59960E-001	-1.17119E+000	3.57640E+000	10	...........
	2	0.04	6.63967E-001	5.98956E-003	0.00000E+000	3.97687E-003	3.59960E-001	-1.16217E+000	3.57640E+000	10	...........
	3	0.053333	6.71965E-001	5.99318E-003	0.00000E+000	4.02721E-003	3.59960E-001	-1.16011E+000	3.57640E+000	10	...........
	4	0.066667	6.79621E-001	5.99055E-003	0.00000E+000	4.07130E-003	3.59960E-001	-1.17145E+000	3.57640E+000	10	...........
	5	0.08	6.87087E-001	5.99398E-003	0.00000E+000	4.11839E-003	3.59960E-001	-1.16243E+000	3.57640E+000	10	...........
	6	0.093333	6.94466E-001	5.99184E-003	0.00000E+000	4.16113E-003	3.59960E-001	-1.15978E+000	3.57640E+000	10	...........
	7	0.106667	7.01671E-001	5.99101E-003	0.00000E+000	4.20372E-003	3.59960E-001	-1.17100E+000	3.57640E+000	10	...........
	8	0.12	7.08778E-001	5.99496E-003	0.00000E+000	4.24909E-003	3.59960E-001	-1.16205E+000	3.57640E+000	10	...........
	9	0.133333	7.15868E-001	5.99728E-003	0.00000E+000	4.29326E-003	3.59960E-001	-1.16002E+000	3.57640E+000	10	...........
	10	0.146667	7.22883E-001	5.99432E-003	0.00000E+000	4.33319E-003	3.59960E-001	-1.17084E+000	3.57645E+000	10	...........
	11	0.16	7.29815E-001	5.99607E-003	0.00000E+000	4.37602E-003	3.59960E-001	-1.16171E+000	3.57660E+000	10	...........
	12	0.173333	7.36679E-001	5.99005E-003	0.00000E+000	4.41274E-003	3.59960E-001	-1.15950E+000	3.57660E+000	10	...........
	13	0.186667	7.43597E-001	5.99280E-003	0.00000E+000	4.45623E-003	3.59960E-001	-1.17061E+000	3.57660E+000	10	...........
	14	0.2	7.50414E-001	5.99519E-003	0.00000E+000	4.49888E-003	3.59960E-001	-1.16158E+000	3.57660E+000	10	...........
	15	0.213333	7.57210E-001	5.99696E-003	0.00000E+000	4.54096E-003	3.59960E-001	-1.15951E+000	3.57660E+000	10	...........
	16	0.226667	7.63927E-001	5.98593E-003	0.00000E+000	4.57281E-003	3.59960E-001	-1.17040E+000	3.57660E+000	10	...........
	17	0.24	7.70734E-001	5.99107E-003	0.00000E+000	4.61752E-003	3.59960E-001	-1.16134E+000	3.57660E+000	10	...........
	18	0.253333	7.77478E-001	5.99550E-003	0.00000E+000	4.66137E-003	3.59960E-001	-1.15917E+000	3.57660E+000	10	...........
	19	0.266667	7.84164E-001	5.99421E-003	0.00000E+000	4.70044E-003	3.59960E-001	-1.17049E+000	3.57660E+000	10	...........
	20	0.28	7.90824E-001	5.98881E-003	0.00000E+000	4.73609E-003	3.59960E-001	-1.16156E+000	3.57660E+000	10	...........
	21	0.293333	7.97509E-001	5.98936E-003	0.00000E+000	4.77657E-003	3.59960E-001	-1.15913E+000	3.57660E+000	10	...........
	22	0.306667	8.04113E-001	5.99596E-003	0.00000E+000	4.82143E-003	3.59960E-001	-1.17008E+000	3.57660E+000	10	...........
	23	0.32	8.10698E-001	5.99108E-003	0.00000E+000	4.85695E-003	3.59960E-001	-1.16122E+000	3.57660E+000	10	...........
	24	0.333333	8.17275E-001	5.99143E-003	0.00000E+000	4.89665E-003	3.59960E-001	-1.15934E+000	3.57660E+000	10	...........
	25	0.346667	8.23853E-001	5.99438E-003	0.00000E+000	4.93848E-003	3.59960E-001	-1.17034E+000	3.57660E+000	10	...........
	26	0.36	8.30396E-001	5.99254E-003	0.00000E+000	4.97618E-003	3.59960E-001	-1.16108E+000	3.57660E+000	10	...........
	27	0.373333	8.36921E-001	5.99534E-003	0.00000E+000	5.01762E-003	3.59960E-001	-1.15899E+000	3.57660E+000	10	...........
	28	0.386667	8.43420E-001	5.99948E-003	0.00000E+000	5.06008E-003	3.59960E-001	-1.17031E+000	3.57660E+000	10	...........
	29	0.4	8.49900E-001	5.99483E-003	0.00000E+000	5.09501E-003	3.59960E-001	-1.16114E+000	3.57660E+000	10	...........
	30	0.413333	8.56317E-001	5.99006E-003	0.00000E+000	5.12939E-003	3.59960E-001	-1.15909E+000	3.57660E+000	10	...........
	31	0.426667	8.62733E-001	5.99386E-003	0.00000E+000	5.17111E-003	3.59960E-001	-1.17019E+000	3.57660E+000	10	...........
	32	0.44	8.69144E-001	5.99455E-003	0.00000E+000	5.21013E-003	3.59960E-001	-1.16085E+000	3.57660E+000	10	...........
	33	0.453333	8.75549E-001	5.99061E-003	0.00000E+000	5.24507E-003	3.59960E-001	-1.15907E+000	3.57660E+000	10	...........
	34	0.466667	8.81903E-001	5.99393E-003	0.00000E+000	5.28606E-003	3.59960E-001	-1.16998E+000	3.57660E+000	10	...........
	35	0.48	8.88209E-001	5.99050E-003	0.00000E+000	5.32081E-003	3.59960E-001	-1.16059E+000	3.57660E+000	10	...........
	36	0.493333	8.94494E-001	5.99836E-003	0.00000E+000	5.36550E-003	3.59960E-001	-1.15845E+000	3.57660E+000	10	...........
	37	0.506667	9.00715E-001	5.99874E-003	0.00000E+000	5.40315E-003	3.59960E-001	-1.16955E+000	3.57660E+000	10	...........
	38	0.52	9.06908E-001	5.98954E-003	0.00000E+000	5.43196E-003	3.59960E-001	-1.16043E+000	3.57660E+000	10	...........
	39	0.533333	9.13093E-001	6.00048E-003	0.00000E+000	5.47899E-003	3.59960E-001	-1.15851E+000	3.57660E+000	10	...........
	40	0.546667	9.19242E-001	5.99508E-003	0.00000E+000	5.51093E-003	3.59960E-001	-1.16976E+000	3.57660E+000	10	...........
	41	0.56	9.25371E-001	5.99247E-003	0.00000E+000	5.54526E-003	3.59960E-001	-1.16027E+000	3.57660E+000	10	...........
	42	0.573333	9.31459E-001	5.99280E-003	0.00000E+000	5.58205E-003	3.59960E-001	-1.15833E+000	3.57660E+000	10	...........
	43	0.586667	9.37461E-001	5.99368E-003	0.00000E+000	5.61884E-003	3.59960E-001	-1.16973E+000	3.57660E+000	10	...........
	44	0.6	9.43433E-001	5.99139E-003	0.00000E+000	5.65248E-003	3.59960E-001	-1.16047E+000	3.57660E+000	10	...........
	45	0.613333	9.49435E-001	5.99059E-003	0.00000E+000	5.68768E-003	3.59960E-001	-1.15843E+000	3.57660E+000	10	...........
	46	0.626667	9.55334E-001	5.99356E-003	0.00000E+000	5.72585E-003	3.59960E-001	-1.16943E+000	3.57660E+000	10	...........
	47	0.64	9.61145E-001	5.99056E-003	0.00000E+000	5.75779E-003	3.59960E-001	-1.16002E+000	3.57660E+000	10	...........
	48	0.653333	9.66941E-001	5.98972E-003	0.00000E+000	5.79171E-003	3.59960E-001	-1.15818E+000	3.57660E+000	10	...........
	49	0.666667	9.72743E-001	5.99760E-003	0.00000E+000	5.83412E-003	3.59960E-001	-1.16978E+000	3.57660E+000	10	...........
	50	0.68	9.78440E-001	5.99184E-003	0.00000E+000	5.86266E-003	3.59960E-001	-1.16037E+000	3.57660E+000	10	...........
	51	0.693333	9.84081E-001	5.99045E-003	0.00000E+000	5.89509E-003	3.59960E-001	-1.15830E+000	3.57660E+000	10	...........
	52	0.706667	9.89681E-001	5.99677E-003	0.00000E+000	5.93490E-003	3.59960E-001	-1.16956E+000	3.57660E+000	10	...........
	53	0.72	9.95217E-001	5.99376E-003	0.00000E+000	5.96509E-003	3.59960E-001	-1.16020E+000	3.57660E+000	10	...........
	54	0.726667	9.99341E-001	5.99431E-003	0.00000E+000	5.99036E-003	3.59960E-001	-1.16796E+000	3.57660E+000	10	...........
STARTTIMEOFFSET	QUANT	1246.546	Start Time Offset (s)