File: Data/CV_CRGO300517_1/PWRCCD_CRGO300517_1/CHARGE_DISCHARGE/CHARGE_#335.DTA
EXPLAIN
TAG	PWR800_CHARGE
TITLE	LABEL	PWR Cyclic Charge Discharge (Cell) - Charge Step	Test &Identifier
DATE	LABEL	22-6-2017	Date
TIME	LABEL	15:49:21	Time
NOTES	NOTES	3	&Notes...
	supercap test cell
	0.6mg
	6M KOH
PSTAT	PSTAT	IFC5000-01520	Potentiostat
CAPACITY	QUANT	1.00000E-003	Capacity (A-hr)
CELLTYPE	SELECTOR	1	&Cell Type
WORKINGCONNECTION	SELECTOR	0	&Working Lead
MAXCHARGETIME	VARIABLEANDUNITS	1.00000E+002	s	1.00000E+002	second(s)	Max &Charge Time
CHARGECURRENT	QUANT	6.00000E-003	&Charge Current (A)
VOLTAGEFINISH	TWOPARAM	F	1.00000E-003	3.60000E+003	&Voltage Finish	 I (A) < 	Max Time(s)
SAMPLETIME	QUANT	1.00000E-002	Sa&mple Period (s)
CHARGESTOPAT1	MULTIPARAM	4	1.00000E+000	Charge Stop At &1	Voltage > Limit	V
CHARGESTOPAT2	MULTIPARAM	0	0.00000E+000	Charge Stop At &2	None	N/A
AESBHCSELECTOR	TOGGLE	F	Save Both Half Cells
IRCOMP	TOGGLE	F	IR &Measure
EOC	QUANT	0	Open Circuit (V)
SEQUENCER	TOGGLE	TRUE	Run as Sequence
PSTATMODEL	IQUANT	53	Pstat Model
PSTATSECTION	LABEL	IFC5000-01520	Pstat Section
PSTATSERIALNO	LABEL	01520	Pstat Serial Number
CTRLMODE	IQUANT	0	Control Mode
ELECTROMETER	IQUANT	1	RE=0 or CS=1
IESTAB	IQUANT	0	I/E Stability
CASPEED	IQUANT	4	Control Amp Speed
CONVENTION	IQUANT	1	Current Convention
ICHRANGE	IQUANT	2	Ich Range
ICHRANGEMODE	TOGGLE	T	Ich Auto Range
ICHOFFSETENABLE	TOGGLE	F	Ich Offset Enable
ICHOFFSET	QUANT	0	Ich Offset (V)
ICHFILTER	IQUANT	1	Ich Filter
VCHRANGE	IQUANT	2	Vch Range
VCHRANGEMODE	TOGGLE	T	Vch Auto Range
VCHOFFSETENABLE	TOGGLE	F	Vch Offset Enable
VCHOFFSET	QUANT	0	Vch Offset (V)
VCHFILTER	IQUANT	1	Vch Filter
IERANGELOWERLIMIT	IQUANT	9	I/E Range Lower Limit
IERANGEMODE	TOGGLE	F	I/E AutoRange
IERANGE	IQUANT	10	I/E Range
ACHSELECT	IQUANT	1	Ach Select
ACHRANGE	IQUANT	2	Ach Range
ACHOFFSETENABLE	TOGGLE	F	Ach Offset Enable
ACHOFFSET	QUANT	0	Ach Offset (V)
ACHFILTER	IQUANT	1	Ach Filter
CABLEID	IQUANT	14	Cable ID
DCCALDATE	LABEL	20-10-2016	DC Calibration Date
ACCALDATE	LABEL	12/3/2015	AC Calibration Date
FRAMEWORKVERSION	QUANT	7.01	Framework Version
INSTRUMENTVERSION	LABEL	4.00	Instrument Version
CURVE	TABLE	62
	Pt	T	Vf	Im	Vu	Pwr	Sig	Ach	Temp	IERange	Over
	#	s	V	A	V	W	V	V	deg C	#	bits
	0	0.013333	6.20116E-001	5.98880E-003	0.00000E+000	3.71375E-003	3.59960E-001	-1.11482E+000	3.57680E+000	10	...........
	1	0.026667	6.28757E-001	5.99087E-003	0.00000E+000	3.76680E-003	3.59960E-001	-1.12388E+000	3.57680E+000	10	...........
	2	0.04	6.36671E-001	5.98936E-003	0.00000E+000	3.81325E-003	3.59960E-001	-1.12017E+000	3.57680E+000	10	...........
	3	0.053333	6.44252E-001	5.99451E-003	0.00000E+000	3.86198E-003	3.59960E-001	-1.11489E+000	3.57680E+000	10	...........
	4	0.066667	6.51500E-001	5.99209E-003	0.00000E+000	3.90385E-003	3.59960E-001	-1.12340E+000	3.57680E+000	10	...........
	5	0.08	6.58548E-001	5.99067E-003	0.00000E+000	3.94514E-003	3.59960E-001	-1.11989E+000	3.57680E+000	10	...........
	6	0.093333	6.65503E-001	5.99221E-003	0.00000E+000	3.98783E-003	3.59960E-001	-1.11505E+000	3.57680E+000	10	...........
	7	0.106667	6.72350E-001	5.99042E-003	0.00000E+000	4.02766E-003	3.59960E-001	-1.12339E+000	3.57680E+000	10	...........
	8	0.12	6.79102E-001	5.99422E-003	0.00000E+000	4.07068E-003	3.59960E-001	-1.12002E+000	3.57680E+000	10	...........
	9	0.133333	6.85772E-001	5.99057E-003	0.00000E+000	4.10816E-003	3.59960E-001	-1.11474E+000	3.57680E+000	10	...........
	10	0.146667	6.92415E-001	5.99336E-003	0.00000E+000	4.14990E-003	3.59960E-001	-1.12295E+000	3.57680E+000	10	...........
	11	0.16	6.98950E-001	5.99677E-003	0.00000E+000	4.19145E-003	3.59960E-001	-1.12009E+000	3.57680E+000	10	...........
	12	0.173333	7.05465E-001	5.99495E-003	0.00000E+000	4.22923E-003	3.59960E-001	-1.11494E+000	3.57680E+000	10	...........
	13	0.186667	7.11936E-001	5.99289E-003	0.00000E+000	4.26656E-003	3.59960E-001	-1.12298E+000	3.57680E+000	10	...........
	14	0.2	7.18426E-001	5.99557E-003	0.00000E+000	4.30738E-003	3.59960E-001	-1.11995E+000	3.57680E+000	10	...........
	15	0.213333	7.24841E-001	5.99790E-003	0.00000E+000	4.34752E-003	3.59960E-001	-1.11453E+000	3.57680E+000	10	...........
	16	0.226667	7.31243E-001	5.99045E-003	0.00000E+000	4.38048E-003	3.59960E-001	-1.12257E+000	3.57680E+000	10	...........
	17	0.24	7.37609E-001	5.99476E-003	0.00000E+000	4.42179E-003	3.59960E-001	-1.12028E+000	3.57680E+000	10	...........
	18	0.253333	7.44032E-001	5.99348E-003	0.00000E+000	4.45934E-003	3.59960E-001	-1.11471E+000	3.57680E+000	10	...........
	19	0.266667	7.50382E-001	5.99793E-003	0.00000E+000	4.50074E-003	3.59960E-001	-1.12206E+000	3.57680E+000	10	...........
	20	0.28	7.56750E-001	5.99272E-003	0.00000E+000	4.53499E-003	3.59960E-001	-1.11963E+000	3.57680E+000	10	...........
	21	0.293333	7.63049E-001	5.99858E-003	0.00000E+000	4.57721E-003	3.59960E-001	-1.11388E+000	3.57680E+000	10	...........
	22	0.306667	7.69386E-001	5.99862E-003	0.00000E+000	4.61526E-003	3.59960E-001	-1.12197E+000	3.57680E+000	10	...........
	23	0.32	7.75667E-001	5.99137E-003	0.00000E+000	4.64731E-003	3.59960E-001	-1.11973E+000	3.57680E+000	10	...........
	24	0.333333	7.81976E-001	5.99791E-003	0.00000E+000	4.69022E-003	3.59960E-001	-1.11373E+000	3.57680E+000	10	...........
	25	0.346667	7.88232E-001	5.99559E-003	0.00000E+000	4.72591E-003	3.59960E-001	-1.12137E+000	3.57680E+000	10	...........
	26	0.36	7.94558E-001	5.99092E-003	0.00000E+000	4.76014E-003	3.59960E-001	-1.11971E+000	3.57680E+000	10	...........
	27	0.373333	8.00835E-001	5.99287E-003	0.00000E+000	4.79930E-003	3.59960E-001	-1.11382E+000	3.57680E+000	10	...........
	28	0.386667	8.07091E-001	5.99129E-003	0.00000E+000	4.83552E-003	3.59960E-001	-1.12137E+000	3.57680E+000	10	...........
	29	0.4	8.13330E-001	5.99898E-003	0.00000E+000	4.87915E-003	3.59960E-001	-1.11977E+000	3.57680E+000	10	...........
	30	0.413333	8.19594E-001	5.99264E-003	0.00000E+000	4.91153E-003	3.59960E-001	-1.11354E+000	3.57680E+000	10	...........
	31	0.426667	8.25783E-001	5.99152E-003	0.00000E+000	4.94770E-003	3.59960E-001	-1.12082E+000	3.57680E+000	10	...........
	32	0.44	8.31949E-001	5.99483E-003	0.00000E+000	4.98740E-003	3.59960E-001	-1.11974E+000	3.57680E+000	10	...........
	33	0.453333	8.38152E-001	5.99416E-003	0.00000E+000	5.02401E-003	3.59960E-001	-1.11366E+000	3.57680E+000	10	...........
	34	0.466667	8.44296E-001	5.99363E-003	0.00000E+000	5.06040E-003	3.59960E-001	-1.12082E+000	3.57680E+000	10	...........
	35	0.48	8.50446E-001	5.99521E-003	0.00000E+000	5.09860E-003	3.59960E-001	-1.11958E+000	3.57680E+000	10	...........
	36	0.493333	8.56592E-001	5.99332E-003	0.00000E+000	5.13383E-003	3.59960E-001	-1.11345E+000	3.57680E+000	10	...........
	37	0.506667	8.62751E-001	5.99140E-003	0.00000E+000	5.16909E-003	3.59960E-001	-1.12089E+000	3.57680E+000	10	...........
	38	0.52	8.68854E-001	5.99011E-003	0.00000E+000	5.20453E-003	3.59960E-001	-1.11982E+000	3.57680E+000	10	...........
	39	0.533333	8.74993E-001	5.99311E-003	0.00000E+000	5.24393E-003	3.59960E-001	-1.11339E+000	3.57680E+000	10	...........
	40	0.546667	8.81091E-001	5.99200E-003	0.00000E+000	5.27950E-003	3.59960E-001	-1.12053E+000	3.57680E+000	10	...........
	41	0.56	8.87156E-001	5.99278E-003	0.00000E+000	5.31653E-003	3.59960E-001	-1.11984E+000	3.57680E+000	10	...........
	42	0.573333	8.93201E-001	5.99594E-003	0.00000E+000	5.35558E-003	3.59960E-001	-1.11346E+000	3.57680E+000	10	...........
	43	0.586667	8.99212E-001	5.99363E-003	0.00000E+000	5.38955E-003	3.59960E-001	-1.12006E+000	3.57680E+000	10	...........
	44	0.6	9.05214E-001	5.99399E-003	0.00000E+000	5.42584E-003	3.59960E-001	-1.11941E+000	3.57680E+000	10	...........
	45	0.613333	9.11176E-001	5.99797E-003	0.00000E+000	5.46521E-003	3.59960E-001	-1.11251E+000	3.57680E+000	10	...........
	46	0.626667	9.17137E-001	5.99350E-003	0.00000E+000	5.49686E-003	3.59960E-001	-1.11960E+000	3.57680E+000	10	...........
	47	0.64	9.23124E-001	5.99623E-003	0.00000E+000	5.53527E-003	3.59960E-001	-1.11949E+000	3.57680E+000	10	...........
	48	0.653333	9.29000E-001	5.99511E-003	0.00000E+000	5.56945E-003	3.59960E-001	-1.11224E+000	3.57680E+000	10	...........
	49	0.666667	9.34847E-001	5.99880E-003	0.00000E+000	5.60796E-003	3.59960E-001	-1.11908E+000	3.57680E+000	10	...........
	50	0.68	9.40673E-001	5.99070E-003	0.00000E+000	5.63530E-003	3.59960E-001	-1.11883E+000	3.57680E+000	10	...........
	51	0.693333	9.46494E-001	5.99248E-003	0.00000E+000	5.67185E-003	3.59960E-001	-1.11172E+000	3.57680E+000	10	...........
	52	0.706667	9.52266E-001	5.99627E-003	0.00000E+000	5.71005E-003	3.59960E-001	-1.11849E+000	3.57680E+000	10	...........
	53	0.72	9.57963E-001	5.99507E-003	0.00000E+000	5.74306E-003	3.59960E-001	-1.11874E+000	3.57680E+000	10	...........
	54	0.733333	9.63658E-001	5.99280E-003	0.00000E+000	5.77501E-003	3.59960E-001	-1.11138E+000	3.57680E+000	10	...........
	55	0.746667	9.69311E-001	5.99723E-003	0.00000E+000	5.81319E-003	3.59960E-001	-1.11797E+000	3.57680E+000	10	...........
	56	0.76	9.74945E-001	5.99517E-003	0.00000E+000	5.84496E-003	3.59960E-001	-1.11836E+000	3.57680E+000	10	...........
	57	0.773333	9.80498E-001	5.99390E-003	0.00000E+000	5.87700E-003	3.59960E-001	-1.11107E+000	3.57680E+000	10	...........
	58	0.786667	9.85995E-001	5.99306E-003	0.00000E+000	5.90913E-003	3.59960E-001	-1.11753E+000	3.57680E+000	10	...........
	59	0.8	9.91475E-001	5.99735E-003	0.00000E+000	5.94622E-003	3.59960E-001	-1.11829E+000	3.57680E+000	10	...........
	60	0.813333	9.96917E-001	5.99911E-003	0.00000E+000	5.98061E-003	3.59960E-001	-1.11108E+000	3.57680E+000	10	...........
	61	0.816667	1.00030E+000	5.99776E-003	0.00000E+000	5.99955E-003	3.59960E-001	-1.12542E+000	3.57680E+000	10	...........
STARTTIMEOFFSET	QUANT	598.3631	Start Time Offset (s)