File: Data/CV_CRGO300517_1/PWRCCD_CRGO300517_1/CHARGE_DISCHARGE/CHARGE_#961.DTA
EXPLAIN
TAG	PWR800_CHARGE
TITLE	LABEL	PWR Cyclic Charge Discharge (Cell) - Charge Step	Test &Identifier
DATE	LABEL	22-6-2017	Date
TIME	LABEL	16:13:13	Time
NOTES	NOTES	3	&Notes...
	supercap test cell
	0.6mg
	6M KOH
PSTAT	PSTAT	IFC5000-01520	Potentiostat
CAPACITY	QUANT	1.00000E-003	Capacity (A-hr)
CELLTYPE	SELECTOR	1	&Cell Type
WORKINGCONNECTION	SELECTOR	0	&Working Lead
MAXCHARGETIME	VARIABLEANDUNITS	1.00000E+002	s	1.00000E+002	second(s)	Max &Charge Time
CHARGECURRENT	QUANT	6.00000E-003	&Charge Current (A)
VOLTAGEFINISH	TWOPARAM	F	1.00000E-003	3.60000E+003	&Voltage Finish	 I (A) < 	Max Time(s)
SAMPLETIME	QUANT	1.00000E-002	Sa&mple Period (s)
CHARGESTOPAT1	MULTIPARAM	4	1.00000E+000	Charge Stop At &1	Voltage > Limit	V
CHARGESTOPAT2	MULTIPARAM	0	0.00000E+000	Charge Stop At &2	None	N/A
AESBHCSELECTOR	TOGGLE	F	Save Both Half Cells
IRCOMP	TOGGLE	F	IR &Measure
EOC	QUANT	0	Open Circuit (V)
SEQUENCER	TOGGLE	TRUE	Run as Sequence
PSTATMODEL	IQUANT	53	Pstat Model
PSTATSECTION	LABEL	IFC5000-01520	Pstat Section
PSTATSERIALNO	LABEL	01520	Pstat Serial Number
CTRLMODE	IQUANT	0	Control Mode
ELECTROMETER	IQUANT	1	RE=0 or CS=1
IESTAB	IQUANT	0	I/E Stability
CASPEED	IQUANT	4	Control Amp Speed
CONVENTION	IQUANT	1	Current Convention
ICHRANGE	IQUANT	2	Ich Range
ICHRANGEMODE	TOGGLE	T	Ich Auto Range
ICHOFFSETENABLE	TOGGLE	F	Ich Offset Enable
ICHOFFSET	QUANT	0	Ich Offset (V)
ICHFILTER	IQUANT	1	Ich Filter
VCHRANGE	IQUANT	2	Vch Range
VCHRANGEMODE	TOGGLE	T	Vch Auto Range
VCHOFFSETENABLE	TOGGLE	F	Vch Offset Enable
VCHOFFSET	QUANT	0	Vch Offset (V)
VCHFILTER	IQUANT	1	Vch Filter
IERANGELOWERLIMIT	IQUANT	9	I/E Range Lower Limit
IERANGEMODE	TOGGLE	F	I/E AutoRange
IERANGE	IQUANT	10	I/E Range
ACHSELECT	IQUANT	1	Ach Select
ACHRANGE	IQUANT	2	Ach Range
ACHOFFSETENABLE	TOGGLE	F	Ach Offset Enable
ACHOFFSET	QUANT	0	Ach Offset (V)
ACHFILTER	IQUANT	1	Ach Filter
CABLEID	IQUANT	14	Cable ID
DCCALDATE	LABEL	20-10-2016	DC Calibration Date
ACCALDATE	LABEL	12/3/2015	AC Calibration Date
FRAMEWORKVERSION	QUANT	7.01	Framework Version
INSTRUMENTVERSION	LABEL	4.00	Instrument Version
CURVE	TABLE	53
	Pt	T	Vf	Im	Vu	Pwr	Sig	Ach	Temp	IERange	Over
	#	s	V	A	V	W	V	V	deg C	#	bits
	0	0.013333	6.55642E-001	5.99645E-003	0.00000E+000	3.93152E-003	3.59960E-001	-1.17300E+000	3.57780E+000	10	...........
	1	0.026667	6.64933E-001	5.99368E-003	0.00000E+000	3.98539E-003	3.59960E-001	-1.17736E+000	3.57780E+000	10	...........
	2	0.04	6.73541E-001	5.99544E-003	0.00000E+000	4.03817E-003	3.59960E-001	-1.18178E+000	3.57780E+000	10	...........
	3	0.053333	6.81641E-001	5.99210E-003	0.00000E+000	4.08446E-003	3.59960E-001	-1.17281E+000	3.57780E+000	10	...........
	4	0.066667	6.89500E-001	5.99928E-003	0.00000E+000	4.13650E-003	3.59960E-001	-1.17713E+000	3.57780E+000	10	...........
	5	0.08	6.97172E-001	5.99182E-003	0.00000E+000	4.17733E-003	3.59960E-001	-1.18183E+000	3.57780E+000	10	...........
	6	0.093333	7.04610E-001	5.99212E-003	0.00000E+000	4.22211E-003	3.59960E-001	-1.17294E+000	3.57780E+000	10	...........
	7	0.106667	7.11993E-001	5.99026E-003	0.00000E+000	4.26502E-003	3.59960E-001	-1.17695E+000	3.57780E+000	10	...........
	8	0.12	7.19280E-001	5.99473E-003	0.00000E+000	4.31189E-003	3.59960E-001	-1.18106E+000	3.57780E+000	10	...........
	9	0.133333	7.26482E-001	5.99174E-003	0.00000E+000	4.35289E-003	3.59960E-001	-1.17238E+000	3.57780E+000	10	...........
	10	0.146667	7.33582E-001	5.99612E-003	0.00000E+000	4.39864E-003	3.59960E-001	-1.17669E+000	3.57780E+000	10	...........
	11	0.16	7.40657E-001	5.98892E-003	0.00000E+000	4.43573E-003	3.59960E-001	-1.18112E+000	3.57780E+000	10	...........
	12	0.173333	7.47724E-001	5.99710E-003	0.00000E+000	4.48418E-003	3.59960E-001	-1.17212E+000	3.57780E+000	10	...........
	13	0.186667	7.54703E-001	5.99281E-003	0.00000E+000	4.52279E-003	3.59960E-001	-1.17652E+000	3.57780E+000	10	...........
	14	0.2	7.61678E-001	5.99576E-003	0.00000E+000	4.56684E-003	3.59960E-001	-1.18104E+000	3.57780E+000	10	...........
	15	0.213333	7.68588E-001	5.99666E-003	0.00000E+000	4.60896E-003	3.59960E-001	-1.17223E+000	3.57780E+000	10	...........
	16	0.226667	7.75455E-001	5.99463E-003	0.00000E+000	4.64856E-003	3.59960E-001	-1.17677E+000	3.57780E+000	10	...........
	17	0.24	7.82310E-001	5.99114E-003	0.00000E+000	4.68693E-003	3.59960E-001	-1.18108E+000	3.57780E+000	10	...........
	18	0.253333	7.89086E-001	5.99528E-003	0.00000E+000	4.73079E-003	3.59960E-001	-1.17201E+000	3.57780E+000	10	...........
	19	0.266667	7.95898E-001	5.99761E-003	0.00000E+000	4.77349E-003	3.59960E-001	-1.17672E+000	3.57780E+000	10	...........
	20	0.28	8.02653E-001	5.99899E-003	0.00000E+000	4.81511E-003	3.59960E-001	-1.18112E+000	3.57780E+000	10	...........
	21	0.293333	8.09368E-001	5.99323E-003	0.00000E+000	4.85073E-003	3.59960E-001	-1.17196E+000	3.57780E+000	10	...........
	22	0.306667	8.16060E-001	5.99090E-003	0.00000E+000	4.88893E-003	3.59960E-001	-1.17635E+000	3.57780E+000	10	...........
	23	0.32	8.22778E-001	5.99407E-003	0.00000E+000	4.93179E-003	3.59960E-001	-1.18098E+000	3.57780E+000	10	...........
	24	0.333333	8.29420E-001	5.98907E-003	0.00000E+000	4.96745E-003	3.59960E-001	-1.17182E+000	3.57780E+000	10	...........
	25	0.346667	8.36058E-001	5.99318E-003	0.00000E+000	5.01064E-003	3.59960E-001	-1.17676E+000	3.57780E+000	10	...........
	26	0.36	8.42661E-001	5.99119E-003	0.00000E+000	5.04854E-003	3.59960E-001	-1.18103E+000	3.57780E+000	10	...........
	27	0.373333	8.49303E-001	5.99413E-003	0.00000E+000	5.09083E-003	3.59960E-001	-1.17207E+000	3.57780E+000	10	...........
	28	0.386667	8.55836E-001	5.99981E-003	0.00000E+000	5.13485E-003	3.59960E-001	-1.17666E+000	3.57780E+000	10	...........
	29	0.4	8.62349E-001	5.99516E-003	0.00000E+000	5.16992E-003	3.59960E-001	-1.18098E+000	3.57780E+000	10	...........
	30	0.413333	8.68869E-001	5.99186E-003	0.00000E+000	5.20614E-003	3.59960E-001	-1.17205E+000	3.57780E+000	10	...........
	31	0.426667	8.75318E-001	5.99839E-003	0.00000E+000	5.25050E-003	3.59960E-001	-1.17650E+000	3.57780E+000	10	...........
	32	0.44	8.81759E-001	5.99525E-003	0.00000E+000	5.28637E-003	3.59960E-001	-1.18052E+000	3.57780E+000	10	...........
	33	0.453333	8.88128E-001	5.98959E-003	0.00000E+000	5.31952E-003	3.59960E-001	-1.17143E+000	3.57780E+000	10	...........
	34	0.466667	8.94490E-001	5.99249E-003	0.00000E+000	5.36022E-003	3.59960E-001	-1.17640E+000	3.57780E+000	10	...........
	35	0.48	9.00787E-001	5.99220E-003	0.00000E+000	5.39769E-003	3.59960E-001	-1.18061E+000	3.57780E+000	10	...........
	36	0.493333	9.07056E-001	5.99518E-003	0.00000E+000	5.43796E-003	3.59960E-001	-1.17173E+000	3.57780E+000	10	...........
	37	0.506667	9.13306E-001	5.99360E-003	0.00000E+000	5.47399E-003	3.59960E-001	-1.17625E+000	3.57780E+000	10	...........
	38	0.52	9.19473E-001	5.98890E-003	0.00000E+000	5.50663E-003	3.59960E-001	-1.18030E+000	3.57780E+000	10	...........
	39	0.533333	9.25733E-001	5.99359E-003	0.00000E+000	5.54847E-003	3.59960E-001	-1.17147E+000	3.57780E+000	10	...........
	40	0.546667	9.31846E-001	5.99147E-003	0.00000E+000	5.58312E-003	3.59960E-001	-1.17643E+000	3.57780E+000	10	...........
	41	0.56	9.37907E-001	5.99758E-003	0.00000E+000	5.62517E-003	3.59960E-001	-1.18054E+000	3.57780E+000	10	...........
	42	0.573333	9.43891E-001	5.99356E-003	0.00000E+000	5.65727E-003	3.59960E-001	-1.17167E+000	3.57780E+000	10	...........
	43	0.586667	9.49914E-001	5.99017E-003	0.00000E+000	5.69015E-003	3.59960E-001	-1.17624E+000	3.57780E+000	10	...........
	44	0.6	9.55844E-001	5.99758E-003	0.00000E+000	5.73275E-003	3.59960E-001	-1.18044E+000	3.57780E+000	10	...........
	45	0.613333	9.61729E-001	5.99569E-003	0.00000E+000	5.76623E-003	3.59960E-001	-1.17160E+000	3.57780E+000	10	...........
	46	0.626667	9.67600E-001	5.99576E-003	0.00000E+000	5.80150E-003	3.59960E-001	-1.17638E+000	3.57780E+000	10	...........
	47	0.64	9.73405E-001	5.99379E-003	0.00000E+000	5.83439E-003	3.59960E-001	-1.18053E+000	3.57780E+000	10	...........
	48	0.653333	9.79180E-001	5.99844E-003	0.00000E+000	5.87356E-003	3.59960E-001	-1.17151E+000	3.57780E+000	10	...........
	49	0.666667	9.84843E-001	5.99414E-003	0.00000E+000	5.90328E-003	3.59960E-001	-1.17637E+000	3.57780E+000	10	...........
	50	0.68	9.90464E-001	5.99356E-003	0.00000E+000	5.93641E-003	3.59960E-001	-1.18051E+000	3.57780E+000	10	...........
	51	0.693333	9.96037E-001	5.99437E-003	0.00000E+000	5.97061E-003	3.59960E-001	-1.17188E+000	3.57780E+000	10	...........
	52	0.698333	9.99807E-001	5.99301E-003	0.00000E+000	5.99186E-003	3.59960E-001	-1.18612E+000	3.57780E+000	10	...........
STARTTIMEOFFSET	QUANT	1531.273	Start Time Offset (s)