File: Data/CV_CRGO300517_1/PWRCCD_CRGO300517_1/CHARGE_DISCHARGE/CHARGE_#586.DTA
EXPLAIN
TAG	PWR800_CHARGE
TITLE	LABEL	PWR Cyclic Charge Discharge (Cell) - Charge Step	Test &Identifier
DATE	LABEL	22-6-2017	Date
TIME	LABEL	15:59:14	Time
NOTES	NOTES	3	&Notes...
	supercap test cell
	0.6mg
	6M KOH
PSTAT	PSTAT	IFC5000-01520	Potentiostat
CAPACITY	QUANT	1.00000E-003	Capacity (A-hr)
CELLTYPE	SELECTOR	1	&Cell Type
WORKINGCONNECTION	SELECTOR	0	&Working Lead
MAXCHARGETIME	VARIABLEANDUNITS	1.00000E+002	s	1.00000E+002	second(s)	Max &Charge Time
CHARGECURRENT	QUANT	6.00000E-003	&Charge Current (A)
VOLTAGEFINISH	TWOPARAM	F	1.00000E-003	3.60000E+003	&Voltage Finish	 I (A) < 	Max Time(s)
SAMPLETIME	QUANT	1.00000E-002	Sa&mple Period (s)
CHARGESTOPAT1	MULTIPARAM	4	1.00000E+000	Charge Stop At &1	Voltage > Limit	V
CHARGESTOPAT2	MULTIPARAM	0	0.00000E+000	Charge Stop At &2	None	N/A
AESBHCSELECTOR	TOGGLE	F	Save Both Half Cells
IRCOMP	TOGGLE	F	IR &Measure
EOC	QUANT	0	Open Circuit (V)
SEQUENCER	TOGGLE	TRUE	Run as Sequence
PSTATMODEL	IQUANT	53	Pstat Model
PSTATSECTION	LABEL	IFC5000-01520	Pstat Section
PSTATSERIALNO	LABEL	01520	Pstat Serial Number
CTRLMODE	IQUANT	0	Control Mode
ELECTROMETER	IQUANT	1	RE=0 or CS=1
IESTAB	IQUANT	0	I/E Stability
CASPEED	IQUANT	4	Control Amp Speed
CONVENTION	IQUANT	1	Current Convention
ICHRANGE	IQUANT	2	Ich Range
ICHRANGEMODE	TOGGLE	T	Ich Auto Range
ICHOFFSETENABLE	TOGGLE	F	Ich Offset Enable
ICHOFFSET	QUANT	0	Ich Offset (V)
ICHFILTER	IQUANT	1	Ich Filter
VCHRANGE	IQUANT	2	Vch Range
VCHRANGEMODE	TOGGLE	T	Vch Auto Range
VCHOFFSETENABLE	TOGGLE	F	Vch Offset Enable
VCHOFFSET	QUANT	0	Vch Offset (V)
VCHFILTER	IQUANT	1	Vch Filter
IERANGELOWERLIMIT	IQUANT	9	I/E Range Lower Limit
IERANGEMODE	TOGGLE	F	I/E AutoRange
IERANGE	IQUANT	10	I/E Range
ACHSELECT	IQUANT	1	Ach Select
ACHRANGE	IQUANT	2	Ach Range
ACHOFFSETENABLE	TOGGLE	F	Ach Offset Enable
ACHOFFSET	QUANT	0	Ach Offset (V)
ACHFILTER	IQUANT	1	Ach Filter
CABLEID	IQUANT	14	Cable ID
DCCALDATE	LABEL	20-10-2016	DC Calibration Date
ACCALDATE	LABEL	12/3/2015	AC Calibration Date
FRAMEWORKVERSION	QUANT	7.01	Framework Version
INSTRUMENTVERSION	LABEL	4.00	Instrument Version
CURVE	TABLE	57
	Pt	T	Vf	Im	Vu	Pwr	Sig	Ach	Temp	IERange	Over
	#	s	V	A	V	W	V	V	deg C	#	bits
	0	0.013333	6.37586E-001	5.99212E-003	0.00000E+000	3.82049E-003	3.59960E-001	-1.15472E+000	3.57670E+000	10	...........
	1	0.026667	6.46582E-001	5.99497E-003	0.00000E+000	3.87624E-003	3.59960E-001	-1.14425E+000	3.57670E+000	10	...........
	2	0.04	6.54861E-001	5.99338E-003	0.00000E+000	3.92484E-003	3.59960E-001	-1.14689E+000	3.57670E+000	10	...........
	3	0.053333	6.62671E-001	5.99735E-003	0.00000E+000	3.97427E-003	3.59960E-001	-1.15481E+000	3.57670E+000	10	...........
	4	0.066667	6.70187E-001	5.98988E-003	0.00000E+000	4.01434E-003	3.59960E-001	-1.14449E+000	3.57670E+000	10	...........
	5	0.08	6.77540E-001	5.98994E-003	0.00000E+000	4.05842E-003	3.59960E-001	-1.14651E+000	3.57670E+000	10	...........
	6	0.093333	6.84789E-001	5.98942E-003	0.00000E+000	4.10149E-003	3.59960E-001	-1.15458E+000	3.57670E+000	10	...........
	7	0.106667	6.91884E-001	5.99123E-003	0.00000E+000	4.14523E-003	3.59960E-001	-1.14431E+000	3.57670E+000	10	...........
	8	0.12	6.98884E-001	5.99575E-003	0.00000E+000	4.19034E-003	3.59960E-001	-1.14673E+000	3.57670E+000	10	...........
	9	0.133333	7.05844E-001	5.99367E-003	0.00000E+000	4.23059E-003	3.59960E-001	-1.15462E+000	3.57670E+000	10	...........
	10	0.146667	7.12675E-001	5.99309E-003	0.00000E+000	4.27113E-003	3.59960E-001	-1.14427E+000	3.57670E+000	10	...........
	11	0.16	7.19560E-001	5.99394E-003	0.00000E+000	4.31300E-003	3.59960E-001	-1.14661E+000	3.57670E+000	10	...........
	12	0.173333	7.26285E-001	5.99400E-003	0.00000E+000	4.35335E-003	3.59960E-001	-1.15470E+000	3.57670E+000	10	...........
	13	0.186667	7.33020E-001	5.99362E-003	0.00000E+000	4.39345E-003	3.59960E-001	-1.14433E+000	3.57670E+000	10	...........
	14	0.2	7.39724E-001	5.99499E-003	0.00000E+000	4.43464E-003	3.59960E-001	-1.14652E+000	3.57670E+000	10	...........
	15	0.213333	7.46404E-001	5.99516E-003	0.00000E+000	4.47481E-003	3.59960E-001	-1.15465E+000	3.57670E+000	10	...........
	16	0.226667	7.53038E-001	5.99344E-003	0.00000E+000	4.51328E-003	3.59960E-001	-1.14426E+000	3.57670E+000	10	...........
	17	0.24	7.59696E-001	5.99148E-003	0.00000E+000	4.55170E-003	3.59960E-001	-1.14611E+000	3.57670E+000	10	...........
	18	0.253333	7.66298E-001	5.99116E-003	0.00000E+000	4.59101E-003	3.59960E-001	-1.15424E+000	3.57670E+000	10	...........
	19	0.266667	7.72870E-001	5.99548E-003	0.00000E+000	4.63373E-003	3.59960E-001	-1.14386E+000	3.57670E+000	10	...........
	20	0.28	7.79421E-001	5.99255E-003	0.00000E+000	4.67072E-003	3.59960E-001	-1.14603E+000	3.57670E+000	10	...........
	21	0.293333	7.86006E-001	5.99314E-003	0.00000E+000	4.71065E-003	3.59960E-001	-1.15432E+000	3.57670E+000	10	...........
	22	0.306667	7.92527E-001	5.98968E-003	0.00000E+000	4.74699E-003	3.59960E-001	-1.14396E+000	3.57670E+000	10	...........
	23	0.32	7.99033E-001	5.99504E-003	0.00000E+000	4.79024E-003	3.59960E-001	-1.14605E+000	3.57670E+000	10	...........
	24	0.333333	8.05532E-001	5.99543E-003	0.00000E+000	4.82951E-003	3.59960E-001	-1.15425E+000	3.57670E+000	10	...........
	25	0.346667	8.11977E-001	5.99555E-003	0.00000E+000	4.86825E-003	3.59960E-001	-1.14377E+000	3.57670E+000	10	...........
	26	0.36	8.18494E-001	5.99230E-003	0.00000E+000	4.90466E-003	3.59960E-001	-1.14613E+000	3.57670E+000	10	...........
	27	0.373333	8.24927E-001	5.98917E-003	0.00000E+000	4.94063E-003	3.59960E-001	-1.15421E+000	3.57670E+000	10	...........
	28	0.386667	8.31335E-001	5.99528E-003	0.00000E+000	4.98409E-003	3.59960E-001	-1.14386E+000	3.57670E+000	10	...........
	29	0.4	8.37716E-001	5.99784E-003	0.00000E+000	5.02449E-003	3.59960E-001	-1.14599E+000	3.57670E+000	10	...........
	30	0.413333	8.44141E-001	5.99893E-003	0.00000E+000	5.06395E-003	3.59960E-001	-1.15409E+000	3.57670E+000	10	...........
	31	0.426667	8.50542E-001	5.99413E-003	0.00000E+000	5.09826E-003	3.59960E-001	-1.14372E+000	3.57670E+000	10	...........
	32	0.44	8.56859E-001	5.99147E-003	0.00000E+000	5.13384E-003	3.59960E-001	-1.14614E+000	3.57670E+000	10	...........
	33	0.453333	8.63167E-001	5.98862E-003	0.00000E+000	5.16918E-003	3.59960E-001	-1.15414E+000	3.57670E+000	10	...........
	34	0.466667	8.69479E-001	5.99298E-003	0.00000E+000	5.21077E-003	3.59960E-001	-1.14377E+000	3.57670E+000	10	...........
	35	0.48	8.75771E-001	5.99855E-003	0.00000E+000	5.25335E-003	3.59960E-001	-1.14596E+000	3.57670E+000	10	...........
	36	0.493333	8.82063E-001	5.98993E-003	0.00000E+000	5.28350E-003	3.59960E-001	-1.15419E+000	3.57670E+000	10	...........
	37	0.506667	8.88308E-001	5.99623E-003	0.00000E+000	5.32650E-003	3.59960E-001	-1.14369E+000	3.57670E+000	10	...........
	38	0.52	8.94504E-001	5.99625E-003	0.00000E+000	5.36367E-003	3.59960E-001	-1.14615E+000	3.57670E+000	10	...........
	39	0.533333	9.00676E-001	5.99333E-003	0.00000E+000	5.39805E-003	3.59960E-001	-1.15396E+000	3.57670E+000	10	...........
	40	0.546667	9.06797E-001	5.99399E-003	0.00000E+000	5.43533E-003	3.59960E-001	-1.14342E+000	3.57670E+000	10	...........
	41	0.56	9.12929E-001	5.99439E-003	0.00000E+000	5.47245E-003	3.59960E-001	-1.14551E+000	3.57670E+000	10	...........
	42	0.573333	9.18999E-001	5.99693E-003	0.00000E+000	5.51117E-003	3.59960E-001	-1.15381E+000	3.57670E+000	10	...........
	43	0.586667	9.25050E-001	5.99552E-003	0.00000E+000	5.54616E-003	3.59960E-001	-1.14322E+000	3.57670E+000	10	...........
	44	0.6	9.31080E-001	5.99613E-003	0.00000E+000	5.58287E-003	3.59960E-001	-1.14572E+000	3.57670E+000	10	...........
	45	0.613333	9.37026E-001	5.99676E-003	0.00000E+000	5.61912E-003	3.59960E-001	-1.15374E+000	3.57670E+000	10	...........
	46	0.626667	9.42908E-001	5.99323E-003	0.00000E+000	5.65106E-003	3.59960E-001	-1.14349E+000	3.57670E+000	10	...........
	47	0.64	9.48811E-001	5.99284E-003	0.00000E+000	5.68608E-003	3.59960E-001	-1.14561E+000	3.57670E+000	10	...........
	48	0.653333	9.54683E-001	5.99479E-003	0.00000E+000	5.72313E-003	3.59960E-001	-1.15372E+000	3.57670E+000	10	...........
	49	0.666667	9.60469E-001	5.99462E-003	0.00000E+000	5.75764E-003	3.59960E-001	-1.14322E+000	3.57670E+000	10	...........
	50	0.68	9.66205E-001	5.99513E-003	0.00000E+000	5.79252E-003	3.59960E-001	-1.14550E+000	3.57670E+000	10	...........
	51	0.693333	9.71950E-001	5.99098E-003	0.00000E+000	5.82293E-003	3.59960E-001	-1.15363E+000	3.57670E+000	10	...........
	52	0.706667	9.77696E-001	5.99130E-003	0.00000E+000	5.85767E-003	3.59960E-001	-1.14332E+000	3.57670E+000	10	...........
	53	0.72	9.83282E-001	5.99682E-003	0.00000E+000	5.89656E-003	3.59960E-001	-1.14581E+000	3.57670E+000	10	...........
	54	0.733333	9.88876E-001	5.99531E-003	0.00000E+000	5.92862E-003	3.59960E-001	-1.15358E+000	3.57670E+000	10	...........
	55	0.746667	9.94401E-001	5.99125E-003	0.00000E+000	5.95770E-003	3.59960E-001	-1.14311E+000	3.57670E+000	10	...........
	56	0.755	9.98856E-001	5.99858E-003	0.00000E+000	5.99172E-003	3.59960E-001	-1.15399E+000	3.57670E+000	10	...........
STARTTIMEOFFSET	QUANT	989.915	Start Time Offset (s)