File: Data/CV_CRGO300517_1/PWRCCD_CRGO300517_1/CHARGE_DISCHARGE/CHARGE_#211.DTA
EXPLAIN
TAG	PWR800_CHARGE
TITLE	LABEL	PWR Cyclic Charge Discharge (Cell) - Charge Step	Test &Identifier
DATE	LABEL	22-6-2017	Date
TIME	LABEL	15:44:16	Time
NOTES	NOTES	3	&Notes...
	supercap test cell
	0.6mg
	6M KOH
PSTAT	PSTAT	IFC5000-01520	Potentiostat
CAPACITY	QUANT	1.00000E-003	Capacity (A-hr)
CELLTYPE	SELECTOR	1	&Cell Type
WORKINGCONNECTION	SELECTOR	0	&Working Lead
MAXCHARGETIME	VARIABLEANDUNITS	1.00000E+002	s	1.00000E+002	second(s)	Max &Charge Time
CHARGECURRENT	QUANT	6.00000E-003	&Charge Current (A)
VOLTAGEFINISH	TWOPARAM	F	1.00000E-003	3.60000E+003	&Voltage Finish	 I (A) < 	Max Time(s)
SAMPLETIME	QUANT	1.00000E-002	Sa&mple Period (s)
CHARGESTOPAT1	MULTIPARAM	4	1.00000E+000	Charge Stop At &1	Voltage > Limit	V
CHARGESTOPAT2	MULTIPARAM	0	0.00000E+000	Charge Stop At &2	None	N/A
AESBHCSELECTOR	TOGGLE	F	Save Both Half Cells
IRCOMP	TOGGLE	F	IR &Measure
EOC	QUANT	0	Open Circuit (V)
SEQUENCER	TOGGLE	TRUE	Run as Sequence
PSTATMODEL	IQUANT	53	Pstat Model
PSTATSECTION	LABEL	IFC5000-01520	Pstat Section
PSTATSERIALNO	LABEL	01520	Pstat Serial Number
CTRLMODE	IQUANT	0	Control Mode
ELECTROMETER	IQUANT	1	RE=0 or CS=1
IESTAB	IQUANT	0	I/E Stability
CASPEED	IQUANT	4	Control Amp Speed
CONVENTION	IQUANT	1	Current Convention
ICHRANGE	IQUANT	2	Ich Range
ICHRANGEMODE	TOGGLE	T	Ich Auto Range
ICHOFFSETENABLE	TOGGLE	F	Ich Offset Enable
ICHOFFSET	QUANT	0	Ich Offset (V)
ICHFILTER	IQUANT	1	Ich Filter
VCHRANGE	IQUANT	2	Vch Range
VCHRANGEMODE	TOGGLE	T	Vch Auto Range
VCHOFFSETENABLE	TOGGLE	F	Vch Offset Enable
VCHOFFSET	QUANT	0	Vch Offset (V)
VCHFILTER	IQUANT	1	Vch Filter
IERANGELOWERLIMIT	IQUANT	9	I/E Range Lower Limit
IERANGEMODE	TOGGLE	F	I/E AutoRange
IERANGE	IQUANT	10	I/E Range
ACHSELECT	IQUANT	1	Ach Select
ACHRANGE	IQUANT	2	Ach Range
ACHOFFSETENABLE	TOGGLE	F	Ach Offset Enable
ACHOFFSET	QUANT	0	Ach Offset (V)
ACHFILTER	IQUANT	1	Ach Filter
CABLEID	IQUANT	14	Cable ID
DCCALDATE	LABEL	20-10-2016	DC Calibration Date
ACCALDATE	LABEL	12/3/2015	AC Calibration Date
FRAMEWORKVERSION	QUANT	7.01	Framework Version
INSTRUMENTVERSION	LABEL	4.00	Instrument Version
CURVE	TABLE	65
	Pt	T	Vf	Im	Vu	Pwr	Sig	Ach	Temp	IERange	Over
	#	s	V	A	V	W	V	V	deg C	#	bits
	0	0.013333	6.07763E-001	5.99629E-003	0.00000E+000	3.64432E-003	3.59960E-001	-1.09528E+000	3.57690E+000	10	...........
	1	0.026667	6.16272E-001	6.00083E-003	0.00000E+000	3.69815E-003	3.59960E-001	-1.09163E+000	3.57697E+000	10	...........
	2	0.04	6.24046E-001	5.99646E-003	0.00000E+000	3.74207E-003	3.59960E-001	-1.08678E+000	3.57700E+000	10	...........
	3	0.053333	6.31425E-001	5.99243E-003	0.00000E+000	3.78377E-003	3.59960E-001	-1.09533E+000	3.57700E+000	10	...........
	4	0.066667	6.38514E-001	5.99510E-003	0.00000E+000	3.82795E-003	3.59960E-001	-1.09179E+000	3.57700E+000	10	...........
	5	0.08	6.45439E-001	5.99349E-003	0.00000E+000	3.86843E-003	3.59960E-001	-1.08671E+000	3.57700E+000	10	...........
	6	0.093333	6.52208E-001	5.99736E-003	0.00000E+000	3.91152E-003	3.59960E-001	-1.09465E+000	3.57700E+000	10	...........
	7	0.106667	6.58870E-001	5.99609E-003	0.00000E+000	3.95064E-003	3.59960E-001	-1.09155E+000	3.57700E+000	10	...........
	8	0.12	6.65475E-001	5.99376E-003	0.00000E+000	3.98870E-003	3.59960E-001	-1.08700E+000	3.57700E+000	10	...........
	9	0.133333	6.71978E-001	5.99433E-003	0.00000E+000	4.02806E-003	3.59960E-001	-1.09497E+000	3.57700E+000	10	...........
	10	0.146667	6.78403E-001	6.00054E-003	0.00000E+000	4.07078E-003	3.59960E-001	-1.09185E+000	3.57700E+000	10	...........
	11	0.16	6.84797E-001	5.99362E-003	0.00000E+000	4.10442E-003	3.59960E-001	-1.08669E+000	3.57700E+000	10	...........
	12	0.173333	6.91172E-001	5.99380E-003	0.00000E+000	4.14275E-003	3.59960E-001	-1.09464E+000	3.57700E+000	10	...........
	13	0.186667	6.97531E-001	5.99271E-003	0.00000E+000	4.18010E-003	3.59960E-001	-1.09176E+000	3.57700E+000	10	...........
	14	0.2	7.03804E-001	5.99502E-003	0.00000E+000	4.21932E-003	3.59960E-001	-1.08721E+000	3.57700E+000	10	...........
	15	0.213333	7.10092E-001	5.99189E-003	0.00000E+000	4.25479E-003	3.59960E-001	-1.09454E+000	3.57700E+000	10	...........
	16	0.226667	7.16362E-001	5.99116E-003	0.00000E+000	4.29184E-003	3.59960E-001	-1.09175E+000	3.57700E+000	10	...........
	17	0.24	7.22613E-001	5.99670E-003	0.00000E+000	4.33329E-003	3.59960E-001	-1.08669E+000	3.57700E+000	10	...........
	18	0.253333	7.28815E-001	5.99563E-003	0.00000E+000	4.36970E-003	3.59960E-001	-1.09457E+000	3.57700E+000	10	...........
	19	0.266667	7.35016E-001	5.99836E-003	0.00000E+000	4.40889E-003	3.59960E-001	-1.09207E+000	3.57700E+000	10	...........
	20	0.28	7.41225E-001	5.99238E-003	0.00000E+000	4.44170E-003	3.59960E-001	-1.08646E+000	3.57700E+000	10	...........
	21	0.293333	7.47436E-001	5.99442E-003	0.00000E+000	4.48044E-003	3.59960E-001	-1.09399E+000	3.57700E+000	10	...........
	22	0.306667	7.53587E-001	5.99742E-003	0.00000E+000	4.51958E-003	3.59960E-001	-1.09186E+000	3.57700E+000	10	...........
	23	0.32	7.59751E-001	5.99453E-003	0.00000E+000	4.55435E-003	3.59960E-001	-1.08678E+000	3.57700E+000	10	...........
	24	0.333333	7.65907E-001	5.99355E-003	0.00000E+000	4.59051E-003	3.59960E-001	-1.09433E+000	3.57700E+000	10	...........
	25	0.346667	7.72070E-001	5.99587E-003	0.00000E+000	4.62923E-003	3.59960E-001	-1.09193E+000	3.57700E+000	10	...........
	26	0.36	7.78192E-001	5.99459E-003	0.00000E+000	4.66495E-003	3.59960E-001	-1.08654E+000	3.57700E+000	10	...........
	27	0.373333	7.84319E-001	5.99301E-003	0.00000E+000	4.70043E-003	3.59960E-001	-1.09391E+000	3.57700E+000	10	...........
	28	0.386667	7.90394E-001	5.99432E-003	0.00000E+000	4.73788E-003	3.59960E-001	-1.09243E+000	3.57700E+000	10	...........
	29	0.4	7.96533E-001	5.99290E-003	0.00000E+000	4.77354E-003	3.59960E-001	-1.08694E+000	3.57700E+000	10	...........
	30	0.413333	8.02639E-001	5.99802E-003	0.00000E+000	4.81424E-003	3.59960E-001	-1.09382E+000	3.57700E+000	10	...........
	31	0.426667	8.08694E-001	5.99963E-003	0.00000E+000	4.85187E-003	3.59960E-001	-1.09176E+000	3.57700E+000	10	...........
	32	0.44	8.14758E-001	5.99496E-003	0.00000E+000	4.88444E-003	3.59960E-001	-1.08611E+000	3.57700E+000	10	...........
	33	0.453333	8.20863E-001	5.99659E-003	0.00000E+000	4.92237E-003	3.59960E-001	-1.09354E+000	3.57700E+000	10	...........
	34	0.466667	8.26936E-001	5.99303E-003	0.00000E+000	4.95585E-003	3.59960E-001	-1.09226E+000	3.57700E+000	10	...........
	35	0.48	8.33001E-001	5.99252E-003	0.00000E+000	4.99177E-003	3.59960E-001	-1.08634E+000	3.57700E+000	10	...........
	36	0.493333	8.39046E-001	5.99108E-003	0.00000E+000	5.02679E-003	3.59960E-001	-1.09356E+000	3.57700E+000	10	...........
	37	0.506667	8.45068E-001	5.99677E-003	0.00000E+000	5.06768E-003	3.59960E-001	-1.09257E+000	3.57700E+000	10	...........
	38	0.52	8.51090E-001	5.99171E-003	0.00000E+000	5.09948E-003	3.59960E-001	-1.08653E+000	3.57700E+000	10	...........
	39	0.533333	8.57119E-001	5.99151E-003	0.00000E+000	5.13543E-003	3.59960E-001	-1.09345E+000	3.57700E+000	10	...........
	40	0.546667	8.63111E-001	5.99160E-003	0.00000E+000	5.17142E-003	3.59960E-001	-1.09244E+000	3.57700E+000	10	...........
	41	0.56	8.69132E-001	6.00025E-003	0.00000E+000	5.21501E-003	3.59960E-001	-1.08626E+000	3.57700E+000	10	...........
	42	0.573333	8.75107E-001	5.99365E-003	0.00000E+000	5.24508E-003	3.59960E-001	-1.09297E+000	3.57700E+000	10	...........
	43	0.586667	8.81106E-001	5.99096E-003	0.00000E+000	5.27868E-003	3.59960E-001	-1.09257E+000	3.57700E+000	10	...........
	44	0.6	8.87057E-001	5.99747E-003	0.00000E+000	5.32010E-003	3.59960E-001	-1.08623E+000	3.57700E+000	10	...........
	45	0.613333	8.92978E-001	5.99444E-003	0.00000E+000	5.35290E-003	3.59960E-001	-1.09286E+000	3.57700E+000	10	...........
	46	0.626667	8.98922E-001	5.99575E-003	0.00000E+000	5.38971E-003	3.59960E-001	-1.09220E+000	3.57700E+000	10	...........
	47	0.64	9.04781E-001	5.99651E-003	0.00000E+000	5.42553E-003	3.59960E-001	-1.08603E+000	3.57700E+000	10	...........
	48	0.653333	9.10663E-001	5.99508E-003	0.00000E+000	5.45950E-003	3.59960E-001	-1.09264E+000	3.57700E+000	10	...........
	49	0.666667	9.16482E-001	5.99591E-003	0.00000E+000	5.49514E-003	3.59960E-001	-1.09256E+000	3.57700E+000	10	...........
	50	0.68	9.22365E-001	5.99697E-003	0.00000E+000	5.53140E-003	3.59960E-001	-1.08591E+000	3.57700E+000	10	...........
	51	0.693333	9.28134E-001	5.99342E-003	0.00000E+000	5.56269E-003	3.59960E-001	-1.09219E+000	3.57700E+000	10	...........
	52	0.706667	9.33938E-001	5.99158E-003	0.00000E+000	5.59577E-003	3.59960E-001	-1.09252E+000	3.57700E+000	10	...........
	53	0.72	9.39673E-001	5.99340E-003	0.00000E+000	5.63183E-003	3.59960E-001	-1.08604E+000	3.57700E+000	10	...........
	54	0.733333	9.45375E-001	5.99396E-003	0.00000E+000	5.66654E-003	3.59960E-001	-1.09265E+000	3.57700E+000	10	...........
	55	0.746667	9.51108E-001	5.99822E-003	0.00000E+000	5.70496E-003	3.59960E-001	-1.09285E+000	3.57700E+000	10	...........
	56	0.76	9.56719E-001	5.99612E-003	0.00000E+000	5.73660E-003	3.59960E-001	-1.08611E+000	3.57700E+000	10	...........
	57	0.773333	9.62363E-001	5.99412E-003	0.00000E+000	5.76851E-003	3.59960E-001	-1.09250E+000	3.57700E+000	10	...........
	58	0.786667	9.67951E-001	5.99734E-003	0.00000E+000	5.80513E-003	3.59960E-001	-1.09317E+000	3.57700E+000	10	...........
	59	0.8	9.73558E-001	5.99268E-003	0.00000E+000	5.83422E-003	3.59960E-001	-1.08617E+000	3.57700E+000	10	...........
	60	0.813333	9.79087E-001	5.99667E-003	0.00000E+000	5.87126E-003	3.59960E-001	-1.09221E+000	3.57700E+000	10	...........
	61	0.826667	9.84561E-001	5.99687E-003	0.00000E+000	5.90428E-003	3.59960E-001	-1.09265E+000	3.57700E+000	10	...........
	62	0.84	9.90005E-001	5.99317E-003	0.00000E+000	5.93327E-003	3.59960E-001	-1.08547E+000	3.57700E+000	10	...........
	63	0.853333	9.95380E-001	5.99495E-003	0.00000E+000	5.96725E-003	3.59960E-001	-1.09171E+000	3.57700E+000	10	...........
	64	0.86	9.99404E-001	5.99206E-003	0.00000E+000	5.98849E-003	3.59960E-001	-1.08689E+000	3.57700E+000	10	...........
STARTTIMEOFFSET	QUANT	391.8383	Start Time Offset (s)