File: Data/CV_CRGO300517_1/PWRCCD_CRGO300517_1/CHARGE_DISCHARGE/CHARGE_#803.DTA
EXPLAIN
TAG	PWR800_CHARGE
TITLE	LABEL	PWR Cyclic Charge Discharge (Cell) - Charge Step	Test &Identifier
DATE	LABEL	22-6-2017	Date
TIME	LABEL	16:07:24	Time
NOTES	NOTES	3	&Notes...
	supercap test cell
	0.6mg
	6M KOH
PSTAT	PSTAT	IFC5000-01520	Potentiostat
CAPACITY	QUANT	1.00000E-003	Capacity (A-hr)
CELLTYPE	SELECTOR	1	&Cell Type
WORKINGCONNECTION	SELECTOR	0	&Working Lead
MAXCHARGETIME	VARIABLEANDUNITS	1.00000E+002	s	1.00000E+002	second(s)	Max &Charge Time
CHARGECURRENT	QUANT	6.00000E-003	&Charge Current (A)
VOLTAGEFINISH	TWOPARAM	F	1.00000E-003	3.60000E+003	&Voltage Finish	 I (A) < 	Max Time(s)
SAMPLETIME	QUANT	1.00000E-002	Sa&mple Period (s)
CHARGESTOPAT1	MULTIPARAM	4	1.00000E+000	Charge Stop At &1	Voltage > Limit	V
CHARGESTOPAT2	MULTIPARAM	0	0.00000E+000	Charge Stop At &2	None	N/A
AESBHCSELECTOR	TOGGLE	F	Save Both Half Cells
IRCOMP	TOGGLE	F	IR &Measure
EOC	QUANT	0	Open Circuit (V)
SEQUENCER	TOGGLE	TRUE	Run as Sequence
PSTATMODEL	IQUANT	53	Pstat Model
PSTATSECTION	LABEL	IFC5000-01520	Pstat Section
PSTATSERIALNO	LABEL	01520	Pstat Serial Number
CTRLMODE	IQUANT	0	Control Mode
ELECTROMETER	IQUANT	1	RE=0 or CS=1
IESTAB	IQUANT	0	I/E Stability
CASPEED	IQUANT	4	Control Amp Speed
CONVENTION	IQUANT	1	Current Convention
ICHRANGE	IQUANT	2	Ich Range
ICHRANGEMODE	TOGGLE	T	Ich Auto Range
ICHOFFSETENABLE	TOGGLE	F	Ich Offset Enable
ICHOFFSET	QUANT	0	Ich Offset (V)
ICHFILTER	IQUANT	1	Ich Filter
VCHRANGE	IQUANT	2	Vch Range
VCHRANGEMODE	TOGGLE	T	Vch Auto Range
VCHOFFSETENABLE	TOGGLE	F	Vch Offset Enable
VCHOFFSET	QUANT	0	Vch Offset (V)
VCHFILTER	IQUANT	1	Vch Filter
IERANGELOWERLIMIT	IQUANT	9	I/E Range Lower Limit
IERANGEMODE	TOGGLE	F	I/E AutoRange
IERANGE	IQUANT	10	I/E Range
ACHSELECT	IQUANT	1	Ach Select
ACHRANGE	IQUANT	2	Ach Range
ACHOFFSETENABLE	TOGGLE	F	Ach Offset Enable
ACHOFFSET	QUANT	0	Ach Offset (V)
ACHFILTER	IQUANT	1	Ach Filter
CABLEID	IQUANT	14	Cable ID
DCCALDATE	LABEL	20-10-2016	DC Calibration Date
ACCALDATE	LABEL	12/3/2015	AC Calibration Date
FRAMEWORKVERSION	QUANT	7.01	Framework Version
INSTRUMENTVERSION	LABEL	4.00	Instrument Version
CURVE	TABLE	54
	Pt	T	Vf	Im	Vu	Pwr	Sig	Ach	Temp	IERange	Over
	#	s	V	A	V	W	V	V	deg C	#	bits
	0	0.013333	6.49013E-001	5.99255E-003	0.00000E+000	3.88924E-003	3.59960E-001	-1.16333E+000	3.57660E+000	10	...........
	1	0.026667	6.58183E-001	5.99826E-003	0.00000E+000	3.94795E-003	3.59960E-001	-1.16775E+000	3.57660E+000	10	...........
	2	0.04	6.66673E-001	5.99394E-003	0.00000E+000	3.99600E-003	3.59960E-001	-1.17330E+000	3.57660E+000	10	...........
	3	0.053333	6.74689E-001	5.98949E-003	0.00000E+000	4.04104E-003	3.59960E-001	-1.16325E+000	3.57660E+000	10	...........
	4	0.066667	6.82447E-001	5.99683E-003	0.00000E+000	4.09251E-003	3.59960E-001	-1.16738E+000	3.57660E+000	10	...........
	5	0.08	6.89969E-001	5.99135E-003	0.00000E+000	4.13385E-003	3.59960E-001	-1.17320E+000	3.57660E+000	10	...........
	6	0.093333	6.97340E-001	5.98960E-003	0.00000E+000	4.17678E-003	3.59960E-001	-1.16342E+000	3.57660E+000	10	...........
	7	0.106667	7.04597E-001	5.99021E-003	0.00000E+000	4.22069E-003	3.59960E-001	-1.16754E+000	3.57660E+000	10	...........
	8	0.12	7.11740E-001	5.99626E-003	0.00000E+000	4.26778E-003	3.59960E-001	-1.17321E+000	3.57660E+000	10	...........
	9	0.133333	7.18890E-001	5.99865E-003	0.00000E+000	4.31237E-003	3.59960E-001	-1.16311E+000	3.57660E+000	10	...........
	10	0.146667	7.25903E-001	5.99230E-003	0.00000E+000	4.34983E-003	3.59960E-001	-1.16723E+000	3.57660E+000	10	...........
	11	0.16	7.32833E-001	5.99507E-003	0.00000E+000	4.39339E-003	3.59960E-001	-1.17317E+000	3.57660E+000	10	...........
	12	0.173333	7.39758E-001	5.99137E-003	0.00000E+000	4.43216E-003	3.59960E-001	-1.16326E+000	3.57660E+000	10	...........
	13	0.186667	7.46638E-001	5.98953E-003	0.00000E+000	4.47201E-003	3.59960E-001	-1.16686E+000	3.57660E+000	10	...........
	14	0.2	7.53485E-001	5.98865E-003	0.00000E+000	4.51236E-003	3.59960E-001	-1.17257E+000	3.57660E+000	10	...........
	15	0.213333	7.60312E-001	5.99134E-003	0.00000E+000	4.55529E-003	3.59960E-001	-1.16266E+000	3.57660E+000	10	...........
	16	0.226667	7.67134E-001	5.99154E-003	0.00000E+000	4.59631E-003	3.59960E-001	-1.16694E+000	3.57660E+000	10	...........
	17	0.24	7.73935E-001	5.99814E-003	0.00000E+000	4.64217E-003	3.59960E-001	-1.17295E+000	3.57660E+000	10	...........
	18	0.253333	7.80674E-001	5.99384E-003	0.00000E+000	4.67924E-003	3.59960E-001	-1.16290E+000	3.57660E+000	10	...........
	19	0.266667	7.87404E-001	5.99083E-003	0.00000E+000	4.71720E-003	3.59960E-001	-1.16670E+000	3.57660E+000	10	...........
	20	0.28	7.94087E-001	5.98926E-003	0.00000E+000	4.75599E-003	3.59960E-001	-1.17277E+000	3.57660E+000	10	...........
	21	0.293333	8.00744E-001	5.99898E-003	0.00000E+000	4.80364E-003	3.59960E-001	-1.16272E+000	3.57660E+000	10	...........
	22	0.306667	8.07354E-001	6.00020E-003	0.00000E+000	4.84428E-003	3.59960E-001	-1.16661E+000	3.57660E+000	10	...........
	23	0.32	8.13991E-001	5.99331E-003	0.00000E+000	4.87850E-003	3.59960E-001	-1.17256E+000	3.57660E+000	10	...........
	24	0.333333	8.20601E-001	5.99417E-003	0.00000E+000	4.91882E-003	3.59960E-001	-1.16232E+000	3.57660E+000	10	...........
	25	0.346667	8.27138E-001	5.99306E-003	0.00000E+000	4.95709E-003	3.59960E-001	-1.16646E+000	3.57660E+000	10	...........
	26	0.36	8.33684E-001	5.99367E-003	0.00000E+000	4.99682E-003	3.59960E-001	-1.17261E+000	3.57660E+000	10	...........
	27	0.373333	8.40176E-001	5.99085E-003	0.00000E+000	5.03337E-003	3.59960E-001	-1.16253E+000	3.57660E+000	10	...........
	28	0.386667	8.46699E-001	5.99280E-003	0.00000E+000	5.07410E-003	3.59960E-001	-1.16622E+000	3.57660E+000	10	...........
	29	0.4	8.53203E-001	5.99815E-003	0.00000E+000	5.11764E-003	3.59960E-001	-1.17246E+000	3.57660E+000	10	...........
	30	0.413333	8.59665E-001	5.99305E-003	0.00000E+000	5.15201E-003	3.59960E-001	-1.16253E+000	3.57660E+000	10	...........
	31	0.426667	8.66071E-001	5.99007E-003	0.00000E+000	5.18782E-003	3.59960E-001	-1.16663E+000	3.57660E+000	10	...........
	32	0.44	8.72538E-001	5.98754E-003	0.00000E+000	5.22436E-003	3.59960E-001	-1.17278E+000	3.57660E+000	10	...........
	33	0.453333	8.78885E-001	5.99371E-003	0.00000E+000	5.26778E-003	3.59960E-001	-1.16246E+000	3.57660E+000	10	...........
	34	0.466667	8.85244E-001	5.99676E-003	0.00000E+000	5.30860E-003	3.59960E-001	-1.16598E+000	3.57660E+000	10	...........
	35	0.48	8.91513E-001	5.99663E-003	0.00000E+000	5.34607E-003	3.59960E-001	-1.17259E+000	3.57660E+000	10	...........
	36	0.493333	8.97804E-001	5.99534E-003	0.00000E+000	5.38263E-003	3.59960E-001	-1.16235E+000	3.57660E+000	10	...........
	37	0.506667	9.04073E-001	5.99567E-003	0.00000E+000	5.42053E-003	3.59960E-001	-1.16582E+000	3.57660E+000	10	...........
	38	0.52	9.10297E-001	5.99437E-003	0.00000E+000	5.45665E-003	3.59960E-001	-1.17206E+000	3.57660E+000	10	...........
	39	0.533333	9.16457E-001	5.99790E-003	0.00000E+000	5.49682E-003	3.59960E-001	-1.16169E+000	3.57660E+000	10	...........
	40	0.546667	9.22662E-001	5.99671E-003	0.00000E+000	5.53294E-003	3.59960E-001	-1.16554E+000	3.57660E+000	10	...........
	41	0.56	9.28769E-001	5.99706E-003	0.00000E+000	5.56988E-003	3.59960E-001	-1.17220E+000	3.57660E+000	10	...........
	42	0.573333	9.34802E-001	5.99931E-003	0.00000E+000	5.60817E-003	3.59960E-001	-1.16193E+000	3.57660E+000	10	...........
	43	0.586667	9.40778E-001	5.99422E-003	0.00000E+000	5.63923E-003	3.59960E-001	-1.16544E+000	3.57660E+000	10	...........
	44	0.6	9.46791E-001	5.99546E-003	0.00000E+000	5.67645E-003	3.59960E-001	-1.17194E+000	3.57660E+000	10	...........
	45	0.613333	9.52724E-001	5.99441E-003	0.00000E+000	5.71102E-003	3.59960E-001	-1.16182E+000	3.57660E+000	10	...........
	46	0.626667	9.58589E-001	5.99572E-003	0.00000E+000	5.74743E-003	3.59960E-001	-1.16562E+000	3.57660E+000	10	...........
	47	0.64	9.64378E-001	5.99387E-003	0.00000E+000	5.78036E-003	3.59960E-001	-1.17229E+000	3.57660E+000	10	...........
	48	0.653333	9.70154E-001	5.99236E-003	0.00000E+000	5.81352E-003	3.59960E-001	-1.16168E+000	3.57660E+000	10	...........
	49	0.666667	9.75976E-001	5.99269E-003	0.00000E+000	5.84872E-003	3.59960E-001	-1.16513E+000	3.57660E+000	10	...........
	50	0.68	9.81657E-001	5.99149E-003	0.00000E+000	5.88159E-003	3.59960E-001	-1.17185E+000	3.57660E+000	10	...........
	51	0.693333	9.87292E-001	5.99495E-003	0.00000E+000	5.91876E-003	3.59960E-001	-1.16163E+000	3.57660E+000	10	...........
	52	0.706667	9.92836E-001	5.99591E-003	0.00000E+000	5.95296E-003	3.59960E-001	-1.16526E+000	3.57660E+000	10	...........
	53	0.718333	9.98033E-001	5.99644E-003	0.00000E+000	5.98464E-003	3.59960E-001	-1.17180E+000	3.57660E+000	10	...........
STARTTIMEOFFSET	QUANT	1308.417	Start Time Offset (s)