File: Data/CV_CRGO300517_1/PWRCCD_CRGO300517_1/CHARGE_DISCHARGE/CHARGE_#566.DTA
EXPLAIN
TAG	PWR800_CHARGE
TITLE	LABEL	PWR Cyclic Charge Discharge (Cell) - Charge Step	Test &Identifier
DATE	LABEL	22-6-2017	Date
TIME	LABEL	15:58:28	Time
NOTES	NOTES	3	&Notes...
	supercap test cell
	0.6mg
	6M KOH
PSTAT	PSTAT	IFC5000-01520	Potentiostat
CAPACITY	QUANT	1.00000E-003	Capacity (A-hr)
CELLTYPE	SELECTOR	1	&Cell Type
WORKINGCONNECTION	SELECTOR	0	&Working Lead
MAXCHARGETIME	VARIABLEANDUNITS	1.00000E+002	s	1.00000E+002	second(s)	Max &Charge Time
CHARGECURRENT	QUANT	6.00000E-003	&Charge Current (A)
VOLTAGEFINISH	TWOPARAM	F	1.00000E-003	3.60000E+003	&Voltage Finish	 I (A) < 	Max Time(s)
SAMPLETIME	QUANT	1.00000E-002	Sa&mple Period (s)
CHARGESTOPAT1	MULTIPARAM	4	1.00000E+000	Charge Stop At &1	Voltage > Limit	V
CHARGESTOPAT2	MULTIPARAM	0	0.00000E+000	Charge Stop At &2	None	N/A
AESBHCSELECTOR	TOGGLE	F	Save Both Half Cells
IRCOMP	TOGGLE	F	IR &Measure
EOC	QUANT	0	Open Circuit (V)
SEQUENCER	TOGGLE	TRUE	Run as Sequence
PSTATMODEL	IQUANT	53	Pstat Model
PSTATSECTION	LABEL	IFC5000-01520	Pstat Section
PSTATSERIALNO	LABEL	01520	Pstat Serial Number
CTRLMODE	IQUANT	0	Control Mode
ELECTROMETER	IQUANT	1	RE=0 or CS=1
IESTAB	IQUANT	0	I/E Stability
CASPEED	IQUANT	4	Control Amp Speed
CONVENTION	IQUANT	1	Current Convention
ICHRANGE	IQUANT	2	Ich Range
ICHRANGEMODE	TOGGLE	T	Ich Auto Range
ICHOFFSETENABLE	TOGGLE	F	Ich Offset Enable
ICHOFFSET	QUANT	0	Ich Offset (V)
ICHFILTER	IQUANT	1	Ich Filter
VCHRANGE	IQUANT	2	Vch Range
VCHRANGEMODE	TOGGLE	T	Vch Auto Range
VCHOFFSETENABLE	TOGGLE	F	Vch Offset Enable
VCHOFFSET	QUANT	0	Vch Offset (V)
VCHFILTER	IQUANT	1	Vch Filter
IERANGELOWERLIMIT	IQUANT	9	I/E Range Lower Limit
IERANGEMODE	TOGGLE	F	I/E AutoRange
IERANGE	IQUANT	10	I/E Range
ACHSELECT	IQUANT	1	Ach Select
ACHRANGE	IQUANT	2	Ach Range
ACHOFFSETENABLE	TOGGLE	F	Ach Offset Enable
ACHOFFSET	QUANT	0	Ach Offset (V)
ACHFILTER	IQUANT	1	Ach Filter
CABLEID	IQUANT	14	Cable ID
DCCALDATE	LABEL	20-10-2016	DC Calibration Date
ACCALDATE	LABEL	12/3/2015	AC Calibration Date
FRAMEWORKVERSION	QUANT	7.01	Framework Version
INSTRUMENTVERSION	LABEL	4.00	Instrument Version
CURVE	TABLE	57
	Pt	T	Vf	Im	Vu	Pwr	Sig	Ach	Temp	IERange	Over
	#	s	V	A	V	W	V	V	deg C	#	bits
	0	0.013333	6.36502E-001	5.99219E-003	0.00000E+000	3.81404E-003	3.59960E-001	-1.14578E+000	3.57700E+000	10	...........
	1	0.026667	6.45455E-001	5.99625E-003	0.00000E+000	3.87031E-003	3.59960E-001	-1.15058E+000	3.57700E+000	10	...........
	2	0.04	6.53660E-001	5.99646E-003	0.00000E+000	3.91965E-003	3.59960E-001	-1.14121E+000	3.57700E+000	10	...........
	3	0.053333	6.61463E-001	5.99634E-003	0.00000E+000	3.96635E-003	3.59960E-001	-1.14565E+000	3.57700E+000	10	...........
	4	0.066667	6.69047E-001	6.00018E-003	0.00000E+000	4.01440E-003	3.59960E-001	-1.15061E+000	3.57700E+000	10	...........
	5	0.08	6.76337E-001	5.99397E-003	0.00000E+000	4.05394E-003	3.59960E-001	-1.14147E+000	3.57703E+000	10	...........
	6	0.093333	6.83513E-001	5.99438E-003	0.00000E+000	4.09723E-003	3.59960E-001	-1.14596E+000	3.57720E+000	10	...........
	7	0.106667	6.90601E-001	5.99556E-003	0.00000E+000	4.14054E-003	3.59960E-001	-1.15051E+000	3.57720E+000	10	...........
	8	0.12	6.97563E-001	5.99898E-003	0.00000E+000	4.18467E-003	3.59960E-001	-1.14130E+000	3.57720E+000	10	...........
	9	0.133333	7.04475E-001	5.99233E-003	0.00000E+000	4.22145E-003	3.59960E-001	-1.14576E+000	3.57720E+000	10	...........
	10	0.146667	7.11329E-001	5.99488E-003	0.00000E+000	4.26433E-003	3.59960E-001	-1.15037E+000	3.57720E+000	10	...........
	11	0.16	7.18159E-001	5.99735E-003	0.00000E+000	4.30705E-003	3.59960E-001	-1.14100E+000	3.57720E+000	10	...........
	12	0.173333	7.24915E-001	5.99309E-003	0.00000E+000	4.34448E-003	3.59960E-001	-1.14543E+000	3.57720E+000	10	...........
	13	0.186667	7.31620E-001	5.99482E-003	0.00000E+000	4.38593E-003	3.59960E-001	-1.14981E+000	3.57720E+000	10	...........
	14	0.2	7.38278E-001	5.99163E-003	0.00000E+000	4.42349E-003	3.59960E-001	-1.14087E+000	3.57720E+000	10	...........
	15	0.213333	7.44982E-001	5.99879E-003	0.00000E+000	4.46899E-003	3.59960E-001	-1.14568E+000	3.57720E+000	10	...........
	16	0.226667	7.51603E-001	5.99388E-003	0.00000E+000	4.50502E-003	3.59960E-001	-1.15005E+000	3.57720E+000	10	...........
	17	0.24	7.58233E-001	5.99447E-003	0.00000E+000	4.54521E-003	3.59960E-001	-1.14106E+000	3.57720E+000	10	...........
	18	0.253333	7.64798E-001	5.99159E-003	0.00000E+000	4.58236E-003	3.59960E-001	-1.14564E+000	3.57720E+000	10	...........
	19	0.266667	7.71384E-001	5.99331E-003	0.00000E+000	4.62315E-003	3.59960E-001	-1.15005E+000	3.57720E+000	10	...........
	20	0.28	7.77907E-001	5.99741E-003	0.00000E+000	4.66543E-003	3.59960E-001	-1.14107E+000	3.57720E+000	10	...........
	21	0.293333	7.84432E-001	5.99738E-003	0.00000E+000	4.70454E-003	3.59960E-001	-1.14591E+000	3.57720E+000	10	...........
	22	0.306667	7.90944E-001	5.99181E-003	0.00000E+000	4.73919E-003	3.59960E-001	-1.14989E+000	3.57720E+000	10	...........
	23	0.32	7.97498E-001	5.99320E-003	0.00000E+000	4.77956E-003	3.59960E-001	-1.14087E+000	3.57720E+000	10	...........
	24	0.333333	8.03935E-001	5.99092E-003	0.00000E+000	4.81631E-003	3.59960E-001	-1.14591E+000	3.57720E+000	10	...........
	25	0.346667	8.10379E-001	5.99480E-003	0.00000E+000	4.85806E-003	3.59960E-001	-1.14985E+000	3.57720E+000	10	...........
	26	0.36	8.16856E-001	5.99309E-003	0.00000E+000	4.89550E-003	3.59960E-001	-1.14107E+000	3.57720E+000	10	...........
	27	0.373333	8.23316E-001	5.99360E-003	0.00000E+000	4.93463E-003	3.59960E-001	-1.14600E+000	3.57720E+000	10	...........
	28	0.386667	8.29745E-001	5.99198E-003	0.00000E+000	4.97181E-003	3.59960E-001	-1.14989E+000	3.57720E+000	10	...........
	29	0.4	8.36143E-001	5.99223E-003	0.00000E+000	5.01036E-003	3.59960E-001	-1.14105E+000	3.57720E+000	10	...........
	30	0.413333	8.42497E-001	5.99381E-003	0.00000E+000	5.04977E-003	3.59960E-001	-1.14615E+000	3.57720E+000	10	...........
	31	0.426667	8.48861E-001	5.99326E-003	0.00000E+000	5.08744E-003	3.59960E-001	-1.14989E+000	3.57720E+000	10	...........
	32	0.44	8.55192E-001	5.99773E-003	0.00000E+000	5.12921E-003	3.59960E-001	-1.14120E+000	3.57720E+000	10	...........
	33	0.453333	8.61486E-001	5.99619E-003	0.00000E+000	5.16564E-003	3.59960E-001	-1.14587E+000	3.57720E+000	10	...........
	34	0.466667	8.67790E-001	5.99385E-003	0.00000E+000	5.20141E-003	3.59960E-001	-1.14966E+000	3.57720E+000	10	...........
	35	0.48	8.74091E-001	5.99614E-003	0.00000E+000	5.24117E-003	3.59960E-001	-1.14089E+000	3.57720E+000	10	...........
	36	0.493333	8.80330E-001	5.99443E-003	0.00000E+000	5.27707E-003	3.59960E-001	-1.14593E+000	3.57720E+000	10	...........
	37	0.506667	8.86571E-001	5.99298E-003	0.00000E+000	5.31320E-003	3.59960E-001	-1.14939E+000	3.57720E+000	10	...........
	38	0.52	8.92754E-001	5.99398E-003	0.00000E+000	5.35115E-003	3.59960E-001	-1.14084E+000	3.57720E+000	10	...........
	39	0.533333	8.98939E-001	5.99149E-003	0.00000E+000	5.38598E-003	3.59960E-001	-1.14589E+000	3.57720E+000	10	...........
	40	0.546667	9.05078E-001	5.99497E-003	0.00000E+000	5.42591E-003	3.59960E-001	-1.14956E+000	3.57720E+000	10	...........
	41	0.56	9.11215E-001	5.99974E-003	0.00000E+000	5.46705E-003	3.59960E-001	-1.14086E+000	3.57720E+000	10	...........
	42	0.573333	9.17276E-001	5.99045E-003	0.00000E+000	5.49490E-003	3.59960E-001	-1.14589E+000	3.57720E+000	10	...........
	43	0.586667	9.23389E-001	5.99312E-003	0.00000E+000	5.53399E-003	3.59960E-001	-1.14918E+000	3.57720E+000	10	...........
	44	0.6	9.29387E-001	5.99935E-003	0.00000E+000	5.57572E-003	3.59960E-001	-1.14083E+000	3.57720E+000	10	...........
	45	0.613333	9.35345E-001	5.99425E-003	0.00000E+000	5.60669E-003	3.59960E-001	-1.14603E+000	3.57720E+000	10	...........
	46	0.626667	9.41257E-001	5.99511E-003	0.00000E+000	5.64294E-003	3.59960E-001	-1.14953E+000	3.57720E+000	10	...........
	47	0.64	9.47134E-001	5.99599E-003	0.00000E+000	5.67901E-003	3.59960E-001	-1.14087E+000	3.57720E+000	10	...........
	48	0.653333	9.52968E-001	5.99409E-003	0.00000E+000	5.71218E-003	3.59960E-001	-1.14579E+000	3.57720E+000	10	...........
	49	0.666667	9.58742E-001	5.99206E-003	0.00000E+000	5.74484E-003	3.59960E-001	-1.14942E+000	3.57720E+000	10	...........
	50	0.68	9.64508E-001	5.98904E-003	0.00000E+000	5.77647E-003	3.59960E-001	-1.14091E+000	3.57720E+000	10	...........
	51	0.693333	9.70254E-001	5.99682E-003	0.00000E+000	5.81844E-003	3.59960E-001	-1.14617E+000	3.57720E+000	10	...........
	52	0.706667	9.75968E-001	5.99529E-003	0.00000E+000	5.85121E-003	3.59960E-001	-1.14931E+000	3.57720E+000	10	...........
	53	0.72	9.81646E-001	5.99553E-003	0.00000E+000	5.88549E-003	3.59960E-001	-1.14078E+000	3.57720E+000	10	...........
	54	0.733333	9.87197E-001	5.99414E-003	0.00000E+000	5.91739E-003	3.59960E-001	-1.14609E+000	3.57720E+000	10	...........
	55	0.746667	9.92701E-001	5.98869E-003	0.00000E+000	5.94498E-003	3.59960E-001	-1.14932E+000	3.57720E+000	10	...........
	56	0.76	9.98171E-001	5.99205E-003	0.00000E+000	5.98109E-003	3.59960E-001	-1.14082E+000	3.57720E+000	10	...........
STARTTIMEOFFSET	QUANT	959.737	Start Time Offset (s)