File: Data/CV_CRGO300517_1/PWRCCD_CRGO300517_1/CHARGE_DISCHARGE/CHARGE_#617.DTA
EXPLAIN
TAG	PWR800_CHARGE
TITLE	LABEL	PWR Cyclic Charge Discharge (Cell) - Charge Step	Test &Identifier
DATE	LABEL	22-6-2017	Date
TIME	LABEL	16:00:25	Time
NOTES	NOTES	3	&Notes...
	supercap test cell
	0.6mg
	6M KOH
PSTAT	PSTAT	IFC5000-01520	Potentiostat
CAPACITY	QUANT	1.00000E-003	Capacity (A-hr)
CELLTYPE	SELECTOR	1	&Cell Type
WORKINGCONNECTION	SELECTOR	0	&Working Lead
MAXCHARGETIME	VARIABLEANDUNITS	1.00000E+002	s	1.00000E+002	second(s)	Max &Charge Time
CHARGECURRENT	QUANT	6.00000E-003	&Charge Current (A)
VOLTAGEFINISH	TWOPARAM	F	1.00000E-003	3.60000E+003	&Voltage Finish	 I (A) < 	Max Time(s)
SAMPLETIME	QUANT	1.00000E-002	Sa&mple Period (s)
CHARGESTOPAT1	MULTIPARAM	4	1.00000E+000	Charge Stop At &1	Voltage > Limit	V
CHARGESTOPAT2	MULTIPARAM	0	0.00000E+000	Charge Stop At &2	None	N/A
AESBHCSELECTOR	TOGGLE	F	Save Both Half Cells
IRCOMP	TOGGLE	F	IR &Measure
EOC	QUANT	0	Open Circuit (V)
SEQUENCER	TOGGLE	TRUE	Run as Sequence
PSTATMODEL	IQUANT	53	Pstat Model
PSTATSECTION	LABEL	IFC5000-01520	Pstat Section
PSTATSERIALNO	LABEL	01520	Pstat Serial Number
CTRLMODE	IQUANT	0	Control Mode
ELECTROMETER	IQUANT	1	RE=0 or CS=1
IESTAB	IQUANT	0	I/E Stability
CASPEED	IQUANT	4	Control Amp Speed
CONVENTION	IQUANT	1	Current Convention
ICHRANGE	IQUANT	2	Ich Range
ICHRANGEMODE	TOGGLE	T	Ich Auto Range
ICHOFFSETENABLE	TOGGLE	F	Ich Offset Enable
ICHOFFSET	QUANT	0	Ich Offset (V)
ICHFILTER	IQUANT	1	Ich Filter
VCHRANGE	IQUANT	2	Vch Range
VCHRANGEMODE	TOGGLE	T	Vch Auto Range
VCHOFFSETENABLE	TOGGLE	F	Vch Offset Enable
VCHOFFSET	QUANT	0	Vch Offset (V)
VCHFILTER	IQUANT	1	Vch Filter
IERANGELOWERLIMIT	IQUANT	9	I/E Range Lower Limit
IERANGEMODE	TOGGLE	F	I/E AutoRange
IERANGE	IQUANT	10	I/E Range
ACHSELECT	IQUANT	1	Ach Select
ACHRANGE	IQUANT	2	Ach Range
ACHOFFSETENABLE	TOGGLE	F	Ach Offset Enable
ACHOFFSET	QUANT	0	Ach Offset (V)
ACHFILTER	IQUANT	1	Ach Filter
CABLEID	IQUANT	14	Cable ID
DCCALDATE	LABEL	20-10-2016	DC Calibration Date
ACCALDATE	LABEL	12/3/2015	AC Calibration Date
FRAMEWORKVERSION	QUANT	7.01	Framework Version
INSTRUMENTVERSION	LABEL	4.00	Instrument Version
CURVE	TABLE	57
	Pt	T	Vf	Im	Vu	Pwr	Sig	Ach	Temp	IERange	Over
	#	s	V	A	V	W	V	V	deg C	#	bits
	0	0.013333	6.39398E-001	5.99345E-003	0.00000E+000	3.83220E-003	3.59960E-001	-1.15487E+000	3.57640E+000	10	...........
	1	0.026667	6.48373E-001	5.99426E-003	0.00000E+000	3.88652E-003	3.59960E-001	-1.15594E+000	3.57644E+000	10	...........
	2	0.04	6.56647E-001	5.99404E-003	0.00000E+000	3.93597E-003	3.59960E-001	-1.14823E+000	3.57670E+000	10	...........
	3	0.053333	6.64496E-001	5.99523E-003	0.00000E+000	3.98381E-003	3.59960E-001	-1.15518E+000	3.57670E+000	10	...........
	4	0.066667	6.72075E-001	5.99037E-003	0.00000E+000	4.02598E-003	3.59960E-001	-1.15610E+000	3.57670E+000	10	...........
	5	0.08	6.79482E-001	5.99475E-003	0.00000E+000	4.07332E-003	3.59960E-001	-1.14810E+000	3.57670E+000	10	...........
	6	0.093333	6.86638E-001	5.99517E-003	0.00000E+000	4.11651E-003	3.59960E-001	-1.15508E+000	3.57670E+000	10	...........
	7	0.106667	6.93757E-001	5.99185E-003	0.00000E+000	4.15689E-003	3.59960E-001	-1.15581E+000	3.57670E+000	10	...........
	8	0.12	7.00767E-001	5.99446E-003	0.00000E+000	4.20072E-003	3.59960E-001	-1.14820E+000	3.57670E+000	10	...........
	9	0.133333	7.07726E-001	5.99446E-003	0.00000E+000	4.24243E-003	3.59960E-001	-1.15475E+000	3.57670E+000	10	...........
	10	0.146667	7.14617E-001	5.99383E-003	0.00000E+000	4.28330E-003	3.59960E-001	-1.15534E+000	3.57670E+000	10	...........
	11	0.16	7.21514E-001	5.99268E-003	0.00000E+000	4.32380E-003	3.59960E-001	-1.14766E+000	3.57670E+000	10	...........
	12	0.173333	7.28290E-001	5.99168E-003	0.00000E+000	4.36368E-003	3.59960E-001	-1.15462E+000	3.57670E+000	10	...........
	13	0.186667	7.34994E-001	5.99128E-003	0.00000E+000	4.40355E-003	3.59960E-001	-1.15539E+000	3.57670E+000	10	...........
	14	0.2	7.41747E-001	5.98872E-003	0.00000E+000	4.44212E-003	3.59960E-001	-1.14776E+000	3.57670E+000	10	...........
	15	0.213333	7.48420E-001	5.99392E-003	0.00000E+000	4.48597E-003	3.59960E-001	-1.15472E+000	3.57670E+000	10	...........
	16	0.226667	7.55116E-001	5.99287E-003	0.00000E+000	4.52531E-003	3.59960E-001	-1.15539E+000	3.57670E+000	10	...........
	17	0.24	7.61762E-001	5.98985E-003	0.00000E+000	4.56284E-003	3.59960E-001	-1.14786E+000	3.57670E+000	10	...........
	18	0.253333	7.68416E-001	5.99234E-003	0.00000E+000	4.60461E-003	3.59960E-001	-1.15462E+000	3.57670E+000	10	...........
	19	0.266667	7.75031E-001	5.99188E-003	0.00000E+000	4.64389E-003	3.59960E-001	-1.15510E+000	3.57670E+000	10	...........
	20	0.28	7.81623E-001	5.99257E-003	0.00000E+000	4.68393E-003	3.59960E-001	-1.14759E+000	3.57670E+000	10	...........
	21	0.293333	7.88222E-001	5.99403E-003	0.00000E+000	4.72463E-003	3.59960E-001	-1.15469E+000	3.57670E+000	10	...........
	22	0.306667	7.94769E-001	5.99277E-003	0.00000E+000	4.76287E-003	3.59960E-001	-1.15517E+000	3.57670E+000	10	...........
	23	0.32	8.01308E-001	5.99309E-003	0.00000E+000	4.80231E-003	3.59960E-001	-1.14772E+000	3.57670E+000	10	...........
	24	0.333333	8.07787E-001	5.99415E-003	0.00000E+000	4.84199E-003	3.59960E-001	-1.15442E+000	3.57670E+000	10	...........
	25	0.346667	8.14272E-001	5.99516E-003	0.00000E+000	4.88169E-003	3.59960E-001	-1.15517E+000	3.57670E+000	10	...........
	26	0.36	8.20770E-001	5.99464E-003	0.00000E+000	4.92022E-003	3.59960E-001	-1.14774E+000	3.57670E+000	10	...........
	27	0.373333	8.27229E-001	5.99248E-003	0.00000E+000	4.95715E-003	3.59960E-001	-1.15471E+000	3.57670E+000	10	...........
	28	0.386667	8.33645E-001	5.99362E-003	0.00000E+000	4.99656E-003	3.59960E-001	-1.15531E+000	3.57670E+000	10	...........
	29	0.4	8.40069E-001	5.99708E-003	0.00000E+000	5.03796E-003	3.59960E-001	-1.14783E+000	3.57670E+000	10	...........
	30	0.413333	8.46518E-001	5.99531E-003	0.00000E+000	5.07514E-003	3.59960E-001	-1.15474E+000	3.57670E+000	10	...........
	31	0.426667	8.52920E-001	5.99652E-003	0.00000E+000	5.11455E-003	3.59960E-001	-1.15528E+000	3.57670E+000	10	...........
	32	0.44	8.59246E-001	5.98991E-003	0.00000E+000	5.14681E-003	3.59960E-001	-1.14779E+000	3.57670E+000	10	...........
	33	0.453333	8.65559E-001	5.99290E-003	0.00000E+000	5.18721E-003	3.59960E-001	-1.15458E+000	3.57670E+000	10	...........
	34	0.466667	8.71885E-001	5.99218E-003	0.00000E+000	5.22449E-003	3.59960E-001	-1.15450E+000	3.57670E+000	10	...........
	35	0.48	8.78178E-001	5.99822E-003	0.00000E+000	5.26751E-003	3.59960E-001	-1.14730E+000	3.57670E+000	10	...........
	36	0.493333	8.84451E-001	5.99233E-003	0.00000E+000	5.29992E-003	3.59960E-001	-1.15444E+000	3.57670E+000	10	...........
	37	0.506667	8.90641E-001	5.99250E-003	0.00000E+000	5.33716E-003	3.59960E-001	-1.15476E+000	3.57670E+000	10	...........
	38	0.52	8.96887E-001	5.98962E-003	0.00000E+000	5.37201E-003	3.59960E-001	-1.14752E+000	3.57670E+000	10	...........
	39	0.533333	9.03049E-001	5.98934E-003	0.00000E+000	5.40867E-003	3.59960E-001	-1.15438E+000	3.57670E+000	10	...........
	40	0.546667	9.09220E-001	5.99377E-003	0.00000E+000	5.44966E-003	3.59960E-001	-1.15441E+000	3.57670E+000	10	...........
	41	0.56	9.15303E-001	5.98730E-003	0.00000E+000	5.48019E-003	3.59960E-001	-1.14744E+000	3.57670E+000	10	...........
	42	0.573333	9.21434E-001	5.98965E-003	0.00000E+000	5.51907E-003	3.59960E-001	-1.15459E+000	3.57670E+000	10	...........
	43	0.586667	9.27478E-001	5.99792E-003	0.00000E+000	5.56294E-003	3.59960E-001	-1.15465E+000	3.57670E+000	10	...........
	44	0.6	9.33464E-001	5.99370E-003	0.00000E+000	5.59490E-003	3.59960E-001	-1.14744E+000	3.57670E+000	10	...........
	45	0.613333	9.39368E-001	5.99213E-003	0.00000E+000	5.62882E-003	3.59960E-001	-1.15455E+000	3.57670E+000	10	...........
	46	0.626667	9.45318E-001	5.99543E-003	0.00000E+000	5.66758E-003	3.59960E-001	-1.15461E+000	3.57670E+000	10	...........
	47	0.64	9.51198E-001	5.99236E-003	0.00000E+000	5.69993E-003	3.59960E-001	-1.14726E+000	3.57670E+000	10	...........
	48	0.653333	9.57012E-001	5.99182E-003	0.00000E+000	5.73424E-003	3.59960E-001	-1.15457E+000	3.57670E+000	10	...........
	49	0.666667	9.62816E-001	5.99479E-003	0.00000E+000	5.77189E-003	3.59960E-001	-1.15451E+000	3.57670E+000	10	...........
	50	0.68	9.68516E-001	5.98822E-003	0.00000E+000	5.79969E-003	3.59960E-001	-1.14729E+000	3.57670E+000	10	...........
	51	0.693333	9.74264E-001	5.99340E-003	0.00000E+000	5.83915E-003	3.59960E-001	-1.15469E+000	3.57670E+000	10	...........
	52	0.706667	9.79915E-001	5.99431E-003	0.00000E+000	5.87392E-003	3.59960E-001	-1.15468E+000	3.57670E+000	10	...........
	53	0.72	9.85497E-001	6.00141E-003	0.00000E+000	5.91437E-003	3.59960E-001	-1.14728E+000	3.57670E+000	10	...........
	54	0.733333	9.91063E-001	5.99470E-003	0.00000E+000	5.94113E-003	3.59960E-001	-1.15465E+000	3.57670E+000	10	...........
	55	0.746667	9.96584E-001	5.99477E-003	0.00000E+000	5.97429E-003	3.59960E-001	-1.15418E+000	3.57670E+000	10	...........
	56	0.75	1.00001E+000	5.99433E-003	0.00000E+000	5.99442E-003	3.59960E-001	-1.15622E+000	3.57670E+000	10	...........
STARTTIMEOFFSET	QUANT	1036.375	Start Time Offset (s)