File: Data/CV_CRGO300517_1/PWRCCD_CRGO300517_1/CHARGE_DISCHARGE/CHARGE_#971.DTA
EXPLAIN
TAG	PWR800_CHARGE
TITLE	LABEL	PWR Cyclic Charge Discharge (Cell) - Charge Step	Test &Identifier
DATE	LABEL	22-6-2017	Date
TIME	LABEL	16:13:35	Time
NOTES	NOTES	3	&Notes...
	supercap test cell
	0.6mg
	6M KOH
PSTAT	PSTAT	IFC5000-01520	Potentiostat
CAPACITY	QUANT	1.00000E-003	Capacity (A-hr)
CELLTYPE	SELECTOR	1	&Cell Type
WORKINGCONNECTION	SELECTOR	0	&Working Lead
MAXCHARGETIME	VARIABLEANDUNITS	1.00000E+002	s	1.00000E+002	second(s)	Max &Charge Time
CHARGECURRENT	QUANT	6.00000E-003	&Charge Current (A)
VOLTAGEFINISH	TWOPARAM	F	1.00000E-003	3.60000E+003	&Voltage Finish	 I (A) < 	Max Time(s)
SAMPLETIME	QUANT	1.00000E-002	Sa&mple Period (s)
CHARGESTOPAT1	MULTIPARAM	4	1.00000E+000	Charge Stop At &1	Voltage > Limit	V
CHARGESTOPAT2	MULTIPARAM	0	0.00000E+000	Charge Stop At &2	None	N/A
AESBHCSELECTOR	TOGGLE	F	Save Both Half Cells
IRCOMP	TOGGLE	F	IR &Measure
EOC	QUANT	0	Open Circuit (V)
SEQUENCER	TOGGLE	TRUE	Run as Sequence
PSTATMODEL	IQUANT	53	Pstat Model
PSTATSECTION	LABEL	IFC5000-01520	Pstat Section
PSTATSERIALNO	LABEL	01520	Pstat Serial Number
CTRLMODE	IQUANT	0	Control Mode
ELECTROMETER	IQUANT	1	RE=0 or CS=1
IESTAB	IQUANT	0	I/E Stability
CASPEED	IQUANT	4	Control Amp Speed
CONVENTION	IQUANT	1	Current Convention
ICHRANGE	IQUANT	2	Ich Range
ICHRANGEMODE	TOGGLE	T	Ich Auto Range
ICHOFFSETENABLE	TOGGLE	F	Ich Offset Enable
ICHOFFSET	QUANT	0	Ich Offset (V)
ICHFILTER	IQUANT	1	Ich Filter
VCHRANGE	IQUANT	2	Vch Range
VCHRANGEMODE	TOGGLE	T	Vch Auto Range
VCHOFFSETENABLE	TOGGLE	F	Vch Offset Enable
VCHOFFSET	QUANT	0	Vch Offset (V)
VCHFILTER	IQUANT	1	Vch Filter
IERANGELOWERLIMIT	IQUANT	9	I/E Range Lower Limit
IERANGEMODE	TOGGLE	F	I/E AutoRange
IERANGE	IQUANT	10	I/E Range
ACHSELECT	IQUANT	1	Ach Select
ACHRANGE	IQUANT	2	Ach Range
ACHOFFSETENABLE	TOGGLE	F	Ach Offset Enable
ACHOFFSET	QUANT	0	Ach Offset (V)
ACHFILTER	IQUANT	1	Ach Filter
CABLEID	IQUANT	14	Cable ID
DCCALDATE	LABEL	20-10-2016	DC Calibration Date
ACCALDATE	LABEL	12/3/2015	AC Calibration Date
FRAMEWORKVERSION	QUANT	7.01	Framework Version
INSTRUMENTVERSION	LABEL	4.00	Instrument Version
CURVE	TABLE	53
	Pt	T	Vf	Im	Vu	Pwr	Sig	Ach	Temp	IERange	Over
	#	s	V	A	V	W	V	V	deg C	#	bits
	0	0.013333	6.56116E-001	5.98911E-003	0.00000E+000	3.92955E-003	3.59960E-001	-1.17018E+000	3.57660E+000	10	...........
	1	0.026667	6.65469E-001	5.99244E-003	0.00000E+000	3.98778E-003	3.59960E-001	-1.17432E+000	3.57660E+000	10	...........
	2	0.04	6.74026E-001	5.99216E-003	0.00000E+000	4.03887E-003	3.59960E-001	-1.17981E+000	3.57660E+000	10	...........
	3	0.053333	6.82154E-001	5.99722E-003	0.00000E+000	4.09103E-003	3.59960E-001	-1.17013E+000	3.57660E+000	10	...........
	4	0.066667	6.90029E-001	5.99488E-003	0.00000E+000	4.13664E-003	3.59960E-001	-1.17384E+000	3.57660E+000	10	...........
	5	0.08	6.97692E-001	5.99526E-003	0.00000E+000	4.18285E-003	3.59960E-001	-1.17950E+000	3.57660E+000	10	...........
	6	0.093333	7.05182E-001	5.99398E-003	0.00000E+000	4.22685E-003	3.59960E-001	-1.16975E+000	3.57660E+000	10	...........
	7	0.106667	7.12545E-001	5.99937E-003	0.00000E+000	4.27482E-003	3.59960E-001	-1.17382E+000	3.57660E+000	10	...........
	8	0.12	7.19900E-001	5.99733E-003	0.00000E+000	4.31748E-003	3.59960E-001	-1.17930E+000	3.57660E+000	10	...........
	9	0.133333	7.27043E-001	5.99641E-003	0.00000E+000	4.35965E-003	3.59960E-001	-1.16988E+000	3.57660E+000	10	...........
	10	0.146667	7.34194E-001	5.99991E-003	0.00000E+000	4.40510E-003	3.59960E-001	-1.17377E+000	3.57660E+000	10	...........
	11	0.16	7.41243E-001	5.99169E-003	0.00000E+000	4.44130E-003	3.59960E-001	-1.17943E+000	3.57660E+000	10	...........
	12	0.173333	7.48280E-001	5.99661E-003	0.00000E+000	4.48714E-003	3.59960E-001	-1.16967E+000	3.57660E+000	10	...........
	13	0.186667	7.55259E-001	5.99375E-003	0.00000E+000	4.52683E-003	3.59960E-001	-1.17374E+000	3.57660E+000	10	...........
	14	0.2	7.62191E-001	5.99744E-003	0.00000E+000	4.57120E-003	3.59960E-001	-1.17916E+000	3.57660E+000	10	...........
	15	0.213333	7.69137E-001	5.99360E-003	0.00000E+000	4.60990E-003	3.59960E-001	-1.16949E+000	3.57660E+000	10	...........
	16	0.226667	7.76011E-001	5.99652E-003	0.00000E+000	4.65337E-003	3.59960E-001	-1.17358E+000	3.57660E+000	10	...........
	17	0.24	7.82845E-001	5.99219E-003	0.00000E+000	4.69095E-003	3.59960E-001	-1.17924E+000	3.57660E+000	10	...........
	18	0.253333	7.89629E-001	5.99358E-003	0.00000E+000	4.73270E-003	3.59960E-001	-1.16966E+000	3.57660E+000	10	...........
	19	0.266667	7.96479E-001	5.99528E-003	0.00000E+000	4.77512E-003	3.59960E-001	-1.17352E+000	3.57660E+000	10	...........
	20	0.28	8.03253E-001	5.99014E-003	0.00000E+000	4.81160E-003	3.59960E-001	-1.17916E+000	3.57660E+000	10	...........
	21	0.293333	8.10025E-001	5.99536E-003	0.00000E+000	4.85639E-003	3.59960E-001	-1.16959E+000	3.57660E+000	10	...........
	22	0.306667	8.16714E-001	5.99418E-003	0.00000E+000	4.89553E-003	3.59960E-001	-1.17377E+000	3.57660E+000	10	...........
	23	0.32	8.23426E-001	5.99693E-003	0.00000E+000	4.93803E-003	3.59960E-001	-1.17948E+000	3.57660E+000	10	...........
	24	0.333333	8.30109E-001	5.99123E-003	0.00000E+000	4.97337E-003	3.59960E-001	-1.16971E+000	3.57660E+000	10	...........
	25	0.346667	8.36756E-001	5.99322E-003	0.00000E+000	5.01486E-003	3.59960E-001	-1.17361E+000	3.57660E+000	10	...........
	26	0.36	8.43355E-001	5.99676E-003	0.00000E+000	5.05740E-003	3.59960E-001	-1.17951E+000	3.57660E+000	10	...........
	27	0.373333	8.49950E-001	5.99587E-003	0.00000E+000	5.09619E-003	3.59960E-001	-1.16959E+000	3.57660E+000	10	...........
	28	0.386667	8.56483E-001	5.99141E-003	0.00000E+000	5.13155E-003	3.59960E-001	-1.17347E+000	3.57660E+000	10	...........
	29	0.4	8.63035E-001	5.99188E-003	0.00000E+000	5.17120E-003	3.59960E-001	-1.17943E+000	3.57660E+000	10	...........
	30	0.413333	8.69573E-001	5.99458E-003	0.00000E+000	5.21273E-003	3.59960E-001	-1.16936E+000	3.57660E+000	10	...........
	31	0.426667	8.76043E-001	5.99100E-003	0.00000E+000	5.24837E-003	3.59960E-001	-1.17318E+000	3.57660E+000	10	...........
	32	0.44	8.82491E-001	5.99547E-003	0.00000E+000	5.29095E-003	3.59960E-001	-1.17913E+000	3.57660E+000	10	...........
	33	0.453333	8.88888E-001	5.99272E-003	0.00000E+000	5.32685E-003	3.59960E-001	-1.16940E+000	3.57660E+000	10	...........
	34	0.466667	8.95268E-001	5.99523E-003	0.00000E+000	5.36734E-003	3.59960E-001	-1.17309E+000	3.57660E+000	10	...........
	35	0.48	9.01601E-001	5.99206E-003	0.00000E+000	5.40245E-003	3.59960E-001	-1.17895E+000	3.57660E+000	10	...........
	36	0.493333	9.07840E-001	5.99652E-003	0.00000E+000	5.44388E-003	3.59960E-001	-1.16923E+000	3.57660E+000	10	...........
	37	0.506667	9.14093E-001	5.99338E-003	0.00000E+000	5.47851E-003	3.59960E-001	-1.17325E+000	3.57660E+000	10	...........
	38	0.52	9.20381E-001	5.99381E-003	0.00000E+000	5.51659E-003	3.59960E-001	-1.17897E+000	3.57660E+000	10	...........
	39	0.533333	9.26539E-001	5.99416E-003	0.00000E+000	5.55382E-003	3.59960E-001	-1.16912E+000	3.57660E+000	10	...........
	40	0.546667	9.32664E-001	5.99191E-003	0.00000E+000	5.58844E-003	3.59960E-001	-1.17308E+000	3.57660E+000	10	...........
	41	0.56	9.38713E-001	5.99173E-003	0.00000E+000	5.62451E-003	3.59960E-001	-1.17902E+000	3.57660E+000	10	...........
	42	0.573333	9.44756E-001	5.98832E-003	0.00000E+000	5.65750E-003	3.59960E-001	-1.16940E+000	3.57660E+000	10	...........
	43	0.586667	9.50736E-001	5.99723E-003	0.00000E+000	5.70178E-003	3.59960E-001	-1.17295E+000	3.57660E+000	10	...........
	44	0.6	9.56647E-001	5.99033E-003	0.00000E+000	5.73063E-003	3.59960E-001	-1.17892E+000	3.57660E+000	10	...........
	45	0.613333	9.62520E-001	5.99548E-003	0.00000E+000	5.77077E-003	3.59960E-001	-1.16941E+000	3.57660E+000	10	...........
	46	0.626667	9.68360E-001	5.99467E-003	0.00000E+000	5.80500E-003	3.59960E-001	-1.17331E+000	3.57660E+000	10	...........
	47	0.64	9.74158E-001	5.99313E-003	0.00000E+000	5.83826E-003	3.59960E-001	-1.17922E+000	3.57660E+000	10	...........
	48	0.653333	9.79898E-001	5.99330E-003	0.00000E+000	5.87282E-003	3.59960E-001	-1.16943E+000	3.57660E+000	10	...........
	49	0.666667	9.85574E-001	5.99498E-003	0.00000E+000	5.90849E-003	3.59960E-001	-1.17327E+000	3.57660E+000	10	...........
	50	0.68	9.91184E-001	5.99380E-003	0.00000E+000	5.94096E-003	3.59960E-001	-1.17919E+000	3.57660E+000	10	...........
	51	0.693333	9.96808E-001	5.99423E-003	0.00000E+000	5.97509E-003	3.59960E-001	-1.16949E+000	3.57660E+000	10	...........
	52	0.696667	1.00027E+000	5.99984E-003	0.00000E+000	6.00148E-003	3.59960E-001	-1.18424E+000	3.57660E+000	10	...........
STARTTIMEOFFSET	QUANT	1545.156	Start Time Offset (s)