File: Data/CV_CRGO300517_1/PWRCCD_CRGO300517_1/CHARGE_DISCHARGE/CHARGE_#765.DTA
EXPLAIN
TAG	PWR800_CHARGE
TITLE	LABEL	PWR Cyclic Charge Discharge (Cell) - Charge Step	Test &Identifier
DATE	LABEL	22-6-2017	Date
TIME	LABEL	16:05:59	Time
NOTES	NOTES	3	&Notes...
	supercap test cell
	0.6mg
	6M KOH
PSTAT	PSTAT	IFC5000-01520	Potentiostat
CAPACITY	QUANT	1.00000E-003	Capacity (A-hr)
CELLTYPE	SELECTOR	1	&Cell Type
WORKINGCONNECTION	SELECTOR	0	&Working Lead
MAXCHARGETIME	VARIABLEANDUNITS	1.00000E+002	s	1.00000E+002	second(s)	Max &Charge Time
CHARGECURRENT	QUANT	6.00000E-003	&Charge Current (A)
VOLTAGEFINISH	TWOPARAM	F	1.00000E-003	3.60000E+003	&Voltage Finish	 I (A) < 	Max Time(s)
SAMPLETIME	QUANT	1.00000E-002	Sa&mple Period (s)
CHARGESTOPAT1	MULTIPARAM	4	1.00000E+000	Charge Stop At &1	Voltage > Limit	V
CHARGESTOPAT2	MULTIPARAM	0	0.00000E+000	Charge Stop At &2	None	N/A
AESBHCSELECTOR	TOGGLE	F	Save Both Half Cells
IRCOMP	TOGGLE	F	IR &Measure
EOC	QUANT	0	Open Circuit (V)
SEQUENCER	TOGGLE	TRUE	Run as Sequence
PSTATMODEL	IQUANT	53	Pstat Model
PSTATSECTION	LABEL	IFC5000-01520	Pstat Section
PSTATSERIALNO	LABEL	01520	Pstat Serial Number
CTRLMODE	IQUANT	0	Control Mode
ELECTROMETER	IQUANT	1	RE=0 or CS=1
IESTAB	IQUANT	0	I/E Stability
CASPEED	IQUANT	4	Control Amp Speed
CONVENTION	IQUANT	1	Current Convention
ICHRANGE	IQUANT	2	Ich Range
ICHRANGEMODE	TOGGLE	T	Ich Auto Range
ICHOFFSETENABLE	TOGGLE	F	Ich Offset Enable
ICHOFFSET	QUANT	0	Ich Offset (V)
ICHFILTER	IQUANT	1	Ich Filter
VCHRANGE	IQUANT	2	Vch Range
VCHRANGEMODE	TOGGLE	T	Vch Auto Range
VCHOFFSETENABLE	TOGGLE	F	Vch Offset Enable
VCHOFFSET	QUANT	0	Vch Offset (V)
VCHFILTER	IQUANT	1	Vch Filter
IERANGELOWERLIMIT	IQUANT	9	I/E Range Lower Limit
IERANGEMODE	TOGGLE	F	I/E AutoRange
IERANGE	IQUANT	10	I/E Range
ACHSELECT	IQUANT	1	Ach Select
ACHRANGE	IQUANT	2	Ach Range
ACHOFFSETENABLE	TOGGLE	F	Ach Offset Enable
ACHOFFSET	QUANT	0	Ach Offset (V)
ACHFILTER	IQUANT	1	Ach Filter
CABLEID	IQUANT	14	Cable ID
DCCALDATE	LABEL	20-10-2016	DC Calibration Date
ACCALDATE	LABEL	12/3/2015	AC Calibration Date
FRAMEWORKVERSION	QUANT	7.01	Framework Version
INSTRUMENTVERSION	LABEL	4.00	Instrument Version
CURVE	TABLE	55
	Pt	T	Vf	Im	Vu	Pwr	Sig	Ach	Temp	IERange	Over
	#	s	V	A	V	W	V	V	deg C	#	bits
	0	0.013333	6.46880E-001	5.99638E-003	0.00000E+000	3.87894E-003	3.59960E-001	-1.16341E+000	3.57660E+000	10	...........
	1	0.026667	6.56062E-001	5.99369E-003	0.00000E+000	3.93223E-003	3.59960E-001	-1.16362E+000	3.57660E+000	10	...........
	2	0.04	6.64466E-001	5.99623E-003	0.00000E+000	3.98429E-003	3.59960E-001	-1.17394E+000	3.57660E+000	10	...........
	3	0.053333	6.72504E-001	5.99439E-003	0.00000E+000	4.03125E-003	3.59960E-001	-1.16308E+000	3.57660E+000	10	...........
	4	0.066667	6.80194E-001	5.99468E-003	0.00000E+000	4.07755E-003	3.59960E-001	-1.16337E+000	3.57660E+000	10	...........
	5	0.08	6.87679E-001	5.99639E-003	0.00000E+000	4.12359E-003	3.59960E-001	-1.17383E+000	3.57685E+000	10	...........
	6	0.093333	6.95053E-001	5.99432E-003	0.00000E+000	4.16637E-003	3.59960E-001	-1.16328E+000	3.57710E+000	10	...........
	7	0.106667	7.02285E-001	5.99633E-003	0.00000E+000	4.21113E-003	3.59960E-001	-1.16332E+000	3.57710E+000	10	...........
	8	0.12	7.09430E-001	5.99317E-003	0.00000E+000	4.25173E-003	3.59960E-001	-1.17373E+000	3.57710E+000	10	...........
	9	0.133333	7.16512E-001	5.99266E-003	0.00000E+000	4.29381E-003	3.59960E-001	-1.16304E+000	3.57710E+000	10	...........
	10	0.146667	7.23551E-001	5.99041E-003	0.00000E+000	4.33437E-003	3.59960E-001	-1.16352E+000	3.57710E+000	10	...........
	11	0.16	7.30476E-001	5.99454E-003	0.00000E+000	4.37887E-003	3.59960E-001	-1.17368E+000	3.57710E+000	10	...........
	12	0.173333	7.37381E-001	5.99433E-003	0.00000E+000	4.42011E-003	3.59960E-001	-1.16268E+000	3.57710E+000	10	...........
	13	0.186667	7.44263E-001	5.99120E-003	0.00000E+000	4.45903E-003	3.59960E-001	-1.16325E+000	3.57710E+000	10	...........
	14	0.2	7.51101E-001	5.99246E-003	0.00000E+000	4.50094E-003	3.59960E-001	-1.17374E+000	3.57710E+000	10	...........
	15	0.213333	7.57906E-001	5.99179E-003	0.00000E+000	4.54121E-003	3.59960E-001	-1.16288E+000	3.57710E+000	10	...........
	16	0.226667	7.64694E-001	5.99405E-003	0.00000E+000	4.58362E-003	3.59960E-001	-1.16343E+000	3.57710E+000	10	...........
	17	0.24	7.71492E-001	5.99540E-003	0.00000E+000	4.62540E-003	3.59960E-001	-1.17368E+000	3.57710E+000	10	...........
	18	0.253333	7.78212E-001	5.99528E-003	0.00000E+000	4.66560E-003	3.59960E-001	-1.16280E+000	3.57710E+000	10	...........
	19	0.266667	7.84887E-001	5.99070E-003	0.00000E+000	4.70203E-003	3.59960E-001	-1.16338E+000	3.57710E+000	10	...........
	20	0.28	7.91572E-001	5.99414E-003	0.00000E+000	4.74479E-003	3.59960E-001	-1.17378E+000	3.57710E+000	10	...........
	21	0.293333	7.98209E-001	5.99164E-003	0.00000E+000	4.78259E-003	3.59960E-001	-1.16254E+000	3.57710E+000	10	...........
	22	0.306667	8.04817E-001	5.99549E-003	0.00000E+000	4.82527E-003	3.59960E-001	-1.16301E+000	3.57710E+000	10	...........
	23	0.32	8.11434E-001	5.99523E-003	0.00000E+000	4.86474E-003	3.59960E-001	-1.17299E+000	3.57710E+000	10	...........
	24	0.333333	8.18017E-001	5.99468E-003	0.00000E+000	4.90375E-003	3.59960E-001	-1.16229E+000	3.57710E+000	10	...........
	25	0.346667	8.24584E-001	5.99214E-003	0.00000E+000	4.94103E-003	3.59960E-001	-1.16295E+000	3.57710E+000	10	...........
	26	0.36	8.31102E-001	5.99209E-003	0.00000E+000	4.98004E-003	3.59960E-001	-1.17317E+000	3.57710E+000	10	...........
	27	0.373333	8.37560E-001	5.99452E-003	0.00000E+000	5.02077E-003	3.59960E-001	-1.16204E+000	3.57710E+000	10	...........
	28	0.386667	8.44101E-001	5.99158E-003	0.00000E+000	5.05750E-003	3.59960E-001	-1.16291E+000	3.57710E+000	10	...........
	29	0.4	8.50609E-001	5.99607E-003	0.00000E+000	5.10031E-003	3.59960E-001	-1.17296E+000	3.57710E+000	10	...........
	30	0.413333	8.57049E-001	5.99177E-003	0.00000E+000	5.13524E-003	3.59960E-001	-1.16229E+000	3.57710E+000	10	...........
	31	0.426667	8.63482E-001	5.99317E-003	0.00000E+000	5.17499E-003	3.59960E-001	-1.16298E+000	3.57710E+000	10	...........
	32	0.44	8.69886E-001	5.99214E-003	0.00000E+000	5.21248E-003	3.59960E-001	-1.17292E+000	3.57710E+000	10	...........
	33	0.453333	8.76251E-001	5.99324E-003	0.00000E+000	5.25158E-003	3.59960E-001	-1.16210E+000	3.57710E+000	10	...........
	34	0.466667	8.82626E-001	5.99663E-003	0.00000E+000	5.29278E-003	3.59960E-001	-1.16301E+000	3.57710E+000	10	...........
	35	0.48	8.88935E-001	5.99277E-003	0.00000E+000	5.32718E-003	3.59960E-001	-1.17294E+000	3.57710E+000	10	...........
	36	0.493333	8.95206E-001	5.99781E-003	0.00000E+000	5.36928E-003	3.59960E-001	-1.16218E+000	3.57710E+000	10	...........
	37	0.506667	9.01465E-001	5.99462E-003	0.00000E+000	5.40394E-003	3.59960E-001	-1.16302E+000	3.57710E+000	10	...........
	38	0.52	9.07700E-001	5.99563E-003	0.00000E+000	5.44223E-003	3.59960E-001	-1.17285E+000	3.57710E+000	10	...........
	39	0.533333	9.13857E-001	5.99479E-003	0.00000E+000	5.47838E-003	3.59960E-001	-1.16202E+000	3.57710E+000	10	...........
	40	0.546667	9.19973E-001	5.99708E-003	0.00000E+000	5.51715E-003	3.59960E-001	-1.16325E+000	3.57710E+000	10	...........
	41	0.56	9.26125E-001	5.99326E-003	0.00000E+000	5.55051E-003	3.59960E-001	-1.17322E+000	3.57710E+000	10	...........
	42	0.573333	9.32168E-001	5.99759E-003	0.00000E+000	5.59076E-003	3.59960E-001	-1.16198E+000	3.57710E+000	10	...........
	43	0.586667	9.38181E-001	5.99084E-003	0.00000E+000	5.62049E-003	3.59960E-001	-1.16293E+000	3.57710E+000	10	...........
	44	0.6	9.44155E-001	5.99577E-003	0.00000E+000	5.66094E-003	3.59960E-001	-1.17293E+000	3.57710E+000	10	...........
	45	0.613333	9.50124E-001	5.99731E-003	0.00000E+000	5.69819E-003	3.59960E-001	-1.16213E+000	3.57710E+000	10	...........
	46	0.626667	9.56018E-001	5.98954E-003	0.00000E+000	5.72610E-003	3.59960E-001	-1.16285E+000	3.57710E+000	10	...........
	47	0.64	9.61884E-001	5.99062E-003	0.00000E+000	5.76228E-003	3.59960E-001	-1.17224E+000	3.57710E+000	10	...........
	48	0.653333	9.67632E-001	5.98975E-003	0.00000E+000	5.79588E-003	3.59960E-001	-1.16157E+000	3.57710E+000	10	...........
	49	0.666667	9.73437E-001	5.98989E-003	0.00000E+000	5.83078E-003	3.59960E-001	-1.16279E+000	3.57710E+000	10	...........
	50	0.68	9.79124E-001	5.99320E-003	0.00000E+000	5.86808E-003	3.59960E-001	-1.17260E+000	3.57710E+000	10	...........
	51	0.693333	9.84727E-001	5.99052E-003	0.00000E+000	5.89902E-003	3.59960E-001	-1.16171E+000	3.57710E+000	10	...........
	52	0.706667	9.90322E-001	5.99603E-003	0.00000E+000	5.93800E-003	3.59960E-001	-1.16277E+000	3.57710E+000	10	...........
	53	0.72	9.95860E-001	5.99083E-003	0.00000E+000	5.96603E-003	3.59960E-001	-1.17225E+000	3.57710E+000	10	...........
	54	0.725	9.99684E-001	5.99418E-003	0.00000E+000	5.99229E-003	3.59960E-001	-1.15202E+000	3.57710E+000	10	...........
STARTTIMEOFFSET	QUANT	1253.768	Start Time Offset (s)