File: Data/CV_CRGO300517_1/PWRCCD_CRGO300517_1/CHARGE_DISCHARGE/CHARGE_#553.DTA
EXPLAIN
TAG	PWR800_CHARGE
TITLE	LABEL	PWR Cyclic Charge Discharge (Cell) - Charge Step	Test &Identifier
DATE	LABEL	22-6-2017	Date
TIME	LABEL	15:57:58	Time
NOTES	NOTES	3	&Notes...
	supercap test cell
	0.6mg
	6M KOH
PSTAT	PSTAT	IFC5000-01520	Potentiostat
CAPACITY	QUANT	1.00000E-003	Capacity (A-hr)
CELLTYPE	SELECTOR	1	&Cell Type
WORKINGCONNECTION	SELECTOR	0	&Working Lead
MAXCHARGETIME	VARIABLEANDUNITS	1.00000E+002	s	1.00000E+002	second(s)	Max &Charge Time
CHARGECURRENT	QUANT	6.00000E-003	&Charge Current (A)
VOLTAGEFINISH	TWOPARAM	F	1.00000E-003	3.60000E+003	&Voltage Finish	 I (A) < 	Max Time(s)
SAMPLETIME	QUANT	1.00000E-002	Sa&mple Period (s)
CHARGESTOPAT1	MULTIPARAM	4	1.00000E+000	Charge Stop At &1	Voltage > Limit	V
CHARGESTOPAT2	MULTIPARAM	0	0.00000E+000	Charge Stop At &2	None	N/A
AESBHCSELECTOR	TOGGLE	F	Save Both Half Cells
IRCOMP	TOGGLE	F	IR &Measure
EOC	QUANT	0	Open Circuit (V)
SEQUENCER	TOGGLE	TRUE	Run as Sequence
PSTATMODEL	IQUANT	53	Pstat Model
PSTATSECTION	LABEL	IFC5000-01520	Pstat Section
PSTATSERIALNO	LABEL	01520	Pstat Serial Number
CTRLMODE	IQUANT	0	Control Mode
ELECTROMETER	IQUANT	1	RE=0 or CS=1
IESTAB	IQUANT	0	I/E Stability
CASPEED	IQUANT	4	Control Amp Speed
CONVENTION	IQUANT	1	Current Convention
ICHRANGE	IQUANT	2	Ich Range
ICHRANGEMODE	TOGGLE	T	Ich Auto Range
ICHOFFSETENABLE	TOGGLE	F	Ich Offset Enable
ICHOFFSET	QUANT	0	Ich Offset (V)
ICHFILTER	IQUANT	1	Ich Filter
VCHRANGE	IQUANT	2	Vch Range
VCHRANGEMODE	TOGGLE	T	Vch Auto Range
VCHOFFSETENABLE	TOGGLE	F	Vch Offset Enable
VCHOFFSET	QUANT	0	Vch Offset (V)
VCHFILTER	IQUANT	1	Vch Filter
IERANGELOWERLIMIT	IQUANT	9	I/E Range Lower Limit
IERANGEMODE	TOGGLE	F	I/E AutoRange
IERANGE	IQUANT	10	I/E Range
ACHSELECT	IQUANT	1	Ach Select
ACHRANGE	IQUANT	2	Ach Range
ACHOFFSETENABLE	TOGGLE	F	Ach Offset Enable
ACHOFFSET	QUANT	0	Ach Offset (V)
ACHFILTER	IQUANT	1	Ach Filter
CABLEID	IQUANT	14	Cable ID
DCCALDATE	LABEL	20-10-2016	DC Calibration Date
ACCALDATE	LABEL	12/3/2015	AC Calibration Date
FRAMEWORKVERSION	QUANT	7.01	Framework Version
INSTRUMENTVERSION	LABEL	4.00	Instrument Version
CURVE	TABLE	58
	Pt	T	Vf	Im	Vu	Pwr	Sig	Ach	Temp	IERange	Over
	#	s	V	A	V	W	V	V	deg C	#	bits
	0	0.013333	6.35422E-001	5.99175E-003	0.00000E+000	3.80729E-003	3.59960E-001	-1.13254E+000	3.57670E+000	10	...........
	1	0.026667	6.44388E-001	5.99382E-003	0.00000E+000	3.86234E-003	3.59960E-001	-1.13928E+000	3.57670E+000	10	...........
	2	0.04	6.52596E-001	5.99451E-003	0.00000E+000	3.91199E-003	3.59960E-001	-1.14030E+000	3.57670E+000	10	...........
	3	0.053333	6.60375E-001	5.99018E-003	0.00000E+000	3.95577E-003	3.59960E-001	-1.13247E+000	3.57670E+000	10	...........
	4	0.066667	6.67946E-001	5.99707E-003	0.00000E+000	4.00572E-003	3.59960E-001	-1.13935E+000	3.57670E+000	10	...........
	5	0.08	6.75268E-001	5.99408E-003	0.00000E+000	4.04761E-003	3.59960E-001	-1.14028E+000	3.57670E+000	10	...........
	6	0.093333	6.82408E-001	5.99293E-003	0.00000E+000	4.08962E-003	3.59960E-001	-1.13256E+000	3.57670E+000	10	...........
	7	0.106667	6.89480E-001	5.99774E-003	0.00000E+000	4.13533E-003	3.59960E-001	-1.13932E+000	3.57670E+000	10	...........
	8	0.12	6.96386E-001	5.99324E-003	0.00000E+000	4.17360E-003	3.59960E-001	-1.14038E+000	3.57670E+000	10	...........
	9	0.133333	7.03307E-001	5.99231E-003	0.00000E+000	4.21443E-003	3.59960E-001	-1.13295E+000	3.57670E+000	10	...........
	10	0.146667	7.10134E-001	5.99548E-003	0.00000E+000	4.25760E-003	3.59960E-001	-1.13975E+000	3.57670E+000	10	...........
	11	0.16	7.16959E-001	5.99108E-003	0.00000E+000	4.29536E-003	3.59960E-001	-1.14029E+000	3.57670E+000	10	...........
	12	0.173333	7.23686E-001	5.99115E-003	0.00000E+000	4.33571E-003	3.59960E-001	-1.13297E+000	3.57670E+000	10	...........
	13	0.186667	7.30399E-001	5.99564E-003	0.00000E+000	4.37921E-003	3.59960E-001	-1.13994E+000	3.57670E+000	10	...........
	14	0.2	7.37036E-001	5.99227E-003	0.00000E+000	4.41651E-003	3.59960E-001	-1.14046E+000	3.57670E+000	10	...........
	15	0.213333	7.43733E-001	5.99415E-003	0.00000E+000	4.45804E-003	3.59960E-001	-1.13282E+000	3.57670E+000	10	...........
	16	0.226667	7.50322E-001	5.99785E-003	0.00000E+000	4.50032E-003	3.59960E-001	-1.14001E+000	3.57670E+000	10	...........
	17	0.24	7.56943E-001	5.99530E-003	0.00000E+000	4.53810E-003	3.59960E-001	-1.14021E+000	3.57670E+000	10	...........
	18	0.253333	7.63518E-001	5.99475E-003	0.00000E+000	4.57710E-003	3.59960E-001	-1.13275E+000	3.57670E+000	10	...........
	19	0.266667	7.70083E-001	5.99579E-003	0.00000E+000	4.61726E-003	3.59960E-001	-1.13993E+000	3.57670E+000	10	...........
	20	0.28	7.76611E-001	5.99212E-003	0.00000E+000	4.65355E-003	3.59960E-001	-1.14031E+000	3.57670E+000	10	...........
	21	0.293333	7.83143E-001	5.99280E-003	0.00000E+000	4.69322E-003	3.59960E-001	-1.13291E+000	3.57670E+000	10	...........
	22	0.306667	7.89645E-001	5.99644E-003	0.00000E+000	4.73506E-003	3.59960E-001	-1.14004E+000	3.57670E+000	10	...........
	23	0.32	7.96155E-001	5.99175E-003	0.00000E+000	4.77036E-003	3.59960E-001	-1.14042E+000	3.57670E+000	10	...........
	24	0.333333	8.02593E-001	5.99847E-003	0.00000E+000	4.81434E-003	3.59960E-001	-1.13301E+000	3.57670E+000	10	...........
	25	0.346667	8.09051E-001	5.99590E-003	0.00000E+000	4.85099E-003	3.59960E-001	-1.14008E+000	3.57670E+000	10	...........
	26	0.36	8.15518E-001	5.99245E-003	0.00000E+000	4.88695E-003	3.59960E-001	-1.14036E+000	3.57670E+000	10	...........
	27	0.373333	8.21916E-001	5.99465E-003	0.00000E+000	4.92709E-003	3.59960E-001	-1.13297E+000	3.57670E+000	10	...........
	28	0.386667	8.28338E-001	5.99343E-003	0.00000E+000	4.96458E-003	3.59960E-001	-1.14024E+000	3.57670E+000	10	...........
	29	0.4	8.34740E-001	5.99526E-003	0.00000E+000	5.00449E-003	3.59960E-001	-1.14046E+000	3.57670E+000	10	...........
	30	0.413333	8.41127E-001	5.98954E-003	0.00000E+000	5.03796E-003	3.59960E-001	-1.13281E+000	3.57670E+000	10	...........
	31	0.426667	8.47533E-001	5.99216E-003	0.00000E+000	5.07855E-003	3.59960E-001	-1.14005E+000	3.57670E+000	10	...........
	32	0.44	8.53860E-001	5.99448E-003	0.00000E+000	5.11845E-003	3.59960E-001	-1.14047E+000	3.57670E+000	10	...........
	33	0.453333	8.60179E-001	5.99392E-003	0.00000E+000	5.15584E-003	3.59960E-001	-1.13313E+000	3.57670E+000	10	...........
	34	0.466667	8.66450E-001	5.99179E-003	0.00000E+000	5.19158E-003	3.59960E-001	-1.14044E+000	3.57670E+000	10	...........
	35	0.48	8.72736E-001	5.99477E-003	0.00000E+000	5.23185E-003	3.59960E-001	-1.14045E+000	3.57670E+000	10	...........
	36	0.493333	8.78997E-001	5.99073E-003	0.00000E+000	5.26583E-003	3.59960E-001	-1.13331E+000	3.57670E+000	10	...........
	37	0.506667	8.85208E-001	5.99152E-003	0.00000E+000	5.30374E-003	3.59960E-001	-1.14056E+000	3.57670E+000	10	...........
	38	0.52	8.91359E-001	5.99583E-003	0.00000E+000	5.34443E-003	3.59960E-001	-1.14043E+000	3.57670E+000	10	...........
	39	0.533333	8.97547E-001	5.99213E-003	0.00000E+000	5.37822E-003	3.59960E-001	-1.13317E+000	3.57670E+000	10	...........
	40	0.546667	9.03700E-001	5.99624E-003	0.00000E+000	5.41880E-003	3.59960E-001	-1.14057E+000	3.57670E+000	10	...........
	41	0.56	9.09829E-001	5.98984E-003	0.00000E+000	5.44973E-003	3.59960E-001	-1.14008E+000	3.57670E+000	10	...........
	42	0.573333	9.15899E-001	5.98999E-003	0.00000E+000	5.48623E-003	3.59960E-001	-1.13303E+000	3.57670E+000	10	...........
	43	0.586667	9.21999E-001	5.99680E-003	0.00000E+000	5.52904E-003	3.59960E-001	-1.14062E+000	3.57670E+000	10	...........
	44	0.6	9.28020E-001	5.99405E-003	0.00000E+000	5.56260E-003	3.59960E-001	-1.14015E+000	3.57670E+000	10	...........
	45	0.613333	9.33945E-001	5.99354E-003	0.00000E+000	5.59764E-003	3.59960E-001	-1.13278E+000	3.57670E+000	10	...........
	46	0.626667	9.39894E-001	5.99001E-003	0.00000E+000	5.62997E-003	3.59960E-001	-1.14038E+000	3.57670E+000	10	...........
	47	0.64	9.45818E-001	5.99556E-003	0.00000E+000	5.67071E-003	3.59960E-001	-1.14014E+000	3.57670E+000	10	...........
	48	0.653333	9.51677E-001	5.99448E-003	0.00000E+000	5.70481E-003	3.59960E-001	-1.13302E+000	3.57670E+000	10	...........
	49	0.666667	9.57451E-001	5.99620E-003	0.00000E+000	5.74107E-003	3.59960E-001	-1.14049E+000	3.57670E+000	10	...........
	50	0.68	9.63187E-001	5.99494E-003	0.00000E+000	5.77424E-003	3.59960E-001	-1.13997E+000	3.57670E+000	10	...........
	51	0.693333	9.68930E-001	5.99206E-003	0.00000E+000	5.80589E-003	3.59960E-001	-1.13298E+000	3.57670E+000	10	...........
	52	0.706667	9.74701E-001	5.99476E-003	0.00000E+000	5.84310E-003	3.59960E-001	-1.14079E+000	3.57670E+000	10	...........
	53	0.72	9.80347E-001	5.99772E-003	0.00000E+000	5.87985E-003	3.59960E-001	-1.14017E+000	3.57670E+000	10	...........
	54	0.733333	9.85929E-001	5.99832E-003	0.00000E+000	5.91391E-003	3.59960E-001	-1.13307E+000	3.57670E+000	10	...........
	55	0.746667	9.91501E-001	5.99656E-003	0.00000E+000	5.94559E-003	3.59960E-001	-1.14059E+000	3.57670E+000	10	...........
	56	0.76	9.96998E-001	5.99254E-003	0.00000E+000	5.97455E-003	3.59960E-001	-1.13986E+000	3.57670E+000	10	...........
	57	0.761667	1.00003E+000	5.99396E-003	0.00000E+000	5.99416E-003	3.59960E-001	-1.14530E+000	3.57670E+000	10	...........
STARTTIMEOFFSET	QUANT	940.0568	Start Time Offset (s)