File: Data/CV_CRGO300517_1/PWRCCD_CRGO300517_1/CHARGE_DISCHARGE/CHARGE_#195.DTA
EXPLAIN
TAG	PWR800_CHARGE
TITLE	LABEL	PWR Cyclic Charge Discharge (Cell) - Charge Step	Test &Identifier
DATE	LABEL	22-6-2017	Date
TIME	LABEL	15:43:36	Time
NOTES	NOTES	3	&Notes...
	supercap test cell
	0.6mg
	6M KOH
PSTAT	PSTAT	IFC5000-01520	Potentiostat
CAPACITY	QUANT	1.00000E-003	Capacity (A-hr)
CELLTYPE	SELECTOR	1	&Cell Type
WORKINGCONNECTION	SELECTOR	0	&Working Lead
MAXCHARGETIME	VARIABLEANDUNITS	1.00000E+002	s	1.00000E+002	second(s)	Max &Charge Time
CHARGECURRENT	QUANT	6.00000E-003	&Charge Current (A)
VOLTAGEFINISH	TWOPARAM	F	1.00000E-003	3.60000E+003	&Voltage Finish	 I (A) < 	Max Time(s)
SAMPLETIME	QUANT	1.00000E-002	Sa&mple Period (s)
CHARGESTOPAT1	MULTIPARAM	4	1.00000E+000	Charge Stop At &1	Voltage > Limit	V
CHARGESTOPAT2	MULTIPARAM	0	0.00000E+000	Charge Stop At &2	None	N/A
AESBHCSELECTOR	TOGGLE	F	Save Both Half Cells
IRCOMP	TOGGLE	F	IR &Measure
EOC	QUANT	0	Open Circuit (V)
SEQUENCER	TOGGLE	TRUE	Run as Sequence
PSTATMODEL	IQUANT	53	Pstat Model
PSTATSECTION	LABEL	IFC5000-01520	Pstat Section
PSTATSERIALNO	LABEL	01520	Pstat Serial Number
CTRLMODE	IQUANT	0	Control Mode
ELECTROMETER	IQUANT	1	RE=0 or CS=1
IESTAB	IQUANT	0	I/E Stability
CASPEED	IQUANT	4	Control Amp Speed
CONVENTION	IQUANT	1	Current Convention
ICHRANGE	IQUANT	2	Ich Range
ICHRANGEMODE	TOGGLE	T	Ich Auto Range
ICHOFFSETENABLE	TOGGLE	F	Ich Offset Enable
ICHOFFSET	QUANT	0	Ich Offset (V)
ICHFILTER	IQUANT	1	Ich Filter
VCHRANGE	IQUANT	2	Vch Range
VCHRANGEMODE	TOGGLE	T	Vch Auto Range
VCHOFFSETENABLE	TOGGLE	F	Vch Offset Enable
VCHOFFSET	QUANT	0	Vch Offset (V)
VCHFILTER	IQUANT	1	Vch Filter
IERANGELOWERLIMIT	IQUANT	9	I/E Range Lower Limit
IERANGEMODE	TOGGLE	F	I/E AutoRange
IERANGE	IQUANT	10	I/E Range
ACHSELECT	IQUANT	1	Ach Select
ACHRANGE	IQUANT	2	Ach Range
ACHOFFSETENABLE	TOGGLE	F	Ach Offset Enable
ACHOFFSET	QUANT	0	Ach Offset (V)
ACHFILTER	IQUANT	1	Ach Filter
CABLEID	IQUANT	14	Cable ID
DCCALDATE	LABEL	20-10-2016	DC Calibration Date
ACCALDATE	LABEL	12/3/2015	AC Calibration Date
FRAMEWORKVERSION	QUANT	7.01	Framework Version
INSTRUMENTVERSION	LABEL	4.00	Instrument Version
CURVE	TABLE	65
	Pt	T	Vf	Im	Vu	Pwr	Sig	Ach	Temp	IERange	Over
	#	s	V	A	V	W	V	V	deg C	#	bits
	0	0.013333	6.05554E-001	5.99308E-003	0.00000E+000	3.62914E-003	3.59960E-001	-1.08140E+000	3.57690E+000	10	...........
	1	0.026667	6.14053E-001	5.99593E-003	0.00000E+000	3.68182E-003	3.59960E-001	-1.08632E+000	3.57690E+000	10	...........
	2	0.04	6.21817E-001	5.99366E-003	0.00000E+000	3.72696E-003	3.59960E-001	-1.08931E+000	3.57690E+000	10	...........
	3	0.053333	6.29168E-001	5.99404E-003	0.00000E+000	3.77126E-003	3.59960E-001	-1.08139E+000	3.57690E+000	10	...........
	4	0.066667	6.36204E-001	5.99430E-003	0.00000E+000	3.81360E-003	3.59960E-001	-1.08609E+000	3.57690E+000	10	...........
	5	0.08	6.43141E-001	5.99280E-003	0.00000E+000	3.85421E-003	3.59960E-001	-1.08914E+000	3.57690E+000	10	...........
	6	0.093333	6.49925E-001	5.99843E-003	0.00000E+000	3.89853E-003	3.59960E-001	-1.08128E+000	3.57690E+000	10	...........
	7	0.106667	6.56551E-001	5.99368E-003	0.00000E+000	3.93515E-003	3.59960E-001	-1.08570E+000	3.57690E+000	10	...........
	8	0.12	6.63107E-001	5.99259E-003	0.00000E+000	3.97373E-003	3.59960E-001	-1.08923E+000	3.57690E+000	10	...........
	9	0.133333	6.69626E-001	5.98739E-003	0.00000E+000	4.00931E-003	3.59960E-001	-1.08110E+000	3.57690E+000	10	...........
	10	0.146667	6.76047E-001	5.99235E-003	0.00000E+000	4.05111E-003	3.59960E-001	-1.08557E+000	3.57690E+000	10	...........
	11	0.16	6.82423E-001	5.99577E-003	0.00000E+000	4.09165E-003	3.59960E-001	-1.08901E+000	3.57690E+000	10	...........
	12	0.173333	6.88756E-001	5.99254E-003	0.00000E+000	4.12740E-003	3.59960E-001	-1.08079E+000	3.57690E+000	10	...........
	13	0.186667	6.95071E-001	5.99405E-003	0.00000E+000	4.16629E-003	3.59960E-001	-1.08503E+000	3.57690E+000	10	...........
	14	0.2	7.01350E-001	5.99247E-003	0.00000E+000	4.20282E-003	3.59960E-001	-1.08900E+000	3.57690E+000	10	...........
	15	0.213333	7.07590E-001	5.99740E-003	0.00000E+000	4.24370E-003	3.59960E-001	-1.08038E+000	3.57790E+000	10	...........
	16	0.226667	7.13802E-001	5.99503E-003	0.00000E+000	4.27927E-003	3.59960E-001	-1.08418E+000	3.57790E+000	10	...........
	17	0.24	7.20042E-001	5.99629E-003	0.00000E+000	4.31758E-003	3.59960E-001	-1.08839E+000	3.57790E+000	10	...........
	18	0.253333	7.26233E-001	5.99746E-003	0.00000E+000	4.35555E-003	3.59960E-001	-1.07959E+000	3.57790E+000	10	...........
	19	0.266667	7.32406E-001	5.98923E-003	0.00000E+000	4.38655E-003	3.59960E-001	-1.08363E+000	3.57790E+000	10	...........
	20	0.28	7.38579E-001	5.99383E-003	0.00000E+000	4.42692E-003	3.59960E-001	-1.08774E+000	3.57790E+000	10	...........
	21	0.293333	7.44757E-001	5.99590E-003	0.00000E+000	4.46549E-003	3.59960E-001	-1.07839E+000	3.57790E+000	10	...........
	22	0.306667	7.50852E-001	5.99110E-003	0.00000E+000	4.49843E-003	3.59960E-001	-1.08200E+000	3.57790E+000	10	...........
	23	0.32	7.57045E-001	5.99158E-003	0.00000E+000	4.53590E-003	3.59960E-001	-1.08666E+000	3.57790E+000	10	...........
	24	0.333333	7.63133E-001	5.98727E-003	0.00000E+000	4.56908E-003	3.59960E-001	-1.07755E+000	3.57790E+000	10	...........
	25	0.346667	7.69279E-001	5.99013E-003	0.00000E+000	4.60808E-003	3.59960E-001	-1.08084E+000	3.57790E+000	10	...........
	26	0.36	7.75435E-001	5.99679E-003	0.00000E+000	4.65012E-003	3.59960E-001	-1.08551E+000	3.57790E+000	10	...........
	27	0.373333	7.81543E-001	5.99173E-003	0.00000E+000	4.68279E-003	3.59960E-001	-1.07631E+000	3.57790E+000	10	...........
	28	0.386667	7.87618E-001	5.99335E-003	0.00000E+000	4.72047E-003	3.59960E-001	-1.07977E+000	3.57790E+000	10	...........
	29	0.4	7.93760E-001	5.98977E-003	0.00000E+000	4.75444E-003	3.59960E-001	-1.08464E+000	3.57790E+000	10	...........
	30	0.413333	7.99864E-001	5.99241E-003	0.00000E+000	4.79311E-003	3.59960E-001	-1.07518E+000	3.57790E+000	10	...........
	31	0.426667	8.05931E-001	5.99780E-003	0.00000E+000	4.83381E-003	3.59960E-001	-1.07857E+000	3.57790E+000	10	...........
	32	0.44	8.11984E-001	5.99179E-003	0.00000E+000	4.86524E-003	3.59960E-001	-1.08373E+000	3.57790E+000	10	...........
	33	0.453333	8.18027E-001	5.99571E-003	0.00000E+000	4.90465E-003	3.59960E-001	-1.07420E+000	3.57790E+000	10	...........
	34	0.466667	8.24090E-001	5.99148E-003	0.00000E+000	4.93752E-003	3.59960E-001	-1.07770E+000	3.57790E+000	10	...........
	35	0.48	8.30130E-001	5.99854E-003	0.00000E+000	4.97957E-003	3.59960E-001	-1.08310E+000	3.57790E+000	10	...........
	36	0.493333	8.36138E-001	5.99640E-003	0.00000E+000	5.01382E-003	3.59960E-001	-1.07364E+000	3.57790E+000	10	...........
	37	0.506667	8.42169E-001	5.99414E-003	0.00000E+000	5.04808E-003	3.59960E-001	-1.07695E+000	3.57790E+000	10	...........
	38	0.52	8.48198E-001	5.99441E-003	0.00000E+000	5.08444E-003	3.59960E-001	-1.08296E+000	3.57790E+000	10	...........
	39	0.533333	8.54196E-001	5.99037E-003	0.00000E+000	5.11695E-003	3.59960E-001	-1.07351E+000	3.57790E+000	10	...........
	40	0.546667	8.60200E-001	5.99515E-003	0.00000E+000	5.15702E-003	3.59960E-001	-1.07653E+000	3.57790E+000	10	...........
	41	0.56	8.66133E-001	5.99320E-003	0.00000E+000	5.19091E-003	3.59960E-001	-1.08297E+000	3.57790E+000	10	...........
	42	0.573333	8.72150E-001	5.99176E-003	0.00000E+000	5.22571E-003	3.59960E-001	-1.07362E+000	3.57790E+000	10	...........
	43	0.586667	8.78124E-001	5.98989E-003	0.00000E+000	5.25987E-003	3.59960E-001	-1.07695E+000	3.57790E+000	10	...........
	44	0.6	8.84054E-001	5.98971E-003	0.00000E+000	5.29523E-003	3.59960E-001	-1.08364E+000	3.57790E+000	10	...........
	45	0.613333	8.89952E-001	5.99344E-003	0.00000E+000	5.33387E-003	3.59960E-001	-1.07392E+000	3.57790E+000	10	...........
	46	0.626667	8.95870E-001	5.99642E-003	0.00000E+000	5.37202E-003	3.59960E-001	-1.07710E+000	3.57790E+000	10	...........
	47	0.64	9.01745E-001	5.99393E-003	0.00000E+000	5.40499E-003	3.59960E-001	-1.08411E+000	3.57790E+000	10	...........
	48	0.653333	9.07597E-001	5.99277E-003	0.00000E+000	5.43902E-003	3.59960E-001	-1.07483E+000	3.57790E+000	10	...........
	49	0.666667	9.13487E-001	5.99330E-003	0.00000E+000	5.47480E-003	3.59960E-001	-1.07786E+000	3.57790E+000	10	...........
	50	0.68	9.19319E-001	5.99506E-003	0.00000E+000	5.51138E-003	3.59960E-001	-1.08494E+000	3.57790E+000	10	...........
	51	0.693333	9.25143E-001	5.99205E-003	0.00000E+000	5.54350E-003	3.59960E-001	-1.07563E+000	3.57790E+000	10	...........
	52	0.706667	9.30935E-001	5.99433E-003	0.00000E+000	5.58033E-003	3.59960E-001	-1.07853E+000	3.57790E+000	10	...........
	53	0.72	9.36657E-001	5.99206E-003	0.00000E+000	5.61250E-003	3.59960E-001	-1.08624E+000	3.57790E+000	10	...........
	54	0.733333	9.42373E-001	5.99790E-003	0.00000E+000	5.65226E-003	3.59960E-001	-1.07728E+000	3.57790E+000	10	...........
	55	0.746667	9.48080E-001	5.99148E-003	0.00000E+000	5.68040E-003	3.59960E-001	-1.07999E+000	3.57790E+000	10	...........
	56	0.76	9.53761E-001	5.99245E-003	0.00000E+000	5.71536E-003	3.59960E-001	-1.08796E+000	3.57790E+000	10	...........
	57	0.773333	9.59401E-001	5.99093E-003	0.00000E+000	5.74771E-003	3.59960E-001	-1.07893E+000	3.57790E+000	10	...........
	58	0.786667	9.64992E-001	5.99244E-003	0.00000E+000	5.78265E-003	3.59960E-001	-1.08175E+000	3.57790E+000	10	...........
	59	0.8	9.70592E-001	5.98908E-003	0.00000E+000	5.81295E-003	3.59960E-001	-1.08974E+000	3.57790E+000	10	...........
	60	0.813333	9.76154E-001	5.99128E-003	0.00000E+000	5.84841E-003	3.59960E-001	-1.08018E+000	3.57790E+000	10	...........
	61	0.826667	9.81648E-001	5.99374E-003	0.00000E+000	5.88374E-003	3.59960E-001	-1.08270E+000	3.57790E+000	10	...........
	62	0.84	9.87133E-001	5.99868E-003	0.00000E+000	5.92150E-003	3.59960E-001	-1.09089E+000	3.57790E+000	10	...........
	63	0.853333	9.92546E-001	5.99396E-003	0.00000E+000	5.94928E-003	3.59960E-001	-1.08142E+000	3.57790E+000	10	...........
	64	0.866667	9.97923E-001	5.99613E-003	0.00000E+000	5.98368E-003	3.59960E-001	-1.08346E+000	3.57790E+000	10	...........
STARTTIMEOFFSET	QUANT	364.345	Start Time Offset (s)