File: Data/CV_CRGO300517_1/PWRCCD_CRGO300517_1/CHARGE_DISCHARGE/CHARGE_#665.DTA
EXPLAIN
TAG	PWR800_CHARGE
TITLE	LABEL	PWR Cyclic Charge Discharge (Cell) - Charge Step	Test &Identifier
DATE	LABEL	22-6-2017	Date
TIME	LABEL	16:02:14	Time
NOTES	NOTES	3	&Notes...
	supercap test cell
	0.6mg
	6M KOH
PSTAT	PSTAT	IFC5000-01520	Potentiostat
CAPACITY	QUANT	1.00000E-003	Capacity (A-hr)
CELLTYPE	SELECTOR	1	&Cell Type
WORKINGCONNECTION	SELECTOR	0	&Working Lead
MAXCHARGETIME	VARIABLEANDUNITS	1.00000E+002	s	1.00000E+002	second(s)	Max &Charge Time
CHARGECURRENT	QUANT	6.00000E-003	&Charge Current (A)
VOLTAGEFINISH	TWOPARAM	F	1.00000E-003	3.60000E+003	&Voltage Finish	 I (A) < 	Max Time(s)
SAMPLETIME	QUANT	1.00000E-002	Sa&mple Period (s)
CHARGESTOPAT1	MULTIPARAM	4	1.00000E+000	Charge Stop At &1	Voltage > Limit	V
CHARGESTOPAT2	MULTIPARAM	0	0.00000E+000	Charge Stop At &2	None	N/A
AESBHCSELECTOR	TOGGLE	F	Save Both Half Cells
IRCOMP	TOGGLE	F	IR &Measure
EOC	QUANT	0	Open Circuit (V)
SEQUENCER	TOGGLE	TRUE	Run as Sequence
PSTATMODEL	IQUANT	53	Pstat Model
PSTATSECTION	LABEL	IFC5000-01520	Pstat Section
PSTATSERIALNO	LABEL	01520	Pstat Serial Number
CTRLMODE	IQUANT	0	Control Mode
ELECTROMETER	IQUANT	1	RE=0 or CS=1
IESTAB	IQUANT	0	I/E Stability
CASPEED	IQUANT	4	Control Amp Speed
CONVENTION	IQUANT	1	Current Convention
ICHRANGE	IQUANT	2	Ich Range
ICHRANGEMODE	TOGGLE	T	Ich Auto Range
ICHOFFSETENABLE	TOGGLE	F	Ich Offset Enable
ICHOFFSET	QUANT	0	Ich Offset (V)
ICHFILTER	IQUANT	1	Ich Filter
VCHRANGE	IQUANT	2	Vch Range
VCHRANGEMODE	TOGGLE	T	Vch Auto Range
VCHOFFSETENABLE	TOGGLE	F	Vch Offset Enable
VCHOFFSET	QUANT	0	Vch Offset (V)
VCHFILTER	IQUANT	1	Vch Filter
IERANGELOWERLIMIT	IQUANT	9	I/E Range Lower Limit
IERANGEMODE	TOGGLE	F	I/E AutoRange
IERANGE	IQUANT	10	I/E Range
ACHSELECT	IQUANT	1	Ach Select
ACHRANGE	IQUANT	2	Ach Range
ACHOFFSETENABLE	TOGGLE	F	Ach Offset Enable
ACHOFFSET	QUANT	0	Ach Offset (V)
ACHFILTER	IQUANT	1	Ach Filter
CABLEID	IQUANT	14	Cable ID
DCCALDATE	LABEL	20-10-2016	DC Calibration Date
ACCALDATE	LABEL	12/3/2015	AC Calibration Date
FRAMEWORKVERSION	QUANT	7.01	Framework Version
INSTRUMENTVERSION	LABEL	4.00	Instrument Version
CURVE	TABLE	56
	Pt	T	Vf	Im	Vu	Pwr	Sig	Ach	Temp	IERange	Over
	#	s	V	A	V	W	V	V	deg C	#	bits
	0	0.013333	6.41469E-001	5.99271E-003	0.00000E+000	3.84414E-003	3.59960E-001	-1.15491E+000	3.57780E+000	10	...........
	1	0.026667	6.50561E-001	5.99672E-003	0.00000E+000	3.90123E-003	3.59960E-001	-1.14839E+000	3.57780E+000	10	...........
	2	0.04	6.58897E-001	5.99299E-003	0.00000E+000	3.94876E-003	3.59960E-001	-1.15619E+000	3.57780E+000	10	...........
	3	0.053333	6.66830E-001	5.99307E-003	0.00000E+000	3.99636E-003	3.59960E-001	-1.15431E+000	3.57780E+000	10	...........
	4	0.066667	6.74442E-001	5.98986E-003	0.00000E+000	4.03981E-003	3.59960E-001	-1.14784E+000	3.57780E+000	10	...........
	5	0.08	6.81851E-001	5.99130E-003	0.00000E+000	4.08518E-003	3.59960E-001	-1.15608E+000	3.57780E+000	10	...........
	6	0.093333	6.89109E-001	5.99864E-003	0.00000E+000	4.13372E-003	3.59960E-001	-1.15434E+000	3.57780E+000	10	...........
	7	0.106667	6.96275E-001	5.99668E-003	0.00000E+000	4.17534E-003	3.59960E-001	-1.14797E+000	3.57780E+000	10	...........
	8	0.12	7.03363E-001	5.99084E-003	0.00000E+000	4.21374E-003	3.59960E-001	-1.15606E+000	3.57780E+000	10	...........
	9	0.133333	7.10354E-001	5.99275E-003	0.00000E+000	4.25698E-003	3.59960E-001	-1.15427E+000	3.57780E+000	10	...........
	10	0.146667	7.17293E-001	5.99622E-003	0.00000E+000	4.30105E-003	3.59960E-001	-1.14775E+000	3.57780E+000	10	...........
	11	0.16	7.24181E-001	5.99148E-003	0.00000E+000	4.33891E-003	3.59960E-001	-1.15621E+000	3.57780E+000	10	...........
	12	0.173333	7.31017E-001	5.99304E-003	0.00000E+000	4.38101E-003	3.59960E-001	-1.15420E+000	3.57780E+000	10	...........
	13	0.186667	7.37816E-001	5.99056E-003	0.00000E+000	4.41993E-003	3.59960E-001	-1.14779E+000	3.57780E+000	10	...........
	14	0.2	7.44581E-001	5.99050E-003	0.00000E+000	4.46041E-003	3.59960E-001	-1.15607E+000	3.57780E+000	10	...........
	15	0.213333	7.51281E-001	5.99207E-003	0.00000E+000	4.50173E-003	3.59960E-001	-1.15377E+000	3.57780E+000	10	...........
	16	0.226667	7.57992E-001	5.98993E-003	0.00000E+000	4.54032E-003	3.59960E-001	-1.14765E+000	3.57780E+000	10	...........
	17	0.24	7.64673E-001	5.99447E-003	0.00000E+000	4.58381E-003	3.59960E-001	-1.15612E+000	3.57780E+000	10	...........
	18	0.253333	7.71338E-001	5.99188E-003	0.00000E+000	4.62177E-003	3.59960E-001	-1.15396E+000	3.57780E+000	10	...........
	19	0.266667	7.77977E-001	5.99068E-003	0.00000E+000	4.66061E-003	3.59960E-001	-1.14781E+000	3.57780E+000	10	...........
	20	0.28	7.84622E-001	5.99355E-003	0.00000E+000	4.70267E-003	3.59960E-001	-1.15632E+000	3.57780E+000	10	...........
	21	0.293333	7.91167E-001	5.99234E-003	0.00000E+000	4.74094E-003	3.59960E-001	-1.15407E+000	3.57780E+000	10	...........
	22	0.306667	7.97823E-001	5.99554E-003	0.00000E+000	4.78338E-003	3.59960E-001	-1.14799E+000	3.57780E+000	10	...........
	23	0.32	8.04309E-001	5.99536E-003	0.00000E+000	4.82212E-003	3.59960E-001	-1.15645E+000	3.57780E+000	10	...........
	24	0.333333	8.10830E-001	5.99571E-003	0.00000E+000	4.86150E-003	3.59960E-001	-1.15376E+000	3.57780E+000	10	...........
	25	0.346667	8.17355E-001	5.99433E-003	0.00000E+000	4.89950E-003	3.59960E-001	-1.14797E+000	3.57780E+000	10	...........
	26	0.36	8.23838E-001	5.99415E-003	0.00000E+000	4.93820E-003	3.59960E-001	-1.15623E+000	3.57780E+000	10	...........
	27	0.373333	8.30321E-001	5.99554E-003	0.00000E+000	4.97823E-003	3.59960E-001	-1.15345E+000	3.57780E+000	10	...........
	28	0.386667	8.36782E-001	5.99526E-003	0.00000E+000	5.01673E-003	3.59960E-001	-1.14748E+000	3.57780E+000	10	...........
	29	0.4	8.43225E-001	5.99771E-003	0.00000E+000	5.05742E-003	3.59960E-001	-1.15587E+000	3.57780E+000	10	...........
	30	0.413333	8.49650E-001	5.99094E-003	0.00000E+000	5.09020E-003	3.59960E-001	-1.15322E+000	3.57780E+000	10	...........
	31	0.426667	8.56021E-001	5.99332E-003	0.00000E+000	5.13041E-003	3.59960E-001	-1.14758E+000	3.57780E+000	10	...........
	32	0.44	8.62377E-001	5.99602E-003	0.00000E+000	5.17083E-003	3.59960E-001	-1.15623E+000	3.57780E+000	10	...........
	33	0.453333	8.68768E-001	5.99888E-003	0.00000E+000	5.21164E-003	3.59960E-001	-1.15324E+000	3.57780E+000	10	...........
	34	0.466667	8.75109E-001	5.99230E-003	0.00000E+000	5.24392E-003	3.59960E-001	-1.14747E+000	3.57780E+000	10	...........
	35	0.48	8.81393E-001	5.99475E-003	0.00000E+000	5.28373E-003	3.59960E-001	-1.15612E+000	3.57780E+000	10	...........
	36	0.493333	8.87644E-001	5.99152E-003	0.00000E+000	5.31833E-003	3.59960E-001	-1.15332E+000	3.57780E+000	10	...........
	37	0.506667	8.93886E-001	5.99216E-003	0.00000E+000	5.35631E-003	3.59960E-001	-1.14746E+000	3.57780E+000	10	...........
	38	0.52	9.00102E-001	5.99686E-003	0.00000E+000	5.39778E-003	3.59960E-001	-1.15604E+000	3.57780E+000	10	...........
	39	0.533333	9.06303E-001	5.99446E-003	0.00000E+000	5.43280E-003	3.59960E-001	-1.15310E+000	3.57780E+000	10	...........
	40	0.546667	9.12457E-001	5.99656E-003	0.00000E+000	5.47160E-003	3.59960E-001	-1.14719E+000	3.57780E+000	10	...........
	41	0.56	9.18565E-001	5.99786E-003	0.00000E+000	5.50942E-003	3.59960E-001	-1.15609E+000	3.57780E+000	10	...........
	42	0.573333	9.24670E-001	5.99164E-003	0.00000E+000	5.54029E-003	3.59960E-001	-1.15297E+000	3.57780E+000	10	...........
	43	0.586667	9.30712E-001	5.99367E-003	0.00000E+000	5.57838E-003	3.59960E-001	-1.14746E+000	3.57780E+000	10	...........
	44	0.6	9.36697E-001	5.98961E-003	0.00000E+000	5.61045E-003	3.59960E-001	-1.15633E+000	3.57810E+000	10	...........
	45	0.613333	9.42596E-001	5.99432E-003	0.00000E+000	5.65023E-003	3.59960E-001	-1.15317E+000	3.57840E+000	10	...........
	46	0.626667	9.48571E-001	5.99408E-003	0.00000E+000	5.68581E-003	3.59960E-001	-1.14756E+000	3.57840E+000	10	...........
	47	0.64	9.54422E-001	5.99636E-003	0.00000E+000	5.72306E-003	3.59960E-001	-1.15647E+000	3.57840E+000	10	...........
	48	0.653333	9.60195E-001	5.99108E-003	0.00000E+000	5.75261E-003	3.59960E-001	-1.15307E+000	3.57840E+000	10	...........
	49	0.666667	9.65970E-001	5.99506E-003	0.00000E+000	5.79105E-003	3.59960E-001	-1.14739E+000	3.57840E+000	10	...........
	50	0.68	9.71754E-001	5.99262E-003	0.00000E+000	5.82335E-003	3.59960E-001	-1.15623E+000	3.57840E+000	10	...........
	51	0.693333	9.77482E-001	5.99175E-003	0.00000E+000	5.85682E-003	3.59960E-001	-1.15258E+000	3.57840E+000	10	...........
	52	0.706667	9.83081E-001	5.99053E-003	0.00000E+000	5.88918E-003	3.59960E-001	-1.14727E+000	3.57840E+000	10	...........
	53	0.72	9.88660E-001	5.99617E-003	0.00000E+000	5.92817E-003	3.59960E-001	-1.15620E+000	3.57840E+000	10	...........
	54	0.733333	9.94198E-001	5.99561E-003	0.00000E+000	5.96082E-003	3.59960E-001	-1.15259E+000	3.57840E+000	10	...........
	55	0.741667	9.98671E-001	5.99683E-003	0.00000E+000	5.98886E-003	3.59960E-001	-1.14727E+000	3.57840E+000	10	...........
STARTTIMEOFFSET	QUANT	1107.678	Start Time Offset (s)