File: Data/CV_CRGO300517_1/PWRCCD_CRGO300517_1/CHARGE_DISCHARGE/CHARGE_#23.DTA
EXPLAIN
TAG	PWR800_CHARGE
TITLE	LABEL	PWR Cyclic Charge Discharge (Cell) - Charge Step	Test &Identifier
DATE	LABEL	22-6-2017	Date
TIME	LABEL	15:36:00	Time
NOTES	NOTES	3	&Notes...
	supercap test cell
	0.6mg
	6M KOH
PSTAT	PSTAT	IFC5000-01520	Potentiostat
CAPACITY	QUANT	1.00000E-003	Capacity (A-hr)
CELLTYPE	SELECTOR	1	&Cell Type
WORKINGCONNECTION	SELECTOR	0	&Working Lead
MAXCHARGETIME	VARIABLEANDUNITS	1.00000E+002	s	1.00000E+002	second(s)	Max &Charge Time
CHARGECURRENT	QUANT	6.00000E-003	&Charge Current (A)
VOLTAGEFINISH	TWOPARAM	F	1.00000E-003	3.60000E+003	&Voltage Finish	 I (A) < 	Max Time(s)
SAMPLETIME	QUANT	1.00000E-002	Sa&mple Period (s)
CHARGESTOPAT1	MULTIPARAM	4	1.00000E+000	Charge Stop At &1	Voltage > Limit	V
CHARGESTOPAT2	MULTIPARAM	0	0.00000E+000	Charge Stop At &2	None	N/A
AESBHCSELECTOR	TOGGLE	F	Save Both Half Cells
IRCOMP	TOGGLE	F	IR &Measure
EOC	QUANT	0	Open Circuit (V)
SEQUENCER	TOGGLE	TRUE	Run as Sequence
PSTATMODEL	IQUANT	53	Pstat Model
PSTATSECTION	LABEL	IFC5000-01520	Pstat Section
PSTATSERIALNO	LABEL	01520	Pstat Serial Number
CTRLMODE	IQUANT	0	Control Mode
ELECTROMETER	IQUANT	1	RE=0 or CS=1
IESTAB	IQUANT	0	I/E Stability
CASPEED	IQUANT	4	Control Amp Speed
CONVENTION	IQUANT	1	Current Convention
ICHRANGE	IQUANT	2	Ich Range
ICHRANGEMODE	TOGGLE	T	Ich Auto Range
ICHOFFSETENABLE	TOGGLE	F	Ich Offset Enable
ICHOFFSET	QUANT	0	Ich Offset (V)
ICHFILTER	IQUANT	1	Ich Filter
VCHRANGE	IQUANT	2	Vch Range
VCHRANGEMODE	TOGGLE	T	Vch Auto Range
VCHOFFSETENABLE	TOGGLE	F	Vch Offset Enable
VCHOFFSET	QUANT	0	Vch Offset (V)
VCHFILTER	IQUANT	1	Vch Filter
IERANGELOWERLIMIT	IQUANT	9	I/E Range Lower Limit
IERANGEMODE	TOGGLE	F	I/E AutoRange
IERANGE	IQUANT	10	I/E Range
ACHSELECT	IQUANT	1	Ach Select
ACHRANGE	IQUANT	2	Ach Range
ACHOFFSETENABLE	TOGGLE	F	Ach Offset Enable
ACHOFFSET	QUANT	0	Ach Offset (V)
ACHFILTER	IQUANT	1	Ach Filter
CABLEID	IQUANT	14	Cable ID
DCCALDATE	LABEL	20-10-2016	DC Calibration Date
ACCALDATE	LABEL	12/3/2015	AC Calibration Date
FRAMEWORKVERSION	QUANT	7.01	Framework Version
INSTRUMENTVERSION	LABEL	4.00	Instrument Version
CURVE	TABLE	78
	Pt	T	Vf	Im	Vu	Pwr	Sig	Ach	Temp	IERange	Over
	#	s	V	A	V	W	V	V	deg C	#	bits
	0	0.013333	5.62125E-001	5.99144E-003	0.00000E+000	3.36794E-003	3.59960E-001	-1.03122E+000	3.57750E+000	10	...........
	1	0.026667	5.70129E-001	5.99597E-003	0.00000E+000	3.41848E-003	3.59960E-001	-1.01956E+000	3.57750E+000	10	...........
	2	0.04	5.77426E-001	5.99454E-003	0.00000E+000	3.46141E-003	3.59960E-001	-1.02090E+000	3.57750E+000	10	...........
	3	0.053333	5.84349E-001	5.99074E-003	0.00000E+000	3.50068E-003	3.59960E-001	-1.03108E+000	3.57750E+000	10	...........
	4	0.066667	5.90999E-001	5.99156E-003	0.00000E+000	3.54101E-003	3.59960E-001	-1.01945E+000	3.57750E+000	10	...........
	5	0.08	5.97468E-001	5.99456E-003	0.00000E+000	3.58156E-003	3.59960E-001	-1.02100E+000	3.57750E+000	10	...........
	6	0.093333	6.03764E-001	5.99491E-003	0.00000E+000	3.61951E-003	3.59960E-001	-1.03062E+000	3.57750E+000	10	...........
	7	0.106667	6.09972E-001	5.99748E-003	0.00000E+000	3.65830E-003	3.59960E-001	-1.01879E+000	3.57750E+000	10	...........
	8	0.12	6.16131E-001	5.99070E-003	0.00000E+000	3.69106E-003	3.59960E-001	-1.02069E+000	3.57750E+000	10	...........
	9	0.133333	6.22177E-001	5.99114E-003	0.00000E+000	3.72755E-003	3.59960E-001	-1.03062E+000	3.57750E+000	10	...........
	10	0.146667	6.28130E-001	5.99480E-003	0.00000E+000	3.76552E-003	3.59960E-001	-1.01885E+000	3.57750E+000	10	...........
	11	0.16	6.34037E-001	5.99414E-003	0.00000E+000	3.80051E-003	3.59960E-001	-1.02051E+000	3.57750E+000	10	...........
	12	0.173333	6.39921E-001	5.99429E-003	0.00000E+000	3.83587E-003	3.59960E-001	-1.03041E+000	3.57750E+000	10	...........
	13	0.186667	6.45814E-001	5.99212E-003	0.00000E+000	3.86980E-003	3.59960E-001	-1.01886E+000	3.57750E+000	10	...........
	14	0.2	6.51654E-001	5.99795E-003	0.00000E+000	3.90859E-003	3.59960E-001	-1.02078E+000	3.57750E+000	10	...........
	15	0.213333	6.57397E-001	5.99444E-003	0.00000E+000	3.94073E-003	3.59960E-001	-1.03044E+000	3.57750E+000	10	...........
	16	0.226667	6.63119E-001	5.99400E-003	0.00000E+000	3.97474E-003	3.59960E-001	-1.01857E+000	3.57750E+000	10	...........
	17	0.24	6.68855E-001	5.99246E-003	0.00000E+000	4.00809E-003	3.59960E-001	-1.02054E+000	3.57750E+000	10	...........
	18	0.253333	6.74576E-001	5.99770E-003	0.00000E+000	4.04591E-003	3.59960E-001	-1.03032E+000	3.57750E+000	10	...........
	19	0.266667	6.80246E-001	5.99543E-003	0.00000E+000	4.07837E-003	3.59960E-001	-1.01873E+000	3.57750E+000	10	...........
	20	0.28	6.85893E-001	5.99192E-003	0.00000E+000	4.10982E-003	3.59960E-001	-1.02066E+000	3.57750E+000	10	...........
	21	0.293333	6.91599E-001	6.00080E-003	0.00000E+000	4.15015E-003	3.59960E-001	-1.03012E+000	3.57750E+000	10	...........
	22	0.306667	6.97247E-001	5.99428E-003	0.00000E+000	4.17949E-003	3.59960E-001	-1.01858E+000	3.57750E+000	10	...........
	23	0.32	7.02884E-001	5.99415E-003	0.00000E+000	4.21319E-003	3.59960E-001	-1.02086E+000	3.57750E+000	10	...........
	24	0.333333	7.08487E-001	5.99282E-003	0.00000E+000	4.24584E-003	3.59960E-001	-1.03036E+000	3.57750E+000	10	...........
	25	0.346667	7.14096E-001	5.99473E-003	0.00000E+000	4.28081E-003	3.59960E-001	-1.01877E+000	3.57750E+000	10	...........
	26	0.36	7.19738E-001	5.99064E-003	0.00000E+000	4.31169E-003	3.59960E-001	-1.02080E+000	3.57750E+000	10	...........
	27	0.373333	7.25382E-001	5.99725E-003	0.00000E+000	4.35030E-003	3.59960E-001	-1.03014E+000	3.57750E+000	10	...........
	28	0.386667	7.30950E-001	5.99155E-003	0.00000E+000	4.37952E-003	3.59960E-001	-1.01870E+000	3.57750E+000	10	...........
	29	0.4	7.36575E-001	5.99292E-003	0.00000E+000	4.41423E-003	3.59960E-001	-1.02083E+000	3.57750E+000	10	...........
	30	0.413333	7.42181E-001	5.99731E-003	0.00000E+000	4.45109E-003	3.59960E-001	-1.02996E+000	3.57750E+000	10	...........
	31	0.426667	7.47787E-001	5.99310E-003	0.00000E+000	4.48156E-003	3.59960E-001	-1.01811E+000	3.57750E+000	10	...........
	32	0.44	7.53364E-001	5.99361E-003	0.00000E+000	4.51537E-003	3.59960E-001	-1.02016E+000	3.57750E+000	10	...........
	33	0.453333	7.58951E-001	5.99552E-003	0.00000E+000	4.55031E-003	3.59960E-001	-1.02943E+000	3.57750E+000	10	...........
	34	0.466667	7.64547E-001	5.99321E-003	0.00000E+000	4.58209E-003	3.59960E-001	-1.01816E+000	3.57750E+000	10	...........
	35	0.48	7.70157E-001	5.99649E-003	0.00000E+000	4.61824E-003	3.59960E-001	-1.02030E+000	3.57750E+000	10	...........
	36	0.493333	7.75719E-001	5.99263E-003	0.00000E+000	4.64860E-003	3.59960E-001	-1.02946E+000	3.57750E+000	10	...........
	37	0.506667	7.81299E-001	5.99626E-003	0.00000E+000	4.68488E-003	3.59960E-001	-1.01797E+000	3.57750E+000	10	...........
	38	0.52	7.86880E-001	5.99445E-003	0.00000E+000	4.71691E-003	3.59960E-001	-1.02047E+000	3.57750E+000	10	...........
	39	0.533333	7.92522E-001	5.99660E-003	0.00000E+000	4.75244E-003	3.59960E-001	-1.02970E+000	3.57750E+000	10	...........
	40	0.546667	7.98119E-001	5.99246E-003	0.00000E+000	4.78270E-003	3.59960E-001	-1.01803E+000	3.57750E+000	10	...........
	41	0.56	8.03701E-001	5.99208E-003	0.00000E+000	4.81584E-003	3.59960E-001	-1.02038E+000	3.57750E+000	10	...........
	42	0.573333	8.09318E-001	5.99633E-003	0.00000E+000	4.85294E-003	3.59960E-001	-1.02958E+000	3.57750E+000	10	...........
	43	0.586667	8.14913E-001	5.99203E-003	0.00000E+000	4.88298E-003	3.59960E-001	-1.01797E+000	3.57750E+000	10	...........
	44	0.6	8.20553E-001	5.99575E-003	0.00000E+000	4.91983E-003	3.59960E-001	-1.02060E+000	3.57750E+000	10	...........
	45	0.613333	8.26156E-001	5.99293E-003	0.00000E+000	4.95109E-003	3.59960E-001	-1.02960E+000	3.57750E+000	10	...........
	46	0.626667	8.31697E-001	5.99441E-003	0.00000E+000	4.98553E-003	3.59960E-001	-1.01799E+000	3.57750E+000	10	...........
	47	0.64	8.37298E-001	5.99185E-003	0.00000E+000	5.01696E-003	3.59960E-001	-1.02058E+000	3.57750E+000	10	...........
	48	0.653333	8.42916E-001	5.99420E-003	0.00000E+000	5.05261E-003	3.59960E-001	-1.02942E+000	3.57765E+000	10	...........
	49	0.666667	8.48514E-001	5.99191E-003	0.00000E+000	5.08422E-003	3.59960E-001	-1.01806E+000	3.57870E+000	10	...........
	50	0.68	8.54096E-001	5.99161E-003	0.00000E+000	5.11741E-003	3.59960E-001	-1.02085E+000	3.57870E+000	10	...........
	51	0.693333	8.59673E-001	5.99572E-003	0.00000E+000	5.15436E-003	3.59960E-001	-1.02955E+000	3.57870E+000	10	...........
	52	0.706667	8.65220E-001	5.99346E-003	0.00000E+000	5.18566E-003	3.59960E-001	-1.01786E+000	3.57870E+000	10	...........
	53	0.72	8.70847E-001	5.99615E-003	0.00000E+000	5.22173E-003	3.59960E-001	-1.02075E+000	3.57870E+000	10	...........
	54	0.733333	8.76447E-001	5.99454E-003	0.00000E+000	5.25390E-003	3.59960E-001	-1.02924E+000	3.57870E+000	10	...........
	55	0.746667	8.82028E-001	5.99410E-003	0.00000E+000	5.28697E-003	3.59960E-001	-1.01784E+000	3.57870E+000	10	...........
	56	0.76	8.87585E-001	5.99220E-003	0.00000E+000	5.31858E-003	3.59960E-001	-1.02032E+000	3.57870E+000	10	...........
	57	0.773333	8.93171E-001	5.99410E-003	0.00000E+000	5.35376E-003	3.59960E-001	-1.02871E+000	3.57870E+000	10	...........
	58	0.786667	8.98758E-001	5.99074E-003	0.00000E+000	5.38422E-003	3.59960E-001	-1.01751E+000	3.57870E+000	10	...........
	59	0.8	9.04251E-001	5.99403E-003	0.00000E+000	5.42011E-003	3.59960E-001	-1.02053E+000	3.57870E+000	10	...........
	60	0.813333	9.09816E-001	5.99266E-003	0.00000E+000	5.45222E-003	3.59960E-001	-1.02899E+000	3.57870E+000	10	...........
	61	0.826667	9.15370E-001	5.99468E-003	0.00000E+000	5.48735E-003	3.59960E-001	-1.01753E+000	3.57870E+000	10	...........
	62	0.84	9.20922E-001	5.99665E-003	0.00000E+000	5.52245E-003	3.59960E-001	-1.02043E+000	3.57870E+000	10	...........
	63	0.853333	9.26409E-001	5.99322E-003	0.00000E+000	5.55217E-003	3.59960E-001	-1.02878E+000	3.57870E+000	10	...........
	64	0.866667	9.31900E-001	5.99447E-003	0.00000E+000	5.58625E-003	3.59960E-001	-1.01748E+000	3.57870E+000	10	...........
	65	0.88	9.37357E-001	5.99756E-003	0.00000E+000	5.62185E-003	3.59960E-001	-1.02040E+000	3.57870E+000	10	...........
	66	0.893333	9.42832E-001	5.99223E-003	0.00000E+000	5.64966E-003	3.59960E-001	-1.02856E+000	3.57870E+000	10	...........
	67	0.906667	9.48277E-001	5.99464E-003	0.00000E+000	5.68458E-003	3.59960E-001	-1.01721E+000	3.57870E+000	10	...........
	68	0.92	9.53674E-001	5.99426E-003	0.00000E+000	5.71657E-003	3.59960E-001	-1.02041E+000	3.57870E+000	10	...........
	69	0.933333	9.59095E-001	5.99273E-003	0.00000E+000	5.74760E-003	3.59960E-001	-1.02872E+000	3.57870E+000	10	...........
	70	0.946667	9.64486E-001	5.99147E-003	0.00000E+000	5.77868E-003	3.59960E-001	-1.01757E+000	3.57870E+000	10	...........
	71	0.96	9.69867E-001	5.99281E-003	0.00000E+000	5.81223E-003	3.59960E-001	-1.02065E+000	3.57870E+000	10	...........
	72	0.97333	9.75215E-001	5.99204E-003	0.00000E+000	5.84353E-003	3.59960E-001	-1.02855E+000	3.57870E+000	10	...........
	73	0.98667	9.80482E-001	5.99433E-003	0.00000E+000	5.87734E-003	3.59960E-001	-1.01745E+000	3.57870E+000	10	...........
	74	1	9.85776E-001	5.99668E-003	0.00000E+000	5.91139E-003	3.59960E-001	-1.02092E+000	3.57870E+000	10	...........
	75	1.01333	9.91039E-001	5.99448E-003	0.00000E+000	5.94077E-003	3.59960E-001	-1.02880E+000	3.57870E+000	10	...........
	76	1.02667	9.96249E-001	5.99377E-003	0.00000E+000	5.97129E-003	3.59960E-001	-1.01742E+000	3.57870E+000	10	...........
	77	1.03167	9.99807E-001	5.98840E-003	0.00000E+000	5.98724E-003	3.59960E-001	-1.03247E+000	3.57870E+000	10	...........
STARTTIMEOFFSET	QUANT	46.67	Start Time Offset (s)