File: Data/CV_CRGO300517_1/PWRCCD_CRGO300517_1/CHARGE_DISCHARGE/CHARGE_#273.DTA
EXPLAIN
TAG	PWR800_CHARGE
TITLE	LABEL	PWR Cyclic Charge Discharge (Cell) - Charge Step	Test &Identifier
DATE	LABEL	22-6-2017	Date
TIME	LABEL	15:46:49	Time
NOTES	NOTES	3	&Notes...
	supercap test cell
	0.6mg
	6M KOH
PSTAT	PSTAT	IFC5000-01520	Potentiostat
CAPACITY	QUANT	1.00000E-003	Capacity (A-hr)
CELLTYPE	SELECTOR	1	&Cell Type
WORKINGCONNECTION	SELECTOR	0	&Working Lead
MAXCHARGETIME	VARIABLEANDUNITS	1.00000E+002	s	1.00000E+002	second(s)	Max &Charge Time
CHARGECURRENT	QUANT	6.00000E-003	&Charge Current (A)
VOLTAGEFINISH	TWOPARAM	F	1.00000E-003	3.60000E+003	&Voltage Finish	 I (A) < 	Max Time(s)
SAMPLETIME	QUANT	1.00000E-002	Sa&mple Period (s)
CHARGESTOPAT1	MULTIPARAM	4	1.00000E+000	Charge Stop At &1	Voltage > Limit	V
CHARGESTOPAT2	MULTIPARAM	0	0.00000E+000	Charge Stop At &2	None	N/A
AESBHCSELECTOR	TOGGLE	F	Save Both Half Cells
IRCOMP	TOGGLE	F	IR &Measure
EOC	QUANT	0	Open Circuit (V)
SEQUENCER	TOGGLE	TRUE	Run as Sequence
PSTATMODEL	IQUANT	53	Pstat Model
PSTATSECTION	LABEL	IFC5000-01520	Pstat Section
PSTATSERIALNO	LABEL	01520	Pstat Serial Number
CTRLMODE	IQUANT	0	Control Mode
ELECTROMETER	IQUANT	1	RE=0 or CS=1
IESTAB	IQUANT	0	I/E Stability
CASPEED	IQUANT	4	Control Amp Speed
CONVENTION	IQUANT	1	Current Convention
ICHRANGE	IQUANT	2	Ich Range
ICHRANGEMODE	TOGGLE	T	Ich Auto Range
ICHOFFSETENABLE	TOGGLE	F	Ich Offset Enable
ICHOFFSET	QUANT	0	Ich Offset (V)
ICHFILTER	IQUANT	1	Ich Filter
VCHRANGE	IQUANT	2	Vch Range
VCHRANGEMODE	TOGGLE	T	Vch Auto Range
VCHOFFSETENABLE	TOGGLE	F	Vch Offset Enable
VCHOFFSET	QUANT	0	Vch Offset (V)
VCHFILTER	IQUANT	1	Vch Filter
IERANGELOWERLIMIT	IQUANT	9	I/E Range Lower Limit
IERANGEMODE	TOGGLE	F	I/E AutoRange
IERANGE	IQUANT	10	I/E Range
ACHSELECT	IQUANT	1	Ach Select
ACHRANGE	IQUANT	2	Ach Range
ACHOFFSETENABLE	TOGGLE	F	Ach Offset Enable
ACHOFFSET	QUANT	0	Ach Offset (V)
ACHFILTER	IQUANT	1	Ach Filter
CABLEID	IQUANT	14	Cable ID
DCCALDATE	LABEL	20-10-2016	DC Calibration Date
ACCALDATE	LABEL	12/3/2015	AC Calibration Date
FRAMEWORKVERSION	QUANT	7.01	Framework Version
INSTRUMENTVERSION	LABEL	4.00	Instrument Version
CURVE	TABLE	63
	Pt	T	Vf	Im	Vu	Pwr	Sig	Ach	Temp	IERange	Over
	#	s	V	A	V	W	V	V	deg C	#	bits
	0	0.013333	6.13113E-001	5.99126E-003	0.00000E+000	3.67332E-003	3.59960E-001	-1.11069E+000	3.57670E+000	10	...........
	1	0.026667	6.21735E-001	5.99024E-003	0.00000E+000	3.72435E-003	3.59960E-001	-1.11387E+000	3.57670E+000	10	...........
	2	0.04	6.29612E-001	5.99780E-003	0.00000E+000	3.77629E-003	3.59960E-001	-1.10611E+000	3.57670E+000	10	...........
	3	0.053333	6.37085E-001	5.99446E-003	0.00000E+000	3.81898E-003	3.59960E-001	-1.11002E+000	3.57670E+000	10	...........
	4	0.066667	6.44314E-001	5.99590E-003	0.00000E+000	3.86324E-003	3.59960E-001	-1.11345E+000	3.57670E+000	10	...........
	5	0.08	6.51310E-001	5.99469E-003	0.00000E+000	3.90440E-003	3.59960E-001	-1.10567E+000	3.57670E+000	10	...........
	6	0.093333	6.58154E-001	5.99206E-003	0.00000E+000	3.94370E-003	3.59960E-001	-1.10977E+000	3.57670E+000	10	...........
	7	0.106667	6.64918E-001	5.99546E-003	0.00000E+000	3.98649E-003	3.59960E-001	-1.11289E+000	3.57670E+000	10	...........
	8	0.12	6.71670E-001	5.99978E-003	0.00000E+000	4.02987E-003	3.59960E-001	-1.10478E+000	3.57670E+000	10	...........
	9	0.133333	6.78258E-001	5.99536E-003	0.00000E+000	4.06640E-003	3.59960E-001	-1.10904E+000	3.57670E+000	10	...........
	10	0.146667	6.84750E-001	5.99942E-003	0.00000E+000	4.10810E-003	3.59960E-001	-1.11252E+000	3.57670E+000	10	...........
	11	0.16	6.91217E-001	5.99467E-003	0.00000E+000	4.14362E-003	3.59960E-001	-1.10464E+000	3.57670E+000	10	...........
	12	0.173333	6.97716E-001	5.99388E-003	0.00000E+000	4.18202E-003	3.59960E-001	-1.10884E+000	3.57670E+000	10	...........
	13	0.186667	7.04100E-001	5.99011E-003	0.00000E+000	4.21763E-003	3.59960E-001	-1.11227E+000	3.57670E+000	10	...........
	14	0.2	7.10499E-001	5.99680E-003	0.00000E+000	4.26072E-003	3.59960E-001	-1.10428E+000	3.57670E+000	10	...........
	15	0.213333	7.16926E-001	5.99061E-003	0.00000E+000	4.29482E-003	3.59960E-001	-1.10851E+000	3.57670E+000	10	...........
	16	0.226667	7.23335E-001	5.99227E-003	0.00000E+000	4.33442E-003	3.59960E-001	-1.11211E+000	3.57670E+000	10	...........
	17	0.24	7.29625E-001	5.99488E-003	0.00000E+000	4.37401E-003	3.59960E-001	-1.10403E+000	3.57670E+000	10	...........
	18	0.253333	7.35926E-001	5.99491E-003	0.00000E+000	4.41181E-003	3.59960E-001	-1.10791E+000	3.57670E+000	10	...........
	19	0.266667	7.42214E-001	5.99326E-003	0.00000E+000	4.44828E-003	3.59960E-001	-1.11174E+000	3.57670E+000	10	...........
	20	0.28	7.48478E-001	5.99368E-003	0.00000E+000	4.48614E-003	3.59960E-001	-1.10377E+000	3.57670E+000	10	...........
	21	0.293333	7.54747E-001	5.99762E-003	0.00000E+000	4.52669E-003	3.59960E-001	-1.10789E+000	3.57670E+000	10	...........
	22	0.306667	7.60993E-001	5.99205E-003	0.00000E+000	4.55991E-003	3.59960E-001	-1.11166E+000	3.57670E+000	10	...........
	23	0.32	7.67248E-001	5.99590E-003	0.00000E+000	4.60034E-003	3.59960E-001	-1.10354E+000	3.57670E+000	10	...........
	24	0.333333	7.73493E-001	5.99149E-003	0.00000E+000	4.63437E-003	3.59960E-001	-1.10779E+000	3.57670E+000	10	...........
	25	0.346667	7.79696E-001	5.99707E-003	0.00000E+000	4.67589E-003	3.59960E-001	-1.11170E+000	3.57670E+000	10	...........
	26	0.36	7.85920E-001	5.99227E-003	0.00000E+000	4.70944E-003	3.59960E-001	-1.10349E+000	3.57680E+000	10	...........
	27	0.373333	7.92143E-001	5.99260E-003	0.00000E+000	4.74700E-003	3.59960E-001	-1.10756E+000	3.57690E+000	10	...........
	28	0.386667	7.98394E-001	5.99458E-003	0.00000E+000	4.78604E-003	3.59960E-001	-1.11132E+000	3.57690E+000	10	...........
	29	0.4	8.04572E-001	5.99617E-003	0.00000E+000	4.82435E-003	3.59960E-001	-1.10338E+000	3.57690E+000	10	...........
	30	0.413333	8.10758E-001	5.98998E-003	0.00000E+000	4.85643E-003	3.59960E-001	-1.10718E+000	3.57690E+000	10	...........
	31	0.426667	8.16900E-001	5.99608E-003	0.00000E+000	4.89819E-003	3.59960E-001	-1.11106E+000	3.57690E+000	10	...........
	32	0.44	8.23075E-001	5.99358E-003	0.00000E+000	4.93317E-003	3.59960E-001	-1.10294E+000	3.57690E+000	10	...........
	33	0.453333	8.29210E-001	5.99602E-003	0.00000E+000	4.97196E-003	3.59960E-001	-1.10685E+000	3.57690E+000	10	...........
	34	0.466667	8.35339E-001	5.99069E-003	0.00000E+000	5.00426E-003	3.59960E-001	-1.11052E+000	3.57690E+000	10	...........
	35	0.48	8.41458E-001	5.99737E-003	0.00000E+000	5.04653E-003	3.59960E-001	-1.10270E+000	3.57690E+000	10	...........
	36	0.493333	8.47580E-001	5.99068E-003	0.00000E+000	5.07758E-003	3.59960E-001	-1.10694E+000	3.57690E+000	10	...........
	37	0.506667	8.53697E-001	5.99299E-003	0.00000E+000	5.11620E-003	3.59960E-001	-1.11090E+000	3.57690E+000	10	...........
	38	0.52	8.59797E-001	5.99832E-003	0.00000E+000	5.15734E-003	3.59960E-001	-1.10255E+000	3.57690E+000	10	...........
	39	0.533333	8.65853E-001	5.99271E-003	0.00000E+000	5.18880E-003	3.59960E-001	-1.10654E+000	3.57690E+000	10	...........
	40	0.546667	8.71977E-001	5.99723E-003	0.00000E+000	5.22945E-003	3.59960E-001	-1.11079E+000	3.57690E+000	10	...........
	41	0.56	8.78043E-001	5.99444E-003	0.00000E+000	5.26337E-003	3.59960E-001	-1.10273E+000	3.57690E+000	10	...........
	42	0.573333	8.84029E-001	5.99384E-003	0.00000E+000	5.29873E-003	3.59960E-001	-1.10671E+000	3.57690E+000	10	...........
	43	0.586667	8.90075E-001	5.99340E-003	0.00000E+000	5.33457E-003	3.59960E-001	-1.11058E+000	3.57690E+000	10	...........
	44	0.6	8.96056E-001	5.99275E-003	0.00000E+000	5.36984E-003	3.59960E-001	-1.10260E+000	3.57690E+000	10	...........
	45	0.613333	9.02015E-001	5.99612E-003	0.00000E+000	5.40859E-003	3.59960E-001	-1.10663E+000	3.57690E+000	10	...........
	46	0.626667	9.07952E-001	5.99200E-003	0.00000E+000	5.44045E-003	3.59960E-001	-1.11080E+000	3.57690E+000	10	...........
	47	0.64	9.13841E-001	5.99634E-003	0.00000E+000	5.47970E-003	3.59960E-001	-1.10283E+000	3.57690E+000	10	...........
	48	0.653333	9.19743E-001	5.99627E-003	0.00000E+000	5.51503E-003	3.59960E-001	-1.10642E+000	3.57690E+000	10	...........
	49	0.666667	9.25670E-001	5.99712E-003	0.00000E+000	5.55135E-003	3.59960E-001	-1.11096E+000	3.57690E+000	10	...........
	50	0.68	9.31475E-001	5.99447E-003	0.00000E+000	5.58370E-003	3.59960E-001	-1.10293E+000	3.57690E+000	10	...........
	51	0.693333	9.37296E-001	5.99195E-003	0.00000E+000	5.61622E-003	3.59960E-001	-1.10671E+000	3.57690E+000	10	...........
	52	0.706667	9.43062E-001	5.99106E-003	0.00000E+000	5.64994E-003	3.59960E-001	-1.11096E+000	3.57690E+000	10	...........
	53	0.72	9.48840E-001	5.99288E-003	0.00000E+000	5.68629E-003	3.59960E-001	-1.10264E+000	3.57690E+000	10	...........
	54	0.733333	9.54530E-001	5.99393E-003	0.00000E+000	5.72138E-003	3.59960E-001	-1.10645E+000	3.57690E+000	10	...........
	55	0.746667	9.60183E-001	5.99578E-003	0.00000E+000	5.75705E-003	3.59960E-001	-1.11084E+000	3.57690E+000	10	...........
	56	0.76	9.65798E-001	5.99489E-003	0.00000E+000	5.78985E-003	3.59960E-001	-1.10244E+000	3.57690E+000	10	...........
	57	0.773333	9.71422E-001	5.99953E-003	0.00000E+000	5.82807E-003	3.59960E-001	-1.10650E+000	3.57690E+000	10	...........
	58	0.786667	9.77053E-001	5.99288E-003	0.00000E+000	5.85537E-003	3.59960E-001	-1.11071E+000	3.57690E+000	10	...........
	59	0.8	9.82570E-001	5.99305E-003	0.00000E+000	5.88859E-003	3.59960E-001	-1.10240E+000	3.57690E+000	10	...........
	60	0.813333	9.88050E-001	5.99707E-003	0.00000E+000	5.92540E-003	3.59960E-001	-1.10659E+000	3.57690E+000	10	...........
	61	0.826667	9.93452E-001	5.99615E-003	0.00000E+000	5.95688E-003	3.59960E-001	-1.11102E+000	3.57690E+000	10	...........
	62	0.838333	9.98576E-001	5.99130E-003	0.00000E+000	5.98277E-003	3.59960E-001	-1.10092E+000	3.57690E+000	10	...........
STARTTIMEOFFSET	QUANT	496.4367	Start Time Offset (s)