File: Data/CV_CRGO300517_1/PWRCCD_CRGO300517_1/CHARGE_DISCHARGE/CHARGE_#840.DTA
EXPLAIN
TAG	PWR800_CHARGE
TITLE	LABEL	PWR Cyclic Charge Discharge (Cell) - Charge Step	Test &Identifier
DATE	LABEL	22-6-2017	Date
TIME	LABEL	16:08:46	Time
NOTES	NOTES	3	&Notes...
	supercap test cell
	0.6mg
	6M KOH
PSTAT	PSTAT	IFC5000-01520	Potentiostat
CAPACITY	QUANT	1.00000E-003	Capacity (A-hr)
CELLTYPE	SELECTOR	1	&Cell Type
WORKINGCONNECTION	SELECTOR	0	&Working Lead
MAXCHARGETIME	VARIABLEANDUNITS	1.00000E+002	s	1.00000E+002	second(s)	Max &Charge Time
CHARGECURRENT	QUANT	6.00000E-003	&Charge Current (A)
VOLTAGEFINISH	TWOPARAM	F	1.00000E-003	3.60000E+003	&Voltage Finish	 I (A) < 	Max Time(s)
SAMPLETIME	QUANT	1.00000E-002	Sa&mple Period (s)
CHARGESTOPAT1	MULTIPARAM	4	1.00000E+000	Charge Stop At &1	Voltage > Limit	V
CHARGESTOPAT2	MULTIPARAM	0	0.00000E+000	Charge Stop At &2	None	N/A
AESBHCSELECTOR	TOGGLE	F	Save Both Half Cells
IRCOMP	TOGGLE	F	IR &Measure
EOC	QUANT	0	Open Circuit (V)
SEQUENCER	TOGGLE	TRUE	Run as Sequence
PSTATMODEL	IQUANT	53	Pstat Model
PSTATSECTION	LABEL	IFC5000-01520	Pstat Section
PSTATSERIALNO	LABEL	01520	Pstat Serial Number
CTRLMODE	IQUANT	0	Control Mode
ELECTROMETER	IQUANT	1	RE=0 or CS=1
IESTAB	IQUANT	0	I/E Stability
CASPEED	IQUANT	4	Control Amp Speed
CONVENTION	IQUANT	1	Current Convention
ICHRANGE	IQUANT	2	Ich Range
ICHRANGEMODE	TOGGLE	T	Ich Auto Range
ICHOFFSETENABLE	TOGGLE	F	Ich Offset Enable
ICHOFFSET	QUANT	0	Ich Offset (V)
ICHFILTER	IQUANT	1	Ich Filter
VCHRANGE	IQUANT	2	Vch Range
VCHRANGEMODE	TOGGLE	T	Vch Auto Range
VCHOFFSETENABLE	TOGGLE	F	Vch Offset Enable
VCHOFFSET	QUANT	0	Vch Offset (V)
VCHFILTER	IQUANT	1	Vch Filter
IERANGELOWERLIMIT	IQUANT	9	I/E Range Lower Limit
IERANGEMODE	TOGGLE	F	I/E AutoRange
IERANGE	IQUANT	10	I/E Range
ACHSELECT	IQUANT	1	Ach Select
ACHRANGE	IQUANT	2	Ach Range
ACHOFFSETENABLE	TOGGLE	F	Ach Offset Enable
ACHOFFSET	QUANT	0	Ach Offset (V)
ACHFILTER	IQUANT	1	Ach Filter
CABLEID	IQUANT	14	Cable ID
DCCALDATE	LABEL	20-10-2016	DC Calibration Date
ACCALDATE	LABEL	12/3/2015	AC Calibration Date
FRAMEWORKVERSION	QUANT	7.01	Framework Version
INSTRUMENTVERSION	LABEL	4.00	Instrument Version
CURVE	TABLE	54
	Pt	T	Vf	Im	Vu	Pwr	Sig	Ach	Temp	IERange	Over
	#	s	V	A	V	W	V	V	deg C	#	bits
	0	0.013333	6.50395E-001	5.99887E-003	0.00000E+000	3.90163E-003	3.59960E-001	-1.16484E+000	3.57700E+000	10	...........
	1	0.026667	6.59562E-001	5.99199E-003	0.00000E+000	3.95209E-003	3.59960E-001	-1.15715E+000	3.57700E+000	10	...........
	2	0.04	6.68045E-001	5.99319E-003	0.00000E+000	4.00372E-003	3.59960E-001	-1.16434E+000	3.57700E+000	10	...........
	3	0.053333	6.76100E-001	5.99308E-003	0.00000E+000	4.05193E-003	3.59960E-001	-1.16450E+000	3.57700E+000	10	...........
	4	0.066667	6.83823E-001	5.99490E-003	0.00000E+000	4.09945E-003	3.59960E-001	-1.15714E+000	3.57700E+000	10	...........
	5	0.08	6.91401E-001	5.99374E-003	0.00000E+000	4.14408E-003	3.59960E-001	-1.16460E+000	3.57700E+000	10	...........
	6	0.093333	6.98798E-001	5.99779E-003	0.00000E+000	4.19124E-003	3.59960E-001	-1.16427E+000	3.57700E+000	10	...........
	7	0.106667	7.06059E-001	5.99457E-003	0.00000E+000	4.23252E-003	3.59960E-001	-1.15697E+000	3.57700E+000	10	...........
	8	0.12	7.13234E-001	5.99135E-003	0.00000E+000	4.27324E-003	3.59960E-001	-1.16460E+000	3.57700E+000	10	...........
	9	0.133333	7.20399E-001	5.99686E-003	0.00000E+000	4.32013E-003	3.59960E-001	-1.16452E+000	3.57700E+000	10	...........
	10	0.146667	7.27446E-001	5.99290E-003	0.00000E+000	4.35951E-003	3.59960E-001	-1.15730E+000	3.57700E+000	10	...........
	11	0.16	7.34426E-001	5.99362E-003	0.00000E+000	4.40187E-003	3.59960E-001	-1.16489E+000	3.57700E+000	10	...........
	12	0.173333	7.41352E-001	5.99226E-003	0.00000E+000	4.44237E-003	3.59960E-001	-1.16418E+000	3.57700E+000	10	...........
	13	0.186667	7.48281E-001	5.99771E-003	0.00000E+000	4.48797E-003	3.59960E-001	-1.15725E+000	3.57700E+000	10	...........
	14	0.2	7.55140E-001	5.99454E-003	0.00000E+000	4.52672E-003	3.59960E-001	-1.16494E+000	3.57700E+000	10	...........
	15	0.213333	7.62002E-001	5.99321E-003	0.00000E+000	4.56684E-003	3.59960E-001	-1.16396E+000	3.57700E+000	10	...........
	16	0.226667	7.68810E-001	5.99247E-003	0.00000E+000	4.60707E-003	3.59960E-001	-1.15699E+000	3.57700E+000	10	...........
	17	0.24	7.75629E-001	5.99256E-003	0.00000E+000	4.64800E-003	3.59960E-001	-1.16487E+000	3.57700E+000	10	...........
	18	0.253333	7.82386E-001	5.99089E-003	0.00000E+000	4.68719E-003	3.59960E-001	-1.16376E+000	3.57700E+000	10	...........
	19	0.266667	7.89110E-001	5.99300E-003	0.00000E+000	4.72913E-003	3.59960E-001	-1.15710E+000	3.57700E+000	10	...........
	20	0.28	7.95827E-001	5.99502E-003	0.00000E+000	4.77100E-003	3.59960E-001	-1.16508E+000	3.57700E+000	10	...........
	21	0.293333	8.02486E-001	5.99480E-003	0.00000E+000	4.81075E-003	3.59960E-001	-1.16364E+000	3.57700E+000	10	...........
	22	0.306667	8.09183E-001	5.99375E-003	0.00000E+000	4.85004E-003	3.59960E-001	-1.15701E+000	3.57700E+000	10	...........
	23	0.32	8.15810E-001	5.99497E-003	0.00000E+000	4.89075E-003	3.59960E-001	-1.16523E+000	3.57700E+000	10	...........
	24	0.333333	8.22447E-001	5.99137E-003	0.00000E+000	4.92759E-003	3.59960E-001	-1.16383E+000	3.57700E+000	10	...........
	25	0.346667	8.29047E-001	5.99572E-003	0.00000E+000	4.97073E-003	3.59960E-001	-1.15734E+000	3.57700E+000	10	...........
	26	0.36	8.35578E-001	5.99513E-003	0.00000E+000	5.00940E-003	3.59960E-001	-1.16562E+000	3.57700E+000	10	...........
	27	0.373333	8.42148E-001	5.99200E-003	0.00000E+000	5.04615E-003	3.59960E-001	-1.16371E+000	3.57700E+000	10	...........
	28	0.386667	8.48684E-001	5.99400E-003	0.00000E+000	5.08701E-003	3.59960E-001	-1.15711E+000	3.57700E+000	10	...........
	29	0.4	8.55128E-001	5.99795E-003	0.00000E+000	5.12902E-003	3.59960E-001	-1.16562E+000	3.57700E+000	10	...........
	30	0.413333	8.61555E-001	5.99354E-003	0.00000E+000	5.16377E-003	3.59960E-001	-1.16392E+000	3.57700E+000	10	...........
	31	0.426667	8.68021E-001	5.99457E-003	0.00000E+000	5.20342E-003	3.59960E-001	-1.15774E+000	3.57700E+000	10	...........
	32	0.44	8.74403E-001	5.98953E-003	0.00000E+000	5.23726E-003	3.59960E-001	-1.16599E+000	3.57700E+000	10	...........
	33	0.453333	8.80780E-001	5.98990E-003	0.00000E+000	5.27578E-003	3.59960E-001	-1.16359E+000	3.57700E+000	10	...........
	34	0.466667	8.87142E-001	5.99300E-003	0.00000E+000	5.31664E-003	3.59960E-001	-1.15742E+000	3.57700E+000	10	...........
	35	0.48	8.93468E-001	5.99191E-003	0.00000E+000	5.35359E-003	3.59960E-001	-1.16618E+000	3.57700E+000	10	...........
	36	0.493333	8.99794E-001	5.99092E-003	0.00000E+000	5.39060E-003	3.59960E-001	-1.16372E+000	3.57700E+000	10	...........
	37	0.506667	9.06078E-001	5.99066E-003	0.00000E+000	5.42801E-003	3.59960E-001	-1.15738E+000	3.57700E+000	10	...........
	38	0.52	9.12265E-001	5.99362E-003	0.00000E+000	5.46778E-003	3.59960E-001	-1.16590E+000	3.57700E+000	10	...........
	39	0.533333	9.18476E-001	5.99231E-003	0.00000E+000	5.50380E-003	3.59960E-001	-1.16328E+000	3.57700E+000	10	...........
	40	0.546667	9.24685E-001	5.99661E-003	0.00000E+000	5.54497E-003	3.59960E-001	-1.15737E+000	3.57700E+000	10	...........
	41	0.56	9.30762E-001	5.99488E-003	0.00000E+000	5.57980E-003	3.59960E-001	-1.16608E+000	3.57700E+000	10	...........
	42	0.573333	9.36782E-001	5.99167E-003	0.00000E+000	5.61289E-003	3.59960E-001	-1.16323E+000	3.57700E+000	10	...........
	43	0.586667	9.42739E-001	5.99269E-003	0.00000E+000	5.64954E-003	3.59960E-001	-1.15754E+000	3.57700E+000	10	...........
	44	0.6	9.48720E-001	5.99110E-003	0.00000E+000	5.68388E-003	3.59960E-001	-1.16624E+000	3.57700E+000	10	...........
	45	0.613333	9.54648E-001	5.99594E-003	0.00000E+000	5.72401E-003	3.59960E-001	-1.16331E+000	3.57700E+000	10	...........
	46	0.626667	9.60503E-001	5.99167E-003	0.00000E+000	5.75502E-003	3.59960E-001	-1.15772E+000	3.57700E+000	10	...........
	47	0.64	9.66327E-001	5.99483E-003	0.00000E+000	5.79297E-003	3.59960E-001	-1.16643E+000	3.57700E+000	10	...........
	48	0.653333	9.72124E-001	5.99532E-003	0.00000E+000	5.82820E-003	3.59960E-001	-1.16302E+000	3.57700E+000	10	...........
	49	0.666667	9.77877E-001	5.99467E-003	0.00000E+000	5.86205E-003	3.59960E-001	-1.15751E+000	3.57700E+000	10	...........
	50	0.68	9.83513E-001	5.99905E-003	0.00000E+000	5.90014E-003	3.59960E-001	-1.16665E+000	3.57700E+000	10	...........
	51	0.693333	9.89140E-001	5.99610E-003	0.00000E+000	5.93098E-003	3.59960E-001	-1.16326E+000	3.57700E+000	10	...........
	52	0.706667	9.94677E-001	5.99347E-003	0.00000E+000	5.96156E-003	3.59960E-001	-1.15763E+000	3.57700E+000	10	...........
	53	0.715	9.99234E-001	5.99838E-003	0.00000E+000	5.99378E-003	3.59960E-001	-1.17185E+000	3.57700E+000	10	...........
STARTTIMEOFFSET	QUANT	1361.235	Start Time Offset (s)