File: Data/CV_CRGO300517_1/PWRCCD_CRGO300517_1/CHARGE_DISCHARGE/CHARGE_#644.DTA
EXPLAIN
TAG	PWR800_CHARGE
TITLE	LABEL	PWR Cyclic Charge Discharge (Cell) - Charge Step	Test &Identifier
DATE	LABEL	22-6-2017	Date
TIME	LABEL	16:01:26	Time
NOTES	NOTES	3	&Notes...
	supercap test cell
	0.6mg
	6M KOH
PSTAT	PSTAT	IFC5000-01520	Potentiostat
CAPACITY	QUANT	1.00000E-003	Capacity (A-hr)
CELLTYPE	SELECTOR	1	&Cell Type
WORKINGCONNECTION	SELECTOR	0	&Working Lead
MAXCHARGETIME	VARIABLEANDUNITS	1.00000E+002	s	1.00000E+002	second(s)	Max &Charge Time
CHARGECURRENT	QUANT	6.00000E-003	&Charge Current (A)
VOLTAGEFINISH	TWOPARAM	F	1.00000E-003	3.60000E+003	&Voltage Finish	 I (A) < 	Max Time(s)
SAMPLETIME	QUANT	1.00000E-002	Sa&mple Period (s)
CHARGESTOPAT1	MULTIPARAM	4	1.00000E+000	Charge Stop At &1	Voltage > Limit	V
CHARGESTOPAT2	MULTIPARAM	0	0.00000E+000	Charge Stop At &2	None	N/A
AESBHCSELECTOR	TOGGLE	F	Save Both Half Cells
IRCOMP	TOGGLE	F	IR &Measure
EOC	QUANT	0	Open Circuit (V)
SEQUENCER	TOGGLE	TRUE	Run as Sequence
PSTATMODEL	IQUANT	53	Pstat Model
PSTATSECTION	LABEL	IFC5000-01520	Pstat Section
PSTATSERIALNO	LABEL	01520	Pstat Serial Number
CTRLMODE	IQUANT	0	Control Mode
ELECTROMETER	IQUANT	1	RE=0 or CS=1
IESTAB	IQUANT	0	I/E Stability
CASPEED	IQUANT	4	Control Amp Speed
CONVENTION	IQUANT	1	Current Convention
ICHRANGE	IQUANT	2	Ich Range
ICHRANGEMODE	TOGGLE	T	Ich Auto Range
ICHOFFSETENABLE	TOGGLE	F	Ich Offset Enable
ICHOFFSET	QUANT	0	Ich Offset (V)
ICHFILTER	IQUANT	1	Ich Filter
VCHRANGE	IQUANT	2	Vch Range
VCHRANGEMODE	TOGGLE	T	Vch Auto Range
VCHOFFSETENABLE	TOGGLE	F	Vch Offset Enable
VCHOFFSET	QUANT	0	Vch Offset (V)
VCHFILTER	IQUANT	1	Vch Filter
IERANGELOWERLIMIT	IQUANT	9	I/E Range Lower Limit
IERANGEMODE	TOGGLE	F	I/E AutoRange
IERANGE	IQUANT	10	I/E Range
ACHSELECT	IQUANT	1	Ach Select
ACHRANGE	IQUANT	2	Ach Range
ACHOFFSETENABLE	TOGGLE	F	Ach Offset Enable
ACHOFFSET	QUANT	0	Ach Offset (V)
ACHFILTER	IQUANT	1	Ach Filter
CABLEID	IQUANT	14	Cable ID
DCCALDATE	LABEL	20-10-2016	DC Calibration Date
ACCALDATE	LABEL	12/3/2015	AC Calibration Date
FRAMEWORKVERSION	QUANT	7.01	Framework Version
INSTRUMENTVERSION	LABEL	4.00	Instrument Version
CURVE	TABLE	56
	Pt	T	Vf	Im	Vu	Pwr	Sig	Ach	Temp	IERange	Over
	#	s	V	A	V	W	V	V	deg C	#	bits
	0	0.013333	6.39713E-001	5.99303E-003	0.00000E+000	3.83382E-003	3.59960E-001	-1.15769E+000	3.57780E+000	10	...........
	1	0.026667	6.48725E-001	5.98821E-003	0.00000E+000	3.88470E-003	3.59960E-001	-1.15555E+000	3.57780E+000	10	...........
	2	0.04	6.57017E-001	5.98983E-003	0.00000E+000	3.93542E-003	3.59960E-001	-1.14933E+000	3.57780E+000	10	...........
	3	0.053333	6.64909E-001	5.99882E-003	0.00000E+000	3.98867E-003	3.59960E-001	-1.15757E+000	3.57780E+000	10	...........
	4	0.066667	6.72519E-001	5.99706E-003	0.00000E+000	4.03314E-003	3.59960E-001	-1.15537E+000	3.57780E+000	10	...........
	5	0.08	6.79908E-001	5.99359E-003	0.00000E+000	4.07509E-003	3.59960E-001	-1.14950E+000	3.57780E+000	10	...........
	6	0.093333	6.87186E-001	5.99342E-003	0.00000E+000	4.11859E-003	3.59960E-001	-1.15766E+000	3.57780E+000	10	...........
	7	0.106667	6.94336E-001	5.99805E-003	0.00000E+000	4.16466E-003	3.59960E-001	-1.15550E+000	3.57780E+000	10	...........
	8	0.12	7.01387E-001	5.99268E-003	0.00000E+000	4.20319E-003	3.59960E-001	-1.14948E+000	3.57780E+000	10	...........
	9	0.133333	7.08347E-001	5.99510E-003	0.00000E+000	4.24661E-003	3.59960E-001	-1.15748E+000	3.57780E+000	10	...........
	10	0.146667	7.15247E-001	5.99519E-003	0.00000E+000	4.28804E-003	3.59960E-001	-1.15569E+000	3.57780E+000	10	...........
	11	0.16	7.22131E-001	5.99594E-003	0.00000E+000	4.32986E-003	3.59960E-001	-1.14927E+000	3.57780E+000	10	...........
	12	0.173333	7.28948E-001	5.99521E-003	0.00000E+000	4.37019E-003	3.59960E-001	-1.15742E+000	3.57780E+000	10	...........
	13	0.186667	7.35736E-001	5.99576E-003	0.00000E+000	4.41130E-003	3.59960E-001	-1.15538E+000	3.57780E+000	10	...........
	14	0.2	7.42511E-001	5.99455E-003	0.00000E+000	4.45102E-003	3.59960E-001	-1.14890E+000	3.57780E+000	10	...........
	15	0.213333	7.49224E-001	5.99680E-003	0.00000E+000	4.49294E-003	3.59960E-001	-1.15730E+000	3.57780E+000	10	...........
	16	0.226667	7.55928E-001	5.99755E-003	0.00000E+000	4.53371E-003	3.59960E-001	-1.15519E+000	3.57780E+000	10	...........
	17	0.24	7.62576E-001	5.99593E-003	0.00000E+000	4.57235E-003	3.59960E-001	-1.14869E+000	3.57780E+000	10	...........
	18	0.253333	7.69250E-001	5.99211E-003	0.00000E+000	4.60943E-003	3.59960E-001	-1.15689E+000	3.57780E+000	10	...........
	19	0.266667	7.75876E-001	5.99212E-003	0.00000E+000	4.64915E-003	3.59960E-001	-1.15524E+000	3.57780E+000	10	...........
	20	0.28	7.82500E-001	5.99900E-003	0.00000E+000	4.69421E-003	3.59960E-001	-1.14890E+000	3.57780E+000	10	...........
	21	0.293333	7.89061E-001	5.99246E-003	0.00000E+000	4.72841E-003	3.59960E-001	-1.15702E+000	3.57780E+000	10	...........
	22	0.306667	7.95662E-001	5.99326E-003	0.00000E+000	4.76861E-003	3.59960E-001	-1.15501E+000	3.57780E+000	10	...........
	23	0.32	8.02202E-001	5.99244E-003	0.00000E+000	4.80714E-003	3.59960E-001	-1.14877E+000	3.57780E+000	10	...........
	24	0.333333	8.08720E-001	5.99182E-003	0.00000E+000	4.84570E-003	3.59960E-001	-1.15690E+000	3.57780E+000	10	...........
	25	0.346667	8.15218E-001	5.99206E-003	0.00000E+000	4.88484E-003	3.59960E-001	-1.15514E+000	3.57780E+000	10	...........
	26	0.36	8.21787E-001	5.99725E-003	0.00000E+000	4.92846E-003	3.59960E-001	-1.14864E+000	3.57780E+000	10	...........
	27	0.373333	8.28208E-001	5.99099E-003	0.00000E+000	4.96178E-003	3.59960E-001	-1.15700E+000	3.57780E+000	10	...........
	28	0.386667	8.34607E-001	5.99294E-003	0.00000E+000	5.00174E-003	3.59960E-001	-1.15483E+000	3.57780E+000	10	...........
	29	0.4	8.41046E-001	5.99214E-003	0.00000E+000	5.03967E-003	3.59960E-001	-1.14885E+000	3.57780E+000	10	...........
	30	0.413333	8.47519E-001	5.99329E-003	0.00000E+000	5.07943E-003	3.59960E-001	-1.15688E+000	3.57780E+000	10	...........
	31	0.426667	8.53890E-001	5.99262E-003	0.00000E+000	5.11704E-003	3.59960E-001	-1.15500E+000	3.57780E+000	10	...........
	32	0.44	8.60240E-001	5.98966E-003	0.00000E+000	5.15254E-003	3.59960E-001	-1.14870E+000	3.57780E+000	10	...........
	33	0.453333	8.66573E-001	5.99022E-003	0.00000E+000	5.19097E-003	3.59960E-001	-1.15670E+000	3.57780E+000	10	...........
	34	0.466667	8.72886E-001	5.99441E-003	0.00000E+000	5.23243E-003	3.59960E-001	-1.15499E+000	3.57780E+000	10	...........
	35	0.48	8.79187E-001	5.99557E-003	0.00000E+000	5.27123E-003	3.59960E-001	-1.14874E+000	3.57780E+000	10	...........
	36	0.493333	8.85465E-001	6.00165E-003	0.00000E+000	5.31425E-003	3.59960E-001	-1.15686E+000	3.57780E+000	10	...........
	37	0.506667	8.91703E-001	5.99512E-003	0.00000E+000	5.34586E-003	3.59960E-001	-1.15476E+000	3.57780E+000	10	...........
	38	0.52	8.97902E-001	5.99669E-003	0.00000E+000	5.38444E-003	3.59960E-001	-1.14813E+000	3.57774E+000	10	...........
	39	0.533333	9.04061E-001	5.99415E-003	0.00000E+000	5.41907E-003	3.59960E-001	-1.15640E+000	3.57700E+000	10	...........
	40	0.546667	9.10214E-001	5.99144E-003	0.00000E+000	5.45350E-003	3.59960E-001	-1.15453E+000	3.57700E+000	10	...........
	41	0.56	9.16291E-001	5.99556E-003	0.00000E+000	5.49368E-003	3.59960E-001	-1.14833E+000	3.57700E+000	10	...........
	42	0.573333	9.22443E-001	5.99197E-003	0.00000E+000	5.52725E-003	3.59960E-001	-1.15640E+000	3.57700E+000	10	...........
	43	0.586667	9.28464E-001	5.99043E-003	0.00000E+000	5.56190E-003	3.59960E-001	-1.15458E+000	3.57700E+000	10	...........
	44	0.6	9.34443E-001	5.99309E-003	0.00000E+000	5.60021E-003	3.59960E-001	-1.14824E+000	3.57700E+000	10	...........
	45	0.613333	9.40406E-001	5.99197E-003	0.00000E+000	5.63488E-003	3.59960E-001	-1.15646E+000	3.57700E+000	10	...........
	46	0.626667	9.46364E-001	5.99615E-003	0.00000E+000	5.67454E-003	3.59960E-001	-1.15439E+000	3.57700E+000	10	...........
	47	0.64	9.52290E-001	5.99076E-003	0.00000E+000	5.70494E-003	3.59960E-001	-1.14821E+000	3.57700E+000	10	...........
	48	0.653333	9.58108E-001	5.99143E-003	0.00000E+000	5.74044E-003	3.59960E-001	-1.15620E+000	3.57700E+000	10	...........
	49	0.666667	9.63921E-001	5.99333E-003	0.00000E+000	5.77710E-003	3.59960E-001	-1.15438E+000	3.57700E+000	10	...........
	50	0.68	9.69649E-001	5.99317E-003	0.00000E+000	5.81127E-003	3.59960E-001	-1.14845E+000	3.57700E+000	10	...........
	51	0.693333	9.75400E-001	5.99155E-003	0.00000E+000	5.84416E-003	3.59960E-001	-1.15627E+000	3.57700E+000	10	...........
	52	0.706667	9.81076E-001	6.00039E-003	0.00000E+000	5.88684E-003	3.59960E-001	-1.15452E+000	3.57700E+000	10	...........
	53	0.72	9.86645E-001	5.98678E-003	0.00000E+000	5.90683E-003	3.59960E-001	-1.14822E+000	3.57700E+000	10	...........
	54	0.733333	9.92201E-001	5.99889E-003	0.00000E+000	5.95211E-003	3.59960E-001	-1.15634E+000	3.57700E+000	10	...........
	55	0.746667	9.97724E-001	5.99310E-003	0.00000E+000	5.97947E-003	3.59960E-001	-1.15462E+000	3.57700E+000	10	...........
STARTTIMEOFFSET	QUANT	1076.577	Start Time Offset (s)