File: Data/CV_CRGO300517_1/PWRCCD_CRGO300517_1/CHARGE_DISCHARGE/CHARGE_#653.DTA
EXPLAIN
TAG	PWR800_CHARGE
TITLE	LABEL	PWR Cyclic Charge Discharge (Cell) - Charge Step	Test &Identifier
DATE	LABEL	22-6-2017	Date
TIME	LABEL	16:01:47	Time
NOTES	NOTES	3	&Notes...
	supercap test cell
	0.6mg
	6M KOH
PSTAT	PSTAT	IFC5000-01520	Potentiostat
CAPACITY	QUANT	1.00000E-003	Capacity (A-hr)
CELLTYPE	SELECTOR	1	&Cell Type
WORKINGCONNECTION	SELECTOR	0	&Working Lead
MAXCHARGETIME	VARIABLEANDUNITS	1.00000E+002	s	1.00000E+002	second(s)	Max &Charge Time
CHARGECURRENT	QUANT	6.00000E-003	&Charge Current (A)
VOLTAGEFINISH	TWOPARAM	F	1.00000E-003	3.60000E+003	&Voltage Finish	 I (A) < 	Max Time(s)
SAMPLETIME	QUANT	1.00000E-002	Sa&mple Period (s)
CHARGESTOPAT1	MULTIPARAM	4	1.00000E+000	Charge Stop At &1	Voltage > Limit	V
CHARGESTOPAT2	MULTIPARAM	0	0.00000E+000	Charge Stop At &2	None	N/A
AESBHCSELECTOR	TOGGLE	F	Save Both Half Cells
IRCOMP	TOGGLE	F	IR &Measure
EOC	QUANT	0	Open Circuit (V)
SEQUENCER	TOGGLE	TRUE	Run as Sequence
PSTATMODEL	IQUANT	53	Pstat Model
PSTATSECTION	LABEL	IFC5000-01520	Pstat Section
PSTATSERIALNO	LABEL	01520	Pstat Serial Number
CTRLMODE	IQUANT	0	Control Mode
ELECTROMETER	IQUANT	1	RE=0 or CS=1
IESTAB	IQUANT	0	I/E Stability
CASPEED	IQUANT	4	Control Amp Speed
CONVENTION	IQUANT	1	Current Convention
ICHRANGE	IQUANT	2	Ich Range
ICHRANGEMODE	TOGGLE	T	Ich Auto Range
ICHOFFSETENABLE	TOGGLE	F	Ich Offset Enable
ICHOFFSET	QUANT	0	Ich Offset (V)
ICHFILTER	IQUANT	1	Ich Filter
VCHRANGE	IQUANT	2	Vch Range
VCHRANGEMODE	TOGGLE	T	Vch Auto Range
VCHOFFSETENABLE	TOGGLE	F	Vch Offset Enable
VCHOFFSET	QUANT	0	Vch Offset (V)
VCHFILTER	IQUANT	1	Vch Filter
IERANGELOWERLIMIT	IQUANT	9	I/E Range Lower Limit
IERANGEMODE	TOGGLE	F	I/E AutoRange
IERANGE	IQUANT	10	I/E Range
ACHSELECT	IQUANT	1	Ach Select
ACHRANGE	IQUANT	2	Ach Range
ACHOFFSETENABLE	TOGGLE	F	Ach Offset Enable
ACHOFFSET	QUANT	0	Ach Offset (V)
ACHFILTER	IQUANT	1	Ach Filter
CABLEID	IQUANT	14	Cable ID
DCCALDATE	LABEL	20-10-2016	DC Calibration Date
ACCALDATE	LABEL	12/3/2015	AC Calibration Date
FRAMEWORKVERSION	QUANT	7.01	Framework Version
INSTRUMENTVERSION	LABEL	4.00	Instrument Version
CURVE	TABLE	56
	Pt	T	Vf	Im	Vu	Pwr	Sig	Ach	Temp	IERange	Over
	#	s	V	A	V	W	V	V	deg C	#	bits
	0	0.013333	6.41225E-001	5.99489E-003	0.00000E+000	3.84407E-003	3.59960E-001	-1.16368E+000	3.57790E+000	10	...........
	1	0.026667	6.50250E-001	5.99072E-003	0.00000E+000	3.89547E-003	3.59960E-001	-1.15439E+000	3.57790E+000	10	...........
	2	0.04	6.58573E-001	5.99435E-003	0.00000E+000	3.94772E-003	3.59960E-001	-1.15214E+000	3.57790E+000	10	...........
	3	0.053333	6.66463E-001	5.99419E-003	0.00000E+000	3.99491E-003	3.59960E-001	-1.16343E+000	3.57790E+000	10	...........
	4	0.066667	6.74110E-001	5.99610E-003	0.00000E+000	4.04203E-003	3.59960E-001	-1.15412E+000	3.57790E+000	10	...........
	5	0.08	6.81519E-001	5.99184E-003	0.00000E+000	4.08355E-003	3.59960E-001	-1.15217E+000	3.57790E+000	10	...........
	6	0.093333	6.88720E-001	5.99584E-003	0.00000E+000	4.12945E-003	3.59960E-001	-1.16348E+000	3.57790E+000	10	...........
	7	0.106667	6.95875E-001	5.99827E-003	0.00000E+000	4.17405E-003	3.59960E-001	-1.15408E+000	3.57790E+000	10	...........
	8	0.12	7.02940E-001	5.99230E-003	0.00000E+000	4.21223E-003	3.59960E-001	-1.15202E+000	3.57790E+000	10	...........
	9	0.133333	7.09900E-001	5.99705E-003	0.00000E+000	4.25731E-003	3.59960E-001	-1.16300E+000	3.57790E+000	10	...........
	10	0.146667	7.16858E-001	5.99277E-003	0.00000E+000	4.29596E-003	3.59960E-001	-1.15403E+000	3.57790E+000	10	...........
	11	0.16	7.23707E-001	5.99411E-003	0.00000E+000	4.33798E-003	3.59960E-001	-1.15209E+000	3.57790E+000	10	...........
	12	0.173333	7.30532E-001	5.99299E-003	0.00000E+000	4.37807E-003	3.59960E-001	-1.16323E+000	3.57790E+000	10	...........
	13	0.186667	7.37289E-001	5.99279E-003	0.00000E+000	4.41842E-003	3.59960E-001	-1.15396E+000	3.57790E+000	10	...........
	14	0.2	7.44117E-001	5.99445E-003	0.00000E+000	4.46057E-003	3.59960E-001	-1.15203E+000	3.57790E+000	10	...........
	15	0.213333	7.50816E-001	5.99709E-003	0.00000E+000	4.50271E-003	3.59960E-001	-1.16334E+000	3.57790E+000	10	...........
	16	0.226667	7.57519E-001	5.99142E-003	0.00000E+000	4.53862E-003	3.59960E-001	-1.15415E+000	3.57790E+000	10	...........
	17	0.24	7.64203E-001	5.99429E-003	0.00000E+000	4.58086E-003	3.59960E-001	-1.15203E+000	3.57790E+000	10	...........
	18	0.253333	7.70848E-001	5.99225E-003	0.00000E+000	4.61911E-003	3.59960E-001	-1.16300E+000	3.57790E+000	10	...........
	19	0.266667	7.77439E-001	5.99441E-003	0.00000E+000	4.66029E-003	3.59960E-001	-1.15379E+000	3.57790E+000	10	...........
	20	0.28	7.84078E-001	5.99192E-003	0.00000E+000	4.69813E-003	3.59960E-001	-1.15180E+000	3.57790E+000	10	...........
	21	0.293333	7.90653E-001	5.99028E-003	0.00000E+000	4.73623E-003	3.59960E-001	-1.16301E+000	3.57790E+000	10	...........
	22	0.306667	7.97279E-001	5.99467E-003	0.00000E+000	4.77942E-003	3.59960E-001	-1.15339E+000	3.57790E+000	10	...........
	23	0.32	8.03799E-001	5.99694E-003	0.00000E+000	4.82034E-003	3.59960E-001	-1.15125E+000	3.57790E+000	10	...........
	24	0.333333	8.10315E-001	5.99429E-003	0.00000E+000	4.85726E-003	3.59960E-001	-1.16262E+000	3.57790E+000	10	...........
	25	0.346667	8.16813E-001	5.99383E-003	0.00000E+000	4.89584E-003	3.59960E-001	-1.15337E+000	3.57790E+000	10	...........
	26	0.36	8.23351E-001	5.99457E-003	0.00000E+000	4.93564E-003	3.59960E-001	-1.15153E+000	3.57790E+000	10	...........
	27	0.373333	8.29824E-001	5.99854E-003	0.00000E+000	4.97773E-003	3.59960E-001	-1.16266E+000	3.57790E+000	10	...........
	28	0.386667	8.36286E-001	5.99254E-003	0.00000E+000	5.01148E-003	3.59960E-001	-1.15342E+000	3.57790E+000	10	...........
	29	0.4	8.42706E-001	5.99285E-003	0.00000E+000	5.05021E-003	3.59960E-001	-1.15155E+000	3.57790E+000	10	...........
	30	0.413333	8.49119E-001	5.98494E-003	0.00000E+000	5.08193E-003	3.59960E-001	-1.16269E+000	3.57790E+000	10	...........
	31	0.426667	8.55498E-001	5.99838E-003	0.00000E+000	5.13160E-003	3.59960E-001	-1.15354E+000	3.57790E+000	10	...........
	32	0.44	8.61874E-001	5.99674E-003	0.00000E+000	5.16844E-003	3.59960E-001	-1.15153E+000	3.57790E+000	10	...........
	33	0.453333	8.68203E-001	5.99010E-003	0.00000E+000	5.20062E-003	3.59960E-001	-1.16256E+000	3.57790E+000	10	...........
	34	0.466667	8.74511E-001	5.99661E-003	0.00000E+000	5.24410E-003	3.59960E-001	-1.15329E+000	3.57790E+000	10	...........
	35	0.48	8.80785E-001	5.99861E-003	0.00000E+000	5.28349E-003	3.59960E-001	-1.15140E+000	3.57790E+000	10	...........
	36	0.493333	8.87085E-001	5.99517E-003	0.00000E+000	5.31822E-003	3.59960E-001	-1.16277E+000	3.57790E+000	10	...........
	37	0.506667	8.93292E-001	5.99503E-003	0.00000E+000	5.35531E-003	3.59960E-001	-1.15342E+000	3.57790E+000	10	...........
	38	0.52	8.99488E-001	5.99740E-003	0.00000E+000	5.39459E-003	3.59960E-001	-1.15145E+000	3.57790E+000	10	...........
	39	0.533333	9.05673E-001	5.99319E-003	0.00000E+000	5.42787E-003	3.59960E-001	-1.16265E+000	3.57790E+000	10	...........
	40	0.546667	9.11814E-001	5.99559E-003	0.00000E+000	5.46686E-003	3.59960E-001	-1.15343E+000	3.57790E+000	10	...........
	41	0.56	9.17880E-001	5.99227E-003	0.00000E+000	5.50018E-003	3.59960E-001	-1.15161E+000	3.57790E+000	10	...........
	42	0.573333	9.23986E-001	5.99153E-003	0.00000E+000	5.53609E-003	3.59960E-001	-1.16272E+000	3.57790E+000	10	...........
	43	0.586667	9.30019E-001	5.99632E-003	0.00000E+000	5.57669E-003	3.59960E-001	-1.15331E+000	3.57790E+000	10	...........
	44	0.6	9.36004E-001	5.99647E-003	0.00000E+000	5.61272E-003	3.59960E-001	-1.15150E+000	3.57790E+000	10	...........
	45	0.613333	9.41976E-001	5.99420E-003	0.00000E+000	5.64639E-003	3.59960E-001	-1.16255E+000	3.57790E+000	10	...........
	46	0.626667	9.47931E-001	5.99221E-003	0.00000E+000	5.68020E-003	3.59960E-001	-1.15310E+000	3.57790E+000	10	...........
	47	0.64	9.53807E-001	5.99778E-003	0.00000E+000	5.72072E-003	3.59960E-001	-1.15123E+000	3.57790E+000	10	...........
	48	0.653333	9.59630E-001	5.99660E-003	0.00000E+000	5.75452E-003	3.59960E-001	-1.16233E+000	3.57790E+000	10	...........
	49	0.666667	9.65470E-001	5.99409E-003	0.00000E+000	5.78712E-003	3.59960E-001	-1.15283E+000	3.57790E+000	10	...........
	50	0.68	9.71192E-001	5.99701E-003	0.00000E+000	5.82425E-003	3.59960E-001	-1.15116E+000	3.57790E+000	10	...........
	51	0.693333	9.76910E-001	5.99199E-003	0.00000E+000	5.85363E-003	3.59960E-001	-1.16241E+000	3.57790E+000	10	...........
	52	0.706667	9.82540E-001	5.99596E-003	0.00000E+000	5.89127E-003	3.59960E-001	-1.15301E+000	3.57790E+000	10	...........
	53	0.72	9.88163E-001	5.99728E-003	0.00000E+000	5.92629E-003	3.59960E-001	-1.15106E+000	3.57790E+000	10	...........
	54	0.733333	9.93707E-001	5.99440E-003	0.00000E+000	5.95667E-003	3.59960E-001	-1.16208E+000	3.57790E+000	10	...........
	55	0.743333	9.98495E-001	5.99586E-003	0.00000E+000	5.98684E-003	3.59960E-001	-1.14871E+000	3.57790E+000	10	...........
STARTTIMEOFFSET	QUANT	1089.935	Start Time Offset (s)