File: Data/CV_CRGO300517_1/PWRCCD_CRGO300517_1/CHARGE_DISCHARGE/CHARGE_#484.DTA
EXPLAIN
TAG	PWR800_CHARGE
TITLE	LABEL	PWR Cyclic Charge Discharge (Cell) - Charge Step	Test &Identifier
DATE	LABEL	22-6-2017	Date
TIME	LABEL	15:55:17	Time
NOTES	NOTES	3	&Notes...
	supercap test cell
	0.6mg
	6M KOH
PSTAT	PSTAT	IFC5000-01520	Potentiostat
CAPACITY	QUANT	1.00000E-003	Capacity (A-hr)
CELLTYPE	SELECTOR	1	&Cell Type
WORKINGCONNECTION	SELECTOR	0	&Working Lead
MAXCHARGETIME	VARIABLEANDUNITS	1.00000E+002	s	1.00000E+002	second(s)	Max &Charge Time
CHARGECURRENT	QUANT	6.00000E-003	&Charge Current (A)
VOLTAGEFINISH	TWOPARAM	F	1.00000E-003	3.60000E+003	&Voltage Finish	 I (A) < 	Max Time(s)
SAMPLETIME	QUANT	1.00000E-002	Sa&mple Period (s)
CHARGESTOPAT1	MULTIPARAM	4	1.00000E+000	Charge Stop At &1	Voltage > Limit	V
CHARGESTOPAT2	MULTIPARAM	0	0.00000E+000	Charge Stop At &2	None	N/A
AESBHCSELECTOR	TOGGLE	F	Save Both Half Cells
IRCOMP	TOGGLE	F	IR &Measure
EOC	QUANT	0	Open Circuit (V)
SEQUENCER	TOGGLE	TRUE	Run as Sequence
PSTATMODEL	IQUANT	53	Pstat Model
PSTATSECTION	LABEL	IFC5000-01520	Pstat Section
PSTATSERIALNO	LABEL	01520	Pstat Serial Number
CTRLMODE	IQUANT	0	Control Mode
ELECTROMETER	IQUANT	1	RE=0 or CS=1
IESTAB	IQUANT	0	I/E Stability
CASPEED	IQUANT	4	Control Amp Speed
CONVENTION	IQUANT	1	Current Convention
ICHRANGE	IQUANT	2	Ich Range
ICHRANGEMODE	TOGGLE	T	Ich Auto Range
ICHOFFSETENABLE	TOGGLE	F	Ich Offset Enable
ICHOFFSET	QUANT	0	Ich Offset (V)
ICHFILTER	IQUANT	1	Ich Filter
VCHRANGE	IQUANT	2	Vch Range
VCHRANGEMODE	TOGGLE	T	Vch Auto Range
VCHOFFSETENABLE	TOGGLE	F	Vch Offset Enable
VCHOFFSET	QUANT	0	Vch Offset (V)
VCHFILTER	IQUANT	1	Vch Filter
IERANGELOWERLIMIT	IQUANT	9	I/E Range Lower Limit
IERANGEMODE	TOGGLE	F	I/E AutoRange
IERANGE	IQUANT	10	I/E Range
ACHSELECT	IQUANT	1	Ach Select
ACHRANGE	IQUANT	2	Ach Range
ACHOFFSETENABLE	TOGGLE	F	Ach Offset Enable
ACHOFFSET	QUANT	0	Ach Offset (V)
ACHFILTER	IQUANT	1	Ach Filter
CABLEID	IQUANT	14	Cable ID
DCCALDATE	LABEL	20-10-2016	DC Calibration Date
ACCALDATE	LABEL	12/3/2015	AC Calibration Date
FRAMEWORKVERSION	QUANT	7.01	Framework Version
INSTRUMENTVERSION	LABEL	4.00	Instrument Version
CURVE	TABLE	59
	Pt	T	Vf	Im	Vu	Pwr	Sig	Ach	Temp	IERange	Over
	#	s	V	A	V	W	V	V	deg C	#	bits
	0	0.013333	6.31131E-001	5.99519E-003	0.00000E+000	3.78375E-003	3.59960E-001	-1.14056E+000	3.57790E+000	10	...........
	1	0.026667	6.40050E-001	5.99576E-003	0.00000E+000	3.83759E-003	3.59960E-001	-1.15027E+000	3.57790E+000	10	...........
	2	0.04	6.48188E-001	5.99001E-003	0.00000E+000	3.88265E-003	3.59960E-001	-1.13991E+000	3.57790E+000	10	...........
	3	0.053333	6.55884E-001	5.98952E-003	0.00000E+000	3.92843E-003	3.59960E-001	-1.13993E+000	3.57790E+000	10	...........
	4	0.066667	6.63303E-001	5.99462E-003	0.00000E+000	3.97625E-003	3.59960E-001	-1.14986E+000	3.57790E+000	10	...........
	5	0.08	6.70565E-001	5.99310E-003	0.00000E+000	4.01876E-003	3.59960E-001	-1.13959E+000	3.57790E+000	10	...........
	6	0.093333	6.77692E-001	5.99489E-003	0.00000E+000	4.06269E-003	3.59960E-001	-1.13987E+000	3.57790E+000	10	...........
	7	0.106667	6.84694E-001	5.99311E-003	0.00000E+000	4.10345E-003	3.59960E-001	-1.14934E+000	3.57790E+000	10	...........
	8	0.12	6.91591E-001	5.99580E-003	0.00000E+000	4.14665E-003	3.59960E-001	-1.13919E+000	3.57790E+000	10	...........
	9	0.133333	6.98451E-001	5.99616E-003	0.00000E+000	4.18802E-003	3.59960E-001	-1.13961E+000	3.57790E+000	10	...........
	10	0.146667	7.05240E-001	5.99455E-003	0.00000E+000	4.22760E-003	3.59960E-001	-1.14989E+000	3.57790E+000	10	...........
	11	0.16	7.11951E-001	5.99653E-003	0.00000E+000	4.26924E-003	3.59960E-001	-1.13935E+000	3.57790E+000	10	...........
	12	0.173333	7.18644E-001	5.99079E-003	0.00000E+000	4.30524E-003	3.59960E-001	-1.13962E+000	3.57790E+000	10	...........
	13	0.186667	7.25335E-001	5.99657E-003	0.00000E+000	4.34952E-003	3.59960E-001	-1.14908E+000	3.57790E+000	10	...........
	14	0.2	7.31942E-001	5.99710E-003	0.00000E+000	4.38953E-003	3.59960E-001	-1.13884E+000	3.57790E+000	10	...........
	15	0.213333	7.38536E-001	5.99582E-003	0.00000E+000	4.42813E-003	3.59960E-001	-1.13940E+000	3.57790E+000	10	...........
	16	0.226667	7.45134E-001	5.99333E-003	0.00000E+000	4.46583E-003	3.59960E-001	-1.14882E+000	3.57790E+000	10	...........
	17	0.24	7.51647E-001	5.99507E-003	0.00000E+000	4.50618E-003	3.59960E-001	-1.13827E+000	3.57790E+000	10	...........
	18	0.253333	7.58157E-001	5.99684E-003	0.00000E+000	4.54654E-003	3.59960E-001	-1.13869E+000	3.57790E+000	10	...........
	19	0.266667	7.64613E-001	5.99206E-003	0.00000E+000	4.58161E-003	3.59960E-001	-1.14821E+000	3.57790E+000	10	...........
	20	0.28	7.71103E-001	5.99368E-003	0.00000E+000	4.62174E-003	3.59960E-001	-1.13798E+000	3.57790E+000	10	...........
	21	0.293333	7.77583E-001	5.99471E-003	0.00000E+000	4.66138E-003	3.59960E-001	-1.13874E+000	3.57790E+000	10	...........
	22	0.306667	7.84078E-001	5.99327E-003	0.00000E+000	4.69919E-003	3.59960E-001	-1.14813E+000	3.57790E+000	10	...........
	23	0.32	7.90502E-001	5.99362E-003	0.00000E+000	4.73797E-003	3.59960E-001	-1.13755E+000	3.57790E+000	10	...........
	24	0.333333	7.96949E-001	5.99551E-003	0.00000E+000	4.77812E-003	3.59960E-001	-1.13860E+000	3.57790E+000	10	...........
	25	0.346667	8.03365E-001	5.99861E-003	0.00000E+000	4.81907E-003	3.59960E-001	-1.14810E+000	3.57790E+000	10	...........
	26	0.36	8.09752E-001	5.99260E-003	0.00000E+000	4.85252E-003	3.59960E-001	-1.13756E+000	3.57790E+000	10	...........
	27	0.373333	8.16111E-001	5.99425E-003	0.00000E+000	4.89197E-003	3.59960E-001	-1.13841E+000	3.57790E+000	10	...........
	28	0.386667	8.22497E-001	5.99432E-003	0.00000E+000	4.93031E-003	3.59960E-001	-1.14767E+000	3.57790E+000	10	...........
	29	0.4	8.28858E-001	5.99575E-003	0.00000E+000	4.96963E-003	3.59960E-001	-1.13721E+000	3.57790E+000	10	...........
	30	0.413333	8.35184E-001	5.99611E-003	0.00000E+000	5.00785E-003	3.59960E-001	-1.13829E+000	3.57790E+000	10	...........
	31	0.426667	8.41513E-001	5.98993E-003	0.00000E+000	5.04060E-003	3.59960E-001	-1.14740E+000	3.57790E+000	10	...........
	32	0.44	8.47846E-001	5.99513E-003	0.00000E+000	5.08295E-003	3.59960E-001	-1.13696E+000	3.57790E+000	10	...........
	33	0.453333	8.54124E-001	5.99077E-003	0.00000E+000	5.11686E-003	3.59960E-001	-1.13808E+000	3.57790E+000	10	...........
	34	0.466667	8.60357E-001	5.99095E-003	0.00000E+000	5.15436E-003	3.59960E-001	-1.14723E+000	3.57790E+000	10	...........
	35	0.48	8.66575E-001	5.98613E-003	0.00000E+000	5.18742E-003	3.59960E-001	-1.13695E+000	3.57790E+000	10	...........
	36	0.493333	8.72851E-001	5.99464E-003	0.00000E+000	5.23242E-003	3.59960E-001	-1.13806E+000	3.57790E+000	10	...........
	37	0.506667	8.79016E-001	5.99665E-003	0.00000E+000	5.27115E-003	3.59960E-001	-1.14705E+000	3.57790E+000	10	...........
	38	0.52	8.85215E-001	5.99594E-003	0.00000E+000	5.30770E-003	3.59960E-001	-1.13656E+000	3.57790E+000	10	...........
	39	0.533333	8.91355E-001	5.99608E-003	0.00000E+000	5.34463E-003	3.59960E-001	-1.13782E+000	3.57790E+000	10	...........
	40	0.546667	8.97471E-001	5.99446E-003	0.00000E+000	5.37985E-003	3.59960E-001	-1.14691E+000	3.57790E+000	10	...........
	41	0.56	9.03538E-001	5.99470E-003	0.00000E+000	5.41644E-003	3.59960E-001	-1.13618E+000	3.57790E+000	10	...........
	42	0.573333	9.09674E-001	5.99842E-003	0.00000E+000	5.45661E-003	3.59960E-001	-1.13746E+000	3.57790E+000	10	...........
	43	0.586667	9.15689E-001	5.99605E-003	0.00000E+000	5.49052E-003	3.59960E-001	-1.14625E+000	3.57790E+000	10	...........
	44	0.6	9.21759E-001	5.99758E-003	0.00000E+000	5.52832E-003	3.59960E-001	-1.13595E+000	3.57793E+000	10	...........
	45	0.613333	9.27690E-001	5.99060E-003	0.00000E+000	5.55742E-003	3.59960E-001	-1.13762E+000	3.57840E+000	10	...........
	46	0.626667	9.33642E-001	5.99148E-003	0.00000E+000	5.59389E-003	3.59960E-001	-1.14614E+000	3.57840E+000	10	...........
	47	0.64	9.39564E-001	5.99929E-003	0.00000E+000	5.63672E-003	3.59960E-001	-1.13578E+000	3.57840E+000	10	...........
	48	0.653333	9.45434E-001	5.99065E-003	0.00000E+000	5.66376E-003	3.59960E-001	-1.13747E+000	3.57840E+000	10	...........
	49	0.666667	9.51268E-001	5.99236E-003	0.00000E+000	5.70035E-003	3.59960E-001	-1.14616E+000	3.57840E+000	10	...........
	50	0.68	9.57054E-001	5.99485E-003	0.00000E+000	5.73739E-003	3.59960E-001	-1.13597E+000	3.57840E+000	10	...........
	51	0.693333	9.62804E-001	5.99433E-003	0.00000E+000	5.77137E-003	3.59960E-001	-1.13750E+000	3.57840E+000	10	...........
	52	0.706667	9.68564E-001	5.99190E-003	0.00000E+000	5.80354E-003	3.59960E-001	-1.14610E+000	3.57840E+000	10	...........
	53	0.72	9.74258E-001	5.99125E-003	0.00000E+000	5.83702E-003	3.59960E-001	-1.13569E+000	3.57840E+000	10	...........
	54	0.733333	9.79905E-001	5.99188E-003	0.00000E+000	5.87148E-003	3.59960E-001	-1.13746E+000	3.57840E+000	10	...........
	55	0.746667	9.85441E-001	5.99544E-003	0.00000E+000	5.90815E-003	3.59960E-001	-1.14600E+000	3.57840E+000	10	...........
	56	0.76	9.91007E-001	5.99279E-003	0.00000E+000	5.93890E-003	3.59960E-001	-1.13587E+000	3.57840E+000	10	...........
	57	0.773333	9.96478E-001	5.99390E-003	0.00000E+000	5.97278E-003	3.59960E-001	-1.13753E+000	3.57840E+000	10	...........
	58	0.776667	9.99949E-001	6.00322E-003	0.00000E+000	6.00291E-003	3.59960E-001	-1.13959E+000	3.57840E+000	10	...........
STARTTIMEOFFSET	QUANT	834.3369	Start Time Offset (s)