File: Data/CV_CRGO300517_1/PWRCCD_CRGO300517_1/CHARGE_DISCHARGE/CHARGE_#77.DTA
EXPLAIN
TAG	PWR800_CHARGE
TITLE	LABEL	PWR Cyclic Charge Discharge (Cell) - Charge Step	Test &Identifier
DATE	LABEL	22-6-2017	Date
TIME	LABEL	15:38:29	Time
NOTES	NOTES	3	&Notes...
	supercap test cell
	0.6mg
	6M KOH
PSTAT	PSTAT	IFC5000-01520	Potentiostat
CAPACITY	QUANT	1.00000E-003	Capacity (A-hr)
CELLTYPE	SELECTOR	1	&Cell Type
WORKINGCONNECTION	SELECTOR	0	&Working Lead
MAXCHARGETIME	VARIABLEANDUNITS	1.00000E+002	s	1.00000E+002	second(s)	Max &Charge Time
CHARGECURRENT	QUANT	6.00000E-003	&Charge Current (A)
VOLTAGEFINISH	TWOPARAM	F	1.00000E-003	3.60000E+003	&Voltage Finish	 I (A) < 	Max Time(s)
SAMPLETIME	QUANT	1.00000E-002	Sa&mple Period (s)
CHARGESTOPAT1	MULTIPARAM	4	1.00000E+000	Charge Stop At &1	Voltage > Limit	V
CHARGESTOPAT2	MULTIPARAM	0	0.00000E+000	Charge Stop At &2	None	N/A
AESBHCSELECTOR	TOGGLE	F	Save Both Half Cells
IRCOMP	TOGGLE	F	IR &Measure
EOC	QUANT	0	Open Circuit (V)
SEQUENCER	TOGGLE	TRUE	Run as Sequence
PSTATMODEL	IQUANT	53	Pstat Model
PSTATSECTION	LABEL	IFC5000-01520	Pstat Section
PSTATSERIALNO	LABEL	01520	Pstat Serial Number
CTRLMODE	IQUANT	0	Control Mode
ELECTROMETER	IQUANT	1	RE=0 or CS=1
IESTAB	IQUANT	0	I/E Stability
CASPEED	IQUANT	4	Control Amp Speed
CONVENTION	IQUANT	1	Current Convention
ICHRANGE	IQUANT	2	Ich Range
ICHRANGEMODE	TOGGLE	T	Ich Auto Range
ICHOFFSETENABLE	TOGGLE	F	Ich Offset Enable
ICHOFFSET	QUANT	0	Ich Offset (V)
ICHFILTER	IQUANT	1	Ich Filter
VCHRANGE	IQUANT	2	Vch Range
VCHRANGEMODE	TOGGLE	T	Vch Auto Range
VCHOFFSETENABLE	TOGGLE	F	Vch Offset Enable
VCHOFFSET	QUANT	0	Vch Offset (V)
VCHFILTER	IQUANT	1	Vch Filter
IERANGELOWERLIMIT	IQUANT	9	I/E Range Lower Limit
IERANGEMODE	TOGGLE	F	I/E AutoRange
IERANGE	IQUANT	10	I/E Range
ACHSELECT	IQUANT	1	Ach Select
ACHRANGE	IQUANT	2	Ach Range
ACHOFFSETENABLE	TOGGLE	F	Ach Offset Enable
ACHOFFSET	QUANT	0	Ach Offset (V)
ACHFILTER	IQUANT	1	Ach Filter
CABLEID	IQUANT	14	Cable ID
DCCALDATE	LABEL	20-10-2016	DC Calibration Date
ACCALDATE	LABEL	12/3/2015	AC Calibration Date
FRAMEWORKVERSION	QUANT	7.01	Framework Version
INSTRUMENTVERSION	LABEL	4.00	Instrument Version
CURVE	TABLE	72
	Pt	T	Vf	Im	Vu	Pwr	Sig	Ach	Temp	IERange	Over
	#	s	V	A	V	W	V	V	deg C	#	bits
	0	0.013333	5.83372E-001	5.99329E-003	0.00000E+000	3.49632E-003	3.59960E-001	-1.05331E+000	3.57730E+000	10	...........
	1	0.026667	5.91583E-001	5.99299E-003	0.00000E+000	3.54535E-003	3.59960E-001	-1.05171E+000	3.57730E+000	10	...........
	2	0.04	5.99071E-001	5.99074E-003	0.00000E+000	3.58887E-003	3.59960E-001	-1.06438E+000	3.57730E+000	10	...........
	3	0.053333	6.06158E-001	5.99272E-003	0.00000E+000	3.63254E-003	3.59960E-001	-1.05354E+000	3.57730E+000	10	...........
	4	0.066667	6.13052E-001	5.98963E-003	0.00000E+000	3.67196E-003	3.59960E-001	-1.05146E+000	3.57730E+000	10	...........
	5	0.08	6.19745E-001	5.99400E-003	0.00000E+000	3.71475E-003	3.59960E-001	-1.06391E+000	3.57730E+000	10	...........
	6	0.093333	6.26237E-001	5.99616E-003	0.00000E+000	3.75502E-003	3.59960E-001	-1.05343E+000	3.57730E+000	10	...........
	7	0.106667	6.32581E-001	5.99326E-003	0.00000E+000	3.79122E-003	3.59960E-001	-1.05158E+000	3.57730E+000	10	...........
	8	0.12	6.38918E-001	5.99594E-003	0.00000E+000	3.83091E-003	3.59960E-001	-1.06384E+000	3.57730E+000	10	...........
	9	0.133333	6.45180E-001	5.99056E-003	0.00000E+000	3.86499E-003	3.59960E-001	-1.05332E+000	3.57730E+000	10	...........
	10	0.146667	6.51341E-001	5.99348E-003	0.00000E+000	3.90380E-003	3.59960E-001	-1.05122E+000	3.57730E+000	10	...........
	11	0.16	6.57490E-001	5.99197E-003	0.00000E+000	3.93966E-003	3.59960E-001	-1.06386E+000	3.57730E+000	10	...........
	12	0.173333	6.63571E-001	5.99721E-003	0.00000E+000	3.97958E-003	3.59960E-001	-1.05378E+000	3.57730E+000	10	...........
	13	0.186667	6.69654E-001	5.99438E-003	0.00000E+000	4.01416E-003	3.59960E-001	-1.05171E+000	3.57730E+000	10	...........
	14	0.2	6.75708E-001	5.99282E-003	0.00000E+000	4.04940E-003	3.59960E-001	-1.06400E+000	3.57730E+000	10	...........
	15	0.213333	6.81669E-001	5.99211E-003	0.00000E+000	4.08464E-003	3.59960E-001	-1.05350E+000	3.57730E+000	10	...........
	16	0.226667	6.87612E-001	5.99676E-003	0.00000E+000	4.12345E-003	3.59960E-001	-1.05156E+000	3.57730E+000	10	...........
	17	0.24	6.93577E-001	5.99378E-003	0.00000E+000	4.15715E-003	3.59960E-001	-1.06405E+000	3.57730E+000	10	...........
	18	0.253333	6.99488E-001	5.99523E-003	0.00000E+000	4.19359E-003	3.59960E-001	-1.05366E+000	3.57730E+000	10	...........
	19	0.266667	7.05423E-001	5.99813E-003	0.00000E+000	4.23122E-003	3.59960E-001	-1.05091E+000	3.57730E+000	10	...........
	20	0.28	7.11291E-001	5.99207E-003	0.00000E+000	4.26211E-003	3.59960E-001	-1.06328E+000	3.57730E+000	10	...........
	21	0.293333	7.17226E-001	5.99281E-003	0.00000E+000	4.29820E-003	3.59960E-001	-1.05299E+000	3.57730E+000	10	...........
	22	0.306667	7.23145E-001	5.99546E-003	0.00000E+000	4.33559E-003	3.59960E-001	-1.05097E+000	3.57730E+000	10	...........
	23	0.32	7.28996E-001	5.99641E-003	0.00000E+000	4.37136E-003	3.59960E-001	-1.06373E+000	3.57730E+000	10	...........
	24	0.333333	7.34840E-001	5.99673E-003	0.00000E+000	4.40664E-003	3.59960E-001	-1.05304E+000	3.57730E+000	10	...........
	25	0.346667	7.40709E-001	5.99370E-003	0.00000E+000	4.43959E-003	3.59960E-001	-1.05090E+000	3.57730E+000	10	...........
	26	0.36	7.46583E-001	5.99342E-003	0.00000E+000	4.47458E-003	3.59960E-001	-1.06348E+000	3.57730E+000	10	...........
	27	0.373333	7.52427E-001	5.99368E-003	0.00000E+000	4.50981E-003	3.59960E-001	-1.05325E+000	3.57730E+000	10	...........
	28	0.386667	7.58257E-001	5.99965E-003	0.00000E+000	4.54928E-003	3.59960E-001	-1.05106E+000	3.57730E+000	10	...........
	29	0.4	7.64113E-001	5.99338E-003	0.00000E+000	4.57962E-003	3.59960E-001	-1.06320E+000	3.57730E+000	10	...........
	30	0.413333	7.69991E-001	5.99590E-003	0.00000E+000	4.61679E-003	3.59960E-001	-1.05296E+000	3.57730E+000	10	...........
	31	0.426667	7.75795E-001	5.98927E-003	0.00000E+000	4.64645E-003	3.59960E-001	-1.05063E+000	3.57730E+000	10	...........
	32	0.44	7.81658E-001	5.99429E-003	0.00000E+000	4.68549E-003	3.59960E-001	-1.06329E+000	3.57730E+000	10	...........
	33	0.453333	7.87485E-001	5.99261E-003	0.00000E+000	4.71910E-003	3.59960E-001	-1.05311E+000	3.57730E+000	10	...........
	34	0.466667	7.93354E-001	5.99006E-003	0.00000E+000	4.75224E-003	3.59960E-001	-1.05058E+000	3.57730E+000	10	...........
	35	0.48	7.99197E-001	5.99325E-003	0.00000E+000	4.78979E-003	3.59960E-001	-1.06304E+000	3.57730E+000	10	...........
	36	0.493333	8.04994E-001	5.99294E-003	0.00000E+000	4.82428E-003	3.59960E-001	-1.05304E+000	3.57730E+000	10	...........
	37	0.506667	8.10783E-001	5.99143E-003	0.00000E+000	4.85775E-003	3.59960E-001	-1.05069E+000	3.57730E+000	10	...........
	38	0.52	8.16606E-001	5.99379E-003	0.00000E+000	4.89457E-003	3.59960E-001	-1.06313E+000	3.57730E+000	10	...........
	39	0.533333	8.22471E-001	5.99222E-003	0.00000E+000	4.92842E-003	3.59960E-001	-1.05292E+000	3.57730E+000	10	...........
	40	0.546667	8.28314E-001	5.99614E-003	0.00000E+000	4.96669E-003	3.59960E-001	-1.05022E+000	3.57730E+000	10	...........
	41	0.56	8.34106E-001	5.99115E-003	0.00000E+000	4.99726E-003	3.59960E-001	-1.06293E+000	3.57730E+000	10	...........
	42	0.573333	8.39930E-001	5.99514E-003	0.00000E+000	5.03549E-003	3.59960E-001	-1.05297E+000	3.57730E+000	10	...........
	43	0.586667	8.45737E-001	5.99323E-003	0.00000E+000	5.06869E-003	3.59960E-001	-1.05010E+000	3.57730E+000	10	...........
	44	0.6	8.51513E-001	5.99284E-003	0.00000E+000	5.10298E-003	3.59960E-001	-1.06214E+000	3.57730E+000	10	...........
	45	0.613333	8.57294E-001	5.99315E-003	0.00000E+000	5.13789E-003	3.59960E-001	-1.05216E+000	3.57730E+000	10	...........
	46	0.626667	8.63067E-001	5.99391E-003	0.00000E+000	5.17314E-003	3.59960E-001	-1.04962E+000	3.57730E+000	10	...........
	47	0.64	8.68854E-001	5.99494E-003	0.00000E+000	5.20873E-003	3.59960E-001	-1.06227E+000	3.57730E+000	10	...........
	48	0.653333	8.74653E-001	5.99577E-003	0.00000E+000	5.24422E-003	3.59960E-001	-1.05226E+000	3.57730E+000	10	...........
	49	0.666667	8.80412E-001	5.99912E-003	0.00000E+000	5.28170E-003	3.59960E-001	-1.04949E+000	3.57730E+000	10	...........
	50	0.68	8.86171E-001	5.99202E-003	0.00000E+000	5.30995E-003	3.59960E-001	-1.06200E+000	3.57730E+000	10	...........
	51	0.693333	8.91893E-001	5.99430E-003	0.00000E+000	5.34627E-003	3.59960E-001	-1.05205E+000	3.57730E+000	10	...........
	52	0.706667	8.97607E-001	5.99263E-003	0.00000E+000	5.37903E-003	3.59960E-001	-1.04960E+000	3.57730E+000	10	...........
	53	0.72	9.03299E-001	5.99632E-003	0.00000E+000	5.41647E-003	3.59960E-001	-1.06195E+000	3.57835E+000	10	...........
	54	0.733333	9.08990E-001	5.99497E-003	0.00000E+000	5.44937E-003	3.59960E-001	-1.05177E+000	3.57850E+000	10	...........
	55	0.746667	9.14680E-001	5.99501E-003	0.00000E+000	5.48352E-003	3.59960E-001	-1.04932E+000	3.57850E+000	10	...........
	56	0.76	9.20375E-001	5.99158E-003	0.00000E+000	5.51450E-003	3.59960E-001	-1.06174E+000	3.57850E+000	10	...........
	57	0.773333	9.26078E-001	5.99749E-003	0.00000E+000	5.55415E-003	3.59960E-001	-1.05186E+000	3.57850E+000	10	...........
	58	0.786667	9.31694E-001	5.99693E-003	0.00000E+000	5.58730E-003	3.59960E-001	-1.04937E+000	3.57850E+000	10	...........
	59	0.8	9.37293E-001	5.99429E-003	0.00000E+000	5.61841E-003	3.59960E-001	-1.06171E+000	3.57850E+000	10	...........
	60	0.813333	9.42854E-001	5.99381E-003	0.00000E+000	5.65129E-003	3.59960E-001	-1.05201E+000	3.57850E+000	10	...........
	61	0.826667	9.48484E-001	5.99414E-003	0.00000E+000	5.68534E-003	3.59960E-001	-1.04937E+000	3.57850E+000	10	...........
	62	0.84	9.54053E-001	5.99019E-003	0.00000E+000	5.71496E-003	3.59960E-001	-1.06198E+000	3.57850E+000	10	...........
	63	0.853333	9.59560E-001	5.99405E-003	0.00000E+000	5.75165E-003	3.59960E-001	-1.05218E+000	3.57850E+000	10	...........
	64	0.866667	9.65031E-001	5.99623E-003	0.00000E+000	5.78655E-003	3.59960E-001	-1.04947E+000	3.57850E+000	10	...........
	65	0.88	9.70498E-001	5.99443E-003	0.00000E+000	5.81758E-003	3.59960E-001	-1.06178E+000	3.57850E+000	10	...........
	66	0.893333	9.75981E-001	5.99379E-003	0.00000E+000	5.84983E-003	3.59960E-001	-1.05208E+000	3.57850E+000	10	...........
	67	0.906667	9.81391E-001	5.99272E-003	0.00000E+000	5.88120E-003	3.59960E-001	-1.04938E+000	3.57850E+000	10	...........
	68	0.92	9.86738E-001	5.99334E-003	0.00000E+000	5.91386E-003	3.59960E-001	-1.06162E+000	3.57850E+000	10	...........
	69	0.933333	9.92061E-001	5.99247E-003	0.00000E+000	5.94489E-003	3.59960E-001	-1.05183E+000	3.57850E+000	10	...........
	70	0.946667	9.97389E-001	5.99620E-003	0.00000E+000	5.98055E-003	3.59960E-001	-1.04915E+000	3.57850E+000	10	...........
	71	0.948333	1.00036E+000	6.00005E-003	0.00000E+000	6.00224E-003	3.59960E-001	-1.06154E+000	3.57850E+000	10	...........
STARTTIMEOFFSET	QUANT	152.315	Start Time Offset (s)