File: Data/CV_CRGO300517_1/PWRCCD_CRGO300517_1/CHARGE_DISCHARGE/CHARGE_#430.DTA
EXPLAIN
TAG	PWR800_CHARGE
TITLE	LABEL	PWR Cyclic Charge Discharge (Cell) - Charge Step	Test &Identifier
DATE	LABEL	22-6-2017	Date
TIME	LABEL	15:53:09	Time
NOTES	NOTES	3	&Notes...
	supercap test cell
	0.6mg
	6M KOH
PSTAT	PSTAT	IFC5000-01520	Potentiostat
CAPACITY	QUANT	1.00000E-003	Capacity (A-hr)
CELLTYPE	SELECTOR	1	&Cell Type
WORKINGCONNECTION	SELECTOR	0	&Working Lead
MAXCHARGETIME	VARIABLEANDUNITS	1.00000E+002	s	1.00000E+002	second(s)	Max &Charge Time
CHARGECURRENT	QUANT	6.00000E-003	&Charge Current (A)
VOLTAGEFINISH	TWOPARAM	F	1.00000E-003	3.60000E+003	&Voltage Finish	 I (A) < 	Max Time(s)
SAMPLETIME	QUANT	1.00000E-002	Sa&mple Period (s)
CHARGESTOPAT1	MULTIPARAM	4	1.00000E+000	Charge Stop At &1	Voltage > Limit	V
CHARGESTOPAT2	MULTIPARAM	0	0.00000E+000	Charge Stop At &2	None	N/A
AESBHCSELECTOR	TOGGLE	F	Save Both Half Cells
IRCOMP	TOGGLE	F	IR &Measure
EOC	QUANT	0	Open Circuit (V)
SEQUENCER	TOGGLE	TRUE	Run as Sequence
PSTATMODEL	IQUANT	53	Pstat Model
PSTATSECTION	LABEL	IFC5000-01520	Pstat Section
PSTATSERIALNO	LABEL	01520	Pstat Serial Number
CTRLMODE	IQUANT	0	Control Mode
ELECTROMETER	IQUANT	1	RE=0 or CS=1
IESTAB	IQUANT	0	I/E Stability
CASPEED	IQUANT	4	Control Amp Speed
CONVENTION	IQUANT	1	Current Convention
ICHRANGE	IQUANT	2	Ich Range
ICHRANGEMODE	TOGGLE	T	Ich Auto Range
ICHOFFSETENABLE	TOGGLE	F	Ich Offset Enable
ICHOFFSET	QUANT	0	Ich Offset (V)
ICHFILTER	IQUANT	1	Ich Filter
VCHRANGE	IQUANT	2	Vch Range
VCHRANGEMODE	TOGGLE	T	Vch Auto Range
VCHOFFSETENABLE	TOGGLE	F	Vch Offset Enable
VCHOFFSET	QUANT	0	Vch Offset (V)
VCHFILTER	IQUANT	1	Vch Filter
IERANGELOWERLIMIT	IQUANT	9	I/E Range Lower Limit
IERANGEMODE	TOGGLE	F	I/E AutoRange
IERANGE	IQUANT	10	I/E Range
ACHSELECT	IQUANT	1	Ach Select
ACHRANGE	IQUANT	2	Ach Range
ACHOFFSETENABLE	TOGGLE	F	Ach Offset Enable
ACHOFFSET	QUANT	0	Ach Offset (V)
ACHFILTER	IQUANT	1	Ach Filter
CABLEID	IQUANT	14	Cable ID
DCCALDATE	LABEL	20-10-2016	DC Calibration Date
ACCALDATE	LABEL	12/3/2015	AC Calibration Date
FRAMEWORKVERSION	QUANT	7.01	Framework Version
INSTRUMENTVERSION	LABEL	4.00	Instrument Version
CURVE	TABLE	60
	Pt	T	Vf	Im	Vu	Pwr	Sig	Ach	Temp	IERange	Over
	#	s	V	A	V	W	V	V	deg C	#	bits
	0	0.013333	6.26502E-001	5.99002E-003	0.00000E+000	3.75276E-003	3.59960E-001	-1.14095E+000	3.57680E+000	10	...........
	1	0.026667	6.35292E-001	5.99066E-003	0.00000E+000	3.80582E-003	3.59960E-001	-1.13122E+000	3.57680E+000	10	...........
	2	0.04	6.43372E-001	5.99227E-003	0.00000E+000	3.85526E-003	3.59960E-001	-1.13447E+000	3.57680E+000	10	...........
	3	0.053333	6.51046E-001	5.99244E-003	0.00000E+000	3.90135E-003	3.59960E-001	-1.14085E+000	3.57680E+000	10	...........
	4	0.066667	6.58425E-001	5.99393E-003	0.00000E+000	3.94655E-003	3.59960E-001	-1.13075E+000	3.57680E+000	10	...........
	5	0.08	6.65635E-001	5.99149E-003	0.00000E+000	3.98814E-003	3.59960E-001	-1.13440E+000	3.57680E+000	10	...........
	6	0.093333	6.72703E-001	5.99297E-003	0.00000E+000	4.03149E-003	3.59960E-001	-1.14065E+000	3.57680E+000	10	...........
	7	0.106667	6.79621E-001	5.99029E-003	0.00000E+000	4.07112E-003	3.59960E-001	-1.13058E+000	3.57680E+000	10	...........
	8	0.12	6.86489E-001	5.99735E-003	0.00000E+000	4.11712E-003	3.59960E-001	-1.13413E+000	3.57680E+000	10	...........
	9	0.133333	6.93303E-001	5.99202E-003	0.00000E+000	4.15428E-003	3.59960E-001	-1.14008E+000	3.57680E+000	10	...........
	10	0.146667	7.00011E-001	5.99879E-003	0.00000E+000	4.19921E-003	3.59960E-001	-1.13045E+000	3.57680E+000	10	...........
	11	0.16	7.06669E-001	5.99284E-003	0.00000E+000	4.23496E-003	3.59960E-001	-1.13422E+000	3.57680E+000	10	...........
	12	0.173333	7.13303E-001	5.99559E-003	0.00000E+000	4.27667E-003	3.59960E-001	-1.14007E+000	3.57680E+000	10	...........
	13	0.186667	7.19924E-001	5.99176E-003	0.00000E+000	4.31361E-003	3.59960E-001	-1.13062E+000	3.57680E+000	10	...........
	14	0.2	7.26519E-001	5.99608E-003	0.00000E+000	4.35626E-003	3.59960E-001	-1.13432E+000	3.57680E+000	10	...........
	15	0.213333	7.32995E-001	5.99356E-003	0.00000E+000	4.39325E-003	3.59960E-001	-1.13994E+000	3.57680E+000	10	...........
	16	0.226667	7.39545E-001	5.99586E-003	0.00000E+000	4.43421E-003	3.59960E-001	-1.13060E+000	3.57680E+000	10	...........
	17	0.24	7.46029E-001	5.99190E-003	0.00000E+000	4.47013E-003	3.59960E-001	-1.13462E+000	3.57680E+000	10	...........
	18	0.253333	7.52515E-001	5.99110E-003	0.00000E+000	4.50839E-003	3.59960E-001	-1.13986E+000	3.57680E+000	10	...........
	19	0.266667	7.58957E-001	5.99395E-003	0.00000E+000	4.54915E-003	3.59960E-001	-1.13038E+000	3.57680E+000	10	...........
	20	0.28	7.65401E-001	5.99387E-003	0.00000E+000	4.58772E-003	3.59960E-001	-1.13451E+000	3.57680E+000	10	...........
	21	0.293333	7.71830E-001	5.99036E-003	0.00000E+000	4.62354E-003	3.59960E-001	-1.13982E+000	3.57680E+000	10	...........
	22	0.306667	7.78179E-001	5.99395E-003	0.00000E+000	4.66437E-003	3.59960E-001	-1.13059E+000	3.57680E+000	10	...........
	23	0.32	7.84636E-001	5.99552E-003	0.00000E+000	4.70430E-003	3.59960E-001	-1.13469E+000	3.57680E+000	10	...........
	24	0.333333	7.91028E-001	5.99482E-003	0.00000E+000	4.74207E-003	3.59960E-001	-1.13959E+000	3.57680E+000	10	...........
	25	0.346667	7.97434E-001	5.98971E-003	0.00000E+000	4.77640E-003	3.59960E-001	-1.13034E+000	3.57680E+000	10	...........
	26	0.36	8.03795E-001	5.99548E-003	0.00000E+000	4.81914E-003	3.59960E-001	-1.13492E+000	3.57680E+000	10	...........
	27	0.373333	8.10101E-001	5.99707E-003	0.00000E+000	4.85823E-003	3.59960E-001	-1.13978E+000	3.57680E+000	10	...........
	28	0.386667	8.16441E-001	6.00067E-003	0.00000E+000	4.89919E-003	3.59960E-001	-1.13063E+000	3.57680E+000	10	...........
	29	0.4	8.22733E-001	5.99342E-003	0.00000E+000	4.93098E-003	3.59960E-001	-1.13504E+000	3.57680E+000	10	...........
	30	0.413333	8.29080E-001	5.99513E-003	0.00000E+000	4.97044E-003	3.59960E-001	-1.13946E+000	3.57675E+000	10	...........
	31	0.426667	8.35341E-001	5.99447E-003	0.00000E+000	5.00742E-003	3.59960E-001	-1.13014E+000	3.57670E+000	10	...........
	32	0.44	8.41620E-001	5.99455E-003	0.00000E+000	5.04514E-003	3.59960E-001	-1.13477E+000	3.57670E+000	10	...........
	33	0.453333	8.47866E-001	5.99537E-003	0.00000E+000	5.08327E-003	3.59960E-001	-1.13896E+000	3.57670E+000	10	...........
	34	0.466667	8.54099E-001	5.99499E-003	0.00000E+000	5.12031E-003	3.59960E-001	-1.12989E+000	3.57670E+000	10	...........
	35	0.48	8.60350E-001	5.99438E-003	0.00000E+000	5.15726E-003	3.59960E-001	-1.13466E+000	3.57670E+000	10	...........
	36	0.493333	8.66575E-001	5.98899E-003	0.00000E+000	5.18991E-003	3.59960E-001	-1.13909E+000	3.57670E+000	10	...........
	37	0.506667	8.72831E-001	5.99853E-003	0.00000E+000	5.23570E-003	3.59960E-001	-1.13023E+000	3.57670E+000	10	...........
	38	0.52	8.78969E-001	5.99438E-003	0.00000E+000	5.26887E-003	3.59960E-001	-1.13478E+000	3.57670E+000	10	...........
	39	0.533333	8.85139E-001	5.99849E-003	0.00000E+000	5.30949E-003	3.59960E-001	-1.13870E+000	3.57670E+000	10	...........
	40	0.546667	8.91229E-001	5.99258E-003	0.00000E+000	5.34076E-003	3.59960E-001	-1.13009E+000	3.57670E+000	10	...........
	41	0.56	8.97326E-001	5.99276E-003	0.00000E+000	5.37746E-003	3.59960E-001	-1.13494E+000	3.57670E+000	10	...........
	42	0.573333	9.03412E-001	6.00171E-003	0.00000E+000	5.42202E-003	3.59960E-001	-1.13853E+000	3.57670E+000	10	...........
	43	0.586667	9.09444E-001	5.99272E-003	0.00000E+000	5.45004E-003	3.59960E-001	-1.13006E+000	3.57670E+000	10	...........
	44	0.6	9.15480E-001	5.99404E-003	0.00000E+000	5.48743E-003	3.59960E-001	-1.13483E+000	3.57670E+000	10	...........
	45	0.613333	9.21516E-001	5.99080E-003	0.00000E+000	5.52062E-003	3.59960E-001	-1.13826E+000	3.57670E+000	10	...........
	46	0.626667	9.27466E-001	5.99838E-003	0.00000E+000	5.56329E-003	3.59960E-001	-1.13000E+000	3.57670E+000	10	...........
	47	0.64	9.33356E-001	5.99571E-003	0.00000E+000	5.59613E-003	3.59960E-001	-1.13518E+000	3.57670E+000	10	...........
	48	0.653333	9.39230E-001	5.99499E-003	0.00000E+000	5.63068E-003	3.59960E-001	-1.13841E+000	3.57670E+000	10	...........
	49	0.666667	9.45089E-001	5.99160E-003	0.00000E+000	5.66259E-003	3.59960E-001	-1.13007E+000	3.57670E+000	10	...........
	50	0.68	9.50952E-001	6.00227E-003	0.00000E+000	5.70787E-003	3.59960E-001	-1.13525E+000	3.57670E+000	10	...........
	51	0.693333	9.56690E-001	5.99186E-003	0.00000E+000	5.73236E-003	3.59960E-001	-1.13831E+000	3.57670E+000	10	...........
	52	0.706667	9.62428E-001	5.99639E-003	0.00000E+000	5.77109E-003	3.59960E-001	-1.13001E+000	3.57670E+000	10	...........
	53	0.72	9.68113E-001	5.99376E-003	0.00000E+000	5.80264E-003	3.59960E-001	-1.13544E+000	3.57670E+000	10	...........
	54	0.733333	9.73787E-001	5.99683E-003	0.00000E+000	5.83963E-003	3.59960E-001	-1.13787E+000	3.57670E+000	10	...........
	55	0.746667	9.79401E-001	5.99583E-003	0.00000E+000	5.87232E-003	3.59960E-001	-1.12943E+000	3.57670E+000	10	...........
	56	0.76	9.84948E-001	5.99974E-003	0.00000E+000	5.90943E-003	3.59960E-001	-1.13500E+000	3.57670E+000	10	...........
	57	0.773333	9.90482E-001	5.99481E-003	0.00000E+000	5.93775E-003	3.59960E-001	-1.13774E+000	3.57670E+000	10	...........
	58	0.786667	9.95940E-001	5.99342E-003	0.00000E+000	5.96908E-003	3.59960E-001	-1.12941E+000	3.57670E+000	10	...........
	59	0.791667	9.99721E-001	5.99588E-003	0.00000E+000	5.99420E-003	3.59960E-001	-1.14364E+000	3.57670E+000	10	...........
STARTTIMEOFFSET	QUANT	750.0867	Start Time Offset (s)