File: Data/CV_CRGO300517_1/PWRCCD_CRGO300517_1/CHARGE_DISCHARGE/CHARGE_#777.DTA
EXPLAIN
TAG	PWR800_CHARGE
TITLE	LABEL	PWR Cyclic Charge Discharge (Cell) - Charge Step	Test &Identifier
DATE	LABEL	22-6-2017	Date
TIME	LABEL	16:06:25	Time
NOTES	NOTES	3	&Notes...
	supercap test cell
	0.6mg
	6M KOH
PSTAT	PSTAT	IFC5000-01520	Potentiostat
CAPACITY	QUANT	1.00000E-003	Capacity (A-hr)
CELLTYPE	SELECTOR	1	&Cell Type
WORKINGCONNECTION	SELECTOR	0	&Working Lead
MAXCHARGETIME	VARIABLEANDUNITS	1.00000E+002	s	1.00000E+002	second(s)	Max &Charge Time
CHARGECURRENT	QUANT	6.00000E-003	&Charge Current (A)
VOLTAGEFINISH	TWOPARAM	F	1.00000E-003	3.60000E+003	&Voltage Finish	 I (A) < 	Max Time(s)
SAMPLETIME	QUANT	1.00000E-002	Sa&mple Period (s)
CHARGESTOPAT1	MULTIPARAM	4	1.00000E+000	Charge Stop At &1	Voltage > Limit	V
CHARGESTOPAT2	MULTIPARAM	0	0.00000E+000	Charge Stop At &2	None	N/A
AESBHCSELECTOR	TOGGLE	F	Save Both Half Cells
IRCOMP	TOGGLE	F	IR &Measure
EOC	QUANT	0	Open Circuit (V)
SEQUENCER	TOGGLE	TRUE	Run as Sequence
PSTATMODEL	IQUANT	53	Pstat Model
PSTATSECTION	LABEL	IFC5000-01520	Pstat Section
PSTATSERIALNO	LABEL	01520	Pstat Serial Number
CTRLMODE	IQUANT	0	Control Mode
ELECTROMETER	IQUANT	1	RE=0 or CS=1
IESTAB	IQUANT	0	I/E Stability
CASPEED	IQUANT	4	Control Amp Speed
CONVENTION	IQUANT	1	Current Convention
ICHRANGE	IQUANT	2	Ich Range
ICHRANGEMODE	TOGGLE	T	Ich Auto Range
ICHOFFSETENABLE	TOGGLE	F	Ich Offset Enable
ICHOFFSET	QUANT	0	Ich Offset (V)
ICHFILTER	IQUANT	1	Ich Filter
VCHRANGE	IQUANT	2	Vch Range
VCHRANGEMODE	TOGGLE	T	Vch Auto Range
VCHOFFSETENABLE	TOGGLE	F	Vch Offset Enable
VCHOFFSET	QUANT	0	Vch Offset (V)
VCHFILTER	IQUANT	1	Vch Filter
IERANGELOWERLIMIT	IQUANT	9	I/E Range Lower Limit
IERANGEMODE	TOGGLE	F	I/E AutoRange
IERANGE	IQUANT	10	I/E Range
ACHSELECT	IQUANT	1	Ach Select
ACHRANGE	IQUANT	2	Ach Range
ACHOFFSETENABLE	TOGGLE	F	Ach Offset Enable
ACHOFFSET	QUANT	0	Ach Offset (V)
ACHFILTER	IQUANT	1	Ach Filter
CABLEID	IQUANT	14	Cable ID
DCCALDATE	LABEL	20-10-2016	DC Calibration Date
ACCALDATE	LABEL	12/3/2015	AC Calibration Date
FRAMEWORKVERSION	QUANT	7.01	Framework Version
INSTRUMENTVERSION	LABEL	4.00	Instrument Version
CURVE	TABLE	55
	Pt	T	Vf	Im	Vu	Pwr	Sig	Ach	Temp	IERange	Over
	#	s	V	A	V	W	V	V	deg C	#	bits
	0	0.013333	6.46933E-001	5.99341E-003	0.00000E+000	3.87733E-003	3.59960E-001	-1.16517E+000	3.57640E+000	10	...........
	1	0.026667	6.56129E-001	5.99250E-003	0.00000E+000	3.93185E-003	3.59960E-001	-1.17326E+000	3.57640E+000	10	...........
	2	0.04	6.64554E-001	5.99386E-003	0.00000E+000	3.98324E-003	3.59960E-001	-1.16258E+000	3.57640E+000	10	...........
	3	0.053333	6.72598E-001	5.99643E-003	0.00000E+000	4.03319E-003	3.59960E-001	-1.16482E+000	3.57640E+000	10	...........
	4	0.066667	6.80292E-001	5.99096E-003	0.00000E+000	4.07561E-003	3.59960E-001	-1.17325E+000	3.57640E+000	10	...........
	5	0.08	6.87792E-001	5.99564E-003	0.00000E+000	4.12375E-003	3.59960E-001	-1.16261E+000	3.57640E+000	10	...........
	6	0.093333	6.95193E-001	5.99400E-003	0.00000E+000	4.16698E-003	3.59960E-001	-1.16482E+000	3.57640E+000	10	...........
	7	0.106667	7.02445E-001	5.99290E-003	0.00000E+000	4.20969E-003	3.59960E-001	-1.17304E+000	3.57640E+000	10	...........
	8	0.12	7.09574E-001	5.99684E-003	0.00000E+000	4.25520E-003	3.59960E-001	-1.16250E+000	3.57640E+000	10	...........
	9	0.133333	7.16635E-001	5.99307E-003	0.00000E+000	4.29485E-003	3.59960E-001	-1.16474E+000	3.57640E+000	10	...........
	10	0.146667	7.23686E-001	5.98989E-003	0.00000E+000	4.33480E-003	3.59960E-001	-1.17325E+000	3.57640E+000	10	...........
	11	0.16	7.30653E-001	5.99594E-003	0.00000E+000	4.38095E-003	3.59960E-001	-1.16245E+000	3.57640E+000	10	...........
	12	0.173333	7.37583E-001	5.99511E-003	0.00000E+000	4.42189E-003	3.59960E-001	-1.16478E+000	3.57640E+000	10	...........
	13	0.186667	7.44511E-001	5.99285E-003	0.00000E+000	4.46174E-003	3.59960E-001	-1.17307E+000	3.57640E+000	10	...........
	14	0.2	7.51351E-001	5.99472E-003	0.00000E+000	4.50414E-003	3.59960E-001	-1.16234E+000	3.57640E+000	10	...........
	15	0.213333	7.58165E-001	5.99396E-003	0.00000E+000	4.54441E-003	3.59960E-001	-1.16495E+000	3.57640E+000	10	...........
	16	0.226667	7.64935E-001	5.99230E-003	0.00000E+000	4.58372E-003	3.59960E-001	-1.17305E+000	3.57640E+000	10	...........
	17	0.24	7.71716E-001	5.99282E-003	0.00000E+000	4.62476E-003	3.59960E-001	-1.16220E+000	3.57640E+000	10	...........
	18	0.253333	7.78452E-001	5.99458E-003	0.00000E+000	4.66650E-003	3.59960E-001	-1.16461E+000	3.57640E+000	10	...........
	19	0.266667	7.85161E-001	5.99311E-003	0.00000E+000	4.70556E-003	3.59960E-001	-1.17268E+000	3.57640E+000	10	...........
	20	0.28	7.91843E-001	5.99237E-003	0.00000E+000	4.74502E-003	3.59960E-001	-1.16207E+000	3.57640E+000	10	...........
	21	0.293333	7.98521E-001	6.00108E-003	0.00000E+000	4.79199E-003	3.59960E-001	-1.16441E+000	3.57640E+000	10	...........
	22	0.306667	8.05179E-001	5.99248E-003	0.00000E+000	4.82502E-003	3.59960E-001	-1.17223E+000	3.57640E+000	10	...........
	23	0.32	8.11774E-001	5.99443E-003	0.00000E+000	4.86612E-003	3.59960E-001	-1.16169E+000	3.57640E+000	10	...........
	24	0.333333	8.18376E-001	5.99240E-003	0.00000E+000	4.90404E-003	3.59960E-001	-1.16439E+000	3.57640E+000	10	...........
	25	0.346667	8.24953E-001	5.99489E-003	0.00000E+000	4.94550E-003	3.59960E-001	-1.17256E+000	3.57640E+000	10	...........
	26	0.36	8.31474E-001	5.99297E-003	0.00000E+000	4.98300E-003	3.59960E-001	-1.16158E+000	3.57640E+000	10	...........
	27	0.373333	8.38005E-001	5.99501E-003	0.00000E+000	5.02385E-003	3.59960E-001	-1.16411E+000	3.57640E+000	10	...........
	28	0.386667	8.44516E-001	5.99646E-003	0.00000E+000	5.06411E-003	3.59960E-001	-1.17236E+000	3.57640E+000	10	...........
	29	0.4	8.50984E-001	5.99445E-003	0.00000E+000	5.10118E-003	3.59960E-001	-1.16182E+000	3.57640E+000	10	...........
	30	0.413333	8.57435E-001	5.99603E-003	0.00000E+000	5.14121E-003	3.59960E-001	-1.16440E+000	3.57640E+000	10	...........
	31	0.426667	8.63886E-001	5.99743E-003	0.00000E+000	5.18110E-003	3.59960E-001	-1.17217E+000	3.57647E+000	10	...........
	32	0.44	8.70314E-001	5.99643E-003	0.00000E+000	5.21877E-003	3.59960E-001	-1.16143E+000	3.57660E+000	10	...........
	33	0.453333	8.76672E-001	5.99463E-003	0.00000E+000	5.25532E-003	3.59960E-001	-1.16414E+000	3.57660E+000	10	...........
	34	0.466667	8.83048E-001	5.99625E-003	0.00000E+000	5.29498E-003	3.59960E-001	-1.17197E+000	3.57660E+000	10	...........
	35	0.48	8.89386E-001	5.99054E-003	0.00000E+000	5.32790E-003	3.59960E-001	-1.16160E+000	3.57660E+000	10	...........
	36	0.493333	8.95662E-001	5.99390E-003	0.00000E+000	5.36850E-003	3.59960E-001	-1.16435E+000	3.57660E+000	10	...........
	37	0.506667	9.01896E-001	5.99610E-003	0.00000E+000	5.40786E-003	3.59960E-001	-1.17169E+000	3.57660E+000	10	...........
	38	0.52	9.08101E-001	5.99115E-003	0.00000E+000	5.44057E-003	3.59960E-001	-1.16144E+000	3.57660E+000	10	...........
	39	0.533333	9.14314E-001	5.99402E-003	0.00000E+000	5.48041E-003	3.59960E-001	-1.16427E+000	3.57660E+000	10	...........
	40	0.546667	9.20465E-001	5.99413E-003	0.00000E+000	5.51738E-003	3.59960E-001	-1.17194E+000	3.57660E+000	10	...........
	41	0.56	9.26566E-001	5.99550E-003	0.00000E+000	5.55523E-003	3.59960E-001	-1.16126E+000	3.57660E+000	10	...........
	42	0.573333	9.32622E-001	5.99537E-003	0.00000E+000	5.59141E-003	3.59960E-001	-1.16404E+000	3.57660E+000	10	...........
	43	0.586667	9.38632E-001	5.99187E-003	0.00000E+000	5.62417E-003	3.59960E-001	-1.17161E+000	3.57660E+000	10	...........
	44	0.6	9.44608E-001	5.99513E-003	0.00000E+000	5.66305E-003	3.59960E-001	-1.16106E+000	3.57660E+000	10	...........
	45	0.613333	9.50562E-001	5.98588E-003	0.00000E+000	5.68995E-003	3.59960E-001	-1.16374E+000	3.57660E+000	10	...........
	46	0.626667	9.56474E-001	5.99286E-003	0.00000E+000	5.73202E-003	3.59960E-001	-1.17146E+000	3.57660E+000	10	...........
	47	0.64	9.62283E-001	5.99483E-003	0.00000E+000	5.76872E-003	3.59960E-001	-1.16086E+000	3.57660E+000	10	...........
	48	0.653333	9.68057E-001	5.99316E-003	0.00000E+000	5.80172E-003	3.59960E-001	-1.16377E+000	3.57660E+000	10	...........
	49	0.666667	9.73862E-001	5.99594E-003	0.00000E+000	5.83922E-003	3.59960E-001	-1.17166E+000	3.57660E+000	10	...........
	50	0.68	9.79606E-001	5.99227E-003	0.00000E+000	5.87006E-003	3.59960E-001	-1.16122E+000	3.57660E+000	10	...........
	51	0.693333	9.85193E-001	5.99028E-003	0.00000E+000	5.90158E-003	3.59960E-001	-1.16423E+000	3.57660E+000	10	...........
	52	0.706667	9.90793E-001	5.99219E-003	0.00000E+000	5.93702E-003	3.59960E-001	-1.17157E+000	3.57660E+000	10	...........
	53	0.72	9.96363E-001	5.99851E-003	0.00000E+000	5.97669E-003	3.59960E-001	-1.16116E+000	3.57660E+000	10	...........
	54	0.723333	9.99859E-001	5.99992E-003	0.00000E+000	5.99908E-003	3.59960E-001	-1.17605E+000	3.57660E+000	10	...........
STARTTIMEOFFSET	QUANT	1271.072	Start Time Offset (s)