File: Data/CV_CRGO300517_1/PWRCCD_CRGO300517_1/CHARGE_DISCHARGE/CHARGE_#559.DTA
EXPLAIN
TAG	PWR800_CHARGE
TITLE	LABEL	PWR Cyclic Charge Discharge (Cell) - Charge Step	Test &Identifier
DATE	LABEL	22-6-2017	Date
TIME	LABEL	15:58:12	Time
NOTES	NOTES	3	&Notes...
	supercap test cell
	0.6mg
	6M KOH
PSTAT	PSTAT	IFC5000-01520	Potentiostat
CAPACITY	QUANT	1.00000E-003	Capacity (A-hr)
CELLTYPE	SELECTOR	1	&Cell Type
WORKINGCONNECTION	SELECTOR	0	&Working Lead
MAXCHARGETIME	VARIABLEANDUNITS	1.00000E+002	s	1.00000E+002	second(s)	Max &Charge Time
CHARGECURRENT	QUANT	6.00000E-003	&Charge Current (A)
VOLTAGEFINISH	TWOPARAM	F	1.00000E-003	3.60000E+003	&Voltage Finish	 I (A) < 	Max Time(s)
SAMPLETIME	QUANT	1.00000E-002	Sa&mple Period (s)
CHARGESTOPAT1	MULTIPARAM	4	1.00000E+000	Charge Stop At &1	Voltage > Limit	V
CHARGESTOPAT2	MULTIPARAM	0	0.00000E+000	Charge Stop At &2	None	N/A
AESBHCSELECTOR	TOGGLE	F	Save Both Half Cells
IRCOMP	TOGGLE	F	IR &Measure
EOC	QUANT	0	Open Circuit (V)
SEQUENCER	TOGGLE	TRUE	Run as Sequence
PSTATMODEL	IQUANT	53	Pstat Model
PSTATSECTION	LABEL	IFC5000-01520	Pstat Section
PSTATSERIALNO	LABEL	01520	Pstat Serial Number
CTRLMODE	IQUANT	0	Control Mode
ELECTROMETER	IQUANT	1	RE=0 or CS=1
IESTAB	IQUANT	0	I/E Stability
CASPEED	IQUANT	4	Control Amp Speed
CONVENTION	IQUANT	1	Current Convention
ICHRANGE	IQUANT	2	Ich Range
ICHRANGEMODE	TOGGLE	T	Ich Auto Range
ICHOFFSETENABLE	TOGGLE	F	Ich Offset Enable
ICHOFFSET	QUANT	0	Ich Offset (V)
ICHFILTER	IQUANT	1	Ich Filter
VCHRANGE	IQUANT	2	Vch Range
VCHRANGEMODE	TOGGLE	T	Vch Auto Range
VCHOFFSETENABLE	TOGGLE	F	Vch Offset Enable
VCHOFFSET	QUANT	0	Vch Offset (V)
VCHFILTER	IQUANT	1	Vch Filter
IERANGELOWERLIMIT	IQUANT	9	I/E Range Lower Limit
IERANGEMODE	TOGGLE	F	I/E AutoRange
IERANGE	IQUANT	10	I/E Range
ACHSELECT	IQUANT	1	Ach Select
ACHRANGE	IQUANT	2	Ach Range
ACHOFFSETENABLE	TOGGLE	F	Ach Offset Enable
ACHOFFSET	QUANT	0	Ach Offset (V)
ACHFILTER	IQUANT	1	Ach Filter
CABLEID	IQUANT	14	Cable ID
DCCALDATE	LABEL	20-10-2016	DC Calibration Date
ACCALDATE	LABEL	12/3/2015	AC Calibration Date
FRAMEWORKVERSION	QUANT	7.01	Framework Version
INSTRUMENTVERSION	LABEL	4.00	Instrument Version
CURVE	TABLE	58
	Pt	T	Vf	Im	Vu	Pwr	Sig	Ach	Temp	IERange	Over
	#	s	V	A	V	W	V	V	deg C	#	bits
	0	0.013333	6.35644E-001	5.99767E-003	0.00000E+000	3.81239E-003	3.59960E-001	-1.14451E+000	3.57660E+000	10	...........
	1	0.026667	6.44629E-001	5.99132E-003	0.00000E+000	3.86218E-003	3.59960E-001	-1.13914E+000	3.57660E+000	10	...........
	2	0.04	6.52826E-001	5.99228E-003	0.00000E+000	3.91191E-003	3.59960E-001	-1.14773E+000	3.57660E+000	10	...........
	3	0.053333	6.60623E-001	5.99241E-003	0.00000E+000	3.95873E-003	3.59960E-001	-1.14440E+000	3.57660E+000	10	...........
	4	0.066667	6.68143E-001	5.99368E-003	0.00000E+000	4.00463E-003	3.59960E-001	-1.13910E+000	3.57660E+000	10	...........
	5	0.08	6.75484E-001	5.99231E-003	0.00000E+000	4.04771E-003	3.59960E-001	-1.14785E+000	3.57660E+000	10	...........
	6	0.093333	6.82645E-001	5.99553E-003	0.00000E+000	4.09282E-003	3.59960E-001	-1.14413E+000	3.57660E+000	10	...........
	7	0.106667	6.89757E-001	5.99354E-003	0.00000E+000	4.13409E-003	3.59960E-001	-1.13901E+000	3.57660E+000	10	...........
	8	0.12	6.96757E-001	5.99154E-003	0.00000E+000	4.17465E-003	3.59960E-001	-1.14785E+000	3.57660E+000	10	...........
	9	0.133333	7.03654E-001	5.99826E-003	0.00000E+000	4.22070E-003	3.59960E-001	-1.14435E+000	3.57660E+000	10	...........
	10	0.146667	7.10524E-001	5.99408E-003	0.00000E+000	4.25894E-003	3.59960E-001	-1.13904E+000	3.57660E+000	10	...........
	11	0.16	7.17371E-001	5.99100E-003	0.00000E+000	4.29777E-003	3.59960E-001	-1.14768E+000	3.57690E+000	10	...........
	12	0.173333	7.24161E-001	5.99320E-003	0.00000E+000	4.34004E-003	3.59960E-001	-1.14428E+000	3.57720E+000	10	...........
	13	0.186667	7.30797E-001	5.99351E-003	0.00000E+000	4.38004E-003	3.59960E-001	-1.13883E+000	3.57720E+000	10	...........
	14	0.2	7.37457E-001	5.98665E-003	0.00000E+000	4.41489E-003	3.59960E-001	-1.14740E+000	3.57720E+000	10	...........
	15	0.213333	7.44156E-001	5.99271E-003	0.00000E+000	4.45951E-003	3.59960E-001	-1.14415E+000	3.57720E+000	10	...........
	16	0.226667	7.50754E-001	5.98846E-003	0.00000E+000	4.49586E-003	3.59960E-001	-1.13843E+000	3.57720E+000	10	...........
	17	0.24	7.57362E-001	5.99349E-003	0.00000E+000	4.53924E-003	3.59960E-001	-1.14733E+000	3.57720E+000	10	...........
	18	0.253333	7.63933E-001	5.99182E-003	0.00000E+000	4.57735E-003	3.59960E-001	-1.14405E+000	3.57720E+000	10	...........
	19	0.266667	7.70529E-001	5.99690E-003	0.00000E+000	4.62079E-003	3.59960E-001	-1.13860E+000	3.57720E+000	10	...........
	20	0.28	7.77094E-001	5.99089E-003	0.00000E+000	4.65549E-003	3.59960E-001	-1.14738E+000	3.57720E+000	10	...........
	21	0.293333	7.83653E-001	5.98742E-003	0.00000E+000	4.69206E-003	3.59960E-001	-1.14403E+000	3.57720E+000	10	...........
	22	0.306667	7.90118E-001	5.99209E-003	0.00000E+000	4.73446E-003	3.59960E-001	-1.13837E+000	3.57720E+000	10	...........
	23	0.32	7.96683E-001	5.99395E-003	0.00000E+000	4.77527E-003	3.59960E-001	-1.14733E+000	3.57720E+000	10	...........
	24	0.333333	8.03115E-001	5.99258E-003	0.00000E+000	4.81273E-003	3.59960E-001	-1.14393E+000	3.57720E+000	10	...........
	25	0.346667	8.09575E-001	5.98917E-003	0.00000E+000	4.84868E-003	3.59960E-001	-1.13849E+000	3.57720E+000	10	...........
	26	0.36	8.16038E-001	5.99287E-003	0.00000E+000	4.89042E-003	3.59960E-001	-1.14701E+000	3.57720E+000	10	...........
	27	0.373333	8.22502E-001	5.99737E-003	0.00000E+000	4.93285E-003	3.59960E-001	-1.14380E+000	3.57720E+000	10	...........
	28	0.386667	8.28873E-001	5.99265E-003	0.00000E+000	4.96715E-003	3.59960E-001	-1.13826E+000	3.57720E+000	10	...........
	29	0.4	8.35278E-001	5.99830E-003	0.00000E+000	5.01025E-003	3.59960E-001	-1.14716E+000	3.57720E+000	10	...........
	30	0.413333	8.41600E-001	5.99651E-003	0.00000E+000	5.04667E-003	3.59960E-001	-1.14413E+000	3.57720E+000	10	...........
	31	0.426667	8.48012E-001	5.99177E-003	0.00000E+000	5.08109E-003	3.59960E-001	-1.13827E+000	3.57720E+000	10	...........
	32	0.44	8.54333E-001	5.99534E-003	0.00000E+000	5.12201E-003	3.59960E-001	-1.14730E+000	3.57720E+000	10	...........
	33	0.453333	8.60686E-001	5.99301E-003	0.00000E+000	5.15810E-003	3.59960E-001	-1.14376E+000	3.57720E+000	10	...........
	34	0.466667	8.66972E-001	5.99454E-003	0.00000E+000	5.19710E-003	3.59960E-001	-1.13842E+000	3.57720E+000	10	...........
	35	0.48	8.73241E-001	5.99670E-003	0.00000E+000	5.23656E-003	3.59960E-001	-1.14727E+000	3.57720E+000	10	...........
	36	0.493333	8.79487E-001	5.99380E-003	0.00000E+000	5.27147E-003	3.59960E-001	-1.14383E+000	3.57720E+000	10	...........
	37	0.506667	8.85697E-001	5.99613E-003	0.00000E+000	5.31075E-003	3.59960E-001	-1.13838E+000	3.57720E+000	10	...........
	38	0.52	8.91873E-001	5.99378E-003	0.00000E+000	5.34569E-003	3.59960E-001	-1.14688E+000	3.57720E+000	10	...........
	39	0.533333	8.98085E-001	5.99243E-003	0.00000E+000	5.38171E-003	3.59960E-001	-1.14383E+000	3.57720E+000	10	...........
	40	0.546667	9.04220E-001	5.99034E-003	0.00000E+000	5.41658E-003	3.59960E-001	-1.13803E+000	3.57720E+000	10	...........
	41	0.56	9.10362E-001	5.99503E-003	0.00000E+000	5.45765E-003	3.59960E-001	-1.14652E+000	3.57720E+000	10	...........
	42	0.573333	9.16426E-001	5.99090E-003	0.00000E+000	5.49022E-003	3.59960E-001	-1.14344E+000	3.57720E+000	10	...........
	43	0.586667	9.22534E-001	5.99213E-003	0.00000E+000	5.52795E-003	3.59960E-001	-1.13803E+000	3.57720E+000	10	...........
	44	0.6	9.28553E-001	5.99443E-003	0.00000E+000	5.56614E-003	3.59960E-001	-1.14652E+000	3.57720E+000	10	...........
	45	0.613333	9.34510E-001	5.99305E-003	0.00000E+000	5.60056E-003	3.59960E-001	-1.14349E+000	3.57720E+000	10	...........
	46	0.626667	9.40433E-001	5.99357E-003	0.00000E+000	5.63655E-003	3.59960E-001	-1.13770E+000	3.57720E+000	10	...........
	47	0.64	9.46353E-001	5.99055E-003	0.00000E+000	5.66917E-003	3.59960E-001	-1.14635E+000	3.57720E+000	10	...........
	48	0.653333	9.52216E-001	5.98935E-003	0.00000E+000	5.70315E-003	3.59960E-001	-1.14351E+000	3.57720E+000	10	...........
	49	0.666667	9.58025E-001	5.99355E-003	0.00000E+000	5.74197E-003	3.59960E-001	-1.13784E+000	3.57720E+000	10	...........
	50	0.68	9.63802E-001	5.99552E-003	0.00000E+000	5.77850E-003	3.59960E-001	-1.14624E+000	3.57720E+000	10	...........
	51	0.693333	9.69518E-001	5.99174E-003	0.00000E+000	5.80909E-003	3.59960E-001	-1.14344E+000	3.57720E+000	10	...........
	52	0.706667	9.75232E-001	6.00111E-003	0.00000E+000	5.85248E-003	3.59960E-001	-1.13761E+000	3.57720E+000	10	...........
	53	0.72	9.80861E-001	5.99415E-003	0.00000E+000	5.87942E-003	3.59960E-001	-1.14638E+000	3.57720E+000	10	...........
	54	0.733333	9.86483E-001	5.99524E-003	0.00000E+000	5.91420E-003	3.59960E-001	-1.14362E+000	3.57720E+000	10	...........
	55	0.746667	9.92043E-001	5.99257E-003	0.00000E+000	5.94489E-003	3.59960E-001	-1.13780E+000	3.57720E+000	10	...........
	56	0.76	9.97546E-001	5.99611E-003	0.00000E+000	5.98139E-003	3.59960E-001	-1.14601E+000	3.57720E+000	10	...........
	57	0.761667	1.00067E+000	6.01399E-003	0.00000E+000	6.01804E-003	3.59960E-001	-1.12461E+000	3.57720E+000	10	...........
STARTTIMEOFFSET	QUANT	949.1434	Start Time Offset (s)