File: Data/CV_CRGO300517_1/PWRCCD_CRGO300517_1/CHARGE_DISCHARGE/CHARGE_#834.DTA
EXPLAIN
TAG	PWR800_CHARGE
TITLE	LABEL	PWR Cyclic Charge Discharge (Cell) - Charge Step	Test &Identifier
DATE	LABEL	22-6-2017	Date
TIME	LABEL	16:08:33	Time
NOTES	NOTES	3	&Notes...
	supercap test cell
	0.6mg
	6M KOH
PSTAT	PSTAT	IFC5000-01520	Potentiostat
CAPACITY	QUANT	1.00000E-003	Capacity (A-hr)
CELLTYPE	SELECTOR	1	&Cell Type
WORKINGCONNECTION	SELECTOR	0	&Working Lead
MAXCHARGETIME	VARIABLEANDUNITS	1.00000E+002	s	1.00000E+002	second(s)	Max &Charge Time
CHARGECURRENT	QUANT	6.00000E-003	&Charge Current (A)
VOLTAGEFINISH	TWOPARAM	F	1.00000E-003	3.60000E+003	&Voltage Finish	 I (A) < 	Max Time(s)
SAMPLETIME	QUANT	1.00000E-002	Sa&mple Period (s)
CHARGESTOPAT1	MULTIPARAM	4	1.00000E+000	Charge Stop At &1	Voltage > Limit	V
CHARGESTOPAT2	MULTIPARAM	0	0.00000E+000	Charge Stop At &2	None	N/A
AESBHCSELECTOR	TOGGLE	F	Save Both Half Cells
IRCOMP	TOGGLE	F	IR &Measure
EOC	QUANT	0	Open Circuit (V)
SEQUENCER	TOGGLE	TRUE	Run as Sequence
PSTATMODEL	IQUANT	53	Pstat Model
PSTATSECTION	LABEL	IFC5000-01520	Pstat Section
PSTATSERIALNO	LABEL	01520	Pstat Serial Number
CTRLMODE	IQUANT	0	Control Mode
ELECTROMETER	IQUANT	1	RE=0 or CS=1
IESTAB	IQUANT	0	I/E Stability
CASPEED	IQUANT	4	Control Amp Speed
CONVENTION	IQUANT	1	Current Convention
ICHRANGE	IQUANT	2	Ich Range
ICHRANGEMODE	TOGGLE	T	Ich Auto Range
ICHOFFSETENABLE	TOGGLE	F	Ich Offset Enable
ICHOFFSET	QUANT	0	Ich Offset (V)
ICHFILTER	IQUANT	1	Ich Filter
VCHRANGE	IQUANT	2	Vch Range
VCHRANGEMODE	TOGGLE	T	Vch Auto Range
VCHOFFSETENABLE	TOGGLE	F	Vch Offset Enable
VCHOFFSET	QUANT	0	Vch Offset (V)
VCHFILTER	IQUANT	1	Vch Filter
IERANGELOWERLIMIT	IQUANT	9	I/E Range Lower Limit
IERANGEMODE	TOGGLE	F	I/E AutoRange
IERANGE	IQUANT	10	I/E Range
ACHSELECT	IQUANT	1	Ach Select
ACHRANGE	IQUANT	2	Ach Range
ACHOFFSETENABLE	TOGGLE	F	Ach Offset Enable
ACHOFFSET	QUANT	0	Ach Offset (V)
ACHFILTER	IQUANT	1	Ach Filter
CABLEID	IQUANT	14	Cable ID
DCCALDATE	LABEL	20-10-2016	DC Calibration Date
ACCALDATE	LABEL	12/3/2015	AC Calibration Date
FRAMEWORKVERSION	QUANT	7.01	Framework Version
INSTRUMENTVERSION	LABEL	4.00	Instrument Version
CURVE	TABLE	54
	Pt	T	Vf	Im	Vu	Pwr	Sig	Ach	Temp	IERange	Over
	#	s	V	A	V	W	V	V	deg C	#	bits
	0	0.013333	6.50368E-001	5.98642E-003	0.00000E+000	3.89338E-003	3.59960E-001	-1.16492E+000	3.57640E+000	10	...........
	1	0.026667	6.59583E-001	5.99462E-003	0.00000E+000	3.95395E-003	3.59960E-001	-1.15997E+000	3.57640E+000	10	...........
	2	0.04	6.68120E-001	5.98935E-003	0.00000E+000	4.00160E-003	3.59960E-001	-1.15539E+000	3.57640E+000	10	...........
	3	0.053333	6.76163E-001	5.98891E-003	0.00000E+000	4.04948E-003	3.59960E-001	-1.16322E+000	3.57640E+000	10	...........
	4	0.066667	6.83891E-001	5.99099E-003	0.00000E+000	4.09718E-003	3.59960E-001	-1.15580E+000	3.57640E+000	10	...........
	5	0.08	6.91479E-001	5.99610E-003	0.00000E+000	4.14617E-003	3.59960E-001	-1.15040E+000	3.57640E+000	10	...........
	6	0.093333	6.98868E-001	5.99037E-003	0.00000E+000	4.18648E-003	3.59960E-001	-1.15955E+000	3.57640E+000	10	...........
	7	0.106667	7.06197E-001	5.99378E-003	0.00000E+000	4.23279E-003	3.59960E-001	-1.15379E+000	3.57640E+000	10	...........
	8	0.12	7.13349E-001	5.98975E-003	0.00000E+000	4.27279E-003	3.59960E-001	-1.14879E+000	3.57640E+000	10	...........
	9	0.133333	7.20512E-001	5.98823E-003	0.00000E+000	4.31459E-003	3.59960E-001	-1.15828E+000	3.57640E+000	10	...........
	10	0.146667	7.27578E-001	5.99968E-003	0.00000E+000	4.36524E-003	3.59960E-001	-1.15210E+000	3.57640E+000	10	...........
	11	0.16	7.34510E-001	5.99452E-003	0.00000E+000	4.40303E-003	3.59960E-001	-1.14737E+000	3.57640E+000	10	...........
	12	0.173333	7.41460E-001	5.99280E-003	0.00000E+000	4.44342E-003	3.59960E-001	-1.15782E+000	3.57640E+000	10	...........
	13	0.186667	7.48352E-001	5.99414E-003	0.00000E+000	4.48572E-003	3.59960E-001	-1.15251E+000	3.57640E+000	10	...........
	14	0.2	7.55197E-001	5.99307E-003	0.00000E+000	4.52595E-003	3.59960E-001	-1.14731E+000	3.57640E+000	10	...........
	15	0.213333	7.62012E-001	5.99642E-003	0.00000E+000	4.56935E-003	3.59960E-001	-1.15738E+000	3.57645E+000	10	...........
	16	0.226667	7.68835E-001	5.99185E-003	0.00000E+000	4.60674E-003	3.59960E-001	-1.15199E+000	3.57660E+000	10	...........
	17	0.24	7.75640E-001	5.99620E-003	0.00000E+000	4.65089E-003	3.59960E-001	-1.14763E+000	3.57660E+000	10	...........
	18	0.253333	7.82401E-001	5.99280E-003	0.00000E+000	4.68877E-003	3.59960E-001	-1.15763E+000	3.57660E+000	10	...........
	19	0.266667	7.89114E-001	5.99791E-003	0.00000E+000	4.73303E-003	3.59960E-001	-1.15236E+000	3.57660E+000	10	...........
	20	0.28	7.95859E-001	5.98966E-003	0.00000E+000	4.76692E-003	3.59960E-001	-1.14740E+000	3.57660E+000	10	...........
	21	0.293333	8.02520E-001	5.99421E-003	0.00000E+000	4.81047E-003	3.59960E-001	-1.15757E+000	3.57660E+000	10	...........
	22	0.306667	8.09123E-001	5.98972E-003	0.00000E+000	4.84643E-003	3.59960E-001	-1.15248E+000	3.57660E+000	10	...........
	23	0.32	8.15697E-001	5.99658E-003	0.00000E+000	4.89139E-003	3.59960E-001	-1.14791E+000	3.57660E+000	10	...........
	24	0.333333	8.22361E-001	5.99417E-003	0.00000E+000	4.92937E-003	3.59960E-001	-1.15773E+000	3.57660E+000	10	...........
	25	0.346667	8.28914E-001	5.99631E-003	0.00000E+000	4.97042E-003	3.59960E-001	-1.15203E+000	3.57660E+000	10	...........
	26	0.36	8.35522E-001	5.99383E-003	0.00000E+000	5.00798E-003	3.59960E-001	-1.14743E+000	3.57660E+000	10	...........
	27	0.373333	8.42051E-001	5.99499E-003	0.00000E+000	5.04809E-003	3.59960E-001	-1.15773E+000	3.57660E+000	10	...........
	28	0.386667	8.48614E-001	5.99125E-003	0.00000E+000	5.08426E-003	3.59960E-001	-1.15232E+000	3.57660E+000	10	...........
	29	0.4	8.55075E-001	5.99627E-003	0.00000E+000	5.12727E-003	3.59960E-001	-1.14759E+000	3.57660E+000	10	...........
	30	0.413333	8.61550E-001	5.99542E-003	0.00000E+000	5.16535E-003	3.59960E-001	-1.15768E+000	3.57660E+000	10	...........
	31	0.426667	8.68018E-001	5.98847E-003	0.00000E+000	5.19810E-003	3.59960E-001	-1.15196E+000	3.57660E+000	10	...........
	32	0.44	8.74459E-001	5.99423E-003	0.00000E+000	5.24171E-003	3.59960E-001	-1.14780E+000	3.57660E+000	10	...........
	33	0.453333	8.80806E-001	5.99476E-003	0.00000E+000	5.28022E-003	3.59960E-001	-1.15787E+000	3.57660E+000	10	...........
	34	0.466667	8.87175E-001	5.99521E-003	0.00000E+000	5.31880E-003	3.59960E-001	-1.15226E+000	3.57660E+000	10	...........
	35	0.48	8.93488E-001	5.99344E-003	0.00000E+000	5.35507E-003	3.59960E-001	-1.14774E+000	3.57660E+000	10	...........
	36	0.493333	8.99819E-001	5.99258E-003	0.00000E+000	5.39224E-003	3.59960E-001	-1.15775E+000	3.57660E+000	10	...........
	37	0.506667	9.06044E-001	5.99502E-003	0.00000E+000	5.43176E-003	3.59960E-001	-1.15254E+000	3.57660E+000	10	...........
	38	0.52	9.12239E-001	5.99314E-003	0.00000E+000	5.46718E-003	3.59960E-001	-1.14801E+000	3.57660E+000	10	...........
	39	0.533333	9.18409E-001	5.99505E-003	0.00000E+000	5.50591E-003	3.59960E-001	-1.15837E+000	3.57660E+000	10	...........
	40	0.546667	9.24595E-001	5.99412E-003	0.00000E+000	5.54213E-003	3.59960E-001	-1.15248E+000	3.57660E+000	10	...........
	41	0.56	9.30695E-001	5.99302E-003	0.00000E+000	5.57767E-003	3.59960E-001	-1.14816E+000	3.57660E+000	10	...........
	42	0.573333	9.36722E-001	5.99298E-003	0.00000E+000	5.61375E-003	3.59960E-001	-1.15853E+000	3.57660E+000	10	...........
	43	0.586667	9.42727E-001	5.99337E-003	0.00000E+000	5.65011E-003	3.59960E-001	-1.15322E+000	3.57660E+000	10	...........
	44	0.6	9.48727E-001	5.99458E-003	0.00000E+000	5.68723E-003	3.59960E-001	-1.14854E+000	3.57660E+000	10	...........
	45	0.613333	9.54643E-001	5.99155E-003	0.00000E+000	5.71979E-003	3.59960E-001	-1.15876E+000	3.57660E+000	10	...........
	46	0.626667	9.60499E-001	5.99116E-003	0.00000E+000	5.75451E-003	3.59960E-001	-1.15287E+000	3.57660E+000	10	...........
	47	0.64	9.66338E-001	5.99884E-003	0.00000E+000	5.79691E-003	3.59960E-001	-1.14849E+000	3.57660E+000	10	...........
	48	0.653333	9.72100E-001	5.98986E-003	0.00000E+000	5.82274E-003	3.59960E-001	-1.15880E+000	3.57660E+000	10	...........
	49	0.666667	9.77833E-001	5.99478E-003	0.00000E+000	5.86190E-003	3.59960E-001	-1.15269E+000	3.57660E+000	10	...........
	50	0.68	9.83482E-001	5.99543E-003	0.00000E+000	5.89639E-003	3.59960E-001	-1.14812E+000	3.57660E+000	10	...........
	51	0.693333	9.89066E-001	5.99337E-003	0.00000E+000	5.92784E-003	3.59960E-001	-1.15815E+000	3.57660E+000	10	...........
	52	0.706667	9.94673E-001	5.99605E-003	0.00000E+000	5.96412E-003	3.59960E-001	-1.15230E+000	3.57660E+000	10	...........
	53	0.715	9.99144E-001	5.99112E-003	0.00000E+000	5.98599E-003	3.59960E-001	-1.15047E+000	3.57660E+000	10	...........
STARTTIMEOFFSET	QUANT	1352.699	Start Time Offset (s)