File: Data/CV_CRGO300517_1/PWRCCD_CRGO300517_1/CHARGE_DISCHARGE/CHARGE_#947.DTA
EXPLAIN
TAG	PWR800_CHARGE
TITLE	LABEL	PWR Cyclic Charge Discharge (Cell) - Charge Step	Test &Identifier
DATE	LABEL	22-6-2017	Date
TIME	LABEL	16:12:42	Time
NOTES	NOTES	3	&Notes...
	supercap test cell
	0.6mg
	6M KOH
PSTAT	PSTAT	IFC5000-01520	Potentiostat
CAPACITY	QUANT	1.00000E-003	Capacity (A-hr)
CELLTYPE	SELECTOR	1	&Cell Type
WORKINGCONNECTION	SELECTOR	0	&Working Lead
MAXCHARGETIME	VARIABLEANDUNITS	1.00000E+002	s	1.00000E+002	second(s)	Max &Charge Time
CHARGECURRENT	QUANT	6.00000E-003	&Charge Current (A)
VOLTAGEFINISH	TWOPARAM	F	1.00000E-003	3.60000E+003	&Voltage Finish	 I (A) < 	Max Time(s)
SAMPLETIME	QUANT	1.00000E-002	Sa&mple Period (s)
CHARGESTOPAT1	MULTIPARAM	4	1.00000E+000	Charge Stop At &1	Voltage > Limit	V
CHARGESTOPAT2	MULTIPARAM	0	0.00000E+000	Charge Stop At &2	None	N/A
AESBHCSELECTOR	TOGGLE	F	Save Both Half Cells
IRCOMP	TOGGLE	F	IR &Measure
EOC	QUANT	0	Open Circuit (V)
SEQUENCER	TOGGLE	TRUE	Run as Sequence
PSTATMODEL	IQUANT	53	Pstat Model
PSTATSECTION	LABEL	IFC5000-01520	Pstat Section
PSTATSERIALNO	LABEL	01520	Pstat Serial Number
CTRLMODE	IQUANT	0	Control Mode
ELECTROMETER	IQUANT	1	RE=0 or CS=1
IESTAB	IQUANT	0	I/E Stability
CASPEED	IQUANT	4	Control Amp Speed
CONVENTION	IQUANT	1	Current Convention
ICHRANGE	IQUANT	2	Ich Range
ICHRANGEMODE	TOGGLE	T	Ich Auto Range
ICHOFFSETENABLE	TOGGLE	F	Ich Offset Enable
ICHOFFSET	QUANT	0	Ich Offset (V)
ICHFILTER	IQUANT	1	Ich Filter
VCHRANGE	IQUANT	2	Vch Range
VCHRANGEMODE	TOGGLE	T	Vch Auto Range
VCHOFFSETENABLE	TOGGLE	F	Vch Offset Enable
VCHOFFSET	QUANT	0	Vch Offset (V)
VCHFILTER	IQUANT	1	Vch Filter
IERANGELOWERLIMIT	IQUANT	9	I/E Range Lower Limit
IERANGEMODE	TOGGLE	F	I/E AutoRange
IERANGE	IQUANT	10	I/E Range
ACHSELECT	IQUANT	1	Ach Select
ACHRANGE	IQUANT	2	Ach Range
ACHOFFSETENABLE	TOGGLE	F	Ach Offset Enable
ACHOFFSET	QUANT	0	Ach Offset (V)
ACHFILTER	IQUANT	1	Ach Filter
CABLEID	IQUANT	14	Cable ID
DCCALDATE	LABEL	20-10-2016	DC Calibration Date
ACCALDATE	LABEL	12/3/2015	AC Calibration Date
FRAMEWORKVERSION	QUANT	7.01	Framework Version
INSTRUMENTVERSION	LABEL	4.00	Instrument Version
CURVE	TABLE	53
	Pt	T	Vf	Im	Vu	Pwr	Sig	Ach	Temp	IERange	Over
	#	s	V	A	V	W	V	V	deg C	#	bits
	0	0.013333	6.55327E-001	5.99468E-003	0.00000E+000	3.92847E-003	3.59960E-001	-1.17761E+000	3.57630E+000	10	...........
	1	0.026667	6.64645E-001	5.99689E-003	0.00000E+000	3.98580E-003	3.59960E-001	-1.17131E+000	3.57630E+000	10	...........
	2	0.04	6.73253E-001	5.99093E-003	0.00000E+000	4.03342E-003	3.59960E-001	-1.17976E+000	3.57630E+000	10	...........
	3	0.053333	6.81377E-001	5.99798E-003	0.00000E+000	4.08689E-003	3.59960E-001	-1.17739E+000	3.57630E+000	10	...........
	4	0.066667	6.89185E-001	5.98896E-003	0.00000E+000	4.12750E-003	3.59960E-001	-1.17143E+000	3.57630E+000	10	...........
	5	0.08	6.96816E-001	5.99358E-003	0.00000E+000	4.17642E-003	3.59960E-001	-1.17991E+000	3.57630E+000	10	...........
	6	0.093333	7.04291E-001	5.99349E-003	0.00000E+000	4.22116E-003	3.59960E-001	-1.17754E+000	3.57630E+000	10	...........
	7	0.106667	7.11631E-001	5.99037E-003	0.00000E+000	4.26293E-003	3.59960E-001	-1.17115E+000	3.57630E+000	10	...........
	8	0.12	7.18959E-001	5.99542E-003	0.00000E+000	4.31046E-003	3.59960E-001	-1.17969E+000	3.57630E+000	10	...........
	9	0.133333	7.26116E-001	5.99253E-003	0.00000E+000	4.35127E-003	3.59960E-001	-1.17761E+000	3.57630E+000	10	...........
	10	0.146667	7.33205E-001	5.98937E-003	0.00000E+000	4.39144E-003	3.59960E-001	-1.17136E+000	3.57630E+000	10	...........
	11	0.16	7.40325E-001	5.99798E-003	0.00000E+000	4.44046E-003	3.59960E-001	-1.17953E+000	3.57630E+000	10	...........
	12	0.173333	7.47322E-001	5.99355E-003	0.00000E+000	4.47911E-003	3.59960E-001	-1.17725E+000	3.57630E+000	10	...........
	13	0.186667	7.54299E-001	5.99516E-003	0.00000E+000	4.52214E-003	3.59960E-001	-1.17129E+000	3.57630E+000	10	...........
	14	0.2	7.61237E-001	5.99317E-003	0.00000E+000	4.56222E-003	3.59960E-001	-1.17916E+000	3.57630E+000	10	...........
	15	0.213333	7.68144E-001	5.99610E-003	0.00000E+000	4.60587E-003	3.59960E-001	-1.17718E+000	3.57630E+000	10	...........
	16	0.226667	7.75031E-001	5.99474E-003	0.00000E+000	4.64611E-003	3.59960E-001	-1.17054E+000	3.57630E+000	10	...........
	17	0.24	7.81898E-001	5.99578E-003	0.00000E+000	4.68809E-003	3.59960E-001	-1.17864E+000	3.57630E+000	10	...........
	18	0.253333	7.88738E-001	5.99147E-003	0.00000E+000	4.72570E-003	3.59960E-001	-1.17688E+000	3.57630E+000	10	...........
	19	0.266667	7.95536E-001	5.99356E-003	0.00000E+000	4.76809E-003	3.59960E-001	-1.17074E+000	3.57630E+000	10	...........
	20	0.28	8.02282E-001	5.99578E-003	0.00000E+000	4.81031E-003	3.59960E-001	-1.17856E+000	3.57634E+000	10	...........
	21	0.293333	8.09015E-001	5.99165E-003	0.00000E+000	4.84734E-003	3.59960E-001	-1.17664E+000	3.57660E+000	10	...........
	22	0.306667	8.15695E-001	5.99317E-003	0.00000E+000	4.88859E-003	3.59960E-001	-1.17023E+000	3.57660E+000	10	...........
	23	0.32	8.22387E-001	5.98562E-003	0.00000E+000	4.92250E-003	3.59960E-001	-1.17838E+000	3.57660E+000	10	...........
	24	0.333333	8.29063E-001	5.99298E-003	0.00000E+000	4.96856E-003	3.59960E-001	-1.17698E+000	3.57660E+000	10	...........
	25	0.346667	8.35652E-001	5.99608E-003	0.00000E+000	5.01063E-003	3.59960E-001	-1.17012E+000	3.57660E+000	10	...........
	26	0.36	8.42247E-001	5.99303E-003	0.00000E+000	5.04761E-003	3.59960E-001	-1.17794E+000	3.57660E+000	10	...........
	27	0.373333	8.48838E-001	5.99051E-003	0.00000E+000	5.08497E-003	3.59960E-001	-1.17623E+000	3.57660E+000	10	...........
	28	0.386667	8.55382E-001	5.99511E-003	0.00000E+000	5.12810E-003	3.59960E-001	-1.16989E+000	3.57660E+000	10	...........
	29	0.4	8.61895E-001	5.99251E-003	0.00000E+000	5.16492E-003	3.59960E-001	-1.17794E+000	3.57660E+000	10	...........
	30	0.413333	8.68438E-001	5.99292E-003	0.00000E+000	5.20447E-003	3.59960E-001	-1.17666E+000	3.57660E+000	10	...........
	31	0.426667	8.74911E-001	5.99577E-003	0.00000E+000	5.24577E-003	3.59960E-001	-1.16961E+000	3.57660E+000	10	...........
	32	0.44	8.81344E-001	5.99418E-003	0.00000E+000	5.28293E-003	3.59960E-001	-1.17756E+000	3.57660E+000	10	...........
	33	0.453333	8.87720E-001	5.99501E-003	0.00000E+000	5.32189E-003	3.59960E-001	-1.17641E+000	3.57660E+000	10	...........
	34	0.466667	8.94082E-001	5.99152E-003	0.00000E+000	5.35691E-003	3.59960E-001	-1.16975E+000	3.57660E+000	10	...........
	35	0.48	9.00412E-001	5.99544E-003	0.00000E+000	5.39837E-003	3.59960E-001	-1.17749E+000	3.57660E+000	10	...........
	36	0.493333	9.06658E-001	5.99154E-003	0.00000E+000	5.43228E-003	3.59960E-001	-1.17637E+000	3.57660E+000	10	...........
	37	0.506667	9.12922E-001	5.99639E-003	0.00000E+000	5.47423E-003	3.59960E-001	-1.16927E+000	3.57660E+000	10	...........
	38	0.52	9.19164E-001	5.99755E-003	0.00000E+000	5.51273E-003	3.59960E-001	-1.17698E+000	3.57660E+000	10	...........
	39	0.533333	9.25354E-001	5.99110E-003	0.00000E+000	5.54389E-003	3.59960E-001	-1.17603E+000	3.57660E+000	10	...........
	40	0.546667	9.31426E-001	5.98677E-003	0.00000E+000	5.57624E-003	3.59960E-001	-1.16894E+000	3.57660E+000	10	...........
	41	0.56	9.37503E-001	5.99333E-003	0.00000E+000	5.61877E-003	3.59960E-001	-1.17661E+000	3.57660E+000	10	...........
	42	0.573333	9.43536E-001	5.99554E-003	0.00000E+000	5.65701E-003	3.59960E-001	-1.17555E+000	3.57660E+000	10	...........
	43	0.586667	9.49552E-001	5.99174E-003	0.00000E+000	5.68946E-003	3.59960E-001	-1.16870E+000	3.57660E+000	10	...........
	44	0.6	9.55455E-001	5.98935E-003	0.00000E+000	5.72255E-003	3.59960E-001	-1.17662E+000	3.57660E+000	10	...........
	45	0.613333	9.61332E-001	5.98977E-003	0.00000E+000	5.75815E-003	3.59960E-001	-1.17582E+000	3.57660E+000	10	...........
	46	0.626667	9.67204E-001	5.99357E-003	0.00000E+000	5.79701E-003	3.59960E-001	-1.16870E+000	3.57660E+000	10	...........
	47	0.64	9.72981E-001	5.99273E-003	0.00000E+000	5.83081E-003	3.59960E-001	-1.17621E+000	3.57660E+000	10	...........
	48	0.653333	9.78712E-001	5.99181E-003	0.00000E+000	5.86426E-003	3.59960E-001	-1.17611E+000	3.57660E+000	10	...........
	49	0.666667	9.84383E-001	5.99029E-003	0.00000E+000	5.89674E-003	3.59960E-001	-1.16893E+000	3.57660E+000	10	...........
	50	0.68	9.90034E-001	5.99334E-003	0.00000E+000	5.93361E-003	3.59960E-001	-1.17644E+000	3.57660E+000	10	...........
	51	0.693333	9.95610E-001	5.99294E-003	0.00000E+000	5.96663E-003	3.59960E-001	-1.17567E+000	3.57660E+000	10	...........
	52	0.698333	9.99420E-001	5.99449E-003	0.00000E+000	5.99101E-003	3.59960E-001	-1.17302E+000	3.57660E+000	10	...........
STARTTIMEOFFSET	QUANT	1511.793	Start Time Offset (s)