File: Data/CV_CRGO300517_1/PWRCCD_CRGO300517_1/CHARGE_DISCHARGE/CHARGE_#383.DTA
EXPLAIN
TAG	PWR800_CHARGE
TITLE	LABEL	PWR Cyclic Charge Discharge (Cell) - Charge Step	Test &Identifier
DATE	LABEL	22-6-2017	Date
TIME	LABEL	15:51:18	Time
NOTES	NOTES	3	&Notes...
	supercap test cell
	0.6mg
	6M KOH
PSTAT	PSTAT	IFC5000-01520	Potentiostat
CAPACITY	QUANT	1.00000E-003	Capacity (A-hr)
CELLTYPE	SELECTOR	1	&Cell Type
WORKINGCONNECTION	SELECTOR	0	&Working Lead
MAXCHARGETIME	VARIABLEANDUNITS	1.00000E+002	s	1.00000E+002	second(s)	Max &Charge Time
CHARGECURRENT	QUANT	6.00000E-003	&Charge Current (A)
VOLTAGEFINISH	TWOPARAM	F	1.00000E-003	3.60000E+003	&Voltage Finish	 I (A) < 	Max Time(s)
SAMPLETIME	QUANT	1.00000E-002	Sa&mple Period (s)
CHARGESTOPAT1	MULTIPARAM	4	1.00000E+000	Charge Stop At &1	Voltage > Limit	V
CHARGESTOPAT2	MULTIPARAM	0	0.00000E+000	Charge Stop At &2	None	N/A
AESBHCSELECTOR	TOGGLE	F	Save Both Half Cells
IRCOMP	TOGGLE	F	IR &Measure
EOC	QUANT	0	Open Circuit (V)
SEQUENCER	TOGGLE	TRUE	Run as Sequence
PSTATMODEL	IQUANT	53	Pstat Model
PSTATSECTION	LABEL	IFC5000-01520	Pstat Section
PSTATSERIALNO	LABEL	01520	Pstat Serial Number
CTRLMODE	IQUANT	0	Control Mode
ELECTROMETER	IQUANT	1	RE=0 or CS=1
IESTAB	IQUANT	0	I/E Stability
CASPEED	IQUANT	4	Control Amp Speed
CONVENTION	IQUANT	1	Current Convention
ICHRANGE	IQUANT	2	Ich Range
ICHRANGEMODE	TOGGLE	T	Ich Auto Range
ICHOFFSETENABLE	TOGGLE	F	Ich Offset Enable
ICHOFFSET	QUANT	0	Ich Offset (V)
ICHFILTER	IQUANT	1	Ich Filter
VCHRANGE	IQUANT	2	Vch Range
VCHRANGEMODE	TOGGLE	T	Vch Auto Range
VCHOFFSETENABLE	TOGGLE	F	Vch Offset Enable
VCHOFFSET	QUANT	0	Vch Offset (V)
VCHFILTER	IQUANT	1	Vch Filter
IERANGELOWERLIMIT	IQUANT	9	I/E Range Lower Limit
IERANGEMODE	TOGGLE	F	I/E AutoRange
IERANGE	IQUANT	10	I/E Range
ACHSELECT	IQUANT	1	Ach Select
ACHRANGE	IQUANT	2	Ach Range
ACHOFFSETENABLE	TOGGLE	F	Ach Offset Enable
ACHOFFSET	QUANT	0	Ach Offset (V)
ACHFILTER	IQUANT	1	Ach Filter
CABLEID	IQUANT	14	Cable ID
DCCALDATE	LABEL	20-10-2016	DC Calibration Date
ACCALDATE	LABEL	12/3/2015	AC Calibration Date
FRAMEWORKVERSION	QUANT	7.01	Framework Version
INSTRUMENTVERSION	LABEL	4.00	Instrument Version
CURVE	TABLE	61
	Pt	T	Vf	Im	Vu	Pwr	Sig	Ach	Temp	IERange	Over
	#	s	V	A	V	W	V	V	deg C	#	bits
	0	0.013333	6.23777E-001	5.99482E-003	0.00000E+000	3.73944E-003	3.59960E-001	-1.12129E+000	3.57650E+000	10	...........
	1	0.026667	6.32467E-001	5.99197E-003	0.00000E+000	3.78972E-003	3.59960E-001	-1.13033E+000	3.57650E+000	10	...........
	2	0.04	6.40541E-001	5.99372E-003	0.00000E+000	3.83922E-003	3.59960E-001	-1.11953E+000	3.57650E+000	10	...........
	3	0.053333	6.48110E-001	5.99448E-003	0.00000E+000	3.88508E-003	3.59960E-001	-1.12138E+000	3.57650E+000	10	...........
	4	0.066667	6.55474E-001	5.99348E-003	0.00000E+000	3.92857E-003	3.59960E-001	-1.13028E+000	3.57650E+000	10	...........
	5	0.08	6.62599E-001	5.99720E-003	0.00000E+000	3.97374E-003	3.59960E-001	-1.11912E+000	3.57650E+000	10	...........
	6	0.093333	6.69638E-001	5.99221E-003	0.00000E+000	4.01261E-003	3.59960E-001	-1.12124E+000	3.57655E+000	10	...........
	7	0.106667	6.76506E-001	5.99545E-003	0.00000E+000	4.05596E-003	3.59960E-001	-1.13068E+000	3.57670E+000	10	...........
	8	0.12	6.83334E-001	5.99276E-003	0.00000E+000	4.09506E-003	3.59960E-001	-1.11949E+000	3.57670E+000	10	...........
	9	0.133333	6.90099E-001	5.99660E-003	0.00000E+000	4.13825E-003	3.59960E-001	-1.12130E+000	3.57670E+000	10	...........
	10	0.146667	6.96742E-001	5.99903E-003	0.00000E+000	4.17977E-003	3.59960E-001	-1.13053E+000	3.57670E+000	10	...........
	11	0.16	7.03327E-001	5.99292E-003	0.00000E+000	4.21498E-003	3.59960E-001	-1.11957E+000	3.57670E+000	10	...........
	12	0.173333	7.09942E-001	5.99275E-003	0.00000E+000	4.25450E-003	3.59960E-001	-1.12126E+000	3.57670E+000	10	...........
	13	0.186667	7.16495E-001	5.99464E-003	0.00000E+000	4.29513E-003	3.59960E-001	-1.13068E+000	3.57670E+000	10	...........
	14	0.2	7.23018E-001	5.99341E-003	0.00000E+000	4.33334E-003	3.59960E-001	-1.11936E+000	3.57670E+000	10	...........
	15	0.213333	7.29514E-001	5.99754E-003	0.00000E+000	4.37529E-003	3.59960E-001	-1.12044E+000	3.57670E+000	10	...........
	16	0.226667	7.35931E-001	5.99128E-003	0.00000E+000	4.40917E-003	3.59960E-001	-1.13056E+000	3.57670E+000	10	...........
	17	0.24	7.42406E-001	5.99653E-003	0.00000E+000	4.45186E-003	3.59960E-001	-1.11945E+000	3.57670E+000	10	...........
	18	0.253333	7.48839E-001	5.99621E-003	0.00000E+000	4.49019E-003	3.59960E-001	-1.12042E+000	3.57670E+000	10	...........
	19	0.266667	7.55251E-001	5.99568E-003	0.00000E+000	4.52824E-003	3.59960E-001	-1.13052E+000	3.57670E+000	10	...........
	20	0.28	7.61663E-001	5.99014E-003	0.00000E+000	4.56247E-003	3.59960E-001	-1.11945E+000	3.57670E+000	10	...........
	21	0.293333	7.68036E-001	5.98845E-003	0.00000E+000	4.59934E-003	3.59960E-001	-1.12040E+000	3.57670E+000	10	...........
	22	0.306667	7.74423E-001	5.99718E-003	0.00000E+000	4.64436E-003	3.59960E-001	-1.13078E+000	3.57670E+000	10	...........
	23	0.32	7.80775E-001	5.99231E-003	0.00000E+000	4.67865E-003	3.59960E-001	-1.11954E+000	3.57670E+000	10	...........
	24	0.333333	7.87117E-001	5.99530E-003	0.00000E+000	4.71900E-003	3.59960E-001	-1.12028E+000	3.57670E+000	10	...........
	25	0.346667	7.93461E-001	5.99489E-003	0.00000E+000	4.75671E-003	3.59960E-001	-1.13049E+000	3.57670E+000	10	...........
	26	0.36	7.99820E-001	5.99393E-003	0.00000E+000	4.79406E-003	3.59960E-001	-1.11957E+000	3.57670E+000	10	...........
	27	0.373333	8.06111E-001	5.99216E-003	0.00000E+000	4.83035E-003	3.59960E-001	-1.12045E+000	3.57670E+000	10	...........
	28	0.386667	8.12432E-001	5.99995E-003	0.00000E+000	4.87455E-003	3.59960E-001	-1.13088E+000	3.57670E+000	10	...........
	29	0.4	8.18733E-001	5.99318E-003	0.00000E+000	4.90681E-003	3.59960E-001	-1.11985E+000	3.57670E+000	10	...........
	30	0.413333	8.24972E-001	5.99171E-003	0.00000E+000	4.94299E-003	3.59960E-001	-1.12043E+000	3.57670E+000	10	...........
	31	0.426667	8.31229E-001	5.98836E-003	0.00000E+000	4.97770E-003	3.59960E-001	-1.13111E+000	3.57670E+000	10	...........
	32	0.44	8.37469E-001	5.99780E-003	0.00000E+000	5.02297E-003	3.59960E-001	-1.12018E+000	3.57670E+000	10	...........
	33	0.453333	8.43674E-001	5.99214E-003	0.00000E+000	5.05541E-003	3.59960E-001	-1.12060E+000	3.57670E+000	10	...........
	34	0.466667	8.49897E-001	5.99210E-003	0.00000E+000	5.09267E-003	3.59960E-001	-1.13123E+000	3.57670E+000	10	...........
	35	0.48	8.56066E-001	5.99376E-003	0.00000E+000	5.13105E-003	3.59960E-001	-1.12048E+000	3.57670E+000	10	...........
	36	0.493333	8.62267E-001	5.99345E-003	0.00000E+000	5.16795E-003	3.59960E-001	-1.12061E+000	3.57670E+000	10	...........
	37	0.506667	8.68464E-001	5.98813E-003	0.00000E+000	5.20047E-003	3.59960E-001	-1.13150E+000	3.57670E+000	10	...........
	38	0.52	8.74600E-001	5.99126E-003	0.00000E+000	5.23995E-003	3.59960E-001	-1.12051E+000	3.57670E+000	10	...........
	39	0.533333	8.80710E-001	5.99280E-003	0.00000E+000	5.27792E-003	3.59960E-001	-1.12030E+000	3.57670E+000	10	...........
	40	0.546667	8.86845E-001	5.99556E-003	0.00000E+000	5.31713E-003	3.59960E-001	-1.13122E+000	3.57670E+000	10	...........
	41	0.56	8.92926E-001	5.99398E-003	0.00000E+000	5.35218E-003	3.59960E-001	-1.12058E+000	3.57670E+000	10	...........
	42	0.573333	8.99000E-001	5.99465E-003	0.00000E+000	5.38919E-003	3.59960E-001	-1.12041E+000	3.57670E+000	10	...........
	43	0.586667	9.05034E-001	5.99793E-003	0.00000E+000	5.42833E-003	3.59960E-001	-1.13168E+000	3.57670E+000	10	...........
	44	0.6	9.11039E-001	5.99811E-003	0.00000E+000	5.46451E-003	3.59960E-001	-1.12079E+000	3.57670E+000	10	...........
	45	0.613333	9.17028E-001	5.99405E-003	0.00000E+000	5.49672E-003	3.59960E-001	-1.12040E+000	3.57670E+000	10	...........
	46	0.626667	9.23026E-001	5.99559E-003	0.00000E+000	5.53408E-003	3.59960E-001	-1.13156E+000	3.57670E+000	10	...........
	47	0.64	9.28919E-001	5.99472E-003	0.00000E+000	5.56861E-003	3.59960E-001	-1.12091E+000	3.57670E+000	10	...........
	48	0.653333	9.34841E-001	5.99521E-003	0.00000E+000	5.60457E-003	3.59960E-001	-1.12064E+000	3.57670E+000	10	...........
	49	0.666667	9.40681E-001	5.99241E-003	0.00000E+000	5.63695E-003	3.59960E-001	-1.13150E+000	3.57670E+000	10	...........
	50	0.68	9.46517E-001	5.99370E-003	0.00000E+000	5.67314E-003	3.59960E-001	-1.12087E+000	3.57670E+000	10	...........
	51	0.693333	9.52335E-001	5.99541E-003	0.00000E+000	5.70964E-003	3.59960E-001	-1.12026E+000	3.57670E+000	10	...........
	52	0.706667	9.58063E-001	5.99468E-003	0.00000E+000	5.74328E-003	3.59960E-001	-1.13157E+000	3.57670E+000	10	...........
	53	0.72	9.63757E-001	5.99574E-003	0.00000E+000	5.77844E-003	3.59960E-001	-1.12110E+000	3.57670E+000	10	...........
	54	0.733333	9.69406E-001	5.99211E-003	0.00000E+000	5.80879E-003	3.59960E-001	-1.12019E+000	3.57670E+000	10	...........
	55	0.746667	9.75051E-001	5.99157E-003	0.00000E+000	5.84209E-003	3.59960E-001	-1.13154E+000	3.57670E+000	10	...........
	56	0.76	9.80649E-001	5.99213E-003	0.00000E+000	5.87618E-003	3.59960E-001	-1.12136E+000	3.57670E+000	10	...........
	57	0.773333	9.86176E-001	5.99347E-003	0.00000E+000	5.91062E-003	3.59960E-001	-1.12040E+000	3.57670E+000	10	...........
	58	0.786667	9.91668E-001	5.99329E-003	0.00000E+000	5.94336E-003	3.59960E-001	-1.13178E+000	3.57670E+000	10	...........
	59	0.8	9.97158E-001	5.99193E-003	0.00000E+000	5.97491E-003	3.59960E-001	-1.12159E+000	3.57670E+000	10	...........
	60	0.801667	1.00019E+000	6.00789E-003	0.00000E+000	6.00906E-003	3.59960E-001	-1.13455E+000	3.57670E+000	10	...........
STARTTIMEOFFSET	QUANT	675.6216	Start Time Offset (s)