File: Data/CV_CRGO300517_1/PWRCCD_CRGO300517_1/CHARGE_DISCHARGE/CHARGE_#726.DTA
EXPLAIN
TAG	PWR800_CHARGE
TITLE	LABEL	PWR Cyclic Charge Discharge (Cell) - Charge Step	Test &Identifier
DATE	LABEL	22-6-2017	Date
TIME	LABEL	16:04:32	Time
NOTES	NOTES	3	&Notes...
	supercap test cell
	0.6mg
	6M KOH
PSTAT	PSTAT	IFC5000-01520	Potentiostat
CAPACITY	QUANT	1.00000E-003	Capacity (A-hr)
CELLTYPE	SELECTOR	1	&Cell Type
WORKINGCONNECTION	SELECTOR	0	&Working Lead
MAXCHARGETIME	VARIABLEANDUNITS	1.00000E+002	s	1.00000E+002	second(s)	Max &Charge Time
CHARGECURRENT	QUANT	6.00000E-003	&Charge Current (A)
VOLTAGEFINISH	TWOPARAM	F	1.00000E-003	3.60000E+003	&Voltage Finish	 I (A) < 	Max Time(s)
SAMPLETIME	QUANT	1.00000E-002	Sa&mple Period (s)
CHARGESTOPAT1	MULTIPARAM	4	1.00000E+000	Charge Stop At &1	Voltage > Limit	V
CHARGESTOPAT2	MULTIPARAM	0	0.00000E+000	Charge Stop At &2	None	N/A
AESBHCSELECTOR	TOGGLE	F	Save Both Half Cells
IRCOMP	TOGGLE	F	IR &Measure
EOC	QUANT	0	Open Circuit (V)
SEQUENCER	TOGGLE	TRUE	Run as Sequence
PSTATMODEL	IQUANT	53	Pstat Model
PSTATSECTION	LABEL	IFC5000-01520	Pstat Section
PSTATSERIALNO	LABEL	01520	Pstat Serial Number
CTRLMODE	IQUANT	0	Control Mode
ELECTROMETER	IQUANT	1	RE=0 or CS=1
IESTAB	IQUANT	0	I/E Stability
CASPEED	IQUANT	4	Control Amp Speed
CONVENTION	IQUANT	1	Current Convention
ICHRANGE	IQUANT	2	Ich Range
ICHRANGEMODE	TOGGLE	T	Ich Auto Range
ICHOFFSETENABLE	TOGGLE	F	Ich Offset Enable
ICHOFFSET	QUANT	0	Ich Offset (V)
ICHFILTER	IQUANT	1	Ich Filter
VCHRANGE	IQUANT	2	Vch Range
VCHRANGEMODE	TOGGLE	T	Vch Auto Range
VCHOFFSETENABLE	TOGGLE	F	Vch Offset Enable
VCHOFFSET	QUANT	0	Vch Offset (V)
VCHFILTER	IQUANT	1	Vch Filter
IERANGELOWERLIMIT	IQUANT	9	I/E Range Lower Limit
IERANGEMODE	TOGGLE	F	I/E AutoRange
IERANGE	IQUANT	10	I/E Range
ACHSELECT	IQUANT	1	Ach Select
ACHRANGE	IQUANT	2	Ach Range
ACHOFFSETENABLE	TOGGLE	F	Ach Offset Enable
ACHOFFSET	QUANT	0	Ach Offset (V)
ACHFILTER	IQUANT	1	Ach Filter
CABLEID	IQUANT	14	Cable ID
DCCALDATE	LABEL	20-10-2016	DC Calibration Date
ACCALDATE	LABEL	12/3/2015	AC Calibration Date
FRAMEWORKVERSION	QUANT	7.01	Framework Version
INSTRUMENTVERSION	LABEL	4.00	Instrument Version
CURVE	TABLE	55
	Pt	T	Vf	Im	Vu	Pwr	Sig	Ach	Temp	IERange	Over
	#	s	V	A	V	W	V	V	deg C	#	bits
	0	0.013333	6.44451E-001	5.99295E-003	0.00000E+000	3.86216E-003	3.59960E-001	-1.15474E+000	3.57640E+000	10	...........
	1	0.026667	6.53578E-001	5.99286E-003	0.00000E+000	3.91681E-003	3.59960E-001	-1.15752E+000	3.57640E+000	10	...........
	2	0.04	6.61958E-001	5.99417E-003	0.00000E+000	3.96789E-003	3.59960E-001	-1.16537E+000	3.57640E+000	10	...........
	3	0.053333	6.69922E-001	5.99401E-003	0.00000E+000	4.01552E-003	3.59960E-001	-1.15485E+000	3.57640E+000	10	...........
	4	0.066667	6.77596E-001	5.99441E-003	0.00000E+000	4.06179E-003	3.59960E-001	-1.15742E+000	3.57640E+000	10	...........
	5	0.08	6.85053E-001	5.99244E-003	0.00000E+000	4.10513E-003	3.59960E-001	-1.16518E+000	3.57640E+000	10	...........
	6	0.093333	6.92430E-001	5.99420E-003	0.00000E+000	4.15056E-003	3.59960E-001	-1.15475E+000	3.57640E+000	10	...........
	7	0.106667	6.99607E-001	5.99396E-003	0.00000E+000	4.19341E-003	3.59960E-001	-1.15765E+000	3.57640E+000	10	...........
	8	0.12	7.06732E-001	5.99078E-003	0.00000E+000	4.23387E-003	3.59960E-001	-1.16512E+000	3.57640E+000	10	...........
	9	0.133333	7.13761E-001	5.99508E-003	0.00000E+000	4.27906E-003	3.59960E-001	-1.15458E+000	3.57640E+000	10	...........
	10	0.146667	7.20778E-001	5.98921E-003	0.00000E+000	4.31689E-003	3.59960E-001	-1.15692E+000	3.57651E+000	10	...........
	11	0.16	7.27706E-001	5.99257E-003	0.00000E+000	4.36083E-003	3.59960E-001	-1.16459E+000	3.57660E+000	10	...........
	12	0.173333	7.34598E-001	5.98816E-003	0.00000E+000	4.39889E-003	3.59960E-001	-1.15434E+000	3.57660E+000	10	...........
	13	0.186667	7.41480E-001	5.99202E-003	0.00000E+000	4.44296E-003	3.59960E-001	-1.15731E+000	3.57660E+000	10	...........
	14	0.2	7.48300E-001	5.99491E-003	0.00000E+000	4.48599E-003	3.59960E-001	-1.16423E+000	3.57660E+000	10	...........
	15	0.213333	7.55085E-001	5.99948E-003	0.00000E+000	4.53011E-003	3.59960E-001	-1.15398E+000	3.57660E+000	10	...........
	16	0.226667	7.61851E-001	5.99633E-003	0.00000E+000	4.56831E-003	3.59960E-001	-1.15718E+000	3.57660E+000	10	...........
	17	0.24	7.68591E-001	5.98993E-003	0.00000E+000	4.60381E-003	3.59960E-001	-1.16441E+000	3.57660E+000	10	...........
	18	0.253333	7.75267E-001	5.99266E-003	0.00000E+000	4.64592E-003	3.59960E-001	-1.15400E+000	3.57660E+000	10	...........
	19	0.266667	7.81967E-001	5.99534E-003	0.00000E+000	4.68815E-003	3.59960E-001	-1.15711E+000	3.57660E+000	10	...........
	20	0.28	7.88620E-001	5.99456E-003	0.00000E+000	4.72743E-003	3.59960E-001	-1.16413E+000	3.57660E+000	10	...........
	21	0.293333	7.95300E-001	5.98962E-003	0.00000E+000	4.76354E-003	3.59960E-001	-1.15406E+000	3.57660E+000	10	...........
	22	0.306667	8.01911E-001	5.99393E-003	0.00000E+000	4.80659E-003	3.59960E-001	-1.15719E+000	3.57660E+000	10	...........
	23	0.32	8.08498E-001	5.99323E-003	0.00000E+000	4.84551E-003	3.59960E-001	-1.16410E+000	3.57660E+000	10	...........
	24	0.333333	8.15014E-001	5.98830E-003	0.00000E+000	4.88055E-003	3.59960E-001	-1.15375E+000	3.57660E+000	10	...........
	25	0.346667	8.21602E-001	5.99268E-003	0.00000E+000	4.92359E-003	3.59960E-001	-1.15717E+000	3.57660E+000	10	...........
	26	0.36	8.28150E-001	5.99518E-003	0.00000E+000	4.96491E-003	3.59960E-001	-1.16410E+000	3.57660E+000	10	...........
	27	0.373333	8.34643E-001	5.99332E-003	0.00000E+000	5.00228E-003	3.59960E-001	-1.15403E+000	3.57660E+000	10	...........
	28	0.386667	8.41137E-001	5.99022E-003	0.00000E+000	5.03860E-003	3.59960E-001	-1.15734E+000	3.57660E+000	10	...........
	29	0.4	8.47646E-001	5.99366E-003	0.00000E+000	5.08050E-003	3.59960E-001	-1.16402E+000	3.57660E+000	10	...........
	30	0.413333	8.54086E-001	5.99825E-003	0.00000E+000	5.12302E-003	3.59960E-001	-1.15392E+000	3.57660E+000	10	...........
	31	0.426667	8.60497E-001	5.99741E-003	0.00000E+000	5.16076E-003	3.59960E-001	-1.15735E+000	3.57660E+000	10	...........
	32	0.44	8.66856E-001	5.99331E-003	0.00000E+000	5.19534E-003	3.59960E-001	-1.16419E+000	3.57660E+000	10	...........
	33	0.453333	8.73271E-001	5.99073E-003	0.00000E+000	5.23153E-003	3.59960E-001	-1.15383E+000	3.57660E+000	10	...........
	34	0.466667	8.79574E-001	5.99292E-003	0.00000E+000	5.27122E-003	3.59960E-001	-1.15677E+000	3.57660E+000	10	...........
	35	0.48	8.85903E-001	5.99740E-003	0.00000E+000	5.31311E-003	3.59960E-001	-1.16359E+000	3.57660E+000	10	...........
	36	0.493333	8.92185E-001	5.99254E-003	0.00000E+000	5.34646E-003	3.59960E-001	-1.15364E+000	3.57660E+000	10	...........
	37	0.506667	8.98455E-001	5.99457E-003	0.00000E+000	5.38586E-003	3.59960E-001	-1.15727E+000	3.57660E+000	10	...........
	38	0.52	9.04650E-001	5.99293E-003	0.00000E+000	5.42150E-003	3.59960E-001	-1.16358E+000	3.57660E+000	10	...........
	39	0.533333	9.10837E-001	5.99434E-003	0.00000E+000	5.45987E-003	3.59960E-001	-1.15346E+000	3.57660E+000	10	...........
	40	0.546667	9.16971E-001	5.99132E-003	0.00000E+000	5.49386E-003	3.59960E-001	-1.15725E+000	3.57660E+000	10	...........
	41	0.56	9.23123E-001	5.99696E-003	0.00000E+000	5.53593E-003	3.59960E-001	-1.16368E+000	3.57660E+000	10	...........
	42	0.573333	9.29232E-001	5.99338E-003	0.00000E+000	5.56924E-003	3.59960E-001	-1.15373E+000	3.57660E+000	10	...........
	43	0.586667	9.35251E-001	5.99319E-003	0.00000E+000	5.60514E-003	3.59960E-001	-1.15749E+000	3.57660E+000	10	...........
	44	0.6	9.41240E-001	5.99478E-003	0.00000E+000	5.64253E-003	3.59960E-001	-1.16331E+000	3.57660E+000	10	...........
	45	0.613333	9.47194E-001	5.99738E-003	0.00000E+000	5.68068E-003	3.59960E-001	-1.15367E+000	3.57660E+000	10	...........
	46	0.626667	9.53075E-001	5.99188E-003	0.00000E+000	5.71072E-003	3.59960E-001	-1.15748E+000	3.57660E+000	10	...........
	47	0.64	9.58933E-001	5.99616E-003	0.00000E+000	5.74991E-003	3.59960E-001	-1.16350E+000	3.57660E+000	10	...........
	48	0.653333	9.64761E-001	5.99327E-003	0.00000E+000	5.78207E-003	3.59960E-001	-1.15362E+000	3.57660E+000	10	...........
	49	0.666667	9.70501E-001	5.99705E-003	0.00000E+000	5.82014E-003	3.59960E-001	-1.15745E+000	3.57660E+000	10	...........
	50	0.68	9.76279E-001	5.99513E-003	0.00000E+000	5.85292E-003	3.59960E-001	-1.16335E+000	3.57660E+000	10	...........
	51	0.693333	9.81948E-001	5.99293E-003	0.00000E+000	5.88474E-003	3.59960E-001	-1.15371E+000	3.57660E+000	10	...........
	52	0.706667	9.87564E-001	5.98950E-003	0.00000E+000	5.91502E-003	3.59960E-001	-1.15790E+000	3.57660E+000	10	...........
	53	0.72	9.93081E-001	5.99118E-003	0.00000E+000	5.94973E-003	3.59960E-001	-1.16337E+000	3.57660E+000	10	...........
	54	0.731667	9.98268E-001	5.99392E-003	0.00000E+000	5.98354E-003	3.59960E-001	-1.15183E+000	3.57660E+000	10	...........
STARTTIMEOFFSET	QUANT	1197.215	Start Time Offset (s)