File: Data/CV_CRGO300517_1/PWRCCD_CRGO300517_1/CHARGE_DISCHARGE/CHARGE_#46.DTA
EXPLAIN
TAG	PWR800_CHARGE
TITLE	LABEL	PWR Cyclic Charge Discharge (Cell) - Charge Step	Test &Identifier
DATE	LABEL	22-6-2017	Date
TIME	LABEL	15:37:05	Time
NOTES	NOTES	3	&Notes...
	supercap test cell
	0.6mg
	6M KOH
PSTAT	PSTAT	IFC5000-01520	Potentiostat
CAPACITY	QUANT	1.00000E-003	Capacity (A-hr)
CELLTYPE	SELECTOR	1	&Cell Type
WORKINGCONNECTION	SELECTOR	0	&Working Lead
MAXCHARGETIME	VARIABLEANDUNITS	1.00000E+002	s	1.00000E+002	second(s)	Max &Charge Time
CHARGECURRENT	QUANT	6.00000E-003	&Charge Current (A)
VOLTAGEFINISH	TWOPARAM	F	1.00000E-003	3.60000E+003	&Voltage Finish	 I (A) < 	Max Time(s)
SAMPLETIME	QUANT	1.00000E-002	Sa&mple Period (s)
CHARGESTOPAT1	MULTIPARAM	4	1.00000E+000	Charge Stop At &1	Voltage > Limit	V
CHARGESTOPAT2	MULTIPARAM	0	0.00000E+000	Charge Stop At &2	None	N/A
AESBHCSELECTOR	TOGGLE	F	Save Both Half Cells
IRCOMP	TOGGLE	F	IR &Measure
EOC	QUANT	0	Open Circuit (V)
SEQUENCER	TOGGLE	TRUE	Run as Sequence
PSTATMODEL	IQUANT	53	Pstat Model
PSTATSECTION	LABEL	IFC5000-01520	Pstat Section
PSTATSERIALNO	LABEL	01520	Pstat Serial Number
CTRLMODE	IQUANT	0	Control Mode
ELECTROMETER	IQUANT	1	RE=0 or CS=1
IESTAB	IQUANT	0	I/E Stability
CASPEED	IQUANT	4	Control Amp Speed
CONVENTION	IQUANT	1	Current Convention
ICHRANGE	IQUANT	2	Ich Range
ICHRANGEMODE	TOGGLE	T	Ich Auto Range
ICHOFFSETENABLE	TOGGLE	F	Ich Offset Enable
ICHOFFSET	QUANT	0	Ich Offset (V)
ICHFILTER	IQUANT	1	Ich Filter
VCHRANGE	IQUANT	2	Vch Range
VCHRANGEMODE	TOGGLE	T	Vch Auto Range
VCHOFFSETENABLE	TOGGLE	F	Vch Offset Enable
VCHOFFSET	QUANT	0	Vch Offset (V)
VCHFILTER	IQUANT	1	Vch Filter
IERANGELOWERLIMIT	IQUANT	9	I/E Range Lower Limit
IERANGEMODE	TOGGLE	F	I/E AutoRange
IERANGE	IQUANT	10	I/E Range
ACHSELECT	IQUANT	1	Ach Select
ACHRANGE	IQUANT	2	Ach Range
ACHOFFSETENABLE	TOGGLE	F	Ach Offset Enable
ACHOFFSET	QUANT	0	Ach Offset (V)
ACHFILTER	IQUANT	1	Ach Filter
CABLEID	IQUANT	14	Cable ID
DCCALDATE	LABEL	20-10-2016	DC Calibration Date
ACCALDATE	LABEL	12/3/2015	AC Calibration Date
FRAMEWORKVERSION	QUANT	7.01	Framework Version
INSTRUMENTVERSION	LABEL	4.00	Instrument Version
CURVE	TABLE	75
	Pt	T	Vf	Im	Vu	Pwr	Sig	Ach	Temp	IERange	Over
	#	s	V	A	V	W	V	V	deg C	#	bits
	0	0.013333	5.73037E-001	5.99341E-003	0.00000E+000	3.43445E-003	3.59960E-001	-1.03214E+000	3.57740E+000	10	...........
	1	0.026667	5.81045E-001	5.99353E-003	0.00000E+000	3.48251E-003	3.59960E-001	-1.03972E+000	3.57740E+000	10	...........
	2	0.04	5.88458E-001	5.99385E-003	0.00000E+000	3.52713E-003	3.59960E-001	-1.04114E+000	3.57740E+000	10	...........
	3	0.053333	5.95463E-001	5.98885E-003	0.00000E+000	3.56614E-003	3.59960E-001	-1.03196E+000	3.57740E+000	10	...........
	4	0.066667	6.02196E-001	5.99337E-003	0.00000E+000	3.60918E-003	3.59960E-001	-1.03939E+000	3.57740E+000	10	...........
	5	0.08	6.08697E-001	5.99685E-003	0.00000E+000	3.65026E-003	3.59960E-001	-1.04066E+000	3.57740E+000	10	...........
	6	0.093333	6.15132E-001	5.99079E-003	0.00000E+000	3.68512E-003	3.59960E-001	-1.03218E+000	3.57740E+000	10	...........
	7	0.106667	6.21447E-001	5.99755E-003	0.00000E+000	3.72715E-003	3.59960E-001	-1.03963E+000	3.57740E+000	10	...........
	8	0.12	6.27646E-001	5.99483E-003	0.00000E+000	3.76264E-003	3.59960E-001	-1.04080E+000	3.57740E+000	10	...........
	9	0.133333	6.33780E-001	5.99406E-003	0.00000E+000	3.79892E-003	3.59960E-001	-1.03179E+000	3.57740E+000	10	...........
	10	0.146667	6.39847E-001	5.99492E-003	0.00000E+000	3.83583E-003	3.59960E-001	-1.03916E+000	3.57740E+000	10	...........
	11	0.16	6.45892E-001	5.99521E-003	0.00000E+000	3.87226E-003	3.59960E-001	-1.04086E+000	3.57740E+000	10	...........
	12	0.173333	6.51835E-001	5.99022E-003	0.00000E+000	3.90464E-003	3.59960E-001	-1.03211E+000	3.57740E+000	10	...........
	13	0.186667	6.57812E-001	5.99266E-003	0.00000E+000	3.94205E-003	3.59960E-001	-1.03943E+000	3.57740E+000	10	...........
	14	0.2	6.63756E-001	5.99423E-003	0.00000E+000	3.97871E-003	3.59960E-001	-1.04064E+000	3.57740E+000	10	...........
	15	0.213333	6.69654E-001	5.99421E-003	0.00000E+000	4.01405E-003	3.59960E-001	-1.03191E+000	3.57740E+000	10	...........
	16	0.226667	6.75484E-001	5.99154E-003	0.00000E+000	4.04719E-003	3.59960E-001	-1.03961E+000	3.57740E+000	10	...........
	17	0.24	6.81357E-001	5.99354E-003	0.00000E+000	4.08374E-003	3.59960E-001	-1.04068E+000	3.57740E+000	10	...........
	18	0.253333	6.87130E-001	5.99175E-003	0.00000E+000	4.11711E-003	3.59960E-001	-1.03193E+000	3.57740E+000	10	...........
	19	0.266667	6.92982E-001	5.99346E-003	0.00000E+000	4.15336E-003	3.59960E-001	-1.03906E+000	3.57740E+000	10	...........
	20	0.28	6.98751E-001	5.99776E-003	0.00000E+000	4.19094E-003	3.59960E-001	-1.04019E+000	3.57740E+000	10	...........
	21	0.293333	7.04508E-001	5.99408E-003	0.00000E+000	4.22288E-003	3.59960E-001	-1.03161E+000	3.57740E+000	10	...........
	22	0.306667	7.10277E-001	5.99289E-003	0.00000E+000	4.25661E-003	3.59960E-001	-1.03926E+000	3.57740E+000	10	...........
	23	0.32	7.16063E-001	5.99158E-003	0.00000E+000	4.29035E-003	3.59960E-001	-1.03990E+000	3.57740E+000	10	...........
	24	0.333333	7.21842E-001	5.99534E-003	0.00000E+000	4.32769E-003	3.59960E-001	-1.03131E+000	3.57740E+000	10	...........
	25	0.346667	7.27582E-001	5.99187E-003	0.00000E+000	4.35958E-003	3.59960E-001	-1.03899E+000	3.57740E+000	10	...........
	26	0.36	7.33323E-001	5.99589E-003	0.00000E+000	4.39692E-003	3.59960E-001	-1.04002E+000	3.57740E+000	10	...........
	27	0.373333	7.39030E-001	5.99228E-003	0.00000E+000	4.42847E-003	3.59960E-001	-1.03155E+000	3.57740E+000	10	...........
	28	0.386667	7.44800E-001	5.99334E-003	0.00000E+000	4.46384E-003	3.59960E-001	-1.03905E+000	3.57740E+000	10	...........
	29	0.4	7.50537E-001	5.99329E-003	0.00000E+000	4.49819E-003	3.59960E-001	-1.03997E+000	3.57740E+000	10	...........
	30	0.413333	7.56274E-001	5.99460E-003	0.00000E+000	4.53356E-003	3.59960E-001	-1.03143E+000	3.57740E+000	10	...........
	31	0.426667	7.62000E-001	5.99506E-003	0.00000E+000	4.56824E-003	3.59960E-001	-1.03904E+000	3.57740E+000	10	...........
	32	0.44	7.67679E-001	5.99301E-003	0.00000E+000	4.60071E-003	3.59960E-001	-1.04010E+000	3.57740E+000	10	...........
	33	0.453333	7.73420E-001	5.99334E-003	0.00000E+000	4.63537E-003	3.59960E-001	-1.03126E+000	3.57740E+000	10	...........
	34	0.466667	7.79152E-001	5.99659E-003	0.00000E+000	4.67225E-003	3.59960E-001	-1.03892E+000	3.57740E+000	10	...........
	35	0.48	7.84909E-001	5.99480E-003	0.00000E+000	4.70538E-003	3.59960E-001	-1.04007E+000	3.57740E+000	10	...........
	36	0.493333	7.90597E-001	5.99580E-003	0.00000E+000	4.74026E-003	3.59960E-001	-1.03151E+000	3.57740E+000	10	...........
	37	0.506667	7.96326E-001	5.99101E-003	0.00000E+000	4.77080E-003	3.59960E-001	-1.03920E+000	3.57740E+000	10	...........
	38	0.52	8.02038E-001	5.99175E-003	0.00000E+000	4.80561E-003	3.59960E-001	-1.04008E+000	3.57740E+000	10	...........
	39	0.533333	8.07740E-001	5.99305E-003	0.00000E+000	4.84083E-003	3.59960E-001	-1.03122E+000	3.57740E+000	10	...........
	40	0.546667	8.13440E-001	5.99171E-003	0.00000E+000	4.87389E-003	3.59960E-001	-1.03886E+000	3.57740E+000	10	...........
	41	0.56	8.19166E-001	5.99185E-003	0.00000E+000	4.90832E-003	3.59960E-001	-1.03992E+000	3.57740E+000	10	...........
	42	0.573333	8.24872E-001	5.99162E-003	0.00000E+000	4.94232E-003	3.59960E-001	-1.03147E+000	3.57740E+000	10	...........
	43	0.586667	8.30596E-001	5.99452E-003	0.00000E+000	4.97903E-003	3.59960E-001	-1.03882E+000	3.57740E+000	10	...........
	44	0.6	8.36255E-001	5.99500E-003	0.00000E+000	5.01335E-003	3.59960E-001	-1.03938E+000	3.57740E+000	10	...........
	45	0.613333	8.41996E-001	5.99396E-003	0.00000E+000	5.04689E-003	3.59960E-001	-1.03077E+000	3.57740E+000	10	...........
	46	0.626667	8.47746E-001	5.99662E-003	0.00000E+000	5.08361E-003	3.59960E-001	-1.03875E+000	3.57740E+000	10	...........
	47	0.64	8.53461E-001	5.99592E-003	0.00000E+000	5.11728E-003	3.59960E-001	-1.03970E+000	3.57740E+000	10	...........
	48	0.653333	8.59104E-001	5.99518E-003	0.00000E+000	5.15048E-003	3.59960E-001	-1.03096E+000	3.57740E+000	10	...........
	49	0.666667	8.64798E-001	5.99579E-003	0.00000E+000	5.18515E-003	3.59960E-001	-1.03839E+000	3.57740E+000	10	...........
	50	0.68	8.70516E-001	5.99230E-003	0.00000E+000	5.21639E-003	3.59960E-001	-1.03935E+000	3.57740E+000	10	...........
	51	0.693333	8.76239E-001	5.99565E-003	0.00000E+000	5.25362E-003	3.59960E-001	-1.03107E+000	3.57740E+000	10	...........
	52	0.706667	8.81889E-001	5.99540E-003	0.00000E+000	5.28728E-003	3.59960E-001	-1.03876E+000	3.57740E+000	10	...........
	53	0.72	8.87581E-001	5.99343E-003	0.00000E+000	5.31965E-003	3.59960E-001	-1.03932E+000	3.57740E+000	10	...........
	54	0.733333	8.93224E-001	5.99532E-003	0.00000E+000	5.35517E-003	3.59960E-001	-1.03084E+000	3.57800E+000	10	...........
	55	0.746667	8.98882E-001	5.98994E-003	0.00000E+000	5.38425E-003	3.59960E-001	-1.03863E+000	3.57860E+000	10	...........
	56	0.76	9.04516E-001	5.99155E-003	0.00000E+000	5.41945E-003	3.59960E-001	-1.03940E+000	3.57860E+000	10	...........
	57	0.773333	9.10158E-001	5.99127E-003	0.00000E+000	5.45300E-003	3.59960E-001	-1.03093E+000	3.57860E+000	10	...........
	58	0.786667	9.15769E-001	5.99584E-003	0.00000E+000	5.49080E-003	3.59960E-001	-1.03867E+000	3.57860E+000	10	...........
	59	0.8	9.21424E-001	5.99402E-003	0.00000E+000	5.52303E-003	3.59960E-001	-1.03909E+000	3.57860E+000	10	...........
	60	0.813333	9.26987E-001	5.99514E-003	0.00000E+000	5.55741E-003	3.59960E-001	-1.03096E+000	3.57860E+000	10	...........
	61	0.826667	9.32535E-001	5.99614E-003	0.00000E+000	5.59161E-003	3.59960E-001	-1.03880E+000	3.57860E+000	10	...........
	62	0.84	9.38049E-001	5.99061E-003	0.00000E+000	5.61948E-003	3.59960E-001	-1.03951E+000	3.57860E+000	10	...........
	63	0.853333	9.43596E-001	5.99489E-003	0.00000E+000	5.65675E-003	3.59960E-001	-1.03101E+000	3.57860E+000	10	...........
	64	0.866667	9.49121E-001	5.99196E-003	0.00000E+000	5.68709E-003	3.59960E-001	-1.03854E+000	3.57860E+000	10	...........
	65	0.88	9.54577E-001	5.98931E-003	0.00000E+000	5.71726E-003	3.59960E-001	-1.03954E+000	3.57860E+000	10	...........
	66	0.893333	9.60022E-001	5.99512E-003	0.00000E+000	5.75544E-003	3.59960E-001	-1.03091E+000	3.57860E+000	10	...........
	67	0.906667	9.65470E-001	5.99503E-003	0.00000E+000	5.78802E-003	3.59960E-001	-1.03852E+000	3.57860E+000	10	...........
	68	0.92	9.70902E-001	5.98934E-003	0.00000E+000	5.81506E-003	3.59960E-001	-1.03902E+000	3.57860E+000	10	...........
	69	0.933333	9.76369E-001	5.99296E-003	0.00000E+000	5.85134E-003	3.59960E-001	-1.03049E+000	3.57860E+000	10	...........
	70	0.946667	9.81726E-001	5.99225E-003	0.00000E+000	5.88275E-003	3.59960E-001	-1.03847E+000	3.57860E+000	10	...........
	71	0.96	9.87052E-001	5.99529E-003	0.00000E+000	5.91766E-003	3.59960E-001	-1.03894E+000	3.57860E+000	10	...........
	72	0.97333	9.92370E-001	5.99514E-003	0.00000E+000	5.94939E-003	3.59960E-001	-1.03071E+000	3.57860E+000	10	...........
	73	0.98667	9.97632E-001	5.99216E-003	0.00000E+000	5.97797E-003	3.59960E-001	-1.03839E+000	3.57860E+000	10	...........
	74	0.98833	1.00060E+000	5.99696E-003	0.00000E+000	6.00059E-003	3.59960E-001	-1.01645E+000	3.57860E+000	10	...........
STARTTIMEOFFSET	QUANT	92.715	Start Time Offset (s)