File: Data/CV_CRGO300517_1/PWRCCD_CRGO300517_1/CHARGE_DISCHARGE/CHARGE_#719.DTA
EXPLAIN
TAG	PWR800_CHARGE
TITLE	LABEL	PWR Cyclic Charge Discharge (Cell) - Charge Step	Test &Identifier
DATE	LABEL	22-6-2017	Date
TIME	LABEL	16:04:16	Time
NOTES	NOTES	3	&Notes...
	supercap test cell
	0.6mg
	6M KOH
PSTAT	PSTAT	IFC5000-01520	Potentiostat
CAPACITY	QUANT	1.00000E-003	Capacity (A-hr)
CELLTYPE	SELECTOR	1	&Cell Type
WORKINGCONNECTION	SELECTOR	0	&Working Lead
MAXCHARGETIME	VARIABLEANDUNITS	1.00000E+002	s	1.00000E+002	second(s)	Max &Charge Time
CHARGECURRENT	QUANT	6.00000E-003	&Charge Current (A)
VOLTAGEFINISH	TWOPARAM	F	1.00000E-003	3.60000E+003	&Voltage Finish	 I (A) < 	Max Time(s)
SAMPLETIME	QUANT	1.00000E-002	Sa&mple Period (s)
CHARGESTOPAT1	MULTIPARAM	4	1.00000E+000	Charge Stop At &1	Voltage > Limit	V
CHARGESTOPAT2	MULTIPARAM	0	0.00000E+000	Charge Stop At &2	None	N/A
AESBHCSELECTOR	TOGGLE	F	Save Both Half Cells
IRCOMP	TOGGLE	F	IR &Measure
EOC	QUANT	0	Open Circuit (V)
SEQUENCER	TOGGLE	TRUE	Run as Sequence
PSTATMODEL	IQUANT	53	Pstat Model
PSTATSECTION	LABEL	IFC5000-01520	Pstat Section
PSTATSERIALNO	LABEL	01520	Pstat Serial Number
CTRLMODE	IQUANT	0	Control Mode
ELECTROMETER	IQUANT	1	RE=0 or CS=1
IESTAB	IQUANT	0	I/E Stability
CASPEED	IQUANT	4	Control Amp Speed
CONVENTION	IQUANT	1	Current Convention
ICHRANGE	IQUANT	2	Ich Range
ICHRANGEMODE	TOGGLE	T	Ich Auto Range
ICHOFFSETENABLE	TOGGLE	F	Ich Offset Enable
ICHOFFSET	QUANT	0	Ich Offset (V)
ICHFILTER	IQUANT	1	Ich Filter
VCHRANGE	IQUANT	2	Vch Range
VCHRANGEMODE	TOGGLE	T	Vch Auto Range
VCHOFFSETENABLE	TOGGLE	F	Vch Offset Enable
VCHOFFSET	QUANT	0	Vch Offset (V)
VCHFILTER	IQUANT	1	Vch Filter
IERANGELOWERLIMIT	IQUANT	9	I/E Range Lower Limit
IERANGEMODE	TOGGLE	F	I/E AutoRange
IERANGE	IQUANT	10	I/E Range
ACHSELECT	IQUANT	1	Ach Select
ACHRANGE	IQUANT	2	Ach Range
ACHOFFSETENABLE	TOGGLE	F	Ach Offset Enable
ACHOFFSET	QUANT	0	Ach Offset (V)
ACHFILTER	IQUANT	1	Ach Filter
CABLEID	IQUANT	14	Cable ID
DCCALDATE	LABEL	20-10-2016	DC Calibration Date
ACCALDATE	LABEL	12/3/2015	AC Calibration Date
FRAMEWORKVERSION	QUANT	7.01	Framework Version
INSTRUMENTVERSION	LABEL	4.00	Instrument Version
CURVE	TABLE	55
	Pt	T	Vf	Im	Vu	Pwr	Sig	Ach	Temp	IERange	Over
	#	s	V	A	V	W	V	V	deg C	#	bits
	0	0.013333	6.44025E-001	5.99336E-003	0.00000E+000	3.85988E-003	3.59960E-001	-1.15404E+000	3.57780E+000	10	...........
	1	0.026667	6.53123E-001	5.99489E-003	0.00000E+000	3.91540E-003	3.59960E-001	-1.16080E+000	3.57780E+000	10	...........
	2	0.04	6.61518E-001	5.99087E-003	0.00000E+000	3.96307E-003	3.59960E-001	-1.16154E+000	3.57780E+000	10	...........
	3	0.053333	6.69526E-001	5.99224E-003	0.00000E+000	4.01196E-003	3.59960E-001	-1.15406E+000	3.57780E+000	10	...........
	4	0.066667	6.77181E-001	5.99127E-003	0.00000E+000	4.05717E-003	3.59960E-001	-1.16090E+000	3.57780E+000	10	...........
	5	0.08	6.84671E-001	5.98974E-003	0.00000E+000	4.10101E-003	3.59960E-001	-1.16108E+000	3.57780E+000	10	...........
	6	0.093333	6.91999E-001	5.99236E-003	0.00000E+000	4.14671E-003	3.59960E-001	-1.15337E+000	3.57780E+000	10	...........
	7	0.106667	6.99180E-001	5.99468E-003	0.00000E+000	4.19136E-003	3.59960E-001	-1.16032E+000	3.57780E+000	10	...........
	8	0.12	7.06275E-001	5.99826E-003	0.00000E+000	4.23642E-003	3.59960E-001	-1.16097E+000	3.57780E+000	10	...........
	9	0.133333	7.13308E-001	5.98798E-003	0.00000E+000	4.27127E-003	3.59960E-001	-1.15336E+000	3.57780E+000	10	...........
	10	0.146667	7.20333E-001	5.99450E-003	0.00000E+000	4.31804E-003	3.59960E-001	-1.16030E+000	3.57780E+000	10	...........
	11	0.16	7.27263E-001	5.99208E-003	0.00000E+000	4.35782E-003	3.59960E-001	-1.16048E+000	3.57780E+000	10	...........
	12	0.173333	7.34123E-001	5.99360E-003	0.00000E+000	4.40004E-003	3.59960E-001	-1.15293E+000	3.57780E+000	10	...........
	13	0.186667	7.40964E-001	5.99256E-003	0.00000E+000	4.44027E-003	3.59960E-001	-1.16043E+000	3.57780E+000	10	...........
	14	0.2	7.47786E-001	5.99356E-003	0.00000E+000	4.48190E-003	3.59960E-001	-1.16061E+000	3.57780E+000	10	...........
	15	0.213333	7.54559E-001	5.99728E-003	0.00000E+000	4.52530E-003	3.59960E-001	-1.15305E+000	3.57780E+000	10	...........
	16	0.226667	7.61284E-001	5.99443E-003	0.00000E+000	4.56346E-003	3.59960E-001	-1.16007E+000	3.57780E+000	10	...........
	17	0.24	7.68033E-001	5.99231E-003	0.00000E+000	4.60229E-003	3.59960E-001	-1.16029E+000	3.57780E+000	10	...........
	18	0.253333	7.74763E-001	5.99331E-003	0.00000E+000	4.64340E-003	3.59960E-001	-1.15285E+000	3.57780E+000	10	...........
	19	0.266667	7.81456E-001	5.99337E-003	0.00000E+000	4.68356E-003	3.59960E-001	-1.16021E+000	3.57780E+000	10	...........
	20	0.28	7.88119E-001	5.99307E-003	0.00000E+000	4.72326E-003	3.59960E-001	-1.16025E+000	3.57780E+000	10	...........
	21	0.293333	7.94762E-001	5.98998E-003	0.00000E+000	4.76061E-003	3.59960E-001	-1.15269E+000	3.57780E+000	10	...........
	22	0.306667	8.01378E-001	5.99438E-003	0.00000E+000	4.80376E-003	3.59960E-001	-1.15997E+000	3.57780E+000	10	...........
	23	0.32	8.07937E-001	5.99427E-003	0.00000E+000	4.84299E-003	3.59960E-001	-1.16041E+000	3.57780E+000	10	...........
	24	0.333333	8.14498E-001	5.99460E-003	0.00000E+000	4.88259E-003	3.59960E-001	-1.15302E+000	3.57780E+000	10	...........
	25	0.346667	8.21050E-001	5.99596E-003	0.00000E+000	4.92299E-003	3.59960E-001	-1.16020E+000	3.57780E+000	10	...........
	26	0.36	8.27563E-001	5.99329E-003	0.00000E+000	4.95982E-003	3.59960E-001	-1.16020E+000	3.57780E+000	10	...........
	27	0.373333	8.34020E-001	5.99373E-003	0.00000E+000	4.99889E-003	3.59960E-001	-1.15276E+000	3.57780E+000	10	...........
	28	0.386667	8.40528E-001	5.99580E-003	0.00000E+000	5.03964E-003	3.59960E-001	-1.15997E+000	3.57780E+000	10	...........
	29	0.4	8.47010E-001	5.99485E-003	0.00000E+000	5.07769E-003	3.59960E-001	-1.16008E+000	3.57780E+000	10	...........
	30	0.413333	8.53467E-001	5.99312E-003	0.00000E+000	5.11494E-003	3.59960E-001	-1.15237E+000	3.57780E+000	10	...........
	31	0.426667	8.59901E-001	5.99507E-003	0.00000E+000	5.15517E-003	3.59960E-001	-1.15978E+000	3.57780E+000	10	...........
	32	0.44	8.66263E-001	5.99265E-003	0.00000E+000	5.19122E-003	3.59960E-001	-1.15990E+000	3.57780E+000	10	...........
	33	0.453333	8.72686E-001	5.99183E-003	0.00000E+000	5.22898E-003	3.59960E-001	-1.15241E+000	3.57780E+000	10	...........
	34	0.466667	8.78985E-001	5.99428E-003	0.00000E+000	5.26889E-003	3.59960E-001	-1.16004E+000	3.57780E+000	10	...........
	35	0.48	8.85320E-001	5.99564E-003	0.00000E+000	5.30806E-003	3.59960E-001	-1.15976E+000	3.57780E+000	10	...........
	36	0.493333	8.91598E-001	5.99605E-003	0.00000E+000	5.34607E-003	3.59960E-001	-1.15209E+000	3.57780E+000	10	...........
	37	0.506667	8.97855E-001	5.99082E-003	0.00000E+000	5.37889E-003	3.59960E-001	-1.15972E+000	3.57780E+000	10	...........
	38	0.52	9.04059E-001	5.99439E-003	0.00000E+000	5.41928E-003	3.59960E-001	-1.15983E+000	3.57780E+000	10	...........
	39	0.533333	9.10261E-001	5.99380E-003	0.00000E+000	5.45592E-003	3.59960E-001	-1.15237E+000	3.57780E+000	10	...........
	40	0.546667	9.16423E-001	5.99594E-003	0.00000E+000	5.49482E-003	3.59960E-001	-1.15987E+000	3.57780E+000	10	...........
	41	0.56	9.22550E-001	5.99733E-003	0.00000E+000	5.53284E-003	3.59960E-001	-1.15932E+000	3.57780E+000	10	...........
	42	0.573333	9.28609E-001	5.99250E-003	0.00000E+000	5.56469E-003	3.59960E-001	-1.15203E+000	3.57780E+000	10	...........
	43	0.586667	9.34626E-001	5.99621E-003	0.00000E+000	5.60422E-003	3.59960E-001	-1.15972E+000	3.57780E+000	10	...........
	44	0.6	9.40603E-001	5.99317E-003	0.00000E+000	5.63719E-003	3.59960E-001	-1.15951E+000	3.57780E+000	10	...........
	45	0.613333	9.46570E-001	5.99376E-003	0.00000E+000	5.67352E-003	3.59960E-001	-1.15224E+000	3.57780E+000	10	...........
	46	0.626667	9.52476E-001	5.99537E-003	0.00000E+000	5.71044E-003	3.59960E-001	-1.15960E+000	3.57780E+000	10	...........
	47	0.64	9.58319E-001	5.99501E-003	0.00000E+000	5.74513E-003	3.59960E-001	-1.15935E+000	3.57780E+000	10	...........
	48	0.653333	9.64128E-001	5.99664E-003	0.00000E+000	5.78153E-003	3.59960E-001	-1.15246E+000	3.57780E+000	10	...........
	49	0.666667	9.69922E-001	5.99103E-003	0.00000E+000	5.81083E-003	3.59960E-001	-1.16007E+000	3.57780E+000	10	...........
	50	0.68	9.75702E-001	5.99474E-003	0.00000E+000	5.84908E-003	3.59960E-001	-1.15955E+000	3.57780E+000	10	...........
	51	0.693333	9.81353E-001	5.99261E-003	0.00000E+000	5.88087E-003	3.59960E-001	-1.15227E+000	3.57780E+000	10	...........
	52	0.706667	9.86950E-001	5.99172E-003	0.00000E+000	5.91353E-003	3.59960E-001	-1.15977E+000	3.57780E+000	10	...........
	53	0.72	9.92531E-001	5.99083E-003	0.00000E+000	5.94608E-003	3.59960E-001	-1.15953E+000	3.57780E+000	10	...........
	54	0.733333	9.98035E-001	5.99374E-003	0.00000E+000	5.98196E-003	3.59960E-001	-1.15188E+000	3.57780E+000	10	...........
STARTTIMEOFFSET	QUANT	1187.01	Start Time Offset (s)