File: Data/CV_CRGO300517_1/PWRCCD_CRGO300517_1/CHARGE_DISCHARGE/CHARGE_#560.DTA
EXPLAIN
TAG	PWR800_CHARGE
TITLE	LABEL	PWR Cyclic Charge Discharge (Cell) - Charge Step	Test &Identifier
DATE	LABEL	22-6-2017	Date
TIME	LABEL	15:58:14	Time
NOTES	NOTES	3	&Notes...
	supercap test cell
	0.6mg
	6M KOH
PSTAT	PSTAT	IFC5000-01520	Potentiostat
CAPACITY	QUANT	1.00000E-003	Capacity (A-hr)
CELLTYPE	SELECTOR	1	&Cell Type
WORKINGCONNECTION	SELECTOR	0	&Working Lead
MAXCHARGETIME	VARIABLEANDUNITS	1.00000E+002	s	1.00000E+002	second(s)	Max &Charge Time
CHARGECURRENT	QUANT	6.00000E-003	&Charge Current (A)
VOLTAGEFINISH	TWOPARAM	F	1.00000E-003	3.60000E+003	&Voltage Finish	 I (A) < 	Max Time(s)
SAMPLETIME	QUANT	1.00000E-002	Sa&mple Period (s)
CHARGESTOPAT1	MULTIPARAM	4	1.00000E+000	Charge Stop At &1	Voltage > Limit	V
CHARGESTOPAT2	MULTIPARAM	0	0.00000E+000	Charge Stop At &2	None	N/A
AESBHCSELECTOR	TOGGLE	F	Save Both Half Cells
IRCOMP	TOGGLE	F	IR &Measure
EOC	QUANT	0	Open Circuit (V)
SEQUENCER	TOGGLE	TRUE	Run as Sequence
PSTATMODEL	IQUANT	53	Pstat Model
PSTATSECTION	LABEL	IFC5000-01520	Pstat Section
PSTATSERIALNO	LABEL	01520	Pstat Serial Number
CTRLMODE	IQUANT	0	Control Mode
ELECTROMETER	IQUANT	1	RE=0 or CS=1
IESTAB	IQUANT	0	I/E Stability
CASPEED	IQUANT	4	Control Amp Speed
CONVENTION	IQUANT	1	Current Convention
ICHRANGE	IQUANT	2	Ich Range
ICHRANGEMODE	TOGGLE	T	Ich Auto Range
ICHOFFSETENABLE	TOGGLE	F	Ich Offset Enable
ICHOFFSET	QUANT	0	Ich Offset (V)
ICHFILTER	IQUANT	1	Ich Filter
VCHRANGE	IQUANT	2	Vch Range
VCHRANGEMODE	TOGGLE	T	Vch Auto Range
VCHOFFSETENABLE	TOGGLE	F	Vch Offset Enable
VCHOFFSET	QUANT	0	Vch Offset (V)
VCHFILTER	IQUANT	1	Vch Filter
IERANGELOWERLIMIT	IQUANT	9	I/E Range Lower Limit
IERANGEMODE	TOGGLE	F	I/E AutoRange
IERANGE	IQUANT	10	I/E Range
ACHSELECT	IQUANT	1	Ach Select
ACHRANGE	IQUANT	2	Ach Range
ACHOFFSETENABLE	TOGGLE	F	Ach Offset Enable
ACHOFFSET	QUANT	0	Ach Offset (V)
ACHFILTER	IQUANT	1	Ach Filter
CABLEID	IQUANT	14	Cable ID
DCCALDATE	LABEL	20-10-2016	DC Calibration Date
ACCALDATE	LABEL	12/3/2015	AC Calibration Date
FRAMEWORKVERSION	QUANT	7.01	Framework Version
INSTRUMENTVERSION	LABEL	4.00	Instrument Version
CURVE	TABLE	58
	Pt	T	Vf	Im	Vu	Pwr	Sig	Ach	Temp	IERange	Over
	#	s	V	A	V	W	V	V	deg C	#	bits
	0	0.013333	6.35512E-001	5.99542E-003	0.00000E+000	3.81016E-003	3.59960E-001	-1.14534E+000	3.57780E+000	10	...........
	1	0.026667	6.44475E-001	5.99752E-003	0.00000E+000	3.86525E-003	3.59960E-001	-1.13756E+000	3.57780E+000	10	...........
	2	0.04	6.52741E-001	5.99002E-003	0.00000E+000	3.90993E-003	3.59960E-001	-1.14427E+000	3.57780E+000	10	...........
	3	0.053333	6.60535E-001	5.99225E-003	0.00000E+000	3.95809E-003	3.59960E-001	-1.14535E+000	3.57780E+000	10	...........
	4	0.066667	6.68081E-001	5.99376E-003	0.00000E+000	4.00432E-003	3.59960E-001	-1.13755E+000	3.57780E+000	10	...........
	5	0.08	6.75430E-001	5.99237E-003	0.00000E+000	4.04743E-003	3.59960E-001	-1.14415E+000	3.57780E+000	10	...........
	6	0.093333	6.82597E-001	5.99518E-003	0.00000E+000	4.09229E-003	3.59960E-001	-1.14537E+000	3.57780E+000	10	...........
	7	0.106667	6.89672E-001	6.00243E-003	0.00000E+000	4.13971E-003	3.59960E-001	-1.13767E+000	3.57780E+000	10	...........
	8	0.12	6.96673E-001	5.99573E-003	0.00000E+000	4.17706E-003	3.59960E-001	-1.14404E+000	3.57780E+000	10	...........
	9	0.133333	7.03586E-001	5.99326E-003	0.00000E+000	4.21677E-003	3.59960E-001	-1.14513E+000	3.57780E+000	10	...........
	10	0.146667	7.10418E-001	5.99415E-003	0.00000E+000	4.25835E-003	3.59960E-001	-1.13712E+000	3.57780E+000	10	...........
	11	0.16	7.17208E-001	5.99604E-003	0.00000E+000	4.30041E-003	3.59960E-001	-1.14375E+000	3.57780E+000	10	...........
	12	0.173333	7.24001E-001	5.99254E-003	0.00000E+000	4.33860E-003	3.59960E-001	-1.14484E+000	3.57780E+000	10	...........
	13	0.186667	7.30693E-001	5.99425E-003	0.00000E+000	4.37996E-003	3.59960E-001	-1.13699E+000	3.57780E+000	10	...........
	14	0.2	7.37382E-001	5.99149E-003	0.00000E+000	4.41801E-003	3.59960E-001	-1.14357E+000	3.57780E+000	10	...........
	15	0.213333	7.44064E-001	5.99351E-003	0.00000E+000	4.45956E-003	3.59960E-001	-1.14494E+000	3.57780E+000	10	...........
	16	0.226667	7.50689E-001	5.99417E-003	0.00000E+000	4.49976E-003	3.59960E-001	-1.13732E+000	3.57780E+000	10	...........
	17	0.24	7.57285E-001	5.98994E-003	0.00000E+000	4.53610E-003	3.59960E-001	-1.14370E+000	3.57780E+000	10	...........
	18	0.253333	7.63860E-001	5.99545E-003	0.00000E+000	4.57969E-003	3.59960E-001	-1.14473E+000	3.57780E+000	10	...........
	19	0.266667	7.70434E-001	5.99623E-003	0.00000E+000	4.61970E-003	3.59960E-001	-1.13685E+000	3.57780E+000	10	...........
	20	0.28	7.77008E-001	5.99427E-003	0.00000E+000	4.65760E-003	3.59960E-001	-1.14363E+000	3.57780E+000	10	...........
	21	0.293333	7.83543E-001	5.99363E-003	0.00000E+000	4.69627E-003	3.59960E-001	-1.14485E+000	3.57780E+000	10	...........
	22	0.306667	7.90093E-001	5.99044E-003	0.00000E+000	4.73301E-003	3.59960E-001	-1.13701E+000	3.57780E+000	10	...........
	23	0.32	7.96589E-001	5.98882E-003	0.00000E+000	4.77062E-003	3.59960E-001	-1.14350E+000	3.57780E+000	10	...........
	24	0.333333	8.03034E-001	5.99524E-003	0.00000E+000	4.81438E-003	3.59960E-001	-1.14455E+000	3.57780E+000	10	...........
	25	0.346667	8.09495E-001	5.99889E-003	0.00000E+000	4.85607E-003	3.59960E-001	-1.13689E+000	3.57780E+000	10	...........
	26	0.36	8.15911E-001	5.99301E-003	0.00000E+000	4.88976E-003	3.59960E-001	-1.14362E+000	3.57780E+000	10	...........
	27	0.373333	8.22360E-001	5.99179E-003	0.00000E+000	4.92740E-003	3.59960E-001	-1.14461E+000	3.57780E+000	10	...........
	28	0.386667	8.28762E-001	5.99378E-003	0.00000E+000	4.96742E-003	3.59960E-001	-1.13689E+000	3.57780E+000	10	...........
	29	0.4	8.35174E-001	5.99269E-003	0.00000E+000	5.00494E-003	3.59960E-001	-1.14336E+000	3.57780E+000	10	...........
	30	0.413333	8.41570E-001	5.98815E-003	0.00000E+000	5.03945E-003	3.59960E-001	-1.14432E+000	3.57780E+000	10	...........
	31	0.426667	8.47987E-001	5.99791E-003	0.00000E+000	5.08615E-003	3.59960E-001	-1.13692E+000	3.57780E+000	10	...........
	32	0.44	8.54288E-001	5.99970E-003	0.00000E+000	5.12546E-003	3.59960E-001	-1.14361E+000	3.57780E+000	10	...........
	33	0.453333	8.60576E-001	5.99588E-003	0.00000E+000	5.15991E-003	3.59960E-001	-1.14461E+000	3.57780E+000	10	...........
	34	0.466667	8.66912E-001	5.99368E-003	0.00000E+000	5.19599E-003	3.59960E-001	-1.13643E+000	3.57780E+000	10	...........
	35	0.48	8.73176E-001	5.99087E-003	0.00000E+000	5.23108E-003	3.59960E-001	-1.14314E+000	3.57780E+000	10	...........
	36	0.493333	8.79414E-001	5.99480E-003	0.00000E+000	5.27192E-003	3.59960E-001	-1.14428E+000	3.57780E+000	10	...........
	37	0.506667	8.85658E-001	5.99741E-003	0.00000E+000	5.31165E-003	3.59960E-001	-1.13646E+000	3.57780E+000	10	...........
	38	0.52	8.91818E-001	5.99010E-003	0.00000E+000	5.34208E-003	3.59960E-001	-1.14304E+000	3.57780E+000	10	...........
	39	0.533333	8.98024E-001	5.99298E-003	0.00000E+000	5.38184E-003	3.59960E-001	-1.14404E+000	3.57780E+000	10	...........
	40	0.546667	9.04174E-001	5.99488E-003	0.00000E+000	5.42041E-003	3.59960E-001	-1.13628E+000	3.57780E+000	10	...........
	41	0.56	9.10317E-001	5.99405E-003	0.00000E+000	5.45649E-003	3.59960E-001	-1.14297E+000	3.57780E+000	10	...........
	42	0.573333	9.16328E-001	5.99179E-003	0.00000E+000	5.49044E-003	3.59960E-001	-1.14409E+000	3.57780E+000	10	...........
	43	0.586667	9.22418E-001	5.99540E-003	0.00000E+000	5.53026E-003	3.59960E-001	-1.13634E+000	3.57780E+000	10	...........
	44	0.6	9.28434E-001	5.99426E-003	0.00000E+000	5.56527E-003	3.59960E-001	-1.14285E+000	3.57780E+000	10	...........
	45	0.613333	9.34405E-001	5.99316E-003	0.00000E+000	5.60003E-003	3.59960E-001	-1.14380E+000	3.57780E+000	10	...........
	46	0.626667	9.40362E-001	5.99215E-003	0.00000E+000	5.63479E-003	3.59960E-001	-1.13633E+000	3.57780E+000	10	...........
	47	0.64	9.46259E-001	5.99674E-003	0.00000E+000	5.67447E-003	3.59960E-001	-1.14287E+000	3.57780E+000	10	...........
	48	0.653333	9.52144E-001	5.99226E-003	0.00000E+000	5.70549E-003	3.59960E-001	-1.14373E+000	3.57780E+000	10	...........
	49	0.666667	9.57931E-001	5.99486E-003	0.00000E+000	5.74266E-003	3.59960E-001	-1.13611E+000	3.57780E+000	10	...........
	50	0.68	9.63744E-001	5.99583E-003	0.00000E+000	5.77844E-003	3.59960E-001	-1.14294E+000	3.57780E+000	10	...........
	51	0.693333	9.69454E-001	5.99271E-003	0.00000E+000	5.80965E-003	3.59960E-001	-1.14397E+000	3.57780E+000	10	...........
	52	0.706667	9.75174E-001	5.99463E-003	0.00000E+000	5.84580E-003	3.59960E-001	-1.13654E+000	3.57780E+000	10	...........
	53	0.72	9.80793E-001	5.99590E-003	0.00000E+000	5.88074E-003	3.59960E-001	-1.14311E+000	3.57780E+000	10	...........
	54	0.733333	9.86349E-001	5.99405E-003	0.00000E+000	5.91223E-003	3.59960E-001	-1.14397E+000	3.57780E+000	10	...........
	55	0.746667	9.91897E-001	5.99908E-003	0.00000E+000	5.95047E-003	3.59960E-001	-1.13620E+000	3.57780E+000	10	...........
	56	0.76	9.97358E-001	5.99454E-003	0.00000E+000	5.97870E-003	3.59960E-001	-1.14293E+000	3.57780E+000	10	...........
	57	0.761667	1.00044E+000	5.99763E-003	0.00000E+000	6.00029E-003	3.59960E-001	-1.12454E+000	3.57780E+000	10	...........
STARTTIMEOFFSET	QUANT	950.66	Start Time Offset (s)