File: Data/CV_CRGO300517_1/PWRCCD_CRGO300517_1/CHARGE_DISCHARGE/CHARGE_#770.DTA
EXPLAIN
TAG	PWR800_CHARGE
TITLE	LABEL	PWR Cyclic Charge Discharge (Cell) - Charge Step	Test &Identifier
DATE	LABEL	22-6-2017	Date
TIME	LABEL	16:06:10	Time
NOTES	NOTES	3	&Notes...
	supercap test cell
	0.6mg
	6M KOH
PSTAT	PSTAT	IFC5000-01520	Potentiostat
CAPACITY	QUANT	1.00000E-003	Capacity (A-hr)
CELLTYPE	SELECTOR	1	&Cell Type
WORKINGCONNECTION	SELECTOR	0	&Working Lead
MAXCHARGETIME	VARIABLEANDUNITS	1.00000E+002	s	1.00000E+002	second(s)	Max &Charge Time
CHARGECURRENT	QUANT	6.00000E-003	&Charge Current (A)
VOLTAGEFINISH	TWOPARAM	F	1.00000E-003	3.60000E+003	&Voltage Finish	 I (A) < 	Max Time(s)
SAMPLETIME	QUANT	1.00000E-002	Sa&mple Period (s)
CHARGESTOPAT1	MULTIPARAM	4	1.00000E+000	Charge Stop At &1	Voltage > Limit	V
CHARGESTOPAT2	MULTIPARAM	0	0.00000E+000	Charge Stop At &2	None	N/A
AESBHCSELECTOR	TOGGLE	F	Save Both Half Cells
IRCOMP	TOGGLE	F	IR &Measure
EOC	QUANT	0	Open Circuit (V)
SEQUENCER	TOGGLE	TRUE	Run as Sequence
PSTATMODEL	IQUANT	53	Pstat Model
PSTATSECTION	LABEL	IFC5000-01520	Pstat Section
PSTATSERIALNO	LABEL	01520	Pstat Serial Number
CTRLMODE	IQUANT	0	Control Mode
ELECTROMETER	IQUANT	1	RE=0 or CS=1
IESTAB	IQUANT	0	I/E Stability
CASPEED	IQUANT	4	Control Amp Speed
CONVENTION	IQUANT	1	Current Convention
ICHRANGE	IQUANT	2	Ich Range
ICHRANGEMODE	TOGGLE	T	Ich Auto Range
ICHOFFSETENABLE	TOGGLE	F	Ich Offset Enable
ICHOFFSET	QUANT	0	Ich Offset (V)
ICHFILTER	IQUANT	1	Ich Filter
VCHRANGE	IQUANT	2	Vch Range
VCHRANGEMODE	TOGGLE	T	Vch Auto Range
VCHOFFSETENABLE	TOGGLE	F	Vch Offset Enable
VCHOFFSET	QUANT	0	Vch Offset (V)
VCHFILTER	IQUANT	1	Vch Filter
IERANGELOWERLIMIT	IQUANT	9	I/E Range Lower Limit
IERANGEMODE	TOGGLE	F	I/E AutoRange
IERANGE	IQUANT	10	I/E Range
ACHSELECT	IQUANT	1	Ach Select
ACHRANGE	IQUANT	2	Ach Range
ACHOFFSETENABLE	TOGGLE	F	Ach Offset Enable
ACHOFFSET	QUANT	0	Ach Offset (V)
ACHFILTER	IQUANT	1	Ach Filter
CABLEID	IQUANT	14	Cable ID
DCCALDATE	LABEL	20-10-2016	DC Calibration Date
ACCALDATE	LABEL	12/3/2015	AC Calibration Date
FRAMEWORKVERSION	QUANT	7.01	Framework Version
INSTRUMENTVERSION	LABEL	4.00	Instrument Version
CURVE	TABLE	55
	Pt	T	Vf	Im	Vu	Pwr	Sig	Ach	Temp	IERange	Over
	#	s	V	A	V	W	V	V	deg C	#	bits
	0	0.013333	6.46985E-001	5.99192E-003	0.00000E+000	3.87668E-003	3.59960E-001	-1.16181E+000	3.57660E+000	10	...........
	1	0.026667	6.56159E-001	5.99299E-003	0.00000E+000	3.93236E-003	3.59960E-001	-1.16925E+000	3.57660E+000	10	...........
	2	0.04	6.64557E-001	5.99640E-003	0.00000E+000	3.98495E-003	3.59960E-001	-1.16929E+000	3.57660E+000	10	...........
	3	0.053333	6.72530E-001	5.99408E-003	0.00000E+000	4.03120E-003	3.59960E-001	-1.16163E+000	3.57660E+000	10	...........
	4	0.066667	6.80266E-001	5.99554E-003	0.00000E+000	4.07856E-003	3.59960E-001	-1.16911E+000	3.57660E+000	10	...........
	5	0.08	6.87744E-001	5.99739E-003	0.00000E+000	4.12467E-003	3.59960E-001	-1.16871E+000	3.57660E+000	10	...........
	6	0.093333	6.95144E-001	5.99601E-003	0.00000E+000	4.16809E-003	3.59960E-001	-1.16150E+000	3.57660E+000	10	...........
	7	0.106667	7.02359E-001	5.99013E-003	0.00000E+000	4.20722E-003	3.59960E-001	-1.16879E+000	3.57660E+000	10	...........
	8	0.12	7.09515E-001	5.99105E-003	0.00000E+000	4.25074E-003	3.59960E-001	-1.16846E+000	3.57660E+000	10	...........
	9	0.133333	7.16612E-001	5.99553E-003	0.00000E+000	4.29647E-003	3.59960E-001	-1.16126E+000	3.57660E+000	10	...........
	10	0.146667	7.23658E-001	5.99368E-003	0.00000E+000	4.33737E-003	3.59960E-001	-1.16883E+000	3.57660E+000	10	...........
	11	0.16	7.30607E-001	5.99231E-003	0.00000E+000	4.37802E-003	3.59960E-001	-1.16831E+000	3.57660E+000	10	...........
	12	0.173333	7.37514E-001	5.99532E-003	0.00000E+000	4.42164E-003	3.59960E-001	-1.16119E+000	3.57660E+000	10	...........
	13	0.186667	7.44396E-001	5.99187E-003	0.00000E+000	4.46032E-003	3.59960E-001	-1.16874E+000	3.57660E+000	10	...........
	14	0.2	7.51253E-001	5.99078E-003	0.00000E+000	4.50059E-003	3.59960E-001	-1.16812E+000	3.57660E+000	10	...........
	15	0.213333	7.58096E-001	5.99526E-003	0.00000E+000	4.54498E-003	3.59960E-001	-1.16117E+000	3.57660E+000	10	...........
	16	0.226667	7.64856E-001	5.99260E-003	0.00000E+000	4.58348E-003	3.59960E-001	-1.16876E+000	3.57660E+000	10	...........
	17	0.24	7.71611E-001	5.99212E-003	0.00000E+000	4.62359E-003	3.59960E-001	-1.16824E+000	3.57660E+000	10	...........
	18	0.253333	7.78308E-001	5.99009E-003	0.00000E+000	4.66214E-003	3.59960E-001	-1.16111E+000	3.57660E+000	10	...........
	19	0.266667	7.85061E-001	5.99415E-003	0.00000E+000	4.70577E-003	3.59960E-001	-1.16881E+000	3.57660E+000	10	...........
	20	0.28	7.91703E-001	5.99475E-003	0.00000E+000	4.74606E-003	3.59960E-001	-1.16809E+000	3.57660E+000	10	...........
	21	0.293333	7.98353E-001	5.99297E-003	0.00000E+000	4.78450E-003	3.59960E-001	-1.16135E+000	3.57660E+000	10	...........
	22	0.306667	8.04981E-001	5.99578E-003	0.00000E+000	4.82649E-003	3.59960E-001	-1.16919E+000	3.57660E+000	10	...........
	23	0.32	8.11558E-001	5.99296E-003	0.00000E+000	4.86363E-003	3.59960E-001	-1.16835E+000	3.57660E+000	10	...........
	24	0.333333	8.18202E-001	5.99134E-003	0.00000E+000	4.90213E-003	3.59960E-001	-1.16101E+000	3.57660E+000	10	...........
	25	0.346667	8.24814E-001	5.99589E-003	0.00000E+000	4.94549E-003	3.59960E-001	-1.16908E+000	3.57660E+000	10	...........
	26	0.36	8.31360E-001	5.99447E-003	0.00000E+000	4.98356E-003	3.59960E-001	-1.16822E+000	3.57660E+000	10	...........
	27	0.373333	8.37838E-001	5.99330E-003	0.00000E+000	5.02141E-003	3.59960E-001	-1.16119E+000	3.57660E+000	10	...........
	28	0.386667	8.44391E-001	5.99401E-003	0.00000E+000	5.06129E-003	3.59960E-001	-1.16906E+000	3.57660E+000	10	...........
	29	0.4	8.50873E-001	5.99573E-003	0.00000E+000	5.10160E-003	3.59960E-001	-1.16743E+000	3.57660E+000	10	...........
	30	0.413333	8.57307E-001	5.99016E-003	0.00000E+000	5.13541E-003	3.59960E-001	-1.16083E+000	3.57660E+000	10	...........
	31	0.426667	8.63729E-001	5.99253E-003	0.00000E+000	5.17592E-003	3.59960E-001	-1.16893E+000	3.57660E+000	10	...........
	32	0.44	8.70150E-001	5.99307E-003	0.00000E+000	5.21487E-003	3.59960E-001	-1.16751E+000	3.57660E+000	10	...........
	33	0.453333	8.76542E-001	5.99249E-003	0.00000E+000	5.25267E-003	3.59960E-001	-1.16079E+000	3.57660E+000	10	...........
	34	0.466667	8.82891E-001	5.98902E-003	0.00000E+000	5.28765E-003	3.59960E-001	-1.16879E+000	3.57660E+000	10	...........
	35	0.48	8.89247E-001	5.99725E-003	0.00000E+000	5.33304E-003	3.59960E-001	-1.16727E+000	3.57660E+000	10	...........
	36	0.493333	8.95540E-001	5.99756E-003	0.00000E+000	5.37105E-003	3.59960E-001	-1.16092E+000	3.57660E+000	10	...........
	37	0.506667	9.01796E-001	5.99488E-003	0.00000E+000	5.40616E-003	3.59960E-001	-1.16921E+000	3.57660E+000	10	...........
	38	0.52	9.08019E-001	5.99638E-003	0.00000E+000	5.44482E-003	3.59960E-001	-1.16710E+000	3.57660E+000	10	...........
	39	0.533333	9.14190E-001	5.99264E-003	0.00000E+000	5.47841E-003	3.59960E-001	-1.16075E+000	3.57660E+000	10	...........
	40	0.546667	9.20343E-001	5.99723E-003	0.00000E+000	5.51951E-003	3.59960E-001	-1.16892E+000	3.57660E+000	10	...........
	41	0.56	9.26502E-001	5.99430E-003	0.00000E+000	5.55373E-003	3.59960E-001	-1.16728E+000	3.57660E+000	10	...........
	42	0.573333	9.32518E-001	5.99459E-003	0.00000E+000	5.59007E-003	3.59960E-001	-1.16078E+000	3.57660E+000	10	...........
	43	0.586667	9.38524E-001	5.99350E-003	0.00000E+000	5.62504E-003	3.59960E-001	-1.16889E+000	3.57660E+000	10	...........
	44	0.6	9.44487E-001	5.99144E-003	0.00000E+000	5.65884E-003	3.59960E-001	-1.16702E+000	3.57660E+000	10	...........
	45	0.613333	9.50422E-001	5.99209E-003	0.00000E+000	5.69501E-003	3.59960E-001	-1.16085E+000	3.57660E+000	10	...........
	46	0.626667	9.56319E-001	5.98914E-003	0.00000E+000	5.72753E-003	3.59960E-001	-1.16938E+000	3.57660E+000	10	...........
	47	0.64	9.62196E-001	5.99412E-003	0.00000E+000	5.76751E-003	3.59960E-001	-1.16736E+000	3.57660E+000	10	...........
	48	0.653333	9.67990E-001	5.99310E-003	0.00000E+000	5.80126E-003	3.59960E-001	-1.16089E+000	3.57660E+000	10	...........
	49	0.666667	9.73733E-001	5.99174E-003	0.00000E+000	5.83435E-003	3.59960E-001	-1.16926E+000	3.57660E+000	10	...........
	50	0.68	9.79444E-001	5.99615E-003	0.00000E+000	5.87289E-003	3.59960E-001	-1.16696E+000	3.57660E+000	10	...........
	51	0.693333	9.85057E-001	5.99361E-003	0.00000E+000	5.90405E-003	3.59960E-001	-1.16105E+000	3.57660E+000	10	...........
	52	0.706667	9.90676E-001	5.99279E-003	0.00000E+000	5.93691E-003	3.59960E-001	-1.16947E+000	3.57660E+000	10	...........
	53	0.72	9.96223E-001	5.99679E-003	0.00000E+000	5.97413E-003	3.59960E-001	-1.16657E+000	3.57660E+000	10	...........
	54	0.725	1.00001E+000	5.99643E-003	0.00000E+000	5.99650E-003	3.59960E-001	-1.16763E+000	3.57660E+000	10	...........
STARTTIMEOFFSET	QUANT	1260.979	Start Time Offset (s)