File: Data/CV_CRGO300517_1/PWRCCD_CRGO300517_1/CHARGE_DISCHARGE/CHARGE_#933.DTA
EXPLAIN
TAG	PWR800_CHARGE
TITLE	LABEL	PWR Cyclic Charge Discharge (Cell) - Charge Step	Test &Identifier
DATE	LABEL	22-6-2017	Date
TIME	LABEL	16:12:12	Time
NOTES	NOTES	3	&Notes...
	supercap test cell
	0.6mg
	6M KOH
PSTAT	PSTAT	IFC5000-01520	Potentiostat
CAPACITY	QUANT	1.00000E-003	Capacity (A-hr)
CELLTYPE	SELECTOR	1	&Cell Type
WORKINGCONNECTION	SELECTOR	0	&Working Lead
MAXCHARGETIME	VARIABLEANDUNITS	1.00000E+002	s	1.00000E+002	second(s)	Max &Charge Time
CHARGECURRENT	QUANT	6.00000E-003	&Charge Current (A)
VOLTAGEFINISH	TWOPARAM	F	1.00000E-003	3.60000E+003	&Voltage Finish	 I (A) < 	Max Time(s)
SAMPLETIME	QUANT	1.00000E-002	Sa&mple Period (s)
CHARGESTOPAT1	MULTIPARAM	4	1.00000E+000	Charge Stop At &1	Voltage > Limit	V
CHARGESTOPAT2	MULTIPARAM	0	0.00000E+000	Charge Stop At &2	None	N/A
AESBHCSELECTOR	TOGGLE	F	Save Both Half Cells
IRCOMP	TOGGLE	F	IR &Measure
EOC	QUANT	0	Open Circuit (V)
SEQUENCER	TOGGLE	TRUE	Run as Sequence
PSTATMODEL	IQUANT	53	Pstat Model
PSTATSECTION	LABEL	IFC5000-01520	Pstat Section
PSTATSERIALNO	LABEL	01520	Pstat Serial Number
CTRLMODE	IQUANT	0	Control Mode
ELECTROMETER	IQUANT	1	RE=0 or CS=1
IESTAB	IQUANT	0	I/E Stability
CASPEED	IQUANT	4	Control Amp Speed
CONVENTION	IQUANT	1	Current Convention
ICHRANGE	IQUANT	2	Ich Range
ICHRANGEMODE	TOGGLE	T	Ich Auto Range
ICHOFFSETENABLE	TOGGLE	F	Ich Offset Enable
ICHOFFSET	QUANT	0	Ich Offset (V)
ICHFILTER	IQUANT	1	Ich Filter
VCHRANGE	IQUANT	2	Vch Range
VCHRANGEMODE	TOGGLE	T	Vch Auto Range
VCHOFFSETENABLE	TOGGLE	F	Vch Offset Enable
VCHOFFSET	QUANT	0	Vch Offset (V)
VCHFILTER	IQUANT	1	Vch Filter
IERANGELOWERLIMIT	IQUANT	9	I/E Range Lower Limit
IERANGEMODE	TOGGLE	F	I/E AutoRange
IERANGE	IQUANT	10	I/E Range
ACHSELECT	IQUANT	1	Ach Select
ACHRANGE	IQUANT	2	Ach Range
ACHOFFSETENABLE	TOGGLE	F	Ach Offset Enable
ACHOFFSET	QUANT	0	Ach Offset (V)
ACHFILTER	IQUANT	1	Ach Filter
CABLEID	IQUANT	14	Cable ID
DCCALDATE	LABEL	20-10-2016	DC Calibration Date
ACCALDATE	LABEL	12/3/2015	AC Calibration Date
FRAMEWORKVERSION	QUANT	7.01	Framework Version
INSTRUMENTVERSION	LABEL	4.00	Instrument Version
CURVE	TABLE	53
	Pt	T	Vf	Im	Vu	Pwr	Sig	Ach	Temp	IERange	Over
	#	s	V	A	V	W	V	V	deg C	#	bits
	0	0.013333	6.54785E-001	5.99293E-003	0.00000E+000	3.92408E-003	3.59960E-001	-1.17802E+000	3.57780E+000	10	...........
	1	0.026667	6.64056E-001	5.99401E-003	0.00000E+000	3.98036E-003	3.59960E-001	-1.17140E+000	3.57780E+000	10	...........
	2	0.04	6.72653E-001	5.99642E-003	0.00000E+000	4.03351E-003	3.59960E-001	-1.17890E+000	3.57780E+000	10	...........
	3	0.053333	6.80753E-001	5.99252E-003	0.00000E+000	4.07943E-003	3.59960E-001	-1.17776E+000	3.57780E+000	10	...........
	4	0.066667	6.88560E-001	5.99612E-003	0.00000E+000	4.12869E-003	3.59960E-001	-1.17111E+000	3.57780E+000	10	...........
	5	0.08	6.96233E-001	5.99220E-003	0.00000E+000	4.17196E-003	3.59960E-001	-1.17895E+000	3.57780E+000	10	...........
	6	0.093333	7.03693E-001	5.99716E-003	0.00000E+000	4.22016E-003	3.59960E-001	-1.17769E+000	3.57780E+000	10	...........
	7	0.106667	7.11065E-001	5.99155E-003	0.00000E+000	4.26038E-003	3.59960E-001	-1.17097E+000	3.57780E+000	10	...........
	8	0.12	7.18386E-001	5.99185E-003	0.00000E+000	4.30446E-003	3.59960E-001	-1.17882E+000	3.57780E+000	10	...........
	9	0.133333	7.25595E-001	5.99584E-003	0.00000E+000	4.35055E-003	3.59960E-001	-1.17764E+000	3.57780E+000	10	...........
	10	0.146667	7.32698E-001	5.99301E-003	0.00000E+000	4.39106E-003	3.59960E-001	-1.17118E+000	3.57780E+000	10	...........
	11	0.16	7.39742E-001	5.99521E-003	0.00000E+000	4.43491E-003	3.59960E-001	-1.17907E+000	3.57780E+000	10	...........
	12	0.173333	7.46768E-001	5.99594E-003	0.00000E+000	4.47757E-003	3.59960E-001	-1.17779E+000	3.57780E+000	10	...........
	13	0.186667	7.53717E-001	5.99713E-003	0.00000E+000	4.52014E-003	3.59960E-001	-1.17119E+000	3.57780E+000	10	...........
	14	0.2	7.60648E-001	5.99701E-003	0.00000E+000	4.56162E-003	3.59960E-001	-1.17901E+000	3.57780E+000	10	...........
	15	0.213333	7.67554E-001	5.99343E-003	0.00000E+000	4.60028E-003	3.59960E-001	-1.17772E+000	3.57780E+000	10	...........
	16	0.226667	7.74438E-001	5.99729E-003	0.00000E+000	4.64453E-003	3.59960E-001	-1.17102E+000	3.57780E+000	10	...........
	17	0.24	7.81307E-001	5.98999E-003	0.00000E+000	4.68002E-003	3.59960E-001	-1.17899E+000	3.57780E+000	10	...........
	18	0.253333	7.88124E-001	5.99319E-003	0.00000E+000	4.72338E-003	3.59960E-001	-1.17730E+000	3.57780E+000	10	...........
	19	0.266667	7.94978E-001	5.99243E-003	0.00000E+000	4.76385E-003	3.59960E-001	-1.17079E+000	3.57780E+000	10	...........
	20	0.28	8.01694E-001	5.99033E-003	0.00000E+000	4.80241E-003	3.59960E-001	-1.17874E+000	3.57780E+000	10	...........
	21	0.293333	8.08431E-001	5.99955E-003	0.00000E+000	4.85022E-003	3.59960E-001	-1.17714E+000	3.57780E+000	10	...........
	22	0.306667	8.15083E-001	5.99428E-003	0.00000E+000	4.88584E-003	3.59960E-001	-1.17062E+000	3.57780E+000	10	...........
	23	0.32	8.21789E-001	5.99547E-003	0.00000E+000	4.92701E-003	3.59960E-001	-1.17856E+000	3.57780E+000	10	...........
	24	0.333333	8.28437E-001	5.99195E-003	0.00000E+000	4.96395E-003	3.59960E-001	-1.17703E+000	3.57780E+000	10	...........
	25	0.346667	8.35044E-001	5.99445E-003	0.00000E+000	5.00563E-003	3.59960E-001	-1.17074E+000	3.57780E+000	10	...........
	26	0.36	8.41649E-001	5.99093E-003	0.00000E+000	5.04226E-003	3.59960E-001	-1.17881E+000	3.57780E+000	10	...........
	27	0.373333	8.48242E-001	5.99450E-003	0.00000E+000	5.08479E-003	3.59960E-001	-1.17692E+000	3.57780E+000	10	...........
	28	0.386667	8.54777E-001	5.99306E-003	0.00000E+000	5.12273E-003	3.59960E-001	-1.17034E+000	3.57780E+000	10	...........
	29	0.4	8.61298E-001	5.99016E-003	0.00000E+000	5.15931E-003	3.59960E-001	-1.17870E+000	3.57780E+000	10	...........
	30	0.413333	8.67763E-001	5.99342E-003	0.00000E+000	5.20086E-003	3.59960E-001	-1.17712E+000	3.57780E+000	10	...........
	31	0.426667	8.74237E-001	6.00055E-003	0.00000E+000	5.24591E-003	3.59960E-001	-1.17080E+000	3.57780E+000	10	...........
	32	0.44	8.80674E-001	5.99378E-003	0.00000E+000	5.27856E-003	3.59960E-001	-1.17874E+000	3.57780E+000	10	...........
	33	0.453333	8.87047E-001	5.99045E-003	0.00000E+000	5.31382E-003	3.59960E-001	-1.17656E+000	3.57780E+000	10	...........
	34	0.466667	8.93426E-001	5.99327E-003	0.00000E+000	5.35454E-003	3.59960E-001	-1.17036E+000	3.57780E+000	10	...........
	35	0.48	8.99752E-001	5.99431E-003	0.00000E+000	5.39339E-003	3.59960E-001	-1.17883E+000	3.57780E+000	10	...........
	36	0.493333	9.06024E-001	5.99048E-003	0.00000E+000	5.42752E-003	3.59960E-001	-1.17674E+000	3.57780E+000	10	...........
	37	0.506667	9.12253E-001	5.99090E-003	0.00000E+000	5.46522E-003	3.59960E-001	-1.17073E+000	3.57780E+000	10	...........
	38	0.52	9.18466E-001	5.99166E-003	0.00000E+000	5.50314E-003	3.59960E-001	-1.17869E+000	3.57780E+000	10	...........
	39	0.533333	9.24696E-001	5.98774E-003	0.00000E+000	5.53684E-003	3.59960E-001	-1.17667E+000	3.57780E+000	10	...........
	40	0.546667	9.30792E-001	5.99508E-003	0.00000E+000	5.58018E-003	3.59960E-001	-1.17081E+000	3.57780E+000	10	...........
	41	0.56	9.36856E-001	5.99423E-003	0.00000E+000	5.61573E-003	3.59960E-001	-1.17892E+000	3.57780E+000	10	...........
	42	0.573333	9.42849E-001	5.99453E-003	0.00000E+000	5.65194E-003	3.59960E-001	-1.17683E+000	3.57780E+000	10	...........
	43	0.586667	9.48858E-001	5.99102E-003	0.00000E+000	5.68462E-003	3.59960E-001	-1.17025E+000	3.57780E+000	10	...........
	44	0.6	9.54790E-001	5.99259E-003	0.00000E+000	5.72167E-003	3.59960E-001	-1.17853E+000	3.57780E+000	10	...........
	45	0.613333	9.60656E-001	5.99038E-003	0.00000E+000	5.75469E-003	3.59960E-001	-1.17649E+000	3.57780E+000	10	...........
	46	0.626667	9.66517E-001	5.99438E-003	0.00000E+000	5.79366E-003	3.59960E-001	-1.17025E+000	3.57780E+000	10	...........
	47	0.64	9.72324E-001	5.99438E-003	0.00000E+000	5.82847E-003	3.59960E-001	-1.17830E+000	3.57780E+000	10	...........
	48	0.653333	9.78091E-001	5.99605E-003	0.00000E+000	5.86469E-003	3.59960E-001	-1.17608E+000	3.57780E+000	10	...........
	49	0.666667	9.83773E-001	5.99346E-003	0.00000E+000	5.89620E-003	3.59960E-001	-1.17029E+000	3.57780E+000	10	...........
	50	0.68	9.89401E-001	5.99289E-003	0.00000E+000	5.92938E-003	3.59960E-001	-1.17857E+000	3.57780E+000	10	...........
	51	0.693333	9.94970E-001	5.99300E-003	0.00000E+000	5.96285E-003	3.59960E-001	-1.17626E+000	3.57780E+000	10	...........
	52	0.7	9.99119E-001	5.99104E-003	0.00000E+000	5.98576E-003	3.59960E-001	-1.17243E+000	3.57780E+000	10	...........
STARTTIMEOFFSET	QUANT	1492.264	Start Time Offset (s)