File: Data/CV_CRGO300517_1/PWRCCD_CRGO300517_1/CHARGE_DISCHARGE/CHARGE_#984.DTA
EXPLAIN
TAG	PWR800_CHARGE
TITLE	LABEL	PWR Cyclic Charge Discharge (Cell) - Charge Step	Test &Identifier
DATE	LABEL	22-6-2017	Date
TIME	LABEL	16:14:03	Time
NOTES	NOTES	3	&Notes...
	supercap test cell
	0.6mg
	6M KOH
PSTAT	PSTAT	IFC5000-01520	Potentiostat
CAPACITY	QUANT	1.00000E-003	Capacity (A-hr)
CELLTYPE	SELECTOR	1	&Cell Type
WORKINGCONNECTION	SELECTOR	0	&Working Lead
MAXCHARGETIME	VARIABLEANDUNITS	1.00000E+002	s	1.00000E+002	second(s)	Max &Charge Time
CHARGECURRENT	QUANT	6.00000E-003	&Charge Current (A)
VOLTAGEFINISH	TWOPARAM	F	1.00000E-003	3.60000E+003	&Voltage Finish	 I (A) < 	Max Time(s)
SAMPLETIME	QUANT	1.00000E-002	Sa&mple Period (s)
CHARGESTOPAT1	MULTIPARAM	4	1.00000E+000	Charge Stop At &1	Voltage > Limit	V
CHARGESTOPAT2	MULTIPARAM	0	0.00000E+000	Charge Stop At &2	None	N/A
AESBHCSELECTOR	TOGGLE	F	Save Both Half Cells
IRCOMP	TOGGLE	F	IR &Measure
EOC	QUANT	0	Open Circuit (V)
SEQUENCER	TOGGLE	TRUE	Run as Sequence
PSTATMODEL	IQUANT	53	Pstat Model
PSTATSECTION	LABEL	IFC5000-01520	Pstat Section
PSTATSERIALNO	LABEL	01520	Pstat Serial Number
CTRLMODE	IQUANT	0	Control Mode
ELECTROMETER	IQUANT	1	RE=0 or CS=1
IESTAB	IQUANT	0	I/E Stability
CASPEED	IQUANT	4	Control Amp Speed
CONVENTION	IQUANT	1	Current Convention
ICHRANGE	IQUANT	2	Ich Range
ICHRANGEMODE	TOGGLE	T	Ich Auto Range
ICHOFFSETENABLE	TOGGLE	F	Ich Offset Enable
ICHOFFSET	QUANT	0	Ich Offset (V)
ICHFILTER	IQUANT	1	Ich Filter
VCHRANGE	IQUANT	2	Vch Range
VCHRANGEMODE	TOGGLE	T	Vch Auto Range
VCHOFFSETENABLE	TOGGLE	F	Vch Offset Enable
VCHOFFSET	QUANT	0	Vch Offset (V)
VCHFILTER	IQUANT	1	Vch Filter
IERANGELOWERLIMIT	IQUANT	9	I/E Range Lower Limit
IERANGEMODE	TOGGLE	F	I/E AutoRange
IERANGE	IQUANT	10	I/E Range
ACHSELECT	IQUANT	1	Ach Select
ACHRANGE	IQUANT	2	Ach Range
ACHOFFSETENABLE	TOGGLE	F	Ach Offset Enable
ACHOFFSET	QUANT	0	Ach Offset (V)
ACHFILTER	IQUANT	1	Ach Filter
CABLEID	IQUANT	14	Cable ID
DCCALDATE	LABEL	20-10-2016	DC Calibration Date
ACCALDATE	LABEL	12/3/2015	AC Calibration Date
FRAMEWORKVERSION	QUANT	7.01	Framework Version
INSTRUMENTVERSION	LABEL	4.00	Instrument Version
CURVE	TABLE	53
	Pt	T	Vf	Im	Vu	Pwr	Sig	Ach	Temp	IERange	Over
	#	s	V	A	V	W	V	V	deg C	#	bits
	0	0.013333	6.57285E-001	5.99376E-003	0.00000E+000	3.93961E-003	3.59960E-001	-1.17488E+000	3.57770E+000	10	...........
	1	0.026667	6.66573E-001	5.99161E-003	0.00000E+000	3.99385E-003	3.59960E-001	-1.17915E+000	3.57770E+000	10	...........
	2	0.04	6.75155E-001	5.99061E-003	0.00000E+000	4.04459E-003	3.59960E-001	-1.18364E+000	3.57770E+000	10	...........
	3	0.053333	6.83279E-001	5.99424E-003	0.00000E+000	4.09574E-003	3.59960E-001	-1.17440E+000	3.57770E+000	10	...........
	4	0.066667	6.91149E-001	5.99348E-003	0.00000E+000	4.14238E-003	3.59960E-001	-1.17919E+000	3.57770E+000	10	...........
	5	0.08	6.98820E-001	5.99773E-003	0.00000E+000	4.19134E-003	3.59960E-001	-1.18358E+000	3.57770E+000	10	...........
	6	0.093333	7.06260E-001	5.99560E-003	0.00000E+000	4.23445E-003	3.59960E-001	-1.17461E+000	3.57770E+000	10	...........
	7	0.106667	7.13612E-001	5.99124E-003	0.00000E+000	4.27542E-003	3.59960E-001	-1.17904E+000	3.57770E+000	10	...........
	8	0.12	7.20933E-001	5.99516E-003	0.00000E+000	4.32211E-003	3.59960E-001	-1.18323E+000	3.57770E+000	10	...........
	9	0.133333	7.28121E-001	5.99760E-003	0.00000E+000	4.36698E-003	3.59960E-001	-1.17437E+000	3.57770E+000	10	...........
	10	0.146667	7.35247E-001	5.99895E-003	0.00000E+000	4.41072E-003	3.59960E-001	-1.17934E+000	3.57770E+000	10	...........
	11	0.16	7.42357E-001	5.99222E-003	0.00000E+000	4.44837E-003	3.59960E-001	-1.18330E+000	3.57770E+000	10	...........
	12	0.173333	7.49353E-001	5.99591E-003	0.00000E+000	4.49305E-003	3.59960E-001	-1.17419E+000	3.57770E+000	10	...........
	13	0.186667	7.56365E-001	5.98988E-003	0.00000E+000	4.53054E-003	3.59960E-001	-1.17919E+000	3.57770E+000	10	...........
	14	0.2	7.63313E-001	5.99100E-003	0.00000E+000	4.57300E-003	3.59960E-001	-1.18305E+000	3.57770E+000	10	...........
	15	0.213333	7.70212E-001	5.99096E-003	0.00000E+000	4.61431E-003	3.59960E-001	-1.17435E+000	3.57770E+000	10	...........
	16	0.226667	7.77107E-001	5.98910E-003	0.00000E+000	4.65417E-003	3.59960E-001	-1.17951E+000	3.57770E+000	10	...........
	17	0.24	7.83993E-001	5.99547E-003	0.00000E+000	4.70041E-003	3.59960E-001	-1.18284E+000	3.57770E+000	10	...........
	18	0.253333	7.90818E-001	5.99610E-003	0.00000E+000	4.74182E-003	3.59960E-001	-1.17413E+000	3.57770E+000	10	...........
	19	0.266667	7.97629E-001	5.99439E-003	0.00000E+000	4.78130E-003	3.59960E-001	-1.17933E+000	3.57770E+000	10	...........
	20	0.28	8.04363E-001	5.99165E-003	0.00000E+000	4.81946E-003	3.59960E-001	-1.18283E+000	3.57770E+000	10	...........
	21	0.293333	8.11053E-001	5.99613E-003	0.00000E+000	4.86318E-003	3.59960E-001	-1.17399E+000	3.57770E+000	10	...........
	22	0.306667	8.17787E-001	5.99134E-003	0.00000E+000	4.89964E-003	3.59960E-001	-1.17908E+000	3.57770E+000	10	...........
	23	0.32	8.24500E-001	5.98914E-003	0.00000E+000	4.93805E-003	3.59960E-001	-1.18219E+000	3.57770E+000	10	...........
	24	0.333333	8.31155E-001	5.99268E-003	0.00000E+000	4.98084E-003	3.59960E-001	-1.17377E+000	3.57770E+000	10	...........
	25	0.346667	8.37745E-001	5.99226E-003	0.00000E+000	5.01999E-003	3.59960E-001	-1.17900E+000	3.57770E+000	10	...........
	26	0.36	8.44416E-001	5.99578E-003	0.00000E+000	5.06294E-003	3.59960E-001	-1.18205E+000	3.57770E+000	10	...........
	27	0.373333	8.50958E-001	5.99289E-003	0.00000E+000	5.09970E-003	3.59960E-001	-1.17346E+000	3.57770E+000	10	...........
	28	0.386667	8.57538E-001	5.99321E-003	0.00000E+000	5.13940E-003	3.59960E-001	-1.17888E+000	3.57770E+000	10	...........
	29	0.4	8.64032E-001	5.99473E-003	0.00000E+000	5.17964E-003	3.59960E-001	-1.18180E+000	3.57770E+000	10	...........
	30	0.413333	8.70556E-001	5.99159E-003	0.00000E+000	5.21602E-003	3.59960E-001	-1.17349E+000	3.57770E+000	10	...........
	31	0.426667	8.77016E-001	5.99307E-003	0.00000E+000	5.25602E-003	3.59960E-001	-1.17908E+000	3.57770E+000	10	...........
	32	0.44	8.83465E-001	6.00253E-003	0.00000E+000	5.30303E-003	3.59960E-001	-1.18174E+000	3.57770E+000	10	...........
	33	0.453333	8.89863E-001	5.99293E-003	0.00000E+000	5.33288E-003	3.59960E-001	-1.17324E+000	3.57770E+000	10	...........
	34	0.466667	8.96187E-001	5.98724E-003	0.00000E+000	5.36569E-003	3.59960E-001	-1.17920E+000	3.57770E+000	10	...........
	35	0.48	9.02544E-001	5.99696E-003	0.00000E+000	5.41252E-003	3.59960E-001	-1.18160E+000	3.57770E+000	10	...........
	36	0.493333	9.08848E-001	5.99902E-003	0.00000E+000	5.45219E-003	3.59960E-001	-1.17338E+000	3.57770E+000	10	...........
	37	0.506667	9.14993E-001	5.98748E-003	0.00000E+000	5.47850E-003	3.59960E-001	-1.17918E+000	3.57770E+000	10	...........
	38	0.52	9.21279E-001	5.99636E-003	0.00000E+000	5.52432E-003	3.59960E-001	-1.18147E+000	3.57770E+000	10	...........
	39	0.533333	9.27438E-001	5.99683E-003	0.00000E+000	5.56169E-003	3.59960E-001	-1.17324E+000	3.57770E+000	10	...........
	40	0.546667	9.33516E-001	5.99511E-003	0.00000E+000	5.59653E-003	3.59960E-001	-1.17945E+000	3.57770E+000	10	...........
	41	0.56	9.39574E-001	5.99394E-003	0.00000E+000	5.63175E-003	3.59960E-001	-1.18157E+000	3.57770E+000	10	...........
	42	0.573333	9.45614E-001	5.99455E-003	0.00000E+000	5.66853E-003	3.59960E-001	-1.17334E+000	3.57770E+000	10	...........
	43	0.586667	9.51604E-001	5.99705E-003	0.00000E+000	5.70681E-003	3.59960E-001	-1.17946E+000	3.57970E+000	10	...........
	44	0.6	9.57494E-001	5.99702E-003	0.00000E+000	5.74212E-003	3.59960E-001	-1.18124E+000	3.57970E+000	10	...........
	45	0.613333	9.63332E-001	5.99337E-003	0.00000E+000	5.77361E-003	3.59960E-001	-1.17319E+000	3.57970E+000	10	...........
	46	0.626667	9.69184E-001	5.99141E-003	0.00000E+000	5.80678E-003	3.59960E-001	-1.17917E+000	3.57970E+000	10	...........
	47	0.64	9.75001E-001	5.99634E-003	0.00000E+000	5.84643E-003	3.59960E-001	-1.18088E+000	3.57970E+000	10	...........
	48	0.653333	9.80737E-001	5.99361E-003	0.00000E+000	5.87816E-003	3.59960E-001	-1.17277E+000	3.57970E+000	10	...........
	49	0.666667	9.86355E-001	5.99451E-003	0.00000E+000	5.91272E-003	3.59960E-001	-1.17933E+000	3.57970E+000	10	...........
	50	0.68	9.91967E-001	5.99399E-003	0.00000E+000	5.94584E-003	3.59960E-001	-1.18077E+000	3.57970E+000	10	...........
	51	0.693333	9.97512E-001	5.99344E-003	0.00000E+000	5.97852E-003	3.59960E-001	-1.17298E+000	3.57970E+000	10	...........
	52	0.695	1.00063E+000	5.99112E-003	0.00000E+000	5.99492E-003	3.59960E-001	-1.18794E+000	3.57970E+000	10	...........
STARTTIMEOFFSET	QUANT	1563.159	Start Time Offset (s)