File: Data/CV_CRGO300517_1/PWRCCD_CRGO300517_1/CHARGE_DISCHARGE/CHARGE_#232.DTA
EXPLAIN
TAG	PWR800_CHARGE
TITLE	LABEL	PWR Cyclic Charge Discharge (Cell) - Charge Step	Test &Identifier
DATE	LABEL	22-6-2017	Date
TIME	LABEL	15:45:08	Time
NOTES	NOTES	3	&Notes...
	supercap test cell
	0.6mg
	6M KOH
PSTAT	PSTAT	IFC5000-01520	Potentiostat
CAPACITY	QUANT	1.00000E-003	Capacity (A-hr)
CELLTYPE	SELECTOR	1	&Cell Type
WORKINGCONNECTION	SELECTOR	0	&Working Lead
MAXCHARGETIME	VARIABLEANDUNITS	1.00000E+002	s	1.00000E+002	second(s)	Max &Charge Time
CHARGECURRENT	QUANT	6.00000E-003	&Charge Current (A)
VOLTAGEFINISH	TWOPARAM	F	1.00000E-003	3.60000E+003	&Voltage Finish	 I (A) < 	Max Time(s)
SAMPLETIME	QUANT	1.00000E-002	Sa&mple Period (s)
CHARGESTOPAT1	MULTIPARAM	4	1.00000E+000	Charge Stop At &1	Voltage > Limit	V
CHARGESTOPAT2	MULTIPARAM	0	0.00000E+000	Charge Stop At &2	None	N/A
AESBHCSELECTOR	TOGGLE	F	Save Both Half Cells
IRCOMP	TOGGLE	F	IR &Measure
EOC	QUANT	0	Open Circuit (V)
SEQUENCER	TOGGLE	TRUE	Run as Sequence
PSTATMODEL	IQUANT	53	Pstat Model
PSTATSECTION	LABEL	IFC5000-01520	Pstat Section
PSTATSERIALNO	LABEL	01520	Pstat Serial Number
CTRLMODE	IQUANT	0	Control Mode
ELECTROMETER	IQUANT	1	RE=0 or CS=1
IESTAB	IQUANT	0	I/E Stability
CASPEED	IQUANT	4	Control Amp Speed
CONVENTION	IQUANT	1	Current Convention
ICHRANGE	IQUANT	2	Ich Range
ICHRANGEMODE	TOGGLE	T	Ich Auto Range
ICHOFFSETENABLE	TOGGLE	F	Ich Offset Enable
ICHOFFSET	QUANT	0	Ich Offset (V)
ICHFILTER	IQUANT	1	Ich Filter
VCHRANGE	IQUANT	2	Vch Range
VCHRANGEMODE	TOGGLE	T	Vch Auto Range
VCHOFFSETENABLE	TOGGLE	F	Vch Offset Enable
VCHOFFSET	QUANT	0	Vch Offset (V)
VCHFILTER	IQUANT	1	Vch Filter
IERANGELOWERLIMIT	IQUANT	9	I/E Range Lower Limit
IERANGEMODE	TOGGLE	F	I/E AutoRange
IERANGE	IQUANT	10	I/E Range
ACHSELECT	IQUANT	1	Ach Select
ACHRANGE	IQUANT	2	Ach Range
ACHOFFSETENABLE	TOGGLE	F	Ach Offset Enable
ACHOFFSET	QUANT	0	Ach Offset (V)
ACHFILTER	IQUANT	1	Ach Filter
CABLEID	IQUANT	14	Cable ID
DCCALDATE	LABEL	20-10-2016	DC Calibration Date
ACCALDATE	LABEL	12/3/2015	AC Calibration Date
FRAMEWORKVERSION	QUANT	7.01	Framework Version
INSTRUMENTVERSION	LABEL	4.00	Instrument Version
CURVE	TABLE	64
	Pt	T	Vf	Im	Vu	Pwr	Sig	Ach	Temp	IERange	Over
	#	s	V	A	V	W	V	V	deg C	#	bits
	0	0.013333	6.09707E-001	5.98754E-003	0.00000E+000	3.65065E-003	3.59960E-001	-1.09525E+000	3.57700E+000	10	...........
	1	0.026667	6.18267E-001	5.99714E-003	0.00000E+000	3.70783E-003	3.59960E-001	-1.09146E+000	3.57700E+000	10	...........
	2	0.04	6.26066E-001	5.99043E-003	0.00000E+000	3.75040E-003	3.59960E-001	-1.10068E+000	3.57700E+000	10	...........
	3	0.053333	6.33488E-001	5.99370E-003	0.00000E+000	3.79694E-003	3.59960E-001	-1.09538E+000	3.57700E+000	10	...........
	4	0.066667	6.40641E-001	5.99532E-003	0.00000E+000	3.84085E-003	3.59960E-001	-1.09146E+000	3.57700E+000	10	...........
	5	0.08	6.47574E-001	5.99363E-003	0.00000E+000	3.88132E-003	3.59960E-001	-1.10026E+000	3.57700E+000	10	...........
	6	0.093333	6.54441E-001	5.99223E-003	0.00000E+000	3.92156E-003	3.59960E-001	-1.09534E+000	3.57700E+000	10	...........
	7	0.106667	6.61167E-001	5.99130E-003	0.00000E+000	3.96125E-003	3.59960E-001	-1.09123E+000	3.57700E+000	10	...........
	8	0.12	6.67791E-001	5.99130E-003	0.00000E+000	4.00094E-003	3.59960E-001	-1.10052E+000	3.57700E+000	10	...........
	9	0.133333	6.74346E-001	5.98983E-003	0.00000E+000	4.03922E-003	3.59960E-001	-1.09526E+000	3.57700E+000	10	...........
	10	0.146667	6.80842E-001	5.99553E-003	0.00000E+000	4.08201E-003	3.59960E-001	-1.09115E+000	3.57700E+000	10	...........
	11	0.16	6.87266E-001	5.99305E-003	0.00000E+000	4.11882E-003	3.59960E-001	-1.10020E+000	3.57700E+000	10	...........
	12	0.173333	6.93658E-001	5.99592E-003	0.00000E+000	4.15912E-003	3.59960E-001	-1.09525E+000	3.57700E+000	10	...........
	13	0.186667	6.99997E-001	5.99283E-003	0.00000E+000	4.19496E-003	3.59960E-001	-1.09080E+000	3.57700E+000	10	...........
	14	0.2	7.06378E-001	5.99101E-003	0.00000E+000	4.23191E-003	3.59960E-001	-1.09979E+000	3.57700E+000	10	...........
	15	0.213333	7.12682E-001	5.99249E-003	0.00000E+000	4.27074E-003	3.59960E-001	-1.09459E+000	3.57700E+000	10	...........
	16	0.226667	7.18989E-001	5.99055E-003	0.00000E+000	4.30714E-003	3.59960E-001	-1.09040E+000	3.57700E+000	10	...........
	17	0.24	7.25260E-001	5.99417E-003	0.00000E+000	4.34733E-003	3.59960E-001	-1.09940E+000	3.57700E+000	10	...........
	18	0.253333	7.31480E-001	5.99309E-003	0.00000E+000	4.38383E-003	3.59960E-001	-1.09465E+000	3.57700E+000	10	...........
	19	0.266667	7.37720E-001	5.99705E-003	0.00000E+000	4.42414E-003	3.59960E-001	-1.09031E+000	3.57700E+000	10	...........
	20	0.28	7.43936E-001	5.99136E-003	0.00000E+000	4.45719E-003	3.59960E-001	-1.09936E+000	3.57700E+000	10	...........
	21	0.293333	7.50150E-001	5.99243E-003	0.00000E+000	4.49522E-003	3.59960E-001	-1.09426E+000	3.57700E+000	10	...........
	22	0.306667	7.56366E-001	5.99289E-003	0.00000E+000	4.53282E-003	3.59960E-001	-1.08985E+000	3.57700E+000	10	...........
	23	0.32	7.62524E-001	5.99471E-003	0.00000E+000	4.57111E-003	3.59960E-001	-1.09907E+000	3.57700E+000	10	...........
	24	0.333333	7.68685E-001	5.99152E-003	0.00000E+000	4.60559E-003	3.59960E-001	-1.09412E+000	3.57700E+000	10	...........
	25	0.346667	7.74881E-001	5.99276E-003	0.00000E+000	4.64367E-003	3.59960E-001	-1.08965E+000	3.57700E+000	10	...........
	26	0.36	7.81071E-001	6.00041E-003	0.00000E+000	4.68675E-003	3.59960E-001	-1.09869E+000	3.57700E+000	10	...........
	27	0.373333	7.87192E-001	5.99592E-003	0.00000E+000	4.71994E-003	3.59960E-001	-1.09375E+000	3.57700E+000	10	...........
	28	0.386667	7.93339E-001	5.99244E-003	0.00000E+000	4.75403E-003	3.59960E-001	-1.08957E+000	3.57700E+000	10	...........
	29	0.4	7.99494E-001	5.99345E-003	0.00000E+000	4.79172E-003	3.59960E-001	-1.09893E+000	3.57700E+000	10	...........
	30	0.413333	8.05595E-001	5.99528E-003	0.00000E+000	4.82977E-003	3.59960E-001	-1.09394E+000	3.57700E+000	10	...........
	31	0.426667	8.11728E-001	5.99539E-003	0.00000E+000	4.86662E-003	3.59960E-001	-1.08966E+000	3.57700E+000	10	...........
	32	0.44	8.17833E-001	5.99325E-003	0.00000E+000	4.90148E-003	3.59960E-001	-1.09878E+000	3.57700E+000	10	...........
	33	0.453333	8.23959E-001	5.99542E-003	0.00000E+000	4.93998E-003	3.59960E-001	-1.09429E+000	3.57700E+000	10	...........
	34	0.466667	8.30065E-001	5.99839E-003	0.00000E+000	4.97905E-003	3.59960E-001	-1.08985E+000	3.57700E+000	10	...........
	35	0.48	8.36145E-001	5.99413E-003	0.00000E+000	5.01196E-003	3.59960E-001	-1.09866E+000	3.57700E+000	10	...........
	36	0.493333	8.42194E-001	5.99728E-003	0.00000E+000	5.05087E-003	3.59960E-001	-1.09409E+000	3.57700E+000	10	...........
	37	0.506667	8.48267E-001	5.99702E-003	0.00000E+000	5.08708E-003	3.59960E-001	-1.08930E+000	3.57700E+000	10	...........
	38	0.52	8.54270E-001	5.99239E-003	0.00000E+000	5.11912E-003	3.59960E-001	-1.09819E+000	3.57700E+000	10	...........
	39	0.533333	8.60349E-001	5.98938E-003	0.00000E+000	5.15295E-003	3.59960E-001	-1.09366E+000	3.57700E+000	10	...........
	40	0.546667	8.66373E-001	5.99627E-003	0.00000E+000	5.19501E-003	3.59960E-001	-1.08912E+000	3.57700E+000	10	...........
	41	0.56	8.72409E-001	5.99400E-003	0.00000E+000	5.22922E-003	3.59960E-001	-1.09765E+000	3.57700E+000	10	...........
	42	0.573333	8.78378E-001	5.99244E-003	0.00000E+000	5.26362E-003	3.59960E-001	-1.09352E+000	3.57700E+000	10	...........
	43	0.586667	8.84367E-001	5.99958E-003	0.00000E+000	5.30583E-003	3.59960E-001	-1.08893E+000	3.57700E+000	10	...........
	44	0.6	8.90335E-001	5.99752E-003	0.00000E+000	5.33980E-003	3.59960E-001	-1.09779E+000	3.57700E+000	10	...........
	45	0.613333	8.96317E-001	5.99458E-003	0.00000E+000	5.37305E-003	3.59960E-001	-1.09340E+000	3.57700E+000	10	...........
	46	0.626667	9.02273E-001	5.99554E-003	0.00000E+000	5.40962E-003	3.59960E-001	-1.08865E+000	3.57700E+000	10	...........
	47	0.64	9.08165E-001	5.99526E-003	0.00000E+000	5.44469E-003	3.59960E-001	-1.09765E+000	3.57700E+000	10	...........
	48	0.653333	9.14041E-001	5.99027E-003	0.00000E+000	5.47535E-003	3.59960E-001	-1.09347E+000	3.57700E+000	10	...........
	49	0.666667	9.19931E-001	5.99576E-003	0.00000E+000	5.51569E-003	3.59960E-001	-1.08905E+000	3.57700E+000	10	...........
	50	0.68	9.25770E-001	5.99356E-003	0.00000E+000	5.54866E-003	3.59960E-001	-1.09778E+000	3.57700E+000	10	...........
	51	0.693333	9.31585E-001	5.99190E-003	0.00000E+000	5.58197E-003	3.59960E-001	-1.09339E+000	3.57700E+000	10	...........
	52	0.706667	9.37335E-001	5.99696E-003	0.00000E+000	5.62116E-003	3.59960E-001	-1.08894E+000	3.57700E+000	10	...........
	53	0.72	9.43049E-001	5.99212E-003	0.00000E+000	5.65087E-003	3.59960E-001	-1.09766E+000	3.57700E+000	10	...........
	54	0.733333	9.48806E-001	5.99621E-003	0.00000E+000	5.68924E-003	3.59960E-001	-1.09350E+000	3.57700E+000	10	...........
	55	0.746667	9.54497E-001	6.00065E-003	0.00000E+000	5.72761E-003	3.59960E-001	-1.08890E+000	3.57700E+000	10	...........
	56	0.76	9.60129E-001	5.99350E-003	0.00000E+000	5.75453E-003	3.59960E-001	-1.09735E+000	3.57760E+000	10	...........
	57	0.773333	9.65751E-001	5.98742E-003	0.00000E+000	5.78236E-003	3.59960E-001	-1.09329E+000	3.57820E+000	10	...........
	58	0.786667	9.71325E-001	5.99050E-003	0.00000E+000	5.81872E-003	3.59960E-001	-1.08896E+000	3.57820E+000	10	...........
	59	0.8	9.76922E-001	5.99197E-003	0.00000E+000	5.85368E-003	3.59960E-001	-1.09727E+000	3.57820E+000	10	...........
	60	0.813333	9.82410E-001	5.99523E-003	0.00000E+000	5.88977E-003	3.59960E-001	-1.09314E+000	3.57820E+000	10	...........
	61	0.826667	9.87903E-001	5.99501E-003	0.00000E+000	5.92249E-003	3.59960E-001	-1.08823E+000	3.57820E+000	10	...........
	62	0.84	9.93318E-001	5.99406E-003	0.00000E+000	5.95401E-003	3.59960E-001	-1.09665E+000	3.57820E+000	10	...........
	63	0.851667	9.98376E-001	5.98989E-003	0.00000E+000	5.98017E-003	3.59960E-001	-1.09187E+000	3.57820E+000	10	...........
STARTTIMEOFFSET	QUANT	427.595	Start Time Offset (s)