File: Data/CV_CRGO300517_1/PWRCCD_CRGO300517_1/CHARGE_DISCHARGE/CHARGE_#975.DTA
EXPLAIN
TAG	PWR800_CHARGE
TITLE	LABEL	PWR Cyclic Charge Discharge (Cell) - Charge Step	Test &Identifier
DATE	LABEL	22-6-2017	Date
TIME	LABEL	16:13:44	Time
NOTES	NOTES	3	&Notes...
	supercap test cell
	0.6mg
	6M KOH
PSTAT	PSTAT	IFC5000-01520	Potentiostat
CAPACITY	QUANT	1.00000E-003	Capacity (A-hr)
CELLTYPE	SELECTOR	1	&Cell Type
WORKINGCONNECTION	SELECTOR	0	&Working Lead
MAXCHARGETIME	VARIABLEANDUNITS	1.00000E+002	s	1.00000E+002	second(s)	Max &Charge Time
CHARGECURRENT	QUANT	6.00000E-003	&Charge Current (A)
VOLTAGEFINISH	TWOPARAM	F	1.00000E-003	3.60000E+003	&Voltage Finish	 I (A) < 	Max Time(s)
SAMPLETIME	QUANT	1.00000E-002	Sa&mple Period (s)
CHARGESTOPAT1	MULTIPARAM	4	1.00000E+000	Charge Stop At &1	Voltage > Limit	V
CHARGESTOPAT2	MULTIPARAM	0	0.00000E+000	Charge Stop At &2	None	N/A
AESBHCSELECTOR	TOGGLE	F	Save Both Half Cells
IRCOMP	TOGGLE	F	IR &Measure
EOC	QUANT	0	Open Circuit (V)
SEQUENCER	TOGGLE	TRUE	Run as Sequence
PSTATMODEL	IQUANT	53	Pstat Model
PSTATSECTION	LABEL	IFC5000-01520	Pstat Section
PSTATSERIALNO	LABEL	01520	Pstat Serial Number
CTRLMODE	IQUANT	0	Control Mode
ELECTROMETER	IQUANT	1	RE=0 or CS=1
IESTAB	IQUANT	0	I/E Stability
CASPEED	IQUANT	4	Control Amp Speed
CONVENTION	IQUANT	1	Current Convention
ICHRANGE	IQUANT	2	Ich Range
ICHRANGEMODE	TOGGLE	T	Ich Auto Range
ICHOFFSETENABLE	TOGGLE	F	Ich Offset Enable
ICHOFFSET	QUANT	0	Ich Offset (V)
ICHFILTER	IQUANT	1	Ich Filter
VCHRANGE	IQUANT	2	Vch Range
VCHRANGEMODE	TOGGLE	T	Vch Auto Range
VCHOFFSETENABLE	TOGGLE	F	Vch Offset Enable
VCHOFFSET	QUANT	0	Vch Offset (V)
VCHFILTER	IQUANT	1	Vch Filter
IERANGELOWERLIMIT	IQUANT	9	I/E Range Lower Limit
IERANGEMODE	TOGGLE	F	I/E AutoRange
IERANGE	IQUANT	10	I/E Range
ACHSELECT	IQUANT	1	Ach Select
ACHRANGE	IQUANT	2	Ach Range
ACHOFFSETENABLE	TOGGLE	F	Ach Offset Enable
ACHOFFSET	QUANT	0	Ach Offset (V)
ACHFILTER	IQUANT	1	Ach Filter
CABLEID	IQUANT	14	Cable ID
DCCALDATE	LABEL	20-10-2016	DC Calibration Date
ACCALDATE	LABEL	12/3/2015	AC Calibration Date
FRAMEWORKVERSION	QUANT	7.01	Framework Version
INSTRUMENTVERSION	LABEL	4.00	Instrument Version
CURVE	TABLE	53
	Pt	T	Vf	Im	Vu	Pwr	Sig	Ach	Temp	IERange	Over
	#	s	V	A	V	W	V	V	deg C	#	bits
	0	0.013333	6.56051E-001	5.99424E-003	0.00000E+000	3.93252E-003	3.59960E-001	-1.17175E+000	3.57630E+000	10	...........
	1	0.026667	6.65376E-001	5.99266E-003	0.00000E+000	3.98738E-003	3.59960E-001	-1.17818E+000	3.57630E+000	10	...........
	2	0.04	6.73980E-001	5.99741E-003	0.00000E+000	4.04213E-003	3.59960E-001	-1.17922E+000	3.57630E+000	10	...........
	3	0.053333	6.82145E-001	5.99321E-003	0.00000E+000	4.08824E-003	3.59960E-001	-1.17140E+000	3.57630E+000	10	...........
	4	0.066667	6.89989E-001	5.99479E-003	0.00000E+000	4.13634E-003	3.59960E-001	-1.17794E+000	3.57630E+000	10	...........
	5	0.08	6.97656E-001	5.99314E-003	0.00000E+000	4.18115E-003	3.59960E-001	-1.17902E+000	3.57630E+000	10	...........
	6	0.093333	7.05142E-001	5.99566E-003	0.00000E+000	4.22779E-003	3.59960E-001	-1.17142E+000	3.57630E+000	10	...........
	7	0.106667	7.12466E-001	5.99463E-003	0.00000E+000	4.27097E-003	3.59960E-001	-1.17799E+000	3.57630E+000	10	...........
	8	0.12	7.19860E-001	5.99469E-003	0.00000E+000	4.31534E-003	3.59960E-001	-1.17916E+000	3.57630E+000	10	...........
	9	0.133333	7.27034E-001	5.99305E-003	0.00000E+000	4.35715E-003	3.59960E-001	-1.17125E+000	3.57630E+000	10	...........
	10	0.146667	7.34142E-001	5.99362E-003	0.00000E+000	4.40017E-003	3.59960E-001	-1.17803E+000	3.57630E+000	10	...........
	11	0.16	7.41237E-001	5.98999E-003	0.00000E+000	4.44001E-003	3.59960E-001	-1.17904E+000	3.57630E+000	10	...........
	12	0.173333	7.48283E-001	5.99413E-003	0.00000E+000	4.48530E-003	3.59960E-001	-1.17126E+000	3.57630E+000	10	...........
	13	0.186667	7.55310E-001	5.99550E-003	0.00000E+000	4.52846E-003	3.59960E-001	-1.17817E+000	3.57636E+000	10	...........
	14	0.2	7.62239E-001	5.99148E-003	0.00000E+000	4.56693E-003	3.59960E-001	-1.17907E+000	3.57660E+000	10	...........
	15	0.213333	7.69130E-001	5.99393E-003	0.00000E+000	4.61011E-003	3.59960E-001	-1.17115E+000	3.57660E+000	10	...........
	16	0.226667	7.76037E-001	5.99337E-003	0.00000E+000	4.65108E-003	3.59960E-001	-1.17795E+000	3.57660E+000	10	...........
	17	0.24	7.82896E-001	5.99459E-003	0.00000E+000	4.69315E-003	3.59960E-001	-1.17901E+000	3.57660E+000	10	...........
	18	0.253333	7.89690E-001	5.99387E-003	0.00000E+000	4.73330E-003	3.59960E-001	-1.17134E+000	3.57660E+000	10	...........
	19	0.266667	7.96534E-001	5.99220E-003	0.00000E+000	4.77299E-003	3.59960E-001	-1.17809E+000	3.57660E+000	10	...........
	20	0.28	8.03315E-001	5.99874E-003	0.00000E+000	4.81887E-003	3.59960E-001	-1.17919E+000	3.57660E+000	10	...........
	21	0.293333	8.10041E-001	5.99419E-003	0.00000E+000	4.85554E-003	3.59960E-001	-1.17140E+000	3.57660E+000	10	...........
	22	0.306667	8.16737E-001	5.99368E-003	0.00000E+000	4.89526E-003	3.59960E-001	-1.17806E+000	3.57660E+000	10	...........
	23	0.32	8.23437E-001	5.98812E-003	0.00000E+000	4.93084E-003	3.59960E-001	-1.17914E+000	3.57660E+000	10	...........
	24	0.333333	8.30065E-001	5.99040E-003	0.00000E+000	4.97242E-003	3.59960E-001	-1.17141E+000	3.57660E+000	10	...........
	25	0.346667	8.36725E-001	5.99214E-003	0.00000E+000	5.01378E-003	3.59960E-001	-1.17794E+000	3.57660E+000	10	...........
	26	0.36	8.43357E-001	5.99575E-003	0.00000E+000	5.05656E-003	3.59960E-001	-1.17868E+000	3.57660E+000	10	...........
	27	0.373333	8.49948E-001	5.99280E-003	0.00000E+000	5.09357E-003	3.59960E-001	-1.17107E+000	3.57660E+000	10	...........
	28	0.386667	8.56515E-001	5.99559E-003	0.00000E+000	5.13531E-003	3.59960E-001	-1.17779E+000	3.57660E+000	10	...........
	29	0.4	8.63035E-001	5.99383E-003	0.00000E+000	5.17289E-003	3.59960E-001	-1.17899E+000	3.57660E+000	10	...........
	30	0.413333	8.69534E-001	5.99323E-003	0.00000E+000	5.21132E-003	3.59960E-001	-1.17112E+000	3.57660E+000	10	...........
	31	0.426667	8.75983E-001	5.99520E-003	0.00000E+000	5.25169E-003	3.59960E-001	-1.17769E+000	3.57660E+000	10	...........
	32	0.44	8.82420E-001	5.99428E-003	0.00000E+000	5.28948E-003	3.59960E-001	-1.17882E+000	3.57660E+000	10	...........
	33	0.453333	8.88838E-001	5.99245E-003	0.00000E+000	5.32631E-003	3.59960E-001	-1.17124E+000	3.57660E+000	10	...........
	34	0.466667	8.95198E-001	5.99320E-003	0.00000E+000	5.36510E-003	3.59960E-001	-1.17796E+000	3.57660E+000	10	...........
	35	0.48	9.01505E-001	5.99551E-003	0.00000E+000	5.40498E-003	3.59960E-001	-1.17886E+000	3.57660E+000	10	...........
	36	0.493333	9.07754E-001	5.99147E-003	0.00000E+000	5.43877E-003	3.59960E-001	-1.17108E+000	3.57660E+000	10	...........
	37	0.506667	9.14035E-001	5.99288E-003	0.00000E+000	5.47770E-003	3.59960E-001	-1.17794E+000	3.57660E+000	10	...........
	38	0.52	9.20290E-001	5.99572E-003	0.00000E+000	5.51780E-003	3.59960E-001	-1.17902E+000	3.57660E+000	10	...........
	39	0.533333	9.26476E-001	5.99203E-003	0.00000E+000	5.55147E-003	3.59960E-001	-1.17105E+000	3.57660E+000	10	...........
	40	0.546667	9.32555E-001	5.99430E-003	0.00000E+000	5.59002E-003	3.59960E-001	-1.17799E+000	3.57660E+000	10	...........
	41	0.56	9.38611E-001	5.99322E-003	0.00000E+000	5.62530E-003	3.59960E-001	-1.17905E+000	3.57660E+000	10	...........
	42	0.573333	9.44674E-001	5.99516E-003	0.00000E+000	5.66347E-003	3.59960E-001	-1.17117E+000	3.57660E+000	10	...........
	43	0.586667	9.50658E-001	5.99460E-003	0.00000E+000	5.69882E-003	3.59960E-001	-1.17807E+000	3.57660E+000	10	...........
	44	0.6	9.56607E-001	5.99532E-003	0.00000E+000	5.73517E-003	3.59960E-001	-1.17934E+000	3.57660E+000	10	...........
	45	0.613333	9.62444E-001	5.99865E-003	0.00000E+000	5.77337E-003	3.59960E-001	-1.17139E+000	3.57660E+000	10	...........
	46	0.626667	9.68289E-001	5.99011E-003	0.00000E+000	5.80015E-003	3.59960E-001	-1.17792E+000	3.57660E+000	10	...........
	47	0.64	9.74097E-001	5.99501E-003	0.00000E+000	5.83972E-003	3.59960E-001	-1.17892E+000	3.57660E+000	10	...........
	48	0.653333	9.79783E-001	5.99791E-003	0.00000E+000	5.87665E-003	3.59960E-001	-1.17149E+000	3.57660E+000	10	...........
	49	0.666667	9.85480E-001	5.99197E-003	0.00000E+000	5.90496E-003	3.59960E-001	-1.17807E+000	3.57660E+000	10	...........
	50	0.68	9.91093E-001	5.99098E-003	0.00000E+000	5.93761E-003	3.59960E-001	-1.17854E+000	3.57660E+000	10	...........
	51	0.693333	9.96653E-001	5.99511E-003	0.00000E+000	5.97504E-003	3.59960E-001	-1.17114E+000	3.57660E+000	10	...........
	52	0.696667	1.00008E+000	5.98812E-003	0.00000E+000	5.98859E-003	3.59960E-001	-1.18634E+000	3.57660E+000	10	...........
STARTTIMEOFFSET	QUANT	1550.703	Start Time Offset (s)