File: Data/CV_CRGO300517_1/PWRCCD_CRGO300517_1/CHARGE_DISCHARGE/CHARGE_#154.DTA
EXPLAIN
TAG	PWR800_CHARGE
TITLE	LABEL	PWR Cyclic Charge Discharge (Cell) - Charge Step	Test &Identifier
DATE	LABEL	22-6-2017	Date
TIME	LABEL	15:41:51	Time
NOTES	NOTES	3	&Notes...
	supercap test cell
	0.6mg
	6M KOH
PSTAT	PSTAT	IFC5000-01520	Potentiostat
CAPACITY	QUANT	1.00000E-003	Capacity (A-hr)
CELLTYPE	SELECTOR	1	&Cell Type
WORKINGCONNECTION	SELECTOR	0	&Working Lead
MAXCHARGETIME	VARIABLEANDUNITS	1.00000E+002	s	1.00000E+002	second(s)	Max &Charge Time
CHARGECURRENT	QUANT	6.00000E-003	&Charge Current (A)
VOLTAGEFINISH	TWOPARAM	F	1.00000E-003	3.60000E+003	&Voltage Finish	 I (A) < 	Max Time(s)
SAMPLETIME	QUANT	1.00000E-002	Sa&mple Period (s)
CHARGESTOPAT1	MULTIPARAM	4	1.00000E+000	Charge Stop At &1	Voltage > Limit	V
CHARGESTOPAT2	MULTIPARAM	0	0.00000E+000	Charge Stop At &2	None	N/A
AESBHCSELECTOR	TOGGLE	F	Save Both Half Cells
IRCOMP	TOGGLE	F	IR &Measure
EOC	QUANT	0	Open Circuit (V)
SEQUENCER	TOGGLE	TRUE	Run as Sequence
PSTATMODEL	IQUANT	53	Pstat Model
PSTATSECTION	LABEL	IFC5000-01520	Pstat Section
PSTATSERIALNO	LABEL	01520	Pstat Serial Number
CTRLMODE	IQUANT	0	Control Mode
ELECTROMETER	IQUANT	1	RE=0 or CS=1
IESTAB	IQUANT	0	I/E Stability
CASPEED	IQUANT	4	Control Amp Speed
CONVENTION	IQUANT	1	Current Convention
ICHRANGE	IQUANT	2	Ich Range
ICHRANGEMODE	TOGGLE	T	Ich Auto Range
ICHOFFSETENABLE	TOGGLE	F	Ich Offset Enable
ICHOFFSET	QUANT	0	Ich Offset (V)
ICHFILTER	IQUANT	1	Ich Filter
VCHRANGE	IQUANT	2	Vch Range
VCHRANGEMODE	TOGGLE	T	Vch Auto Range
VCHOFFSETENABLE	TOGGLE	F	Vch Offset Enable
VCHOFFSET	QUANT	0	Vch Offset (V)
VCHFILTER	IQUANT	1	Vch Filter
IERANGELOWERLIMIT	IQUANT	9	I/E Range Lower Limit
IERANGEMODE	TOGGLE	F	I/E AutoRange
IERANGE	IQUANT	10	I/E Range
ACHSELECT	IQUANT	1	Ach Select
ACHRANGE	IQUANT	2	Ach Range
ACHOFFSETENABLE	TOGGLE	F	Ach Offset Enable
ACHOFFSET	QUANT	0	Ach Offset (V)
ACHFILTER	IQUANT	1	Ach Filter
CABLEID	IQUANT	14	Cable ID
DCCALDATE	LABEL	20-10-2016	DC Calibration Date
ACCALDATE	LABEL	12/3/2015	AC Calibration Date
FRAMEWORKVERSION	QUANT	7.01	Framework Version
INSTRUMENTVERSION	LABEL	4.00	Instrument Version
CURVE	TABLE	67
	Pt	T	Vf	Im	Vu	Pwr	Sig	Ach	Temp	IERange	Over
	#	s	V	A	V	W	V	V	deg C	#	bits
	0	0.013333	5.99047E-001	5.99564E-003	0.00000E+000	3.59167E-003	3.59960E-001	-1.06866E+000	3.57830E+000	10	...........
	1	0.026667	6.07424E-001	5.99243E-003	0.00000E+000	3.63994E-003	3.59960E-001	-1.07997E+000	3.57830E+000	10	...........
	2	0.04	6.15154E-001	5.99205E-003	0.00000E+000	3.68603E-003	3.59960E-001	-1.07278E+000	3.57830E+000	10	...........
	3	0.053333	6.22507E-001	5.99783E-003	0.00000E+000	3.73369E-003	3.59960E-001	-1.06894E+000	3.57830E+000	10	...........
	4	0.066667	6.29556E-001	5.99528E-003	0.00000E+000	3.77437E-003	3.59960E-001	-1.07966E+000	3.57830E+000	10	...........
	5	0.08	6.36377E-001	5.99616E-003	0.00000E+000	3.81582E-003	3.59960E-001	-1.07231E+000	3.57830E+000	10	...........
	6	0.093333	6.43095E-001	5.99304E-003	0.00000E+000	3.85409E-003	3.59960E-001	-1.06845E+000	3.57830E+000	10	...........
	7	0.106667	6.49638E-001	5.99435E-003	0.00000E+000	3.89416E-003	3.59960E-001	-1.07965E+000	3.57830E+000	10	...........
	8	0.12	6.56137E-001	5.99592E-003	0.00000E+000	3.93414E-003	3.59960E-001	-1.07227E+000	3.57830E+000	10	...........
	9	0.133333	6.62540E-001	5.99811E-003	0.00000E+000	3.97399E-003	3.59960E-001	-1.06833E+000	3.57830E+000	10	...........
	10	0.146667	6.68932E-001	5.99453E-003	0.00000E+000	4.00993E-003	3.59960E-001	-1.07922E+000	3.57830E+000	10	...........
	11	0.16	6.75225E-001	5.99293E-003	0.00000E+000	4.04657E-003	3.59960E-001	-1.07232E+000	3.57830E+000	10	...........
	12	0.173333	6.81489E-001	5.99316E-003	0.00000E+000	4.08427E-003	3.59960E-001	-1.06866E+000	3.57830E+000	10	...........
	13	0.186667	6.87720E-001	5.99608E-003	0.00000E+000	4.12362E-003	3.59960E-001	-1.07951E+000	3.57830E+000	10	...........
	14	0.2	6.93922E-001	5.99451E-003	0.00000E+000	4.15972E-003	3.59960E-001	-1.07238E+000	3.57830E+000	10	...........
	15	0.213333	7.00082E-001	5.99458E-003	0.00000E+000	4.19670E-003	3.59960E-001	-1.06815E+000	3.57830E+000	10	...........
	16	0.226667	7.06222E-001	5.99217E-003	0.00000E+000	4.23180E-003	3.59960E-001	-1.07927E+000	3.57830E+000	10	...........
	17	0.24	7.12326E-001	5.99275E-003	0.00000E+000	4.26879E-003	3.59960E-001	-1.07283E+000	3.57830E+000	10	...........
	18	0.253333	7.18476E-001	5.99825E-003	0.00000E+000	4.30960E-003	3.59960E-001	-1.06848E+000	3.57830E+000	10	...........
	19	0.266667	7.24580E-001	5.99676E-003	0.00000E+000	4.34513E-003	3.59960E-001	-1.07907E+000	3.57830E+000	10	...........
	20	0.28	7.30672E-001	5.99527E-003	0.00000E+000	4.38058E-003	3.59960E-001	-1.07277E+000	3.57830E+000	10	...........
	21	0.293333	7.36717E-001	5.99278E-003	0.00000E+000	4.41498E-003	3.59960E-001	-1.06857E+000	3.57830E+000	10	...........
	22	0.306667	7.42816E-001	5.99374E-003	0.00000E+000	4.45225E-003	3.59960E-001	-1.07949E+000	3.57830E+000	10	...........
	23	0.32	7.48894E-001	5.99378E-003	0.00000E+000	4.48870E-003	3.59960E-001	-1.07322E+000	3.57830E+000	10	...........
	24	0.333333	7.54917E-001	5.99427E-003	0.00000E+000	4.52518E-003	3.59960E-001	-1.06846E+000	3.57830E+000	10	...........
	25	0.346667	7.60951E-001	5.99345E-003	0.00000E+000	4.56072E-003	3.59960E-001	-1.07918E+000	3.57830E+000	10	...........
	26	0.36	7.67023E-001	5.99535E-003	0.00000E+000	4.59857E-003	3.59960E-001	-1.07328E+000	3.57830E+000	10	...........
	27	0.373333	7.73084E-001	5.99038E-003	0.00000E+000	4.63107E-003	3.59960E-001	-1.06879E+000	3.57830E+000	10	...........
	28	0.386667	7.79086E-001	5.99836E-003	0.00000E+000	4.67324E-003	3.59960E-001	-1.07929E+000	3.57830E+000	10	...........
	29	0.4	7.85126E-001	5.99540E-003	0.00000E+000	4.70714E-003	3.59960E-001	-1.07335E+000	3.57830E+000	10	...........
	30	0.413333	7.91137E-001	5.99303E-003	0.00000E+000	4.74131E-003	3.59960E-001	-1.06839E+000	3.57830E+000	10	...........
	31	0.426667	7.97173E-001	5.99816E-003	0.00000E+000	4.78157E-003	3.59960E-001	-1.07871E+000	3.57830E+000	10	...........
	32	0.44	8.03151E-001	5.99317E-003	0.00000E+000	4.81342E-003	3.59960E-001	-1.07305E+000	3.57830E+000	10	...........
	33	0.453333	8.09142E-001	5.99061E-003	0.00000E+000	4.84726E-003	3.59960E-001	-1.06826E+000	3.57830E+000	10	...........
	34	0.466667	8.15122E-001	5.99411E-003	0.00000E+000	4.88593E-003	3.59960E-001	-1.07854E+000	3.57830E+000	10	...........
	35	0.48	8.21170E-001	5.99455E-003	0.00000E+000	4.92255E-003	3.59960E-001	-1.07320E+000	3.57830E+000	10	...........
	36	0.493333	8.27101E-001	5.99276E-003	0.00000E+000	4.95662E-003	3.59960E-001	-1.06828E+000	3.57830E+000	10	...........
	37	0.506667	8.33068E-001	5.99057E-003	0.00000E+000	4.99055E-003	3.59960E-001	-1.07872E+000	3.57830E+000	10	...........
	38	0.52	8.39014E-001	5.99592E-003	0.00000E+000	5.03066E-003	3.59960E-001	-1.07332E+000	3.57830E+000	10	...........
	39	0.533333	8.44999E-001	5.98951E-003	0.00000E+000	5.06114E-003	3.59960E-001	-1.06803E+000	3.57792E+000	10	...........
	40	0.546667	8.50943E-001	5.99523E-003	0.00000E+000	5.10160E-003	3.59960E-001	-1.07814E+000	3.57730E+000	10	...........
	41	0.56	8.56847E-001	5.99284E-003	0.00000E+000	5.13495E-003	3.59960E-001	-1.07344E+000	3.57730E+000	10	...........
	42	0.573333	8.62752E-001	5.99474E-003	0.00000E+000	5.17197E-003	3.59960E-001	-1.06829E+000	3.57730E+000	10	...........
	43	0.586667	8.68744E-001	5.99715E-003	0.00000E+000	5.20999E-003	3.59960E-001	-1.07844E+000	3.57730E+000	10	...........
	44	0.6	8.74660E-001	5.99537E-003	0.00000E+000	5.24391E-003	3.59960E-001	-1.07357E+000	3.57730E+000	10	...........
	45	0.613333	8.80564E-001	5.99514E-003	0.00000E+000	5.27910E-003	3.59960E-001	-1.06829E+000	3.57730E+000	10	...........
	46	0.626667	8.86472E-001	5.99497E-003	0.00000E+000	5.31437E-003	3.59960E-001	-1.07840E+000	3.57730E+000	10	...........
	47	0.64	8.92308E-001	5.99373E-003	0.00000E+000	5.34825E-003	3.59960E-001	-1.07396E+000	3.57730E+000	10	...........
	48	0.653333	8.98194E-001	5.99237E-003	0.00000E+000	5.38231E-003	3.59960E-001	-1.06840E+000	3.57730E+000	10	...........
	49	0.666667	9.04015E-001	5.99772E-003	0.00000E+000	5.42203E-003	3.59960E-001	-1.07812E+000	3.57730E+000	10	...........
	50	0.68	9.09846E-001	5.99068E-003	0.00000E+000	5.45060E-003	3.59960E-001	-1.07399E+000	3.57730E+000	10	...........
	51	0.693333	9.15644E-001	5.99298E-003	0.00000E+000	5.48743E-003	3.59960E-001	-1.06868E+000	3.57730E+000	10	...........
	52	0.706667	9.21505E-001	5.99568E-003	0.00000E+000	5.52505E-003	3.59960E-001	-1.07824E+000	3.57730E+000	10	...........
	53	0.72	9.27262E-001	5.99045E-003	0.00000E+000	5.55472E-003	3.59960E-001	-1.07412E+000	3.57730E+000	10	...........
	54	0.733333	9.32965E-001	5.98895E-003	0.00000E+000	5.58748E-003	3.59960E-001	-1.06832E+000	3.57730E+000	10	...........
	55	0.746667	9.38674E-001	5.99694E-003	0.00000E+000	5.62917E-003	3.59960E-001	-1.07750E+000	3.57730E+000	10	...........
	56	0.76	9.44356E-001	5.99243E-003	0.00000E+000	5.65898E-003	3.59960E-001	-1.07387E+000	3.57730E+000	10	...........
	57	0.773333	9.50010E-001	5.99200E-003	0.00000E+000	5.69246E-003	3.59960E-001	-1.06858E+000	3.57730E+000	10	...........
	58	0.786667	9.55606E-001	5.99281E-003	0.00000E+000	5.72677E-003	3.59960E-001	-1.07775E+000	3.57730E+000	10	...........
	59	0.8	9.61187E-001	5.99358E-003	0.00000E+000	5.76095E-003	3.59960E-001	-1.07421E+000	3.57730E+000	10	...........
	60	0.813333	9.66758E-001	5.99190E-003	0.00000E+000	5.79272E-003	3.59960E-001	-1.06835E+000	3.57730E+000	10	...........
	61	0.826667	9.72290E-001	5.99001E-003	0.00000E+000	5.82402E-003	3.59960E-001	-1.07774E+000	3.57730E+000	10	...........
	62	0.84	9.77827E-001	5.99707E-003	0.00000E+000	5.86409E-003	3.59960E-001	-1.07436E+000	3.57730E+000	10	...........
	63	0.853333	9.83249E-001	5.99271E-003	0.00000E+000	5.89232E-003	3.59960E-001	-1.06858E+000	3.57730E+000	10	...........
	64	0.866667	9.88645E-001	5.99276E-003	0.00000E+000	5.92471E-003	3.59960E-001	-1.07740E+000	3.57730E+000	10	...........
	65	0.88	9.94032E-001	5.99312E-003	0.00000E+000	5.95736E-003	3.59960E-001	-1.07442E+000	3.57730E+000	10	...........
	66	0.89	9.98713E-001	5.99666E-003	0.00000E+000	5.98894E-003	3.59960E-001	-1.06648E+000	3.57730E+000	10	...........
STARTTIMEOFFSET	QUANT	292.7017	Start Time Offset (s)