File: Data/CV_CRGO300517_1/PWRCCD_CRGO300517_1/CHARGE_DISCHARGE/CHARGE_#892.DTA
EXPLAIN
TAG	PWR800_CHARGE
TITLE	LABEL	PWR Cyclic Charge Discharge (Cell) - Charge Step	Test &Identifier
DATE	LABEL	22-6-2017	Date
TIME	LABEL	16:10:41	Time
NOTES	NOTES	3	&Notes...
	supercap test cell
	0.6mg
	6M KOH
PSTAT	PSTAT	IFC5000-01520	Potentiostat
CAPACITY	QUANT	1.00000E-003	Capacity (A-hr)
CELLTYPE	SELECTOR	1	&Cell Type
WORKINGCONNECTION	SELECTOR	0	&Working Lead
MAXCHARGETIME	VARIABLEANDUNITS	1.00000E+002	s	1.00000E+002	second(s)	Max &Charge Time
CHARGECURRENT	QUANT	6.00000E-003	&Charge Current (A)
VOLTAGEFINISH	TWOPARAM	F	1.00000E-003	3.60000E+003	&Voltage Finish	 I (A) < 	Max Time(s)
SAMPLETIME	QUANT	1.00000E-002	Sa&mple Period (s)
CHARGESTOPAT1	MULTIPARAM	4	1.00000E+000	Charge Stop At &1	Voltage > Limit	V
CHARGESTOPAT2	MULTIPARAM	0	0.00000E+000	Charge Stop At &2	None	N/A
AESBHCSELECTOR	TOGGLE	F	Save Both Half Cells
IRCOMP	TOGGLE	F	IR &Measure
EOC	QUANT	0	Open Circuit (V)
SEQUENCER	TOGGLE	TRUE	Run as Sequence
PSTATMODEL	IQUANT	53	Pstat Model
PSTATSECTION	LABEL	IFC5000-01520	Pstat Section
PSTATSERIALNO	LABEL	01520	Pstat Serial Number
CTRLMODE	IQUANT	0	Control Mode
ELECTROMETER	IQUANT	1	RE=0 or CS=1
IESTAB	IQUANT	0	I/E Stability
CASPEED	IQUANT	4	Control Amp Speed
CONVENTION	IQUANT	1	Current Convention
ICHRANGE	IQUANT	2	Ich Range
ICHRANGEMODE	TOGGLE	T	Ich Auto Range
ICHOFFSETENABLE	TOGGLE	F	Ich Offset Enable
ICHOFFSET	QUANT	0	Ich Offset (V)
ICHFILTER	IQUANT	1	Ich Filter
VCHRANGE	IQUANT	2	Vch Range
VCHRANGEMODE	TOGGLE	T	Vch Auto Range
VCHOFFSETENABLE	TOGGLE	F	Vch Offset Enable
VCHOFFSET	QUANT	0	Vch Offset (V)
VCHFILTER	IQUANT	1	Vch Filter
IERANGELOWERLIMIT	IQUANT	9	I/E Range Lower Limit
IERANGEMODE	TOGGLE	F	I/E AutoRange
IERANGE	IQUANT	10	I/E Range
ACHSELECT	IQUANT	1	Ach Select
ACHRANGE	IQUANT	2	Ach Range
ACHOFFSETENABLE	TOGGLE	F	Ach Offset Enable
ACHOFFSET	QUANT	0	Ach Offset (V)
ACHFILTER	IQUANT	1	Ach Filter
CABLEID	IQUANT	14	Cable ID
DCCALDATE	LABEL	20-10-2016	DC Calibration Date
ACCALDATE	LABEL	12/3/2015	AC Calibration Date
FRAMEWORKVERSION	QUANT	7.01	Framework Version
INSTRUMENTVERSION	LABEL	4.00	Instrument Version
CURVE	TABLE	54
	Pt	T	Vf	Im	Vu	Pwr	Sig	Ach	Temp	IERange	Over
	#	s	V	A	V	W	V	V	deg C	#	bits
	0	0.013333	6.52240E-001	5.99149E-003	0.00000E+000	3.90789E-003	3.59960E-001	-1.17772E+000	3.57650E+000	10	...........
	1	0.026667	6.61554E-001	5.99304E-003	0.00000E+000	3.96472E-003	3.59960E-001	-1.16866E+000	3.57650E+000	10	...........
	2	0.04	6.70106E-001	5.99271E-003	0.00000E+000	4.01575E-003	3.59960E-001	-1.16626E+000	3.57650E+000	10	...........
	3	0.053333	6.78153E-001	5.99163E-003	0.00000E+000	4.06324E-003	3.59960E-001	-1.17732E+000	3.57650E+000	10	...........
	4	0.066667	6.85909E-001	5.99130E-003	0.00000E+000	4.10949E-003	3.59960E-001	-1.16801E+000	3.57650E+000	10	...........
	5	0.08	6.93478E-001	5.99480E-003	0.00000E+000	4.15727E-003	3.59960E-001	-1.16579E+000	3.57650E+000	10	...........
	6	0.093333	7.00945E-001	5.99571E-003	0.00000E+000	4.20266E-003	3.59960E-001	-1.17726E+000	3.57650E+000	10	...........
	7	0.106667	7.08241E-001	5.99565E-003	0.00000E+000	4.24636E-003	3.59960E-001	-1.16806E+000	3.57650E+000	10	...........
	8	0.12	7.15471E-001	5.99273E-003	0.00000E+000	4.28762E-003	3.59960E-001	-1.16581E+000	3.57650E+000	10	...........
	9	0.133333	7.22635E-001	5.99305E-003	0.00000E+000	4.33079E-003	3.59960E-001	-1.17700E+000	3.57650E+000	10	...........
	10	0.146667	7.29685E-001	5.99165E-003	0.00000E+000	4.37202E-003	3.59960E-001	-1.16775E+000	3.57650E+000	10	...........
	11	0.16	7.36752E-001	5.99284E-003	0.00000E+000	4.41524E-003	3.59960E-001	-1.16609E+000	3.57650E+000	10	...........
	12	0.173333	7.43725E-001	5.99859E-003	0.00000E+000	4.46130E-003	3.59960E-001	-1.17718E+000	3.57650E+000	10	...........
	13	0.186667	7.50658E-001	5.99547E-003	0.00000E+000	4.50055E-003	3.59960E-001	-1.16784E+000	3.57650E+000	10	...........
	14	0.2	7.57618E-001	5.99183E-003	0.00000E+000	4.53952E-003	3.59960E-001	-1.16569E+000	3.57650E+000	10	...........
	15	0.213333	7.64439E-001	5.99399E-003	0.00000E+000	4.58204E-003	3.59960E-001	-1.17698E+000	3.57650E+000	10	...........
	16	0.226667	7.71303E-001	5.99284E-003	0.00000E+000	4.62230E-003	3.59960E-001	-1.16784E+000	3.57650E+000	10	...........
	17	0.24	7.78099E-001	5.99601E-003	0.00000E+000	4.66549E-003	3.59960E-001	-1.16582E+000	3.57650E+000	10	...........
	18	0.253333	7.84902E-001	5.99474E-003	0.00000E+000	4.70528E-003	3.59960E-001	-1.17703E+000	3.57650E+000	10	...........
	19	0.266667	7.91681E-001	5.99226E-003	0.00000E+000	4.74396E-003	3.59960E-001	-1.16758E+000	3.57650E+000	10	...........
	20	0.28	7.98466E-001	5.99604E-003	0.00000E+000	4.78764E-003	3.59960E-001	-1.16563E+000	3.57650E+000	10	...........
	21	0.293333	8.05139E-001	5.99244E-003	0.00000E+000	4.82475E-003	3.59960E-001	-1.17692E+000	3.57650E+000	10	...........
	22	0.306667	8.11797E-001	5.98797E-003	0.00000E+000	4.86102E-003	3.59960E-001	-1.16759E+000	3.57650E+000	10	...........
	23	0.32	8.18422E-001	5.99158E-003	0.00000E+000	4.90364E-003	3.59960E-001	-1.16570E+000	3.57650E+000	10	...........
	24	0.333333	8.25121E-001	5.99148E-003	0.00000E+000	4.94369E-003	3.59960E-001	-1.17679E+000	3.57655E+000	10	...........
	25	0.346667	8.31709E-001	5.99675E-003	0.00000E+000	4.98756E-003	3.59960E-001	-1.16732E+000	3.57660E+000	10	...........
	26	0.36	8.38253E-001	5.99487E-003	0.00000E+000	5.02521E-003	3.59960E-001	-1.16544E+000	3.57660E+000	10	...........
	27	0.373333	8.44822E-001	5.99458E-003	0.00000E+000	5.06435E-003	3.59960E-001	-1.17662E+000	3.57660E+000	10	...........
	28	0.386667	8.51383E-001	5.99316E-003	0.00000E+000	5.10247E-003	3.59960E-001	-1.16703E+000	3.57660E+000	10	...........
	29	0.4	8.57890E-001	5.99361E-003	0.00000E+000	5.14186E-003	3.59960E-001	-1.16513E+000	3.57660E+000	10	...........
	30	0.413333	8.64359E-001	5.99688E-003	0.00000E+000	5.18346E-003	3.59960E-001	-1.17660E+000	3.57660E+000	10	...........
	31	0.426667	8.70790E-001	5.99380E-003	0.00000E+000	5.21934E-003	3.59960E-001	-1.16718E+000	3.57660E+000	10	...........
	32	0.44	8.77230E-001	5.99172E-003	0.00000E+000	5.25611E-003	3.59960E-001	-1.16528E+000	3.57660E+000	10	...........
	33	0.453333	8.83602E-001	5.99718E-003	0.00000E+000	5.29912E-003	3.59960E-001	-1.17644E+000	3.57660E+000	10	...........
	34	0.466667	8.89936E-001	5.99069E-003	0.00000E+000	5.33133E-003	3.59960E-001	-1.16684E+000	3.57660E+000	10	...........
	35	0.48	8.96233E-001	5.99555E-003	0.00000E+000	5.37341E-003	3.59960E-001	-1.16510E+000	3.57660E+000	10	...........
	36	0.493333	9.02484E-001	5.99423E-003	0.00000E+000	5.40970E-003	3.59960E-001	-1.17655E+000	3.57660E+000	10	...........
	37	0.506667	9.08710E-001	5.99392E-003	0.00000E+000	5.44673E-003	3.59960E-001	-1.16693E+000	3.57660E+000	10	...........
	38	0.52	9.14934E-001	5.99517E-003	0.00000E+000	5.48518E-003	3.59960E-001	-1.16516E+000	3.57660E+000	10	...........
	39	0.533333	9.21112E-001	5.99325E-003	0.00000E+000	5.52046E-003	3.59960E-001	-1.17622E+000	3.57660E+000	10	...........
	40	0.546667	9.27257E-001	5.99113E-003	0.00000E+000	5.55532E-003	3.59960E-001	-1.16676E+000	3.57660E+000	10	...........
	41	0.56	9.33364E-001	5.99226E-003	0.00000E+000	5.59296E-003	3.59960E-001	-1.16540E+000	3.57660E+000	10	...........
	42	0.573333	9.39394E-001	5.99660E-003	0.00000E+000	5.63317E-003	3.59960E-001	-1.17665E+000	3.57660E+000	10	...........
	43	0.586667	9.45373E-001	5.99520E-003	0.00000E+000	5.66770E-003	3.59960E-001	-1.16674E+000	3.57660E+000	10	...........
	44	0.6	9.51348E-001	5.99489E-003	0.00000E+000	5.70323E-003	3.59960E-001	-1.16526E+000	3.57660E+000	10	...........
	45	0.613333	9.57228E-001	5.98938E-003	0.00000E+000	5.73320E-003	3.59960E-001	-1.17658E+000	3.57660E+000	10	...........
	46	0.626667	9.63050E-001	5.99366E-003	0.00000E+000	5.77219E-003	3.59960E-001	-1.16688E+000	3.57660E+000	10	...........
	47	0.64	9.68874E-001	5.99516E-003	0.00000E+000	5.80855E-003	3.59960E-001	-1.16536E+000	3.57660E+000	10	...........
	48	0.653333	9.74612E-001	5.99156E-003	0.00000E+000	5.83945E-003	3.59960E-001	-1.17668E+000	3.57660E+000	10	...........
	49	0.666667	9.80339E-001	5.99082E-003	0.00000E+000	5.87303E-003	3.59960E-001	-1.16672E+000	3.57660E+000	10	...........
	50	0.68	9.85999E-001	5.98843E-003	0.00000E+000	5.90459E-003	3.59960E-001	-1.16488E+000	3.57660E+000	10	...........
	51	0.693333	9.91595E-001	5.99705E-003	0.00000E+000	5.94664E-003	3.59960E-001	-1.17626E+000	3.57660E+000	10	...........
	52	0.706667	9.97183E-001	5.99682E-003	0.00000E+000	5.97992E-003	3.59960E-001	-1.16659E+000	3.57660E+000	10	...........
	53	0.708333	1.00022E+000	6.00714E-003	0.00000E+000	6.00849E-003	3.59960E-001	-1.17914E+000	3.57660E+000	10	...........
STARTTIMEOFFSET	QUANT	1434.808	Start Time Offset (s)