File: Data/CV_CRGO300517_1/PWRCCD_CRGO300517_1/CHARGE_DISCHARGE/CHARGE_#447.DTA
EXPLAIN
TAG	PWR800_CHARGE
TITLE	LABEL	PWR Cyclic Charge Discharge (Cell) - Charge Step	Test &Identifier
DATE	LABEL	22-6-2017	Date
TIME	LABEL	15:53:50	Time
NOTES	NOTES	3	&Notes...
	supercap test cell
	0.6mg
	6M KOH
PSTAT	PSTAT	IFC5000-01520	Potentiostat
CAPACITY	QUANT	1.00000E-003	Capacity (A-hr)
CELLTYPE	SELECTOR	1	&Cell Type
WORKINGCONNECTION	SELECTOR	0	&Working Lead
MAXCHARGETIME	VARIABLEANDUNITS	1.00000E+002	s	1.00000E+002	second(s)	Max &Charge Time
CHARGECURRENT	QUANT	6.00000E-003	&Charge Current (A)
VOLTAGEFINISH	TWOPARAM	F	1.00000E-003	3.60000E+003	&Voltage Finish	 I (A) < 	Max Time(s)
SAMPLETIME	QUANT	1.00000E-002	Sa&mple Period (s)
CHARGESTOPAT1	MULTIPARAM	4	1.00000E+000	Charge Stop At &1	Voltage > Limit	V
CHARGESTOPAT2	MULTIPARAM	0	0.00000E+000	Charge Stop At &2	None	N/A
AESBHCSELECTOR	TOGGLE	F	Save Both Half Cells
IRCOMP	TOGGLE	F	IR &Measure
EOC	QUANT	0	Open Circuit (V)
SEQUENCER	TOGGLE	TRUE	Run as Sequence
PSTATMODEL	IQUANT	53	Pstat Model
PSTATSECTION	LABEL	IFC5000-01520	Pstat Section
PSTATSERIALNO	LABEL	01520	Pstat Serial Number
CTRLMODE	IQUANT	0	Control Mode
ELECTROMETER	IQUANT	1	RE=0 or CS=1
IESTAB	IQUANT	0	I/E Stability
CASPEED	IQUANT	4	Control Amp Speed
CONVENTION	IQUANT	1	Current Convention
ICHRANGE	IQUANT	2	Ich Range
ICHRANGEMODE	TOGGLE	T	Ich Auto Range
ICHOFFSETENABLE	TOGGLE	F	Ich Offset Enable
ICHOFFSET	QUANT	0	Ich Offset (V)
ICHFILTER	IQUANT	1	Ich Filter
VCHRANGE	IQUANT	2	Vch Range
VCHRANGEMODE	TOGGLE	T	Vch Auto Range
VCHOFFSETENABLE	TOGGLE	F	Vch Offset Enable
VCHOFFSET	QUANT	0	Vch Offset (V)
VCHFILTER	IQUANT	1	Vch Filter
IERANGELOWERLIMIT	IQUANT	9	I/E Range Lower Limit
IERANGEMODE	TOGGLE	F	I/E AutoRange
IERANGE	IQUANT	10	I/E Range
ACHSELECT	IQUANT	1	Ach Select
ACHRANGE	IQUANT	2	Ach Range
ACHOFFSETENABLE	TOGGLE	F	Ach Offset Enable
ACHOFFSET	QUANT	0	Ach Offset (V)
ACHFILTER	IQUANT	1	Ach Filter
CABLEID	IQUANT	14	Cable ID
DCCALDATE	LABEL	20-10-2016	DC Calibration Date
ACCALDATE	LABEL	12/3/2015	AC Calibration Date
FRAMEWORKVERSION	QUANT	7.01	Framework Version
INSTRUMENTVERSION	LABEL	4.00	Instrument Version
CURVE	TABLE	59
	Pt	T	Vf	Im	Vu	Pwr	Sig	Ach	Temp	IERange	Over
	#	s	V	A	V	W	V	V	deg C	#	bits
	0	0.013333	6.28043E-001	5.99323E-003	0.00000E+000	3.76400E-003	3.59960E-001	-1.14453E+000	3.57720E+000	10	...........
	1	0.026667	6.36821E-001	5.99582E-003	0.00000E+000	3.81826E-003	3.59960E-001	-1.13371E+000	3.57720E+000	10	...........
	2	0.04	6.44910E-001	6.00007E-003	0.00000E+000	3.86951E-003	3.59960E-001	-1.13545E+000	3.57720E+000	10	...........
	3	0.053333	6.52612E-001	5.99285E-003	0.00000E+000	3.91101E-003	3.59960E-001	-1.14454E+000	3.57720E+000	10	...........
	4	0.066667	6.59956E-001	5.99431E-003	0.00000E+000	3.95598E-003	3.59960E-001	-1.13403E+000	3.57720E+000	10	...........
	5	0.08	6.67188E-001	5.99078E-003	0.00000E+000	3.99698E-003	3.59960E-001	-1.13523E+000	3.57720E+000	10	...........
	6	0.093333	6.74284E-001	5.99577E-003	0.00000E+000	4.04285E-003	3.59960E-001	-1.14417E+000	3.57720E+000	10	...........
	7	0.106667	6.81236E-001	5.99126E-003	0.00000E+000	4.08146E-003	3.59960E-001	-1.13382E+000	3.57720E+000	10	...........
	8	0.12	6.88091E-001	5.99342E-003	0.00000E+000	4.12402E-003	3.59960E-001	-1.13527E+000	3.57720E+000	10	...........
	9	0.133333	6.94882E-001	5.99352E-003	0.00000E+000	4.16479E-003	3.59960E-001	-1.14408E+000	3.57720E+000	10	...........
	10	0.146667	7.01612E-001	5.99281E-003	0.00000E+000	4.20463E-003	3.59960E-001	-1.13345E+000	3.57720E+000	10	...........
	11	0.16	7.08287E-001	5.99163E-003	0.00000E+000	4.24380E-003	3.59960E-001	-1.13536E+000	3.57720E+000	10	...........
	12	0.173333	7.14939E-001	5.99401E-003	0.00000E+000	4.28535E-003	3.59960E-001	-1.14398E+000	3.57720E+000	10	...........
	13	0.186667	7.21601E-001	5.99480E-003	0.00000E+000	4.32586E-003	3.59960E-001	-1.13349E+000	3.57720E+000	10	...........
	14	0.2	7.28158E-001	5.99455E-003	0.00000E+000	4.36498E-003	3.59960E-001	-1.13522E+000	3.57720E+000	10	...........
	15	0.213333	7.34705E-001	5.99683E-003	0.00000E+000	4.40590E-003	3.59960E-001	-1.14382E+000	3.57715E+000	10	...........
	16	0.226667	7.41252E-001	5.99610E-003	0.00000E+000	4.44462E-003	3.59960E-001	-1.13334E+000	3.57710E+000	10	...........
	17	0.24	7.47773E-001	5.99736E-003	0.00000E+000	4.48466E-003	3.59960E-001	-1.13534E+000	3.57710E+000	10	...........
	18	0.253333	7.54239E-001	5.99607E-003	0.00000E+000	4.52247E-003	3.59960E-001	-1.14381E+000	3.57710E+000	10	...........
	19	0.266667	7.60736E-001	5.99662E-003	0.00000E+000	4.56184E-003	3.59960E-001	-1.13318E+000	3.57710E+000	10	...........
	20	0.28	7.67163E-001	5.99817E-003	0.00000E+000	4.60157E-003	3.59960E-001	-1.13519E+000	3.57710E+000	10	...........
	21	0.293333	7.73622E-001	5.99761E-003	0.00000E+000	4.63988E-003	3.59960E-001	-1.14341E+000	3.57710E+000	10	...........
	22	0.306667	7.80050E-001	5.99475E-003	0.00000E+000	4.67621E-003	3.59960E-001	-1.13274E+000	3.57710E+000	10	...........
	23	0.32	7.86464E-001	5.99029E-003	0.00000E+000	4.71114E-003	3.59960E-001	-1.13506E+000	3.57710E+000	10	...........
	24	0.333333	7.92875E-001	5.99398E-003	0.00000E+000	4.75248E-003	3.59960E-001	-1.14306E+000	3.57710E+000	10	...........
	25	0.346667	7.99324E-001	5.99527E-003	0.00000E+000	4.79216E-003	3.59960E-001	-1.13264E+000	3.57710E+000	10	...........
	26	0.36	8.05667E-001	5.99386E-003	0.00000E+000	4.82906E-003	3.59960E-001	-1.13493E+000	3.57710E+000	10	...........
	27	0.373333	8.12003E-001	5.99291E-003	0.00000E+000	4.86626E-003	3.59960E-001	-1.14286E+000	3.57710E+000	10	...........
	28	0.386667	8.18381E-001	5.99413E-003	0.00000E+000	4.90548E-003	3.59960E-001	-1.13252E+000	3.57710E+000	10	...........
	29	0.4	8.24725E-001	5.99349E-003	0.00000E+000	4.94298E-003	3.59960E-001	-1.13496E+000	3.57710E+000	10	...........
	30	0.413333	8.31013E-001	5.99228E-003	0.00000E+000	4.97966E-003	3.59960E-001	-1.14281E+000	3.57710E+000	10	...........
	31	0.426667	8.37293E-001	5.99698E-003	0.00000E+000	5.02123E-003	3.59960E-001	-1.13226E+000	3.57710E+000	10	...........
	32	0.44	8.43572E-001	5.99360E-003	0.00000E+000	5.05604E-003	3.59960E-001	-1.13502E+000	3.57710E+000	10	...........
	33	0.453333	8.49833E-001	5.99462E-003	0.00000E+000	5.09442E-003	3.59960E-001	-1.14269E+000	3.57710E+000	10	...........
	34	0.466667	8.56086E-001	5.99231E-003	0.00000E+000	5.12993E-003	3.59960E-001	-1.13216E+000	3.57710E+000	10	...........
	35	0.48	8.62343E-001	6.00010E-003	0.00000E+000	5.17415E-003	3.59960E-001	-1.13505E+000	3.57710E+000	10	...........
	36	0.493333	8.68509E-001	5.99260E-003	0.00000E+000	5.20463E-003	3.59960E-001	-1.14236E+000	3.57710E+000	10	...........
	37	0.506667	8.74700E-001	5.99647E-003	0.00000E+000	5.24512E-003	3.59960E-001	-1.13216E+000	3.57710E+000	10	...........
	38	0.52	8.80881E-001	5.99430E-003	0.00000E+000	5.28027E-003	3.59960E-001	-1.13516E+000	3.57710E+000	10	...........
	39	0.533333	8.87100E-001	5.99524E-003	0.00000E+000	5.31838E-003	3.59960E-001	-1.14251E+000	3.57710E+000	10	...........
	40	0.546667	8.93203E-001	5.99578E-003	0.00000E+000	5.35545E-003	3.59960E-001	-1.13215E+000	3.57710E+000	10	...........
	41	0.56	8.99337E-001	5.99272E-003	0.00000E+000	5.38947E-003	3.59960E-001	-1.13528E+000	3.57710E+000	10	...........
	42	0.573333	9.05435E-001	5.99246E-003	0.00000E+000	5.42578E-003	3.59960E-001	-1.14248E+000	3.57710E+000	10	...........
	43	0.586667	9.11467E-001	5.99647E-003	0.00000E+000	5.46559E-003	3.59960E-001	-1.13218E+000	3.57710E+000	10	...........
	44	0.6	9.17427E-001	5.99118E-003	0.00000E+000	5.49647E-003	3.59960E-001	-1.13540E+000	3.57710E+000	10	...........
	45	0.613333	9.23489E-001	5.99273E-003	0.00000E+000	5.53422E-003	3.59960E-001	-1.14193E+000	3.57710E+000	10	...........
	46	0.626667	9.29422E-001	5.99071E-003	0.00000E+000	5.56790E-003	3.59960E-001	-1.13150E+000	3.57710E+000	10	...........
	47	0.64	9.35345E-001	5.99486E-003	0.00000E+000	5.60726E-003	3.59960E-001	-1.13506E+000	3.57710E+000	10	...........
	48	0.653333	9.41225E-001	5.99626E-003	0.00000E+000	5.64383E-003	3.59960E-001	-1.14179E+000	3.57710E+000	10	...........
	49	0.666667	9.47104E-001	5.99385E-003	0.00000E+000	5.67681E-003	3.59960E-001	-1.13165E+000	3.57710E+000	10	...........
	50	0.68	9.52883E-001	5.99379E-003	0.00000E+000	5.71138E-003	3.59960E-001	-1.13517E+000	3.57710E+000	10	...........
	51	0.693333	9.58641E-001	5.99565E-003	0.00000E+000	5.74767E-003	3.59960E-001	-1.14145E+000	3.57710E+000	10	...........
	52	0.706667	9.64391E-001	5.99456E-003	0.00000E+000	5.78110E-003	3.59960E-001	-1.13162E+000	3.57710E+000	10	...........
	53	0.72	9.70060E-001	5.99693E-003	0.00000E+000	5.81739E-003	3.59960E-001	-1.13532E+000	3.57710E+000	10	...........
	54	0.733333	9.75742E-001	5.99286E-003	0.00000E+000	5.84749E-003	3.59960E-001	-1.14140E+000	3.57710E+000	10	...........
	55	0.746667	9.81318E-001	5.99126E-003	0.00000E+000	5.87933E-003	3.59960E-001	-1.13139E+000	3.57710E+000	10	...........
	56	0.76	9.86879E-001	5.99165E-003	0.00000E+000	5.91304E-003	3.59960E-001	-1.13518E+000	3.57710E+000	10	...........
	57	0.773333	9.92351E-001	5.99316E-003	0.00000E+000	5.94731E-003	3.59960E-001	-1.14125E+000	3.57710E+000	10	...........
	58	0.786667	9.97822E-001	5.99395E-003	0.00000E+000	5.98089E-003	3.59960E-001	-1.13163E+000	3.57710E+000	10	...........
STARTTIMEOFFSET	QUANT	776.7552	Start Time Offset (s)