File: Data/CV_CRGO300517_1/PWRCCD_CRGO300517_1/CHARGE_DISCHARGE/CHARGE_#446.DTA
EXPLAIN
TAG	PWR800_CHARGE
TITLE	LABEL	PWR Cyclic Charge Discharge (Cell) - Charge Step	Test &Identifier
DATE	LABEL	22-6-2017	Date
TIME	LABEL	15:53:47	Time
NOTES	NOTES	3	&Notes...
	supercap test cell
	0.6mg
	6M KOH
PSTAT	PSTAT	IFC5000-01520	Potentiostat
CAPACITY	QUANT	1.00000E-003	Capacity (A-hr)
CELLTYPE	SELECTOR	1	&Cell Type
WORKINGCONNECTION	SELECTOR	0	&Working Lead
MAXCHARGETIME	VARIABLEANDUNITS	1.00000E+002	s	1.00000E+002	second(s)	Max &Charge Time
CHARGECURRENT	QUANT	6.00000E-003	&Charge Current (A)
VOLTAGEFINISH	TWOPARAM	F	1.00000E-003	3.60000E+003	&Voltage Finish	 I (A) < 	Max Time(s)
SAMPLETIME	QUANT	1.00000E-002	Sa&mple Period (s)
CHARGESTOPAT1	MULTIPARAM	4	1.00000E+000	Charge Stop At &1	Voltage > Limit	V
CHARGESTOPAT2	MULTIPARAM	0	0.00000E+000	Charge Stop At &2	None	N/A
AESBHCSELECTOR	TOGGLE	F	Save Both Half Cells
IRCOMP	TOGGLE	F	IR &Measure
EOC	QUANT	0	Open Circuit (V)
SEQUENCER	TOGGLE	TRUE	Run as Sequence
PSTATMODEL	IQUANT	53	Pstat Model
PSTATSECTION	LABEL	IFC5000-01520	Pstat Section
PSTATSERIALNO	LABEL	01520	Pstat Serial Number
CTRLMODE	IQUANT	0	Control Mode
ELECTROMETER	IQUANT	1	RE=0 or CS=1
IESTAB	IQUANT	0	I/E Stability
CASPEED	IQUANT	4	Control Amp Speed
CONVENTION	IQUANT	1	Current Convention
ICHRANGE	IQUANT	2	Ich Range
ICHRANGEMODE	TOGGLE	T	Ich Auto Range
ICHOFFSETENABLE	TOGGLE	F	Ich Offset Enable
ICHOFFSET	QUANT	0	Ich Offset (V)
ICHFILTER	IQUANT	1	Ich Filter
VCHRANGE	IQUANT	2	Vch Range
VCHRANGEMODE	TOGGLE	T	Vch Auto Range
VCHOFFSETENABLE	TOGGLE	F	Vch Offset Enable
VCHOFFSET	QUANT	0	Vch Offset (V)
VCHFILTER	IQUANT	1	Vch Filter
IERANGELOWERLIMIT	IQUANT	9	I/E Range Lower Limit
IERANGEMODE	TOGGLE	F	I/E AutoRange
IERANGE	IQUANT	10	I/E Range
ACHSELECT	IQUANT	1	Ach Select
ACHRANGE	IQUANT	2	Ach Range
ACHOFFSETENABLE	TOGGLE	F	Ach Offset Enable
ACHOFFSET	QUANT	0	Ach Offset (V)
ACHFILTER	IQUANT	1	Ach Filter
CABLEID	IQUANT	14	Cable ID
DCCALDATE	LABEL	20-10-2016	DC Calibration Date
ACCALDATE	LABEL	12/3/2015	AC Calibration Date
FRAMEWORKVERSION	QUANT	7.01	Framework Version
INSTRUMENTVERSION	LABEL	4.00	Instrument Version
CURVE	TABLE	59
	Pt	T	Vf	Im	Vu	Pwr	Sig	Ach	Temp	IERange	Over
	#	s	V	A	V	W	V	V	deg C	#	bits
	0	0.013333	6.27978E-001	5.99213E-003	0.00000E+000	3.76293E-003	3.59960E-001	-1.14392E+000	3.57790E+000	10	...........
	1	0.026667	6.36782E-001	5.99444E-003	0.00000E+000	3.81715E-003	3.59960E-001	-1.13683E+000	3.57790E+000	10	...........
	2	0.04	6.44894E-001	5.99674E-003	0.00000E+000	3.86726E-003	3.59960E-001	-1.13306E+000	3.57790E+000	10	...........
	3	0.053333	6.52593E-001	5.98892E-003	0.00000E+000	3.90833E-003	3.59960E-001	-1.14373E+000	3.57790E+000	10	...........
	4	0.066667	6.59998E-001	5.99588E-003	0.00000E+000	3.95727E-003	3.59960E-001	-1.13670E+000	3.57790E+000	10	...........
	5	0.08	6.67242E-001	5.99273E-003	0.00000E+000	3.99860E-003	3.59960E-001	-1.13310E+000	3.57790E+000	10	...........
	6	0.093333	6.74331E-001	5.99904E-003	0.00000E+000	4.04534E-003	3.59960E-001	-1.14375E+000	3.57790E+000	10	...........
	7	0.106667	6.81319E-001	5.99007E-003	0.00000E+000	4.08114E-003	3.59960E-001	-1.13581E+000	3.57790E+000	10	...........
	8	0.12	6.88170E-001	5.99295E-003	0.00000E+000	4.12417E-003	3.59960E-001	-1.13295E+000	3.57790E+000	10	...........
	9	0.133333	6.95005E-001	5.99044E-003	0.00000E+000	4.16339E-003	3.59960E-001	-1.14363E+000	3.57790E+000	10	...........
	10	0.146667	7.01771E-001	5.99234E-003	0.00000E+000	4.20525E-003	3.59960E-001	-1.13588E+000	3.57790E+000	10	...........
	11	0.16	7.08477E-001	5.99335E-003	0.00000E+000	4.24616E-003	3.59960E-001	-1.13265E+000	3.57790E+000	10	...........
	12	0.173333	7.15156E-001	5.99532E-003	0.00000E+000	4.28759E-003	3.59960E-001	-1.14349E+000	3.57790E+000	10	...........
	13	0.186667	7.21800E-001	5.99221E-003	0.00000E+000	4.32517E-003	3.59960E-001	-1.13591E+000	3.57790E+000	10	...........
	14	0.2	7.28409E-001	5.99657E-003	0.00000E+000	4.36795E-003	3.59960E-001	-1.13285E+000	3.57790E+000	10	...........
	15	0.213333	7.34886E-001	5.98992E-003	0.00000E+000	4.40191E-003	3.59960E-001	-1.14374E+000	3.57790E+000	10	...........
	16	0.226667	7.41411E-001	5.99743E-003	0.00000E+000	4.44656E-003	3.59960E-001	-1.13585E+000	3.57790E+000	10	...........
	17	0.24	7.47940E-001	5.99333E-003	0.00000E+000	4.48265E-003	3.59960E-001	-1.13280E+000	3.57790E+000	10	...........
	18	0.253333	7.54411E-001	5.99088E-003	0.00000E+000	4.51959E-003	3.59960E-001	-1.14400E+000	3.57790E+000	10	...........
	19	0.266667	7.60869E-001	5.99718E-003	0.00000E+000	4.56307E-003	3.59960E-001	-1.13594E+000	3.57790E+000	10	...........
	20	0.28	7.67325E-001	5.99100E-003	0.00000E+000	4.59704E-003	3.59960E-001	-1.13311E+000	3.57790E+000	10	...........
	21	0.293333	7.73782E-001	5.98544E-003	0.00000E+000	4.63142E-003	3.59960E-001	-1.14399E+000	3.57790E+000	10	...........
	22	0.306667	7.80200E-001	5.99811E-003	0.00000E+000	4.67973E-003	3.59960E-001	-1.13533E+000	3.57790E+000	10	...........
	23	0.32	7.86648E-001	5.98828E-003	0.00000E+000	4.71067E-003	3.59960E-001	-1.13314E+000	3.57790E+000	10	...........
	24	0.333333	7.93042E-001	5.99208E-003	0.00000E+000	4.75197E-003	3.59960E-001	-1.14430E+000	3.57790E+000	10	...........
	25	0.346667	7.99504E-001	5.99393E-003	0.00000E+000	4.79217E-003	3.59960E-001	-1.13559E+000	3.57790E+000	10	...........
	26	0.36	8.05813E-001	5.99198E-003	0.00000E+000	4.82841E-003	3.59960E-001	-1.13321E+000	3.57790E+000	10	...........
	27	0.373333	8.12237E-001	5.99515E-003	0.00000E+000	4.86948E-003	3.59960E-001	-1.14429E+000	3.57790E+000	10	...........
	28	0.386667	8.18579E-001	5.99573E-003	0.00000E+000	4.90798E-003	3.59960E-001	-1.13556E+000	3.57790E+000	10	...........
	29	0.4	8.24903E-001	5.99731E-003	0.00000E+000	4.94720E-003	3.59960E-001	-1.13338E+000	3.57790E+000	10	...........
	30	0.413333	8.31203E-001	5.99489E-003	0.00000E+000	4.98297E-003	3.59960E-001	-1.14443E+000	3.57790E+000	10	...........
	31	0.426667	8.37516E-001	5.99691E-003	0.00000E+000	5.02251E-003	3.59960E-001	-1.13509E+000	3.57790E+000	10	...........
	32	0.44	8.43809E-001	5.99241E-003	0.00000E+000	5.05645E-003	3.59960E-001	-1.13280E+000	3.57790E+000	10	...........
	33	0.453333	8.50086E-001	5.99213E-003	0.00000E+000	5.09383E-003	3.59960E-001	-1.14403E+000	3.57790E+000	10	...........
	34	0.466667	8.56325E-001	5.99708E-003	0.00000E+000	5.13544E-003	3.59960E-001	-1.13513E+000	3.57790E+000	10	...........
	35	0.48	8.62522E-001	5.99038E-003	0.00000E+000	5.16683E-003	3.59960E-001	-1.13302E+000	3.57790E+000	10	...........
	36	0.493333	8.68792E-001	5.98894E-003	0.00000E+000	5.20314E-003	3.59960E-001	-1.14409E+000	3.57790E+000	10	...........
	37	0.506667	8.74968E-001	5.99155E-003	0.00000E+000	5.24241E-003	3.59960E-001	-1.13501E+000	3.57790E+000	10	...........
	38	0.52	8.81188E-001	5.99232E-003	0.00000E+000	5.28036E-003	3.59960E-001	-1.13301E+000	3.57790E+000	10	...........
	39	0.533333	8.87362E-001	5.99830E-003	0.00000E+000	5.32266E-003	3.59960E-001	-1.14433E+000	3.57790E+000	10	...........
	40	0.546667	8.93458E-001	5.99329E-003	0.00000E+000	5.35476E-003	3.59960E-001	-1.13500E+000	3.57790E+000	10	...........
	41	0.56	8.99543E-001	5.99462E-003	0.00000E+000	5.39241E-003	3.59960E-001	-1.13317E+000	3.57790E+000	10	...........
	42	0.573333	9.05630E-001	5.99355E-003	0.00000E+000	5.42794E-003	3.59960E-001	-1.14408E+000	3.57764E+000	10	...........
	43	0.586667	9.11703E-001	5.99396E-003	0.00000E+000	5.46471E-003	3.59960E-001	-1.13451E+000	3.57720E+000	10	...........
	44	0.6	9.17677E-001	5.99401E-003	0.00000E+000	5.50057E-003	3.59960E-001	-1.13312E+000	3.57720E+000	10	...........
	45	0.613333	9.23728E-001	5.99363E-003	0.00000E+000	5.53649E-003	3.59960E-001	-1.14417E+000	3.57720E+000	10	...........
	46	0.626667	9.29685E-001	5.99332E-003	0.00000E+000	5.57190E-003	3.59960E-001	-1.13451E+000	3.57720E+000	10	...........
	47	0.64	9.35589E-001	5.99065E-003	0.00000E+000	5.60479E-003	3.59960E-001	-1.13302E+000	3.57720E+000	10	...........
	48	0.653333	9.41440E-001	5.99563E-003	0.00000E+000	5.64452E-003	3.59960E-001	-1.14426E+000	3.57720E+000	10	...........
	49	0.666667	9.47292E-001	5.99213E-003	0.00000E+000	5.67630E-003	3.59960E-001	-1.13433E+000	3.57720E+000	10	...........
	50	0.68	9.53165E-001	5.99190E-003	0.00000E+000	5.71128E-003	3.59960E-001	-1.13319E+000	3.57720E+000	10	...........
	51	0.693333	9.58915E-001	5.99837E-003	0.00000E+000	5.75193E-003	3.59960E-001	-1.14399E+000	3.57720E+000	10	...........
	52	0.706667	9.64615E-001	5.99418E-003	0.00000E+000	5.78207E-003	3.59960E-001	-1.13395E+000	3.57720E+000	10	...........
	53	0.72	9.70266E-001	5.98891E-003	0.00000E+000	5.81083E-003	3.59960E-001	-1.13296E+000	3.57720E+000	10	...........
	54	0.733333	9.75956E-001	5.99470E-003	0.00000E+000	5.85056E-003	3.59960E-001	-1.14382E+000	3.57720E+000	10	...........
	55	0.746667	9.81576E-001	5.99217E-003	0.00000E+000	5.88177E-003	3.59960E-001	-1.13355E+000	3.57720E+000	10	...........
	56	0.76	9.87100E-001	5.99220E-003	0.00000E+000	5.91490E-003	3.59960E-001	-1.13264E+000	3.57720E+000	10	...........
	57	0.773333	9.92588E-001	5.99005E-003	0.00000E+000	5.94565E-003	3.59960E-001	-1.14338E+000	3.57720E+000	10	...........
	58	0.786667	9.98070E-001	5.99317E-003	0.00000E+000	5.98160E-003	3.59960E-001	-1.13316E+000	3.57720E+000	10	...........
STARTTIMEOFFSET	QUANT	775.1885	Start Time Offset (s)