File: Data/CV_CRGO300517_1/PWRCCD_CRGO300517_1/CHARGE_DISCHARGE/CHARGE_#173.DTA
EXPLAIN
TAG	PWR800_CHARGE
TITLE	LABEL	PWR Cyclic Charge Discharge (Cell) - Charge Step	Test &Identifier
DATE	LABEL	22-6-2017	Date
TIME	LABEL	15:42:40	Time
NOTES	NOTES	3	&Notes...
	supercap test cell
	0.6mg
	6M KOH
PSTAT	PSTAT	IFC5000-01520	Potentiostat
CAPACITY	QUANT	1.00000E-003	Capacity (A-hr)
CELLTYPE	SELECTOR	1	&Cell Type
WORKINGCONNECTION	SELECTOR	0	&Working Lead
MAXCHARGETIME	VARIABLEANDUNITS	1.00000E+002	s	1.00000E+002	second(s)	Max &Charge Time
CHARGECURRENT	QUANT	6.00000E-003	&Charge Current (A)
VOLTAGEFINISH	TWOPARAM	F	1.00000E-003	3.60000E+003	&Voltage Finish	 I (A) < 	Max Time(s)
SAMPLETIME	QUANT	1.00000E-002	Sa&mple Period (s)
CHARGESTOPAT1	MULTIPARAM	4	1.00000E+000	Charge Stop At &1	Voltage > Limit	V
CHARGESTOPAT2	MULTIPARAM	0	0.00000E+000	Charge Stop At &2	None	N/A
AESBHCSELECTOR	TOGGLE	F	Save Both Half Cells
IRCOMP	TOGGLE	F	IR &Measure
EOC	QUANT	0	Open Circuit (V)
SEQUENCER	TOGGLE	TRUE	Run as Sequence
PSTATMODEL	IQUANT	53	Pstat Model
PSTATSECTION	LABEL	IFC5000-01520	Pstat Section
PSTATSERIALNO	LABEL	01520	Pstat Serial Number
CTRLMODE	IQUANT	0	Control Mode
ELECTROMETER	IQUANT	1	RE=0 or CS=1
IESTAB	IQUANT	0	I/E Stability
CASPEED	IQUANT	4	Control Amp Speed
CONVENTION	IQUANT	1	Current Convention
ICHRANGE	IQUANT	2	Ich Range
ICHRANGEMODE	TOGGLE	T	Ich Auto Range
ICHOFFSETENABLE	TOGGLE	F	Ich Offset Enable
ICHOFFSET	QUANT	0	Ich Offset (V)
ICHFILTER	IQUANT	1	Ich Filter
VCHRANGE	IQUANT	2	Vch Range
VCHRANGEMODE	TOGGLE	T	Vch Auto Range
VCHOFFSETENABLE	TOGGLE	F	Vch Offset Enable
VCHOFFSET	QUANT	0	Vch Offset (V)
VCHFILTER	IQUANT	1	Vch Filter
IERANGELOWERLIMIT	IQUANT	9	I/E Range Lower Limit
IERANGEMODE	TOGGLE	F	I/E AutoRange
IERANGE	IQUANT	10	I/E Range
ACHSELECT	IQUANT	1	Ach Select
ACHRANGE	IQUANT	2	Ach Range
ACHOFFSETENABLE	TOGGLE	F	Ach Offset Enable
ACHOFFSET	QUANT	0	Ach Offset (V)
ACHFILTER	IQUANT	1	Ach Filter
CABLEID	IQUANT	14	Cable ID
DCCALDATE	LABEL	20-10-2016	DC Calibration Date
ACCALDATE	LABEL	12/3/2015	AC Calibration Date
FRAMEWORKVERSION	QUANT	7.01	Framework Version
INSTRUMENTVERSION	LABEL	4.00	Instrument Version
CURVE	TABLE	66
	Pt	T	Vf	Im	Vu	Pwr	Sig	Ach	Temp	IERange	Over
	#	s	V	A	V	W	V	V	deg C	#	bits
	0	0.013333	6.02538E-001	5.99540E-003	0.00000E+000	3.61246E-003	3.59960E-001	-1.08244E+000	3.57720E+000	10	...........
	1	0.026667	6.10924E-001	5.99566E-003	0.00000E+000	3.66289E-003	3.59960E-001	-1.09271E+000	3.57720E+000	10	...........
	2	0.04	6.18742E-001	5.99353E-003	0.00000E+000	3.70845E-003	3.59960E-001	-1.08541E+000	3.57720E+000	10	...........
	3	0.053333	6.26004E-001	5.99447E-003	0.00000E+000	3.75256E-003	3.59960E-001	-1.08246E+000	3.57720E+000	10	...........
	4	0.066667	6.33092E-001	5.99492E-003	0.00000E+000	3.79534E-003	3.59960E-001	-1.09278E+000	3.57720E+000	10	...........
	5	0.08	6.39970E-001	5.99454E-003	0.00000E+000	3.83633E-003	3.59960E-001	-1.08555E+000	3.57720E+000	10	...........
	6	0.093333	6.46623E-001	5.99309E-003	0.00000E+000	3.87527E-003	3.59960E-001	-1.08232E+000	3.57720E+000	10	...........
	7	0.106667	6.53280E-001	5.99479E-003	0.00000E+000	3.91628E-003	3.59960E-001	-1.09263E+000	3.57720E+000	10	...........
	8	0.12	6.59796E-001	5.99161E-003	0.00000E+000	3.95324E-003	3.59960E-001	-1.08559E+000	3.57720E+000	10	...........
	9	0.133333	6.66254E-001	5.99287E-003	0.00000E+000	3.99278E-003	3.59960E-001	-1.08244E+000	3.57720E+000	10	...........
	10	0.146667	6.72697E-001	5.99545E-003	0.00000E+000	4.03312E-003	3.59960E-001	-1.09290E+000	3.57720E+000	10	...........
	11	0.16	6.79019E-001	5.99635E-003	0.00000E+000	4.07163E-003	3.59960E-001	-1.08579E+000	3.57720E+000	10	...........
	12	0.173333	6.85314E-001	5.99163E-003	0.00000E+000	4.10615E-003	3.59960E-001	-1.08231E+000	3.57720E+000	10	...........
	13	0.186667	6.91559E-001	5.98914E-003	0.00000E+000	4.14184E-003	3.59960E-001	-1.09254E+000	3.57720E+000	10	...........
	14	0.2	6.97826E-001	5.99450E-003	0.00000E+000	4.18312E-003	3.59960E-001	-1.08586E+000	3.57720E+000	10	...........
	15	0.213333	7.04048E-001	5.99580E-003	0.00000E+000	4.22134E-003	3.59960E-001	-1.08216E+000	3.57720E+000	10	...........
	16	0.226667	7.10188E-001	5.99393E-003	0.00000E+000	4.25682E-003	3.59960E-001	-1.09194E+000	3.57720E+000	10	...........
	17	0.24	7.16377E-001	5.99368E-003	0.00000E+000	4.29373E-003	3.59960E-001	-1.08516E+000	3.57720E+000	10	...........
	18	0.253333	7.22539E-001	5.99490E-003	0.00000E+000	4.33155E-003	3.59960E-001	-1.08170E+000	3.57720E+000	10	...........
	19	0.266667	7.28659E-001	5.99633E-003	0.00000E+000	4.36928E-003	3.59960E-001	-1.09185E+000	3.57720E+000	10	...........
	20	0.28	7.34777E-001	5.99413E-003	0.00000E+000	4.40435E-003	3.59960E-001	-1.08532E+000	3.57720E+000	10	...........
	21	0.293333	7.40926E-001	5.99545E-003	0.00000E+000	4.44218E-003	3.59960E-001	-1.08145E+000	3.57720E+000	10	...........
	22	0.306667	7.47073E-001	5.99331E-003	0.00000E+000	4.47744E-003	3.59960E-001	-1.09154E+000	3.57720E+000	10	...........
	23	0.32	7.53164E-001	5.99487E-003	0.00000E+000	4.51512E-003	3.59960E-001	-1.08544E+000	3.57720E+000	10	...........
	24	0.333333	7.59267E-001	5.99261E-003	0.00000E+000	4.55000E-003	3.59960E-001	-1.08165E+000	3.57720E+000	10	...........
	25	0.346667	7.65345E-001	5.99227E-003	0.00000E+000	4.58615E-003	3.59960E-001	-1.09154E+000	3.57720E+000	10	...........
	26	0.36	7.71407E-001	5.99017E-003	0.00000E+000	4.62086E-003	3.59960E-001	-1.08524E+000	3.57720E+000	10	...........
	27	0.373333	7.77479E-001	5.99676E-003	0.00000E+000	4.66236E-003	3.59960E-001	-1.08135E+000	3.57720E+000	10	...........
	28	0.386667	7.83568E-001	5.99249E-003	0.00000E+000	4.69552E-003	3.59960E-001	-1.09142E+000	3.57720E+000	10	...........
	29	0.4	7.89610E-001	5.98955E-003	0.00000E+000	4.72941E-003	3.59960E-001	-1.08538E+000	3.57720E+000	10	...........
	30	0.413333	7.95720E-001	5.99552E-003	0.00000E+000	4.77076E-003	3.59960E-001	-1.08143E+000	3.57720E+000	10	...........
	31	0.426667	8.01772E-001	5.99780E-003	0.00000E+000	4.80887E-003	3.59960E-001	-1.09144E+000	3.57720E+000	10	...........
	32	0.44	8.07755E-001	5.99566E-003	0.00000E+000	4.84303E-003	3.59960E-001	-1.08552E+000	3.57720E+000	10	...........
	33	0.453333	8.13766E-001	5.98705E-003	0.00000E+000	4.87206E-003	3.59960E-001	-1.08143E+000	3.57720E+000	10	...........
	34	0.466667	8.19830E-001	5.99409E-003	0.00000E+000	4.91414E-003	3.59960E-001	-1.09160E+000	3.57720E+000	10	...........
	35	0.48	8.25810E-001	5.99411E-003	0.00000E+000	4.95000E-003	3.59960E-001	-1.08572E+000	3.57720E+000	10	...........
	36	0.493333	8.31799E-001	5.99178E-003	0.00000E+000	4.98396E-003	3.59960E-001	-1.08152E+000	3.57720E+000	10	...........
	37	0.506667	8.37797E-001	5.99378E-003	0.00000E+000	5.02157E-003	3.59960E-001	-1.09130E+000	3.57720E+000	10	...........
	38	0.52	8.43764E-001	5.99081E-003	0.00000E+000	5.05483E-003	3.59960E-001	-1.08565E+000	3.57720E+000	10	...........
	39	0.533333	8.49766E-001	5.99222E-003	0.00000E+000	5.09198E-003	3.59960E-001	-1.08143E+000	3.57720E+000	10	...........
	40	0.546667	8.55774E-001	5.99195E-003	0.00000E+000	5.12775E-003	3.59960E-001	-1.09087E+000	3.57720E+000	10	...........
	41	0.56	8.61732E-001	5.99650E-003	0.00000E+000	5.16738E-003	3.59960E-001	-1.08515E+000	3.57720E+000	10	...........
	42	0.573333	8.67674E-001	5.99515E-003	0.00000E+000	5.20183E-003	3.59960E-001	-1.08085E+000	3.57720E+000	10	...........
	43	0.586667	8.73637E-001	5.99201E-003	0.00000E+000	5.23484E-003	3.59960E-001	-1.09078E+000	3.57720E+000	10	...........
	44	0.6	8.79592E-001	5.99729E-003	0.00000E+000	5.27516E-003	3.59960E-001	-1.08531E+000	3.57720E+000	10	...........
	45	0.613333	8.85478E-001	5.99543E-003	0.00000E+000	5.30882E-003	3.59960E-001	-1.08108E+000	3.57720E+000	10	...........
	46	0.626667	8.91389E-001	5.99557E-003	0.00000E+000	5.34439E-003	3.59960E-001	-1.09064E+000	3.57720E+000	10	...........
	47	0.64	8.97276E-001	5.99297E-003	0.00000E+000	5.37735E-003	3.59960E-001	-1.08513E+000	3.57720E+000	10	...........
	48	0.653333	9.03137E-001	5.99476E-003	0.00000E+000	5.41409E-003	3.59960E-001	-1.08078E+000	3.57720E+000	10	...........
	49	0.666667	9.08989E-001	5.99870E-003	0.00000E+000	5.45276E-003	3.59960E-001	-1.09047E+000	3.57720E+000	10	...........
	50	0.68	9.14810E-001	5.98877E-003	0.00000E+000	5.47859E-003	3.59960E-001	-1.08504E+000	3.57720E+000	10	...........
	51	0.693333	9.20643E-001	5.98865E-003	0.00000E+000	5.51341E-003	3.59960E-001	-1.08057E+000	3.57720E+000	10	...........
	52	0.706667	9.26403E-001	5.99534E-003	0.00000E+000	5.55410E-003	3.59960E-001	-1.09003E+000	3.57720E+000	10	...........
	53	0.72	9.32148E-001	5.99530E-003	0.00000E+000	5.58851E-003	3.59960E-001	-1.08529E+000	3.57720E+000	10	...........
	54	0.733333	9.37867E-001	5.99503E-003	0.00000E+000	5.62254E-003	3.59960E-001	-1.08046E+000	3.57720E+000	10	...........
	55	0.746667	9.43597E-001	5.99369E-003	0.00000E+000	5.65562E-003	3.59960E-001	-1.09025E+000	3.57720E+000	10	...........
	56	0.76	9.49313E-001	5.99650E-003	0.00000E+000	5.69256E-003	3.59960E-001	-1.08547E+000	3.57720E+000	10	...........
	57	0.773333	9.54920E-001	5.99446E-003	0.00000E+000	5.72423E-003	3.59960E-001	-1.08078E+000	3.57720E+000	10	...........
	58	0.786667	9.60548E-001	5.99418E-003	0.00000E+000	5.75770E-003	3.59960E-001	-1.09017E+000	3.57720E+000	10	...........
	59	0.8	9.66093E-001	5.99754E-003	0.00000E+000	5.79418E-003	3.59960E-001	-1.08570E+000	3.57720E+000	10	...........
	60	0.813333	9.71692E-001	5.99067E-003	0.00000E+000	5.82109E-003	3.59960E-001	-1.08096E+000	3.57720E+000	10	...........
	61	0.826667	9.77223E-001	5.99543E-003	0.00000E+000	5.85887E-003	3.59960E-001	-1.09008E+000	3.57720E+000	10	...........
	62	0.84	9.82653E-001	5.99431E-003	0.00000E+000	5.89033E-003	3.59960E-001	-1.08554E+000	3.57720E+000	10	...........
	63	0.853333	9.88110E-001	5.99153E-003	0.00000E+000	5.92029E-003	3.59960E-001	-1.08076E+000	3.57720E+000	10	...........
	64	0.866667	9.93500E-001	5.99708E-003	0.00000E+000	5.95810E-003	3.59960E-001	-1.08977E+000	3.57720E+000	10	...........
	65	0.878333	9.98578E-001	5.99174E-003	0.00000E+000	5.98322E-003	3.59960E-001	-1.08392E+000	3.57720E+000	10	...........
STARTTIMEOFFSET	QUANT	326.1201	Start Time Offset (s)