File: Data/CV_CRGO300517_1/PWRCCD_CRGO300517_1/CHARGE_DISCHARGE/CHARGE_#956.DTA
EXPLAIN
TAG	PWR800_CHARGE
TITLE	LABEL	PWR Cyclic Charge Discharge (Cell) - Charge Step	Test &Identifier
DATE	LABEL	22-6-2017	Date
TIME	LABEL	16:13:02	Time
NOTES	NOTES	3	&Notes...
	supercap test cell
	0.6mg
	6M KOH
PSTAT	PSTAT	IFC5000-01520	Potentiostat
CAPACITY	QUANT	1.00000E-003	Capacity (A-hr)
CELLTYPE	SELECTOR	1	&Cell Type
WORKINGCONNECTION	SELECTOR	0	&Working Lead
MAXCHARGETIME	VARIABLEANDUNITS	1.00000E+002	s	1.00000E+002	second(s)	Max &Charge Time
CHARGECURRENT	QUANT	6.00000E-003	&Charge Current (A)
VOLTAGEFINISH	TWOPARAM	F	1.00000E-003	3.60000E+003	&Voltage Finish	 I (A) < 	Max Time(s)
SAMPLETIME	QUANT	1.00000E-002	Sa&mple Period (s)
CHARGESTOPAT1	MULTIPARAM	4	1.00000E+000	Charge Stop At &1	Voltage > Limit	V
CHARGESTOPAT2	MULTIPARAM	0	0.00000E+000	Charge Stop At &2	None	N/A
AESBHCSELECTOR	TOGGLE	F	Save Both Half Cells
IRCOMP	TOGGLE	F	IR &Measure
EOC	QUANT	0	Open Circuit (V)
SEQUENCER	TOGGLE	TRUE	Run as Sequence
PSTATMODEL	IQUANT	53	Pstat Model
PSTATSECTION	LABEL	IFC5000-01520	Pstat Section
PSTATSERIALNO	LABEL	01520	Pstat Serial Number
CTRLMODE	IQUANT	0	Control Mode
ELECTROMETER	IQUANT	1	RE=0 or CS=1
IESTAB	IQUANT	0	I/E Stability
CASPEED	IQUANT	4	Control Amp Speed
CONVENTION	IQUANT	1	Current Convention
ICHRANGE	IQUANT	2	Ich Range
ICHRANGEMODE	TOGGLE	T	Ich Auto Range
ICHOFFSETENABLE	TOGGLE	F	Ich Offset Enable
ICHOFFSET	QUANT	0	Ich Offset (V)
ICHFILTER	IQUANT	1	Ich Filter
VCHRANGE	IQUANT	2	Vch Range
VCHRANGEMODE	TOGGLE	T	Vch Auto Range
VCHOFFSETENABLE	TOGGLE	F	Vch Offset Enable
VCHOFFSET	QUANT	0	Vch Offset (V)
VCHFILTER	IQUANT	1	Vch Filter
IERANGELOWERLIMIT	IQUANT	9	I/E Range Lower Limit
IERANGEMODE	TOGGLE	F	I/E AutoRange
IERANGE	IQUANT	10	I/E Range
ACHSELECT	IQUANT	1	Ach Select
ACHRANGE	IQUANT	2	Ach Range
ACHOFFSETENABLE	TOGGLE	F	Ach Offset Enable
ACHOFFSET	QUANT	0	Ach Offset (V)
ACHFILTER	IQUANT	1	Ach Filter
CABLEID	IQUANT	14	Cable ID
DCCALDATE	LABEL	20-10-2016	DC Calibration Date
ACCALDATE	LABEL	12/3/2015	AC Calibration Date
FRAMEWORKVERSION	QUANT	7.01	Framework Version
INSTRUMENTVERSION	LABEL	4.00	Instrument Version
CURVE	TABLE	53
	Pt	T	Vf	Im	Vu	Pwr	Sig	Ach	Temp	IERange	Over
	#	s	V	A	V	W	V	V	deg C	#	bits
	0	0.013333	6.55175E-001	5.99264E-003	0.00000E+000	3.92623E-003	3.59960E-001	-1.17007E+000	3.57780E+000	10	...........
	1	0.026667	6.64526E-001	5.99480E-003	0.00000E+000	3.98370E-003	3.59960E-001	-1.17368E+000	3.57780E+000	10	...........
	2	0.04	6.73097E-001	5.99712E-003	0.00000E+000	4.03664E-003	3.59960E-001	-1.16513E+000	3.57780E+000	10	...........
	3	0.053333	6.81220E-001	5.99843E-003	0.00000E+000	4.08625E-003	3.59960E-001	-1.16989E+000	3.57780E+000	10	...........
	4	0.066667	6.89045E-001	5.99177E-003	0.00000E+000	4.12860E-003	3.59960E-001	-1.17350E+000	3.57780E+000	10	...........
	5	0.08	6.96691E-001	5.99527E-003	0.00000E+000	4.17685E-003	3.59960E-001	-1.16476E+000	3.57780E+000	10	...........
	6	0.093333	7.04206E-001	5.99869E-003	0.00000E+000	4.22432E-003	3.59960E-001	-1.16957E+000	3.57780E+000	10	...........
	7	0.106667	7.11596E-001	5.99512E-003	0.00000E+000	4.26610E-003	3.59960E-001	-1.17337E+000	3.57780E+000	10	...........
	8	0.12	7.18895E-001	5.99953E-003	0.00000E+000	4.31303E-003	3.59960E-001	-1.16443E+000	3.57780E+000	10	...........
	9	0.133333	7.26075E-001	5.99236E-003	0.00000E+000	4.35091E-003	3.59960E-001	-1.16928E+000	3.57780E+000	10	...........
	10	0.146667	7.33195E-001	5.99108E-003	0.00000E+000	4.39263E-003	3.59960E-001	-1.17298E+000	3.57780E+000	10	...........
	11	0.16	7.40283E-001	5.99621E-003	0.00000E+000	4.43889E-003	3.59960E-001	-1.16429E+000	3.57780E+000	10	...........
	12	0.173333	7.47288E-001	5.99216E-003	0.00000E+000	4.47787E-003	3.59960E-001	-1.16930E+000	3.57780E+000	10	...........
	13	0.186667	7.54288E-001	5.99139E-003	0.00000E+000	4.51924E-003	3.59960E-001	-1.17301E+000	3.57780E+000	10	...........
	14	0.2	7.61233E-001	5.99292E-003	0.00000E+000	4.56201E-003	3.59960E-001	-1.16415E+000	3.57780E+000	10	...........
	15	0.213333	7.68132E-001	5.99321E-003	0.00000E+000	4.60357E-003	3.59960E-001	-1.16893E+000	3.57780E+000	10	...........
	16	0.226667	7.75016E-001	5.98989E-003	0.00000E+000	4.64226E-003	3.59960E-001	-1.17289E+000	3.57780E+000	10	...........
	17	0.24	7.81897E-001	5.99196E-003	0.00000E+000	4.68509E-003	3.59960E-001	-1.16441E+000	3.57780E+000	10	...........
	18	0.253333	7.88701E-001	5.99372E-003	0.00000E+000	4.72725E-003	3.59960E-001	-1.16918E+000	3.57780E+000	10	...........
	19	0.266667	7.95487E-001	5.99121E-003	0.00000E+000	4.76593E-003	3.59960E-001	-1.17301E+000	3.57780E+000	10	...........
	20	0.28	8.02252E-001	5.99831E-003	0.00000E+000	4.81215E-003	3.59960E-001	-1.16401E+000	3.57780E+000	10	...........
	21	0.293333	8.08931E-001	5.99277E-003	0.00000E+000	4.84774E-003	3.59960E-001	-1.16894E+000	3.57780E+000	10	...........
	22	0.306667	8.15628E-001	5.99325E-003	0.00000E+000	4.88826E-003	3.59960E-001	-1.17300E+000	3.57780E+000	10	...........
	23	0.32	8.22307E-001	5.99163E-003	0.00000E+000	4.92696E-003	3.59960E-001	-1.16422E+000	3.57780E+000	10	...........
	24	0.333333	8.28978E-001	5.99285E-003	0.00000E+000	4.96794E-003	3.59960E-001	-1.16913E+000	3.57780E+000	10	...........
	25	0.346667	8.35603E-001	5.99786E-003	0.00000E+000	5.01183E-003	3.59960E-001	-1.17297E+000	3.57780E+000	10	...........
	26	0.36	8.42269E-001	5.99269E-003	0.00000E+000	5.04746E-003	3.59960E-001	-1.16416E+000	3.57780E+000	10	...........
	27	0.373333	8.48866E-001	5.99002E-003	0.00000E+000	5.08472E-003	3.59960E-001	-1.16928E+000	3.57780E+000	10	...........
	28	0.386667	8.55378E-001	5.98987E-003	0.00000E+000	5.12360E-003	3.59960E-001	-1.17320E+000	3.57780E+000	10	...........
	29	0.4	8.61905E-001	5.98877E-003	0.00000E+000	5.16176E-003	3.59960E-001	-1.16424E+000	3.57780E+000	10	...........
	30	0.413333	8.68417E-001	5.99505E-003	0.00000E+000	5.20620E-003	3.59960E-001	-1.16889E+000	3.57780E+000	10	...........
	31	0.426667	8.74933E-001	5.99268E-003	0.00000E+000	5.24319E-003	3.59960E-001	-1.17290E+000	3.57780E+000	10	...........
	32	0.44	8.81321E-001	5.99227E-003	0.00000E+000	5.28111E-003	3.59960E-001	-1.16386E+000	3.57780E+000	10	...........
	33	0.453333	8.87694E-001	5.99157E-003	0.00000E+000	5.31868E-003	3.59960E-001	-1.16880E+000	3.57780E+000	10	...........
	34	0.466667	8.94076E-001	5.99470E-003	0.00000E+000	5.35972E-003	3.59960E-001	-1.17269E+000	3.57780E+000	10	...........
	35	0.48	9.00383E-001	5.99128E-003	0.00000E+000	5.39445E-003	3.59960E-001	-1.16378E+000	3.57780E+000	10	...........
	36	0.493333	9.06678E-001	5.99081E-003	0.00000E+000	5.43174E-003	3.59960E-001	-1.16871E+000	3.57780E+000	10	...........
	37	0.506667	9.12906E-001	5.99738E-003	0.00000E+000	5.47504E-003	3.59960E-001	-1.17264E+000	3.57780E+000	10	...........
	38	0.52	9.19155E-001	5.99734E-003	0.00000E+000	5.51248E-003	3.59960E-001	-1.16390E+000	3.57780E+000	10	...........
	39	0.533333	9.25338E-001	5.99004E-003	0.00000E+000	5.54281E-003	3.59960E-001	-1.16863E+000	3.57780E+000	10	...........
	40	0.546667	9.31424E-001	5.98991E-003	0.00000E+000	5.57915E-003	3.59960E-001	-1.17235E+000	3.57780E+000	10	...........
	41	0.56	9.37476E-001	5.99709E-003	0.00000E+000	5.62213E-003	3.59960E-001	-1.16377E+000	3.57780E+000	10	...........
	42	0.573333	9.43526E-001	5.99261E-003	0.00000E+000	5.65418E-003	3.59960E-001	-1.16886E+000	3.57780E+000	10	...........
	43	0.586667	9.49552E-001	5.99555E-003	0.00000E+000	5.69309E-003	3.59960E-001	-1.17281E+000	3.57780E+000	10	...........
	44	0.6	9.55518E-001	5.98999E-003	0.00000E+000	5.72354E-003	3.59960E-001	-1.16390E+000	3.57780E+000	10	...........
	45	0.613333	9.61372E-001	5.99179E-003	0.00000E+000	5.76034E-003	3.59960E-001	-1.16854E+000	3.57780E+000	10	...........
	46	0.626667	9.67203E-001	5.99183E-003	0.00000E+000	5.79532E-003	3.59960E-001	-1.17259E+000	3.57780E+000	10	...........
	47	0.64	9.73010E-001	5.99724E-003	0.00000E+000	5.83538E-003	3.59960E-001	-1.16397E+000	3.57793E+000	10	...........
	48	0.653333	9.78774E-001	5.99568E-003	0.00000E+000	5.86841E-003	3.59960E-001	-1.16903E+000	3.57830E+000	10	...........
	49	0.666667	9.84451E-001	5.99776E-003	0.00000E+000	5.90449E-003	3.59960E-001	-1.17281E+000	3.57830E+000	10	...........
	50	0.68	9.90067E-001	5.99130E-003	0.00000E+000	5.93178E-003	3.59960E-001	-1.16409E+000	3.57830E+000	10	...........
	51	0.693333	9.95685E-001	5.99313E-003	0.00000E+000	5.96727E-003	3.59960E-001	-1.16895E+000	3.57830E+000	10	...........
	52	0.698333	9.99497E-001	5.98662E-003	0.00000E+000	5.98361E-003	3.59960E-001	-1.16480E+000	3.57830E+000	10	...........
STARTTIMEOFFSET	QUANT	1524.32	Start Time Offset (s)