File: Data/CV_CRGO300517_1/PWRCCD_CRGO300517_1/CHARGE_DISCHARGE/CHARGE_#136.DTA
EXPLAIN
TAG	PWR800_CHARGE
TITLE	LABEL	PWR Cyclic Charge Discharge (Cell) - Charge Step	Test &Identifier
DATE	LABEL	22-6-2017	Date
TIME	LABEL	15:41:05	Time
NOTES	NOTES	3	&Notes...
	supercap test cell
	0.6mg
	6M KOH
PSTAT	PSTAT	IFC5000-01520	Potentiostat
CAPACITY	QUANT	1.00000E-003	Capacity (A-hr)
CELLTYPE	SELECTOR	1	&Cell Type
WORKINGCONNECTION	SELECTOR	0	&Working Lead
MAXCHARGETIME	VARIABLEANDUNITS	1.00000E+002	s	1.00000E+002	second(s)	Max &Charge Time
CHARGECURRENT	QUANT	6.00000E-003	&Charge Current (A)
VOLTAGEFINISH	TWOPARAM	F	1.00000E-003	3.60000E+003	&Voltage Finish	 I (A) < 	Max Time(s)
SAMPLETIME	QUANT	1.00000E-002	Sa&mple Period (s)
CHARGESTOPAT1	MULTIPARAM	4	1.00000E+000	Charge Stop At &1	Voltage > Limit	V
CHARGESTOPAT2	MULTIPARAM	0	0.00000E+000	Charge Stop At &2	None	N/A
AESBHCSELECTOR	TOGGLE	F	Save Both Half Cells
IRCOMP	TOGGLE	F	IR &Measure
EOC	QUANT	0	Open Circuit (V)
SEQUENCER	TOGGLE	TRUE	Run as Sequence
PSTATMODEL	IQUANT	53	Pstat Model
PSTATSECTION	LABEL	IFC5000-01520	Pstat Section
PSTATSERIALNO	LABEL	01520	Pstat Serial Number
CTRLMODE	IQUANT	0	Control Mode
ELECTROMETER	IQUANT	1	RE=0 or CS=1
IESTAB	IQUANT	0	I/E Stability
CASPEED	IQUANT	4	Control Amp Speed
CONVENTION	IQUANT	1	Current Convention
ICHRANGE	IQUANT	2	Ich Range
ICHRANGEMODE	TOGGLE	T	Ich Auto Range
ICHOFFSETENABLE	TOGGLE	F	Ich Offset Enable
ICHOFFSET	QUANT	0	Ich Offset (V)
ICHFILTER	IQUANT	1	Ich Filter
VCHRANGE	IQUANT	2	Vch Range
VCHRANGEMODE	TOGGLE	T	Vch Auto Range
VCHOFFSETENABLE	TOGGLE	F	Vch Offset Enable
VCHOFFSET	QUANT	0	Vch Offset (V)
VCHFILTER	IQUANT	1	Vch Filter
IERANGELOWERLIMIT	IQUANT	9	I/E Range Lower Limit
IERANGEMODE	TOGGLE	F	I/E AutoRange
IERANGE	IQUANT	10	I/E Range
ACHSELECT	IQUANT	1	Ach Select
ACHRANGE	IQUANT	2	Ach Range
ACHOFFSETENABLE	TOGGLE	F	Ach Offset Enable
ACHOFFSET	QUANT	0	Ach Offset (V)
ACHFILTER	IQUANT	1	Ach Filter
CABLEID	IQUANT	14	Cable ID
DCCALDATE	LABEL	20-10-2016	DC Calibration Date
ACCALDATE	LABEL	12/3/2015	AC Calibration Date
FRAMEWORKVERSION	QUANT	7.01	Framework Version
INSTRUMENTVERSION	LABEL	4.00	Instrument Version
CURVE	TABLE	68
	Pt	T	Vf	Im	Vu	Pwr	Sig	Ach	Temp	IERange	Over
	#	s	V	A	V	W	V	V	deg C	#	bits
	0	0.013333	5.96092E-001	5.98899E-003	0.00000E+000	3.56999E-003	3.59960E-001	-1.07597E+000	3.57720E+000	10	...........
	1	0.026667	6.04394E-001	5.99480E-003	0.00000E+000	3.62322E-003	3.59960E-001	-1.07306E+000	3.57720E+000	10	...........
	2	0.04	6.12081E-001	5.99701E-003	0.00000E+000	3.67066E-003	3.59960E-001	-1.06741E+000	3.57720E+000	10	...........
	3	0.053333	6.19361E-001	5.99367E-003	0.00000E+000	3.71224E-003	3.59960E-001	-1.07595E+000	3.57720E+000	10	...........
	4	0.066667	6.26353E-001	5.99486E-003	0.00000E+000	3.75490E-003	3.59960E-001	-1.07315E+000	3.57720E+000	10	...........
	5	0.08	6.33118E-001	5.99212E-003	0.00000E+000	3.79372E-003	3.59960E-001	-1.06746E+000	3.57720E+000	10	...........
	6	0.093333	6.39773E-001	5.99712E-003	0.00000E+000	3.83680E-003	3.59960E-001	-1.07576E+000	3.57720E+000	10	...........
	7	0.106667	6.46322E-001	5.99906E-003	0.00000E+000	3.87732E-003	3.59960E-001	-1.07294E+000	3.57720E+000	10	...........
	8	0.12	6.52742E-001	5.99515E-003	0.00000E+000	3.91328E-003	3.59960E-001	-1.06693E+000	3.57720E+000	10	...........
	9	0.133333	6.59120E-001	5.99350E-003	0.00000E+000	3.95044E-003	3.59960E-001	-1.07533E+000	3.57720E+000	10	...........
	10	0.146667	6.65455E-001	5.99376E-003	0.00000E+000	3.98858E-003	3.59960E-001	-1.07279E+000	3.57720E+000	10	...........
	11	0.16	6.71741E-001	5.99355E-003	0.00000E+000	4.02612E-003	3.59960E-001	-1.06703E+000	3.57720E+000	10	...........
	12	0.173333	6.77975E-001	5.99536E-003	0.00000E+000	4.06470E-003	3.59960E-001	-1.07500E+000	3.57720E+000	10	...........
	13	0.186667	6.84150E-001	5.98885E-003	0.00000E+000	4.09727E-003	3.59960E-001	-1.07259E+000	3.57720E+000	10	...........
	14	0.2	6.90363E-001	5.99346E-003	0.00000E+000	4.13766E-003	3.59960E-001	-1.06708E+000	3.57720E+000	10	...........
	15	0.213333	6.96459E-001	5.99374E-003	0.00000E+000	4.17440E-003	3.59960E-001	-1.07517E+000	3.57720E+000	10	...........
	16	0.226667	7.02593E-001	5.99710E-003	0.00000E+000	4.21352E-003	3.59960E-001	-1.07275E+000	3.57720E+000	10	...........
	17	0.24	7.08704E-001	5.99589E-003	0.00000E+000	4.24931E-003	3.59960E-001	-1.06685E+000	3.57720E+000	10	...........
	18	0.253333	7.14790E-001	5.99465E-003	0.00000E+000	4.28491E-003	3.59960E-001	-1.07508E+000	3.57720E+000	10	...........
	19	0.266667	7.20888E-001	5.99610E-003	0.00000E+000	4.32252E-003	3.59960E-001	-1.07282E+000	3.57720E+000	10	...........
	20	0.28	7.26951E-001	5.99287E-003	0.00000E+000	4.35652E-003	3.59960E-001	-1.06703E+000	3.57720E+000	10	...........
	21	0.293333	7.32953E-001	5.99924E-003	0.00000E+000	4.39716E-003	3.59960E-001	-1.07480E+000	3.57720E+000	10	...........
	22	0.306667	7.39000E-001	5.99390E-003	0.00000E+000	4.42949E-003	3.59960E-001	-1.07231E+000	3.57720E+000	10	...........
	23	0.32	7.45047E-001	5.99295E-003	0.00000E+000	4.46503E-003	3.59960E-001	-1.06659E+000	3.57720E+000	10	...........
	24	0.333333	7.51034E-001	5.99215E-003	0.00000E+000	4.50031E-003	3.59960E-001	-1.07518E+000	3.57720E+000	10	...........
	25	0.346667	7.57085E-001	5.99686E-003	0.00000E+000	4.54013E-003	3.59960E-001	-1.07293E+000	3.57720E+000	10	...........
	26	0.36	7.63058E-001	5.99051E-003	0.00000E+000	4.57110E-003	3.59960E-001	-1.06688E+000	3.57720E+000	10	...........
	27	0.373333	7.69085E-001	5.99592E-003	0.00000E+000	4.61137E-003	3.59960E-001	-1.07476E+000	3.57720E+000	10	...........
	28	0.386667	7.75057E-001	5.99226E-003	0.00000E+000	4.64434E-003	3.59960E-001	-1.07293E+000	3.57720E+000	10	...........
	29	0.4	7.81087E-001	5.98993E-003	0.00000E+000	4.67866E-003	3.59960E-001	-1.06697E+000	3.57720E+000	10	...........
	30	0.413333	7.87062E-001	5.99617E-003	0.00000E+000	4.71935E-003	3.59960E-001	-1.07505E+000	3.57720E+000	10	...........
	31	0.426667	7.93024E-001	5.99711E-003	0.00000E+000	4.75585E-003	3.59960E-001	-1.07263E+000	3.57720E+000	10	...........
	32	0.44	7.99001E-001	5.99576E-003	0.00000E+000	4.79062E-003	3.59960E-001	-1.06632E+000	3.57720E+000	10	...........
	33	0.453333	8.04906E-001	5.99222E-003	0.00000E+000	4.82317E-003	3.59960E-001	-1.07428E+000	3.57720E+000	10	...........
	34	0.466667	8.10900E-001	5.99829E-003	0.00000E+000	4.86401E-003	3.59960E-001	-1.07252E+000	3.57720E+000	10	...........
	35	0.48	8.16844E-001	5.99662E-003	0.00000E+000	4.89830E-003	3.59960E-001	-1.06646E+000	3.57720E+000	10	...........
	36	0.493333	8.22801E-001	5.99602E-003	0.00000E+000	4.93353E-003	3.59960E-001	-1.07424E+000	3.57720E+000	10	...........
	37	0.506667	8.28711E-001	5.99124E-003	0.00000E+000	4.96500E-003	3.59960E-001	-1.07233E+000	3.57720E+000	10	...........
	38	0.52	8.34658E-001	5.99774E-003	0.00000E+000	5.00606E-003	3.59960E-001	-1.06636E+000	3.57720E+000	10	...........
	39	0.533333	8.40628E-001	5.99468E-003	0.00000E+000	5.03929E-003	3.59960E-001	-1.07443E+000	3.57720E+000	10	...........
	40	0.546667	8.46554E-001	5.99208E-003	0.00000E+000	5.07262E-003	3.59960E-001	-1.07243E+000	3.57720E+000	10	...........
	41	0.56	8.52503E-001	5.99645E-003	0.00000E+000	5.11199E-003	3.59960E-001	-1.06643E+000	3.57720E+000	10	...........
	42	0.573333	8.58442E-001	5.99371E-003	0.00000E+000	5.14525E-003	3.59960E-001	-1.07398E+000	3.57720E+000	10	...........
	43	0.586667	8.64346E-001	5.99313E-003	0.00000E+000	5.18014E-003	3.59960E-001	-1.07229E+000	3.57720E+000	10	...........
	44	0.6	8.70285E-001	5.99656E-003	0.00000E+000	5.21871E-003	3.59960E-001	-1.06634E+000	3.57720E+000	10	...........
	45	0.613333	8.76116E-001	5.99245E-003	0.00000E+000	5.25008E-003	3.59960E-001	-1.07421E+000	3.57720E+000	10	...........
	46	0.626667	8.81998E-001	5.99811E-003	0.00000E+000	5.29032E-003	3.59960E-001	-1.07232E+000	3.57720E+000	10	...........
	47	0.64	8.87843E-001	5.99853E-003	0.00000E+000	5.32575E-003	3.59960E-001	-1.06599E+000	3.57720E+000	10	...........
	48	0.653333	8.93692E-001	5.99613E-003	0.00000E+000	5.35869E-003	3.59960E-001	-1.07393E+000	3.57720E+000	10	...........
	49	0.666667	8.99543E-001	5.99603E-003	0.00000E+000	5.39369E-003	3.59960E-001	-1.07265E+000	3.57720E+000	10	...........
	50	0.68	9.05331E-001	5.99283E-003	0.00000E+000	5.42550E-003	3.59960E-001	-1.06646E+000	3.57720E+000	10	...........
	51	0.693333	9.11159E-001	5.99304E-003	0.00000E+000	5.46061E-003	3.59960E-001	-1.07423E+000	3.57720E+000	10	...........
	52	0.706667	9.16863E-001	5.99246E-003	0.00000E+000	5.49426E-003	3.59960E-001	-1.07242E+000	3.57720E+000	10	...........
	53	0.72	9.22688E-001	5.99166E-003	0.00000E+000	5.52844E-003	3.59960E-001	-1.06624E+000	3.57750E+000	10	...........
	54	0.733333	9.28359E-001	5.99445E-003	0.00000E+000	5.56500E-003	3.59960E-001	-1.07405E+000	3.57840E+000	10	...........
	55	0.746667	9.34043E-001	5.99421E-003	0.00000E+000	5.59885E-003	3.59960E-001	-1.07261E+000	3.57840E+000	10	...........
	56	0.76	9.39732E-001	5.99305E-003	0.00000E+000	5.63186E-003	3.59960E-001	-1.06590E+000	3.57840E+000	10	...........
	57	0.773333	9.45419E-001	5.99272E-003	0.00000E+000	5.66563E-003	3.59960E-001	-1.07347E+000	3.57840E+000	10	...........
	58	0.786667	9.51072E-001	5.99228E-003	0.00000E+000	5.69909E-003	3.59960E-001	-1.07213E+000	3.57840E+000	10	...........
	59	0.8	9.56700E-001	5.99696E-003	0.00000E+000	5.73730E-003	3.59960E-001	-1.06578E+000	3.57840E+000	10	...........
	60	0.813333	9.62288E-001	5.99890E-003	0.00000E+000	5.77267E-003	3.59960E-001	-1.07358E+000	3.57840E+000	10	...........
	61	0.826667	9.67823E-001	5.99313E-003	0.00000E+000	5.80030E-003	3.59960E-001	-1.07225E+000	3.57840E+000	10	...........
	62	0.84	9.73392E-001	5.99087E-003	0.00000E+000	5.83146E-003	3.59960E-001	-1.06572E+000	3.57840E+000	10	...........
	63	0.853333	9.78880E-001	5.99328E-003	0.00000E+000	5.86670E-003	3.59960E-001	-1.07344E+000	3.57840E+000	10	...........
	64	0.866667	9.84278E-001	5.99547E-003	0.00000E+000	5.90121E-003	3.59960E-001	-1.07245E+000	3.57840E+000	10	...........
	65	0.88	9.89699E-001	5.99103E-003	0.00000E+000	5.92931E-003	3.59960E-001	-1.06605E+000	3.57840E+000	10	...........
	66	0.893333	9.95088E-001	5.99454E-003	0.00000E+000	5.96510E-003	3.59960E-001	-1.07314E+000	3.57840E+000	10	...........
	67	0.9	9.99096E-001	5.99093E-003	0.00000E+000	5.98552E-003	3.59960E-001	-1.06458E+000	3.57840E+000	10	...........
STARTTIMEOFFSET	QUANT	260.63	Start Time Offset (s)