File: Data/CV_CRGO300517_1/PWRCCD_CRGO300517_1/CHARGE_DISCHARGE/CHARGE_#192.DTA
EXPLAIN
TAG	PWR800_CHARGE
TITLE	LABEL	PWR Cyclic Charge Discharge (Cell) - Charge Step	Test &Identifier
DATE	LABEL	22-6-2017	Date
TIME	LABEL	15:43:28	Time
NOTES	NOTES	3	&Notes...
	supercap test cell
	0.6mg
	6M KOH
PSTAT	PSTAT	IFC5000-01520	Potentiostat
CAPACITY	QUANT	1.00000E-003	Capacity (A-hr)
CELLTYPE	SELECTOR	1	&Cell Type
WORKINGCONNECTION	SELECTOR	0	&Working Lead
MAXCHARGETIME	VARIABLEANDUNITS	1.00000E+002	s	1.00000E+002	second(s)	Max &Charge Time
CHARGECURRENT	QUANT	6.00000E-003	&Charge Current (A)
VOLTAGEFINISH	TWOPARAM	F	1.00000E-003	3.60000E+003	&Voltage Finish	 I (A) < 	Max Time(s)
SAMPLETIME	QUANT	1.00000E-002	Sa&mple Period (s)
CHARGESTOPAT1	MULTIPARAM	4	1.00000E+000	Charge Stop At &1	Voltage > Limit	V
CHARGESTOPAT2	MULTIPARAM	0	0.00000E+000	Charge Stop At &2	None	N/A
AESBHCSELECTOR	TOGGLE	F	Save Both Half Cells
IRCOMP	TOGGLE	F	IR &Measure
EOC	QUANT	0	Open Circuit (V)
SEQUENCER	TOGGLE	TRUE	Run as Sequence
PSTATMODEL	IQUANT	53	Pstat Model
PSTATSECTION	LABEL	IFC5000-01520	Pstat Section
PSTATSERIALNO	LABEL	01520	Pstat Serial Number
CTRLMODE	IQUANT	0	Control Mode
ELECTROMETER	IQUANT	1	RE=0 or CS=1
IESTAB	IQUANT	0	I/E Stability
CASPEED	IQUANT	4	Control Amp Speed
CONVENTION	IQUANT	1	Current Convention
ICHRANGE	IQUANT	2	Ich Range
ICHRANGEMODE	TOGGLE	T	Ich Auto Range
ICHOFFSETENABLE	TOGGLE	F	Ich Offset Enable
ICHOFFSET	QUANT	0	Ich Offset (V)
ICHFILTER	IQUANT	1	Ich Filter
VCHRANGE	IQUANT	2	Vch Range
VCHRANGEMODE	TOGGLE	T	Vch Auto Range
VCHOFFSETENABLE	TOGGLE	F	Vch Offset Enable
VCHOFFSET	QUANT	0	Vch Offset (V)
VCHFILTER	IQUANT	1	Vch Filter
IERANGELOWERLIMIT	IQUANT	9	I/E Range Lower Limit
IERANGEMODE	TOGGLE	F	I/E AutoRange
IERANGE	IQUANT	10	I/E Range
ACHSELECT	IQUANT	1	Ach Select
ACHRANGE	IQUANT	2	Ach Range
ACHOFFSETENABLE	TOGGLE	F	Ach Offset Enable
ACHOFFSET	QUANT	0	Ach Offset (V)
ACHFILTER	IQUANT	1	Ach Filter
CABLEID	IQUANT	14	Cable ID
DCCALDATE	LABEL	20-10-2016	DC Calibration Date
ACCALDATE	LABEL	12/3/2015	AC Calibration Date
FRAMEWORKVERSION	QUANT	7.01	Framework Version
INSTRUMENTVERSION	LABEL	4.00	Instrument Version
CURVE	TABLE	66
	Pt	T	Vf	Im	Vu	Pwr	Sig	Ach	Temp	IERange	Over
	#	s	V	A	V	W	V	V	deg C	#	bits
	0	0.013333	6.04188E-001	5.99546E-003	0.00000E+000	3.62238E-003	3.59960E-001	-1.09315E+000	3.57740E+000	10	...........
	1	0.026667	6.12681E-001	5.99545E-003	0.00000E+000	3.67330E-003	3.59960E-001	-1.08761E+000	3.57740E+000	10	...........
	2	0.04	6.20466E-001	5.98949E-003	0.00000E+000	3.71628E-003	3.59960E-001	-1.08347E+000	3.57740E+000	10	...........
	3	0.053333	6.27868E-001	5.99669E-003	0.00000E+000	3.76513E-003	3.59960E-001	-1.09314E+000	3.57740E+000	10	...........
	4	0.066667	6.34897E-001	5.99275E-003	0.00000E+000	3.80477E-003	3.59960E-001	-1.08781E+000	3.57740E+000	10	...........
	5	0.08	6.41798E-001	5.99093E-003	0.00000E+000	3.84497E-003	3.59960E-001	-1.08329E+000	3.57740E+000	10	...........
	6	0.093333	6.48560E-001	5.99350E-003	0.00000E+000	3.88715E-003	3.59960E-001	-1.09284E+000	3.57740E+000	10	...........
	7	0.106667	6.55234E-001	6.00038E-003	0.00000E+000	3.93166E-003	3.59960E-001	-1.08789E+000	3.57740E+000	10	...........
	8	0.12	6.61741E-001	5.99539E-003	0.00000E+000	3.96740E-003	3.59960E-001	-1.08350E+000	3.57740E+000	10	...........
	9	0.133333	6.68235E-001	5.99028E-003	0.00000E+000	4.00291E-003	3.59960E-001	-1.09275E+000	3.57740E+000	10	...........
	10	0.146667	6.74675E-001	5.99287E-003	0.00000E+000	4.04324E-003	3.59960E-001	-1.08796E+000	3.57740E+000	10	...........
	11	0.16	6.81091E-001	5.99203E-003	0.00000E+000	4.08112E-003	3.59960E-001	-1.08319E+000	3.57740E+000	10	...........
	12	0.173333	6.87410E-001	5.99344E-003	0.00000E+000	4.11995E-003	3.59960E-001	-1.09210E+000	3.57740E+000	10	...........
	13	0.186667	6.93726E-001	5.99497E-003	0.00000E+000	4.15887E-003	3.59960E-001	-1.08753E+000	3.57740E+000	10	...........
	14	0.2	6.99967E-001	5.99183E-003	0.00000E+000	4.19408E-003	3.59960E-001	-1.08276E+000	3.57740E+000	10	...........
	15	0.213333	7.06238E-001	5.99816E-003	0.00000E+000	4.23613E-003	3.59960E-001	-1.09179E+000	3.57740E+000	10	...........
	16	0.226667	7.12403E-001	5.98959E-003	0.00000E+000	4.26700E-003	3.59960E-001	-1.08781E+000	3.57740E+000	10	...........
	17	0.24	7.18655E-001	5.99341E-003	0.00000E+000	4.30719E-003	3.59960E-001	-1.08283E+000	3.57740E+000	10	...........
	18	0.253333	7.24852E-001	5.99337E-003	0.00000E+000	4.34431E-003	3.59960E-001	-1.09173E+000	3.57740E+000	10	...........
	19	0.266667	7.31022E-001	5.99099E-003	0.00000E+000	4.37954E-003	3.59960E-001	-1.08786E+000	3.57740E+000	10	...........
	20	0.28	7.37139E-001	5.99274E-003	0.00000E+000	4.41748E-003	3.59960E-001	-1.08289E+000	3.57740E+000	10	...........
	21	0.293333	7.43334E-001	5.99478E-003	0.00000E+000	4.45613E-003	3.59960E-001	-1.09158E+000	3.57740E+000	10	...........
	22	0.306667	7.49444E-001	5.99560E-003	0.00000E+000	4.49336E-003	3.59960E-001	-1.08802E+000	3.57740E+000	10	...........
	23	0.32	7.55606E-001	5.99755E-003	0.00000E+000	4.53178E-003	3.59960E-001	-1.08294E+000	3.57740E+000	10	...........
	24	0.333333	7.61735E-001	5.99432E-003	0.00000E+000	4.56608E-003	3.59960E-001	-1.09150E+000	3.57740E+000	10	...........
	25	0.346667	7.67831E-001	5.99025E-003	0.00000E+000	4.59949E-003	3.59960E-001	-1.08809E+000	3.57740E+000	10	...........
	26	0.36	7.73964E-001	5.99206E-003	0.00000E+000	4.63764E-003	3.59960E-001	-1.08280E+000	3.57740E+000	10	...........
	27	0.373333	7.80069E-001	5.99504E-003	0.00000E+000	4.67655E-003	3.59960E-001	-1.09110E+000	3.57740E+000	10	...........
	28	0.386667	7.86177E-001	5.99573E-003	0.00000E+000	4.71371E-003	3.59960E-001	-1.08848E+000	3.57740E+000	10	...........
	29	0.4	7.92285E-001	5.99442E-003	0.00000E+000	4.74929E-003	3.59960E-001	-1.08295E+000	3.57740E+000	10	...........
	30	0.413333	7.98388E-001	5.99410E-003	0.00000E+000	4.78562E-003	3.59960E-001	-1.09116E+000	3.57740E+000	10	...........
	31	0.426667	8.04444E-001	5.99368E-003	0.00000E+000	4.82158E-003	3.59960E-001	-1.08838E+000	3.57740E+000	10	...........
	32	0.44	8.10514E-001	5.98882E-003	0.00000E+000	4.85402E-003	3.59960E-001	-1.08302E+000	3.57740E+000	10	...........
	33	0.453333	8.16569E-001	5.99067E-003	0.00000E+000	4.89180E-003	3.59960E-001	-1.09093E+000	3.57740E+000	10	...........
	34	0.466667	8.22593E-001	5.98900E-003	0.00000E+000	4.92652E-003	3.59960E-001	-1.08863E+000	3.57740E+000	10	...........
	35	0.48	8.28641E-001	5.98913E-003	0.00000E+000	4.96284E-003	3.59960E-001	-1.08272E+000	3.57740E+000	10	...........
	36	0.493333	8.34674E-001	5.99125E-003	0.00000E+000	5.00074E-003	3.59960E-001	-1.09038E+000	3.57740E+000	10	...........
	37	0.506667	8.40695E-001	5.99539E-003	0.00000E+000	5.04029E-003	3.59960E-001	-1.08830E+000	3.57740E+000	10	...........
	38	0.52	8.46744E-001	5.99319E-003	0.00000E+000	5.07469E-003	3.59960E-001	-1.08230E+000	3.57740E+000	10	...........
	39	0.533333	8.52711E-001	5.99373E-003	0.00000E+000	5.11092E-003	3.59960E-001	-1.09028E+000	3.57740E+000	10	...........
	40	0.546667	8.58728E-001	5.99122E-003	0.00000E+000	5.14482E-003	3.59960E-001	-1.08842E+000	3.57740E+000	10	...........
	41	0.56	8.64698E-001	5.99121E-003	0.00000E+000	5.18059E-003	3.59960E-001	-1.08233E+000	3.57740E+000	10	...........
	42	0.573333	8.70680E-001	5.99494E-003	0.00000E+000	5.21967E-003	3.59960E-001	-1.08995E+000	3.57740E+000	10	...........
	43	0.586667	8.76630E-001	5.99182E-003	0.00000E+000	5.25261E-003	3.59960E-001	-1.08840E+000	3.57740E+000	10	...........
	44	0.6	8.82609E-001	5.99294E-003	0.00000E+000	5.28942E-003	3.59960E-001	-1.08237E+000	3.57740E+000	10	...........
	45	0.613333	8.88527E-001	5.99303E-003	0.00000E+000	5.32497E-003	3.59960E-001	-1.08968E+000	3.57740E+000	10	...........
	46	0.626667	8.94412E-001	5.99422E-003	0.00000E+000	5.36130E-003	3.59960E-001	-1.08848E+000	3.57740E+000	10	...........
	47	0.64	9.00317E-001	5.99368E-003	0.00000E+000	5.39621E-003	3.59960E-001	-1.08221E+000	3.57740E+000	10	...........
	48	0.653333	9.06196E-001	5.99420E-003	0.00000E+000	5.43192E-003	3.59960E-001	-1.08969E+000	3.57740E+000	10	...........
	49	0.666667	9.12044E-001	5.99287E-003	0.00000E+000	5.46576E-003	3.59960E-001	-1.08873E+000	3.57740E+000	10	...........
	50	0.68	9.17857E-001	5.99238E-003	0.00000E+000	5.50015E-003	3.59960E-001	-1.08209E+000	3.57740E+000	10	...........
	51	0.693333	9.23696E-001	5.99424E-003	0.00000E+000	5.53685E-003	3.59960E-001	-1.08950E+000	3.57740E+000	10	...........
	52	0.706667	9.29499E-001	5.99098E-003	0.00000E+000	5.56861E-003	3.59960E-001	-1.08879E+000	3.57740E+000	10	...........
	53	0.72	9.35244E-001	5.99323E-003	0.00000E+000	5.60513E-003	3.59960E-001	-1.08207E+000	3.57740E+000	10	...........
	54	0.733333	9.40977E-001	5.98973E-003	0.00000E+000	5.63620E-003	3.59960E-001	-1.08948E+000	3.57740E+000	10	...........
	55	0.746667	9.46704E-001	5.99304E-003	0.00000E+000	5.67364E-003	3.59960E-001	-1.08924E+000	3.57740E+000	10	...........
	56	0.76	9.52414E-001	5.99276E-003	0.00000E+000	5.70759E-003	3.59960E-001	-1.08241E+000	3.57740E+000	10	...........
	57	0.773333	9.58026E-001	5.98960E-003	0.00000E+000	5.73819E-003	3.59960E-001	-1.08964E+000	3.57740E+000	10	...........
	58	0.786667	9.63639E-001	5.99407E-003	0.00000E+000	5.77612E-003	3.59960E-001	-1.08980E+000	3.57810E+000	10	...........
	59	0.8	9.69211E-001	5.99933E-003	0.00000E+000	5.81462E-003	3.59960E-001	-1.08273E+000	3.57820E+000	10	...........
	60	0.813333	9.74767E-001	5.99124E-003	0.00000E+000	5.84006E-003	3.59960E-001	-1.08964E+000	3.57820E+000	10	...........
	61	0.826667	9.80244E-001	5.99270E-003	0.00000E+000	5.87431E-003	3.59960E-001	-1.08981E+000	3.57820E+000	10	...........
	62	0.84	9.85689E-001	5.99279E-003	0.00000E+000	5.90703E-003	3.59960E-001	-1.08306E+000	3.57820E+000	10	...........
	63	0.853333	9.91147E-001	5.99377E-003	0.00000E+000	5.94071E-003	3.59960E-001	-1.08994E+000	3.57820E+000	10	...........
	64	0.866667	9.96521E-001	5.99506E-003	0.00000E+000	5.97421E-003	3.59960E-001	-1.09066E+000	3.57820E+000	10	...........
	65	0.87	9.99884E-001	5.99413E-003	0.00000E+000	5.99343E-003	3.59960E-001	-1.09142E+000	3.57820E+000	10	...........
STARTTIMEOFFSET	QUANT	359.1567	Start Time Offset (s)