File: Data/CV_CRGO300517_1/PWRCCD_CRGO300517_1/CHARGE_DISCHARGE/CHARGE_#474.DTA
EXPLAIN
TAG	PWR800_CHARGE
TITLE	LABEL	PWR Cyclic Charge Discharge (Cell) - Charge Step	Test &Identifier
DATE	LABEL	22-6-2017	Date
TIME	LABEL	15:54:54	Time
NOTES	NOTES	3	&Notes...
	supercap test cell
	0.6mg
	6M KOH
PSTAT	PSTAT	IFC5000-01520	Potentiostat
CAPACITY	QUANT	1.00000E-003	Capacity (A-hr)
CELLTYPE	SELECTOR	1	&Cell Type
WORKINGCONNECTION	SELECTOR	0	&Working Lead
MAXCHARGETIME	VARIABLEANDUNITS	1.00000E+002	s	1.00000E+002	second(s)	Max &Charge Time
CHARGECURRENT	QUANT	6.00000E-003	&Charge Current (A)
VOLTAGEFINISH	TWOPARAM	F	1.00000E-003	3.60000E+003	&Voltage Finish	 I (A) < 	Max Time(s)
SAMPLETIME	QUANT	1.00000E-002	Sa&mple Period (s)
CHARGESTOPAT1	MULTIPARAM	4	1.00000E+000	Charge Stop At &1	Voltage > Limit	V
CHARGESTOPAT2	MULTIPARAM	0	0.00000E+000	Charge Stop At &2	None	N/A
AESBHCSELECTOR	TOGGLE	F	Save Both Half Cells
IRCOMP	TOGGLE	F	IR &Measure
EOC	QUANT	0	Open Circuit (V)
SEQUENCER	TOGGLE	TRUE	Run as Sequence
PSTATMODEL	IQUANT	53	Pstat Model
PSTATSECTION	LABEL	IFC5000-01520	Pstat Section
PSTATSERIALNO	LABEL	01520	Pstat Serial Number
CTRLMODE	IQUANT	0	Control Mode
ELECTROMETER	IQUANT	1	RE=0 or CS=1
IESTAB	IQUANT	0	I/E Stability
CASPEED	IQUANT	4	Control Amp Speed
CONVENTION	IQUANT	1	Current Convention
ICHRANGE	IQUANT	2	Ich Range
ICHRANGEMODE	TOGGLE	T	Ich Auto Range
ICHOFFSETENABLE	TOGGLE	F	Ich Offset Enable
ICHOFFSET	QUANT	0	Ich Offset (V)
ICHFILTER	IQUANT	1	Ich Filter
VCHRANGE	IQUANT	2	Vch Range
VCHRANGEMODE	TOGGLE	T	Vch Auto Range
VCHOFFSETENABLE	TOGGLE	F	Vch Offset Enable
VCHOFFSET	QUANT	0	Vch Offset (V)
VCHFILTER	IQUANT	1	Vch Filter
IERANGELOWERLIMIT	IQUANT	9	I/E Range Lower Limit
IERANGEMODE	TOGGLE	F	I/E AutoRange
IERANGE	IQUANT	10	I/E Range
ACHSELECT	IQUANT	1	Ach Select
ACHRANGE	IQUANT	2	Ach Range
ACHOFFSETENABLE	TOGGLE	F	Ach Offset Enable
ACHOFFSET	QUANT	0	Ach Offset (V)
ACHFILTER	IQUANT	1	Ach Filter
CABLEID	IQUANT	14	Cable ID
DCCALDATE	LABEL	20-10-2016	DC Calibration Date
ACCALDATE	LABEL	12/3/2015	AC Calibration Date
FRAMEWORKVERSION	QUANT	7.01	Framework Version
INSTRUMENTVERSION	LABEL	4.00	Instrument Version
CURVE	TABLE	59
	Pt	T	Vf	Im	Vu	Pwr	Sig	Ach	Temp	IERange	Over
	#	s	V	A	V	W	V	V	deg C	#	bits
	0	0.013333	6.29705E-001	5.99519E-003	0.00000E+000	3.77520E-003	3.59960E-001	-1.15074E+000	3.57650E+000	10	...........
	1	0.026667	6.38554E-001	5.99246E-003	0.00000E+000	3.82651E-003	3.59960E-001	-1.14338E+000	3.57658E+000	10	...........
	2	0.04	6.46688E-001	5.99962E-003	0.00000E+000	3.87989E-003	3.59960E-001	-1.14002E+000	3.57670E+000	10	...........
	3	0.053333	6.54410E-001	5.99536E-003	0.00000E+000	3.92342E-003	3.59960E-001	-1.15088E+000	3.57670E+000	10	...........
	4	0.066667	6.61878E-001	5.99803E-003	0.00000E+000	3.96996E-003	3.59960E-001	-1.14333E+000	3.57670E+000	10	...........
	5	0.08	6.69112E-001	5.99277E-003	0.00000E+000	4.00983E-003	3.59960E-001	-1.14002E+000	3.57670E+000	10	...........
	6	0.093333	6.76221E-001	5.99123E-003	0.00000E+000	4.05139E-003	3.59960E-001	-1.15063E+000	3.57670E+000	10	...........
	7	0.106667	6.83222E-001	5.99151E-003	0.00000E+000	4.09353E-003	3.59960E-001	-1.14264E+000	3.57670E+000	10	...........
	8	0.12	6.90118E-001	5.99083E-003	0.00000E+000	4.13438E-003	3.59960E-001	-1.13994E+000	3.57670E+000	10	...........
	9	0.133333	6.96974E-001	5.99284E-003	0.00000E+000	4.17686E-003	3.59960E-001	-1.15083E+000	3.57670E+000	10	...........
	10	0.146667	7.03779E-001	5.99419E-003	0.00000E+000	4.21859E-003	3.59960E-001	-1.14282E+000	3.57670E+000	10	...........
	11	0.16	7.10496E-001	5.99248E-003	0.00000E+000	4.25763E-003	3.59960E-001	-1.14028E+000	3.57670E+000	10	...........
	12	0.173333	7.17188E-001	5.99912E-003	0.00000E+000	4.30250E-003	3.59960E-001	-1.15101E+000	3.57670E+000	10	...........
	13	0.186667	7.23801E-001	5.99133E-003	0.00000E+000	4.33653E-003	3.59960E-001	-1.14261E+000	3.57670E+000	10	...........
	14	0.2	7.30403E-001	5.99523E-003	0.00000E+000	4.37893E-003	3.59960E-001	-1.14023E+000	3.57670E+000	10	...........
	15	0.213333	7.36987E-001	5.99740E-003	0.00000E+000	4.42000E-003	3.59960E-001	-1.15095E+000	3.57670E+000	10	...........
	16	0.226667	7.43552E-001	6.00101E-003	0.00000E+000	4.46206E-003	3.59960E-001	-1.14261E+000	3.57670E+000	10	...........
	17	0.24	7.50094E-001	5.99398E-003	0.00000E+000	4.49605E-003	3.59960E-001	-1.13996E+000	3.57670E+000	10	...........
	18	0.253333	7.56668E-001	5.99472E-003	0.00000E+000	4.53601E-003	3.59960E-001	-1.15036E+000	3.57670E+000	10	...........
	19	0.266667	7.63155E-001	5.99491E-003	0.00000E+000	4.57504E-003	3.59960E-001	-1.14187E+000	3.57670E+000	10	...........
	20	0.28	7.69638E-001	5.99294E-003	0.00000E+000	4.61239E-003	3.59960E-001	-1.13985E+000	3.57670E+000	10	...........
	21	0.293333	7.76076E-001	5.99344E-003	0.00000E+000	4.65136E-003	3.59960E-001	-1.15064E+000	3.57670E+000	10	...........
	22	0.306667	7.82554E-001	5.99828E-003	0.00000E+000	4.69397E-003	3.59960E-001	-1.14180E+000	3.57670E+000	10	...........
	23	0.32	7.89001E-001	6.00060E-003	0.00000E+000	4.73448E-003	3.59960E-001	-1.13990E+000	3.57670E+000	10	...........
	24	0.333333	7.95432E-001	5.98993E-003	0.00000E+000	4.76458E-003	3.59960E-001	-1.15063E+000	3.57670E+000	10	...........
	25	0.346667	8.01842E-001	5.99063E-003	0.00000E+000	4.80354E-003	3.59960E-001	-1.14161E+000	3.57670E+000	10	...........
	26	0.36	8.08236E-001	5.99091E-003	0.00000E+000	4.84207E-003	3.59960E-001	-1.13974E+000	3.57670E+000	10	...........
	27	0.373333	8.14578E-001	5.99400E-003	0.00000E+000	4.88258E-003	3.59960E-001	-1.15057E+000	3.57670E+000	10	...........
	28	0.386667	8.20974E-001	5.99118E-003	0.00000E+000	4.91861E-003	3.59960E-001	-1.14142E+000	3.57670E+000	10	...........
	29	0.4	8.27355E-001	5.99725E-003	0.00000E+000	4.96186E-003	3.59960E-001	-1.13974E+000	3.57670E+000	10	...........
	30	0.413333	8.33667E-001	5.99396E-003	0.00000E+000	4.99697E-003	3.59960E-001	-1.15052E+000	3.57670E+000	10	...........
	31	0.426667	8.39965E-001	5.99139E-003	0.00000E+000	5.03256E-003	3.59960E-001	-1.14111E+000	3.57670E+000	10	...........
	32	0.44	8.46307E-001	5.99024E-003	0.00000E+000	5.06959E-003	3.59960E-001	-1.13956E+000	3.57670E+000	10	...........
	33	0.453333	8.52596E-001	5.99626E-003	0.00000E+000	5.11239E-003	3.59960E-001	-1.15052E+000	3.57670E+000	10	...........
	34	0.466667	8.58862E-001	5.99158E-003	0.00000E+000	5.14594E-003	3.59960E-001	-1.14135E+000	3.57670E+000	10	...........
	35	0.48	8.65079E-001	5.99221E-003	0.00000E+000	5.18373E-003	3.59960E-001	-1.14006E+000	3.57670E+000	10	...........
	36	0.493333	8.71336E-001	5.99374E-003	0.00000E+000	5.22256E-003	3.59960E-001	-1.15082E+000	3.57670E+000	10	...........
	37	0.506667	8.77525E-001	5.99501E-003	0.00000E+000	5.26077E-003	3.59960E-001	-1.14120E+000	3.57670E+000	10	...........
	38	0.52	8.83735E-001	5.99635E-003	0.00000E+000	5.29918E-003	3.59960E-001	-1.13986E+000	3.57670E+000	10	...........
	39	0.533333	8.89880E-001	5.99387E-003	0.00000E+000	5.33383E-003	3.59960E-001	-1.15097E+000	3.57670E+000	10	...........
	40	0.546667	8.96022E-001	5.98954E-003	0.00000E+000	5.36675E-003	3.59960E-001	-1.14142E+000	3.57670E+000	10	...........
	41	0.56	9.02133E-001	5.99302E-003	0.00000E+000	5.40650E-003	3.59960E-001	-1.14008E+000	3.57670E+000	10	...........
	42	0.573333	9.08218E-001	5.99181E-003	0.00000E+000	5.44187E-003	3.59960E-001	-1.15043E+000	3.57670E+000	10	...........
	43	0.586667	9.14232E-001	5.99314E-003	0.00000E+000	5.47913E-003	3.59960E-001	-1.14091E+000	3.57670E+000	10	...........
	44	0.6	9.20272E-001	5.99706E-003	0.00000E+000	5.51892E-003	3.59960E-001	-1.14000E+000	3.57670E+000	10	...........
	45	0.613333	9.26254E-001	5.99342E-003	0.00000E+000	5.55143E-003	3.59960E-001	-1.15071E+000	3.57670E+000	10	...........
	46	0.626667	9.32211E-001	5.99464E-003	0.00000E+000	5.58827E-003	3.59960E-001	-1.14084E+000	3.57670E+000	10	...........
	47	0.64	9.38126E-001	5.99569E-003	0.00000E+000	5.62471E-003	3.59960E-001	-1.13996E+000	3.57670E+000	10	...........
	48	0.653333	9.44006E-001	5.99438E-003	0.00000E+000	5.65873E-003	3.59960E-001	-1.15053E+000	3.57670E+000	10	...........
	49	0.666667	9.49873E-001	5.99269E-003	0.00000E+000	5.69229E-003	3.59960E-001	-1.14066E+000	3.57670E+000	10	...........
	50	0.68	9.55676E-001	5.99343E-003	0.00000E+000	5.72778E-003	3.59960E-001	-1.14009E+000	3.57670E+000	10	...........
	51	0.693333	9.61437E-001	5.99526E-003	0.00000E+000	5.76407E-003	3.59960E-001	-1.15078E+000	3.57670E+000	10	...........
	52	0.706667	9.67137E-001	5.99417E-003	0.00000E+000	5.79718E-003	3.59960E-001	-1.14071E+000	3.57670E+000	10	...........
	53	0.72	9.72831E-001	5.99249E-003	0.00000E+000	5.82968E-003	3.59960E-001	-1.14030E+000	3.57670E+000	10	...........
	54	0.733333	9.78450E-001	5.99368E-003	0.00000E+000	5.86451E-003	3.59960E-001	-1.15082E+000	3.57670E+000	10	...........
	55	0.746667	9.84068E-001	5.99993E-003	0.00000E+000	5.90434E-003	3.59960E-001	-1.14084E+000	3.57670E+000	10	...........
	56	0.76	9.89615E-001	5.99378E-003	0.00000E+000	5.93154E-003	3.59960E-001	-1.14043E+000	3.57670E+000	10	...........
	57	0.773333	9.95090E-001	5.99564E-003	0.00000E+000	5.96620E-003	3.59960E-001	-1.15091E+000	3.57670E+000	10	...........
	58	0.78	9.99204E-001	5.99490E-003	0.00000E+000	5.99012E-003	3.59960E-001	-1.13057E+000	3.57670E+000	10	...........
STARTTIMEOFFSET	QUANT	818.8351	Start Time Offset (s)