File: Data/CV_CRGO300517_1/PWRCCD_CRGO300517_1/CHARGE_DISCHARGE/CHARGE_#897.DTA
EXPLAIN
TAG	PWR800_CHARGE
TITLE	LABEL	PWR Cyclic Charge Discharge (Cell) - Charge Step	Test &Identifier
DATE	LABEL	22-6-2017	Date
TIME	LABEL	16:10:52	Time
NOTES	NOTES	3	&Notes...
	supercap test cell
	0.6mg
	6M KOH
PSTAT	PSTAT	IFC5000-01520	Potentiostat
CAPACITY	QUANT	1.00000E-003	Capacity (A-hr)
CELLTYPE	SELECTOR	1	&Cell Type
WORKINGCONNECTION	SELECTOR	0	&Working Lead
MAXCHARGETIME	VARIABLEANDUNITS	1.00000E+002	s	1.00000E+002	second(s)	Max &Charge Time
CHARGECURRENT	QUANT	6.00000E-003	&Charge Current (A)
VOLTAGEFINISH	TWOPARAM	F	1.00000E-003	3.60000E+003	&Voltage Finish	 I (A) < 	Max Time(s)
SAMPLETIME	QUANT	1.00000E-002	Sa&mple Period (s)
CHARGESTOPAT1	MULTIPARAM	4	1.00000E+000	Charge Stop At &1	Voltage > Limit	V
CHARGESTOPAT2	MULTIPARAM	0	0.00000E+000	Charge Stop At &2	None	N/A
AESBHCSELECTOR	TOGGLE	F	Save Both Half Cells
IRCOMP	TOGGLE	F	IR &Measure
EOC	QUANT	0	Open Circuit (V)
SEQUENCER	TOGGLE	TRUE	Run as Sequence
PSTATMODEL	IQUANT	53	Pstat Model
PSTATSECTION	LABEL	IFC5000-01520	Pstat Section
PSTATSERIALNO	LABEL	01520	Pstat Serial Number
CTRLMODE	IQUANT	0	Control Mode
ELECTROMETER	IQUANT	1	RE=0 or CS=1
IESTAB	IQUANT	0	I/E Stability
CASPEED	IQUANT	4	Control Amp Speed
CONVENTION	IQUANT	1	Current Convention
ICHRANGE	IQUANT	2	Ich Range
ICHRANGEMODE	TOGGLE	T	Ich Auto Range
ICHOFFSETENABLE	TOGGLE	F	Ich Offset Enable
ICHOFFSET	QUANT	0	Ich Offset (V)
ICHFILTER	IQUANT	1	Ich Filter
VCHRANGE	IQUANT	2	Vch Range
VCHRANGEMODE	TOGGLE	T	Vch Auto Range
VCHOFFSETENABLE	TOGGLE	F	Vch Offset Enable
VCHOFFSET	QUANT	0	Vch Offset (V)
VCHFILTER	IQUANT	1	Vch Filter
IERANGELOWERLIMIT	IQUANT	9	I/E Range Lower Limit
IERANGEMODE	TOGGLE	F	I/E AutoRange
IERANGE	IQUANT	10	I/E Range
ACHSELECT	IQUANT	1	Ach Select
ACHRANGE	IQUANT	2	Ach Range
ACHOFFSETENABLE	TOGGLE	F	Ach Offset Enable
ACHOFFSET	QUANT	0	Ach Offset (V)
ACHFILTER	IQUANT	1	Ach Filter
CABLEID	IQUANT	14	Cable ID
DCCALDATE	LABEL	20-10-2016	DC Calibration Date
ACCALDATE	LABEL	12/3/2015	AC Calibration Date
FRAMEWORKVERSION	QUANT	7.01	Framework Version
INSTRUMENTVERSION	LABEL	4.00	Instrument Version
CURVE	TABLE	53
	Pt	T	Vf	Im	Vu	Pwr	Sig	Ach	Temp	IERange	Over
	#	s	V	A	V	W	V	V	deg C	#	bits
	0	0.013333	6.52624E-001	5.99379E-003	0.00000E+000	3.91169E-003	3.59960E-001	-1.17414E+000	3.57640E+000	10	...........
	1	0.026667	6.61870E-001	5.99614E-003	0.00000E+000	3.96867E-003	3.59960E-001	-1.16651E+000	3.57640E+000	10	...........
	2	0.04	6.70471E-001	5.99261E-003	0.00000E+000	4.01787E-003	3.59960E-001	-1.17357E+000	3.57640E+000	10	...........
	3	0.053333	6.78548E-001	5.99639E-003	0.00000E+000	4.06884E-003	3.59960E-001	-1.17409E+000	3.57640E+000	10	...........
	4	0.066667	6.86316E-001	5.99183E-003	0.00000E+000	4.11229E-003	3.59960E-001	-1.16619E+000	3.57640E+000	10	...........
	5	0.08	6.93921E-001	5.99342E-003	0.00000E+000	4.15896E-003	3.59960E-001	-1.17332E+000	3.57640E+000	10	...........
	6	0.093333	7.01369E-001	5.99835E-003	0.00000E+000	4.20705E-003	3.59960E-001	-1.17398E+000	3.57640E+000	10	...........
	7	0.106667	7.08650E-001	5.99490E-003	0.00000E+000	4.24828E-003	3.59960E-001	-1.16639E+000	3.57640E+000	10	...........
	8	0.12	7.15873E-001	5.98811E-003	0.00000E+000	4.28672E-003	3.59960E-001	-1.17320E+000	3.57640E+000	10	...........
	9	0.133333	7.23052E-001	5.99388E-003	0.00000E+000	4.33388E-003	3.59960E-001	-1.17379E+000	3.57640E+000	10	...........
	10	0.146667	7.30144E-001	5.99523E-003	0.00000E+000	4.37738E-003	3.59960E-001	-1.16632E+000	3.57640E+000	10	...........
	11	0.16	7.37143E-001	5.99230E-003	0.00000E+000	4.41718E-003	3.59960E-001	-1.17313E+000	3.57640E+000	10	...........
	12	0.173333	7.44173E-001	5.99425E-003	0.00000E+000	4.46076E-003	3.59960E-001	-1.17411E+000	3.57640E+000	10	...........
	13	0.186667	7.51134E-001	5.99519E-003	0.00000E+000	4.50319E-003	3.59960E-001	-1.16620E+000	3.57640E+000	10	...........
	14	0.2	7.58093E-001	5.99799E-003	0.00000E+000	4.54704E-003	3.59960E-001	-1.17324E+000	3.57640E+000	10	...........
	15	0.213333	7.64907E-001	5.99158E-003	0.00000E+000	4.58300E-003	3.59960E-001	-1.17365E+000	3.57640E+000	10	...........
	16	0.226667	7.71775E-001	5.99545E-003	0.00000E+000	4.62714E-003	3.59960E-001	-1.16616E+000	3.57640E+000	10	...........
	17	0.24	7.78582E-001	5.99150E-003	0.00000E+000	4.66487E-003	3.59960E-001	-1.17306E+000	3.57640E+000	10	...........
	18	0.253333	7.85346E-001	5.99778E-003	0.00000E+000	4.71033E-003	3.59960E-001	-1.17363E+000	3.57640E+000	10	...........
	19	0.266667	7.92156E-001	5.99640E-003	0.00000E+000	4.75008E-003	3.59960E-001	-1.16570E+000	3.57640E+000	10	...........
	20	0.28	7.98871E-001	5.99372E-003	0.00000E+000	4.78821E-003	3.59960E-001	-1.17255E+000	3.57640E+000	10	...........
	21	0.293333	8.05567E-001	5.99130E-003	0.00000E+000	4.82639E-003	3.59960E-001	-1.17338E+000	3.57640E+000	10	...........
	22	0.306667	8.12217E-001	5.99369E-003	0.00000E+000	4.86817E-003	3.59960E-001	-1.16592E+000	3.57640E+000	10	...........
	23	0.32	8.18893E-001	5.99938E-003	0.00000E+000	4.91285E-003	3.59960E-001	-1.17280E+000	3.57657E+000	10	...........
	24	0.333333	8.25521E-001	5.99260E-003	0.00000E+000	4.94702E-003	3.59960E-001	-1.17305E+000	3.57660E+000	10	...........
	25	0.346667	8.32109E-001	5.99341E-003	0.00000E+000	4.98717E-003	3.59960E-001	-1.16545E+000	3.57660E+000	10	...........
	26	0.36	8.38701E-001	5.99306E-003	0.00000E+000	5.02638E-003	3.59960E-001	-1.17271E+000	3.57660E+000	10	...........
	27	0.373333	8.45241E-001	5.99503E-003	0.00000E+000	5.06724E-003	3.59960E-001	-1.17316E+000	3.57660E+000	10	...........
	28	0.386667	8.51743E-001	5.99293E-003	0.00000E+000	5.10443E-003	3.59960E-001	-1.16553E+000	3.57660E+000	10	...........
	29	0.4	8.58275E-001	5.99796E-003	0.00000E+000	5.14790E-003	3.59960E-001	-1.17231E+000	3.57660E+000	10	...........
	30	0.413333	8.64719E-001	5.99276E-003	0.00000E+000	5.18205E-003	3.59960E-001	-1.17268E+000	3.57660E+000	10	...........
	31	0.426667	8.71224E-001	5.99144E-003	0.00000E+000	5.21989E-003	3.59960E-001	-1.16533E+000	3.57660E+000	10	...........
	32	0.44	8.77655E-001	5.98932E-003	0.00000E+000	5.25655E-003	3.59960E-001	-1.17246E+000	3.57660E+000	10	...........
	33	0.453333	8.84059E-001	5.99521E-003	0.00000E+000	5.30012E-003	3.59960E-001	-1.17297E+000	3.57660E+000	10	...........
	34	0.466667	8.90428E-001	5.99425E-003	0.00000E+000	5.33745E-003	3.59960E-001	-1.16552E+000	3.57660E+000	10	...........
	35	0.48	8.96730E-001	5.99213E-003	0.00000E+000	5.37332E-003	3.59960E-001	-1.17242E+000	3.57660E+000	10	...........
	36	0.493333	9.03014E-001	5.98704E-003	0.00000E+000	5.40639E-003	3.59960E-001	-1.17301E+000	3.57660E+000	10	...........
	37	0.506667	9.09260E-001	5.99736E-003	0.00000E+000	5.45316E-003	3.59960E-001	-1.16542E+000	3.57660E+000	10	...........
	38	0.52	9.15451E-001	5.99319E-003	0.00000E+000	5.48647E-003	3.59960E-001	-1.17253E+000	3.57660E+000	10	...........
	39	0.533333	9.21711E-001	5.99706E-003	0.00000E+000	5.52755E-003	3.59960E-001	-1.17280E+000	3.57660E+000	10	...........
	40	0.546667	9.27887E-001	5.99475E-003	0.00000E+000	5.56245E-003	3.59960E-001	-1.16528E+000	3.57660E+000	10	...........
	41	0.56	9.33935E-001	5.99414E-003	0.00000E+000	5.59813E-003	3.59960E-001	-1.17235E+000	3.57660E+000	10	...........
	42	0.573333	9.39939E-001	5.99805E-003	0.00000E+000	5.63780E-003	3.59960E-001	-1.17267E+000	3.57660E+000	10	...........
	43	0.586667	9.45954E-001	5.98630E-003	0.00000E+000	5.66277E-003	3.59960E-001	-1.16500E+000	3.57660E+000	10	...........
	44	0.6	9.51950E-001	5.99708E-003	0.00000E+000	5.70892E-003	3.59960E-001	-1.17203E+000	3.57660E+000	10	...........
	45	0.613333	9.57845E-001	5.99611E-003	0.00000E+000	5.74334E-003	3.59960E-001	-1.17242E+000	3.57660E+000	10	...........
	46	0.626667	9.63658E-001	5.99216E-003	0.00000E+000	5.77440E-003	3.59960E-001	-1.16505E+000	3.57660E+000	10	...........
	47	0.64	9.69424E-001	5.99098E-003	0.00000E+000	5.80779E-003	3.59960E-001	-1.17220E+000	3.57660E+000	10	...........
	48	0.653333	9.75214E-001	5.99005E-003	0.00000E+000	5.84158E-003	3.59960E-001	-1.17263E+000	3.57660E+000	10	...........
	49	0.666667	9.80907E-001	5.99324E-003	0.00000E+000	5.87881E-003	3.59960E-001	-1.16485E+000	3.57660E+000	10	...........
	50	0.68	9.86575E-001	5.99022E-003	0.00000E+000	5.90981E-003	3.59960E-001	-1.17206E+000	3.57660E+000	10	...........
	51	0.693333	9.92172E-001	5.99091E-003	0.00000E+000	5.94402E-003	3.59960E-001	-1.17230E+000	3.57660E+000	10	...........
	52	0.706667	9.97738E-001	5.99165E-003	0.00000E+000	5.97810E-003	3.59960E-001	-1.16486E+000	3.57660E+000	10	...........
STARTTIMEOFFSET	QUANT	1441.844	Start Time Offset (s)