File: Data/CV_CRGO300517_1/PWRCCD_CRGO300517_1/CHARGE_DISCHARGE/CHARGE_#987.DTA
EXPLAIN
TAG	PWR800_CHARGE
TITLE	LABEL	PWR Cyclic Charge Discharge (Cell) - Charge Step	Test &Identifier
DATE	LABEL	22-6-2017	Date
TIME	LABEL	16:14:10	Time
NOTES	NOTES	3	&Notes...
	supercap test cell
	0.6mg
	6M KOH
PSTAT	PSTAT	IFC5000-01520	Potentiostat
CAPACITY	QUANT	1.00000E-003	Capacity (A-hr)
CELLTYPE	SELECTOR	1	&Cell Type
WORKINGCONNECTION	SELECTOR	0	&Working Lead
MAXCHARGETIME	VARIABLEANDUNITS	1.00000E+002	s	1.00000E+002	second(s)	Max &Charge Time
CHARGECURRENT	QUANT	6.00000E-003	&Charge Current (A)
VOLTAGEFINISH	TWOPARAM	F	1.00000E-003	3.60000E+003	&Voltage Finish	 I (A) < 	Max Time(s)
SAMPLETIME	QUANT	1.00000E-002	Sa&mple Period (s)
CHARGESTOPAT1	MULTIPARAM	4	1.00000E+000	Charge Stop At &1	Voltage > Limit	V
CHARGESTOPAT2	MULTIPARAM	0	0.00000E+000	Charge Stop At &2	None	N/A
AESBHCSELECTOR	TOGGLE	F	Save Both Half Cells
IRCOMP	TOGGLE	F	IR &Measure
EOC	QUANT	0	Open Circuit (V)
SEQUENCER	TOGGLE	TRUE	Run as Sequence
PSTATMODEL	IQUANT	53	Pstat Model
PSTATSECTION	LABEL	IFC5000-01520	Pstat Section
PSTATSERIALNO	LABEL	01520	Pstat Serial Number
CTRLMODE	IQUANT	0	Control Mode
ELECTROMETER	IQUANT	1	RE=0 or CS=1
IESTAB	IQUANT	0	I/E Stability
CASPEED	IQUANT	4	Control Amp Speed
CONVENTION	IQUANT	1	Current Convention
ICHRANGE	IQUANT	2	Ich Range
ICHRANGEMODE	TOGGLE	T	Ich Auto Range
ICHOFFSETENABLE	TOGGLE	F	Ich Offset Enable
ICHOFFSET	QUANT	0	Ich Offset (V)
ICHFILTER	IQUANT	1	Ich Filter
VCHRANGE	IQUANT	2	Vch Range
VCHRANGEMODE	TOGGLE	T	Vch Auto Range
VCHOFFSETENABLE	TOGGLE	F	Vch Offset Enable
VCHOFFSET	QUANT	0	Vch Offset (V)
VCHFILTER	IQUANT	1	Vch Filter
IERANGELOWERLIMIT	IQUANT	9	I/E Range Lower Limit
IERANGEMODE	TOGGLE	F	I/E AutoRange
IERANGE	IQUANT	10	I/E Range
ACHSELECT	IQUANT	1	Ach Select
ACHRANGE	IQUANT	2	Ach Range
ACHOFFSETENABLE	TOGGLE	F	Ach Offset Enable
ACHOFFSET	QUANT	0	Ach Offset (V)
ACHFILTER	IQUANT	1	Ach Filter
CABLEID	IQUANT	14	Cable ID
DCCALDATE	LABEL	20-10-2016	DC Calibration Date
ACCALDATE	LABEL	12/3/2015	AC Calibration Date
FRAMEWORKVERSION	QUANT	7.01	Framework Version
INSTRUMENTVERSION	LABEL	4.00	Instrument Version
CURVE	TABLE	52
	Pt	T	Vf	Im	Vu	Pwr	Sig	Ach	Temp	IERange	Over
	#	s	V	A	V	W	V	V	deg C	#	bits
	0	0.013333	6.57434E-001	5.99283E-003	0.00000E+000	3.93989E-003	3.59960E-001	-1.18211E+000	3.57640E+000	10	...........
	1	0.026667	6.66771E-001	5.99737E-003	0.00000E+000	3.99887E-003	3.59960E-001	-1.18129E+000	3.57640E+000	10	...........
	2	0.04	6.75370E-001	5.99278E-003	0.00000E+000	4.04734E-003	3.59960E-001	-1.17435E+000	3.57652E+000	10	...........
	3	0.053333	6.83511E-001	5.99383E-003	0.00000E+000	4.09685E-003	3.59960E-001	-1.18209E+000	3.57660E+000	10	...........
	4	0.066667	6.91375E-001	5.98862E-003	0.00000E+000	4.14038E-003	3.59960E-001	-1.18105E+000	3.57660E+000	10	...........
	5	0.08	6.98986E-001	5.98936E-003	0.00000E+000	4.18648E-003	3.59960E-001	-1.17431E+000	3.57660E+000	10	...........
	6	0.093333	7.06493E-001	5.99840E-003	0.00000E+000	4.23783E-003	3.59960E-001	-1.18232E+000	3.57660E+000	10	...........
	7	0.106667	7.13841E-001	5.99323E-003	0.00000E+000	4.27821E-003	3.59960E-001	-1.18093E+000	3.57660E+000	10	...........
	8	0.12	7.21150E-001	5.99112E-003	0.00000E+000	4.32049E-003	3.59960E-001	-1.17414E+000	3.57660E+000	10	...........
	9	0.133333	7.28385E-001	5.99295E-003	0.00000E+000	4.36517E-003	3.59960E-001	-1.18194E+000	3.57660E+000	10	...........
	10	0.146667	7.35484E-001	5.99328E-003	0.00000E+000	4.40796E-003	3.59960E-001	-1.18056E+000	3.57660E+000	10	...........
	11	0.16	7.42560E-001	5.99745E-003	0.00000E+000	4.45347E-003	3.59960E-001	-1.17402E+000	3.57660E+000	10	...........
	12	0.173333	7.49655E-001	5.99681E-003	0.00000E+000	4.49554E-003	3.59960E-001	-1.18188E+000	3.57660E+000	10	...........
	13	0.186667	7.56652E-001	5.99394E-003	0.00000E+000	4.53532E-003	3.59960E-001	-1.18009E+000	3.57660E+000	10	...........
	14	0.2	7.63582E-001	5.99369E-003	0.00000E+000	4.57667E-003	3.59960E-001	-1.17357E+000	3.57660E+000	10	...........
	15	0.213333	7.70533E-001	5.98712E-003	0.00000E+000	4.61327E-003	3.59960E-001	-1.18183E+000	3.57660E+000	10	...........
	16	0.226667	7.77460E-001	5.99583E-003	0.00000E+000	4.66152E-003	3.59960E-001	-1.17996E+000	3.57660E+000	10	...........
	17	0.24	7.84310E-001	5.99232E-003	0.00000E+000	4.69984E-003	3.59960E-001	-1.17368E+000	3.57660E+000	10	...........
	18	0.253333	7.91126E-001	5.99385E-003	0.00000E+000	4.74189E-003	3.59960E-001	-1.18202E+000	3.57660E+000	10	...........
	19	0.266667	7.97922E-001	5.99289E-003	0.00000E+000	4.78186E-003	3.59960E-001	-1.17993E+000	3.57660E+000	10	...........
	20	0.28	8.04741E-001	5.99663E-003	0.00000E+000	4.82573E-003	3.59960E-001	-1.17374E+000	3.57660E+000	10	...........
	21	0.293333	8.11429E-001	5.99140E-003	0.00000E+000	4.86160E-003	3.59960E-001	-1.18210E+000	3.57660E+000	10	...........
	22	0.306667	8.18201E-001	5.99716E-003	0.00000E+000	4.90688E-003	3.59960E-001	-1.17988E+000	3.57660E+000	10	...........
	23	0.32	8.24870E-001	5.99377E-003	0.00000E+000	4.94408E-003	3.59960E-001	-1.17362E+000	3.57660E+000	10	...........
	24	0.333333	8.31489E-001	5.99204E-003	0.00000E+000	4.98232E-003	3.59960E-001	-1.18200E+000	3.57660E+000	10	...........
	25	0.346667	8.38135E-001	5.99568E-003	0.00000E+000	5.02519E-003	3.59960E-001	-1.17961E+000	3.57660E+000	10	...........
	26	0.36	8.44782E-001	6.00221E-003	0.00000E+000	5.07056E-003	3.59960E-001	-1.17367E+000	3.57660E+000	10	...........
	27	0.373333	8.51358E-001	5.99409E-003	0.00000E+000	5.10312E-003	3.59960E-001	-1.18212E+000	3.57660E+000	10	...........
	28	0.386667	8.57946E-001	5.99539E-003	0.00000E+000	5.14372E-003	3.59960E-001	-1.17929E+000	3.57660E+000	10	...........
	29	0.4	8.64444E-001	5.99253E-003	0.00000E+000	5.18021E-003	3.59960E-001	-1.17345E+000	3.57660E+000	10	...........
	30	0.413333	8.70970E-001	5.98884E-003	0.00000E+000	5.21610E-003	3.59960E-001	-1.18204E+000	3.57660E+000	10	...........
	31	0.426667	8.77387E-001	5.99276E-003	0.00000E+000	5.25797E-003	3.59960E-001	-1.17926E+000	3.57660E+000	10	...........
	32	0.44	8.83824E-001	5.99343E-003	0.00000E+000	5.29713E-003	3.59960E-001	-1.17346E+000	3.57660E+000	10	...........
	33	0.453333	8.90212E-001	5.99478E-003	0.00000E+000	5.33663E-003	3.59960E-001	-1.18230E+000	3.57660E+000	10	...........
	34	0.466667	8.96601E-001	5.99132E-003	0.00000E+000	5.37182E-003	3.59960E-001	-1.17891E+000	3.57660E+000	10	...........
	35	0.48	9.02917E-001	5.99572E-003	0.00000E+000	5.41364E-003	3.59960E-001	-1.17322E+000	3.57660E+000	10	...........
	36	0.493333	9.09208E-001	5.98949E-003	0.00000E+000	5.44570E-003	3.59960E-001	-1.18195E+000	3.57660E+000	10	...........
	37	0.506667	9.15498E-001	5.99642E-003	0.00000E+000	5.48971E-003	3.59960E-001	-1.17853E+000	3.57660E+000	10	...........
	38	0.52	9.21755E-001	5.99377E-003	0.00000E+000	5.52479E-003	3.59960E-001	-1.17265E+000	3.57660E+000	10	...........
	39	0.533333	9.27881E-001	5.99116E-003	0.00000E+000	5.55909E-003	3.59960E-001	-1.18192E+000	3.57660E+000	10	...........
	40	0.546667	9.33970E-001	5.99061E-003	0.00000E+000	5.59505E-003	3.59960E-001	-1.17825E+000	3.57660E+000	10	...........
	41	0.56	9.40096E-001	5.99417E-003	0.00000E+000	5.63509E-003	3.59960E-001	-1.17270E+000	3.57660E+000	10	...........
	42	0.573333	9.46142E-001	5.98962E-003	0.00000E+000	5.66703E-003	3.59960E-001	-1.18209E+000	3.57660E+000	10	...........
	43	0.586667	9.52115E-001	5.99918E-003	0.00000E+000	5.71191E-003	3.59960E-001	-1.17802E+000	3.57660E+000	10	...........
	44	0.6	9.58020E-001	5.99157E-003	0.00000E+000	5.74004E-003	3.59960E-001	-1.17274E+000	3.57660E+000	10	...........
	45	0.613333	9.63918E-001	5.99825E-003	0.00000E+000	5.78182E-003	3.59960E-001	-1.18221E+000	3.57660E+000	10	...........
	46	0.626667	9.69699E-001	5.99211E-003	0.00000E+000	5.81055E-003	3.59960E-001	-1.17808E+000	3.57660E+000	10	...........
	47	0.64	9.75525E-001	5.99218E-003	0.00000E+000	5.84553E-003	3.59960E-001	-1.17264E+000	3.57660E+000	10	...........
	48	0.653333	9.81220E-001	5.99362E-003	0.00000E+000	5.88106E-003	3.59960E-001	-1.18212E+000	3.57660E+000	10	...........
	49	0.666667	9.86845E-001	5.98923E-003	0.00000E+000	5.91045E-003	3.59960E-001	-1.17755E+000	3.57660E+000	10	...........
	50	0.68	9.92440E-001	5.98667E-003	0.00000E+000	5.94141E-003	3.59960E-001	-1.17248E+000	3.57660E+000	10	...........
	51	0.693333	9.98032E-001	5.99729E-003	0.00000E+000	5.98548E-003	3.59960E-001	-1.18245E+000	3.57660E+000	10	...........
STARTTIMEOFFSET	QUANT	1567.311	Start Time Offset (s)