File: Data/CV_CRGO300517_1/PWRCCD_CRGO300517_1/CHARGE_DISCHARGE/CHARGE_#105.DTA
EXPLAIN
TAG	PWR800_CHARGE
TITLE	LABEL	PWR Cyclic Charge Discharge (Cell) - Charge Step	Test &Identifier
DATE	LABEL	22-6-2017	Date
TIME	LABEL	15:39:43	Time
NOTES	NOTES	3	&Notes...
	supercap test cell
	0.6mg
	6M KOH
PSTAT	PSTAT	IFC5000-01520	Potentiostat
CAPACITY	QUANT	1.00000E-003	Capacity (A-hr)
CELLTYPE	SELECTOR	1	&Cell Type
WORKINGCONNECTION	SELECTOR	0	&Working Lead
MAXCHARGETIME	VARIABLEANDUNITS	1.00000E+002	s	1.00000E+002	second(s)	Max &Charge Time
CHARGECURRENT	QUANT	6.00000E-003	&Charge Current (A)
VOLTAGEFINISH	TWOPARAM	F	1.00000E-003	3.60000E+003	&Voltage Finish	 I (A) < 	Max Time(s)
SAMPLETIME	QUANT	1.00000E-002	Sa&mple Period (s)
CHARGESTOPAT1	MULTIPARAM	4	1.00000E+000	Charge Stop At &1	Voltage > Limit	V
CHARGESTOPAT2	MULTIPARAM	0	0.00000E+000	Charge Stop At &2	None	N/A
AESBHCSELECTOR	TOGGLE	F	Save Both Half Cells
IRCOMP	TOGGLE	F	IR &Measure
EOC	QUANT	0	Open Circuit (V)
SEQUENCER	TOGGLE	TRUE	Run as Sequence
PSTATMODEL	IQUANT	53	Pstat Model
PSTATSECTION	LABEL	IFC5000-01520	Pstat Section
PSTATSERIALNO	LABEL	01520	Pstat Serial Number
CTRLMODE	IQUANT	0	Control Mode
ELECTROMETER	IQUANT	1	RE=0 or CS=1
IESTAB	IQUANT	0	I/E Stability
CASPEED	IQUANT	4	Control Amp Speed
CONVENTION	IQUANT	1	Current Convention
ICHRANGE	IQUANT	2	Ich Range
ICHRANGEMODE	TOGGLE	T	Ich Auto Range
ICHOFFSETENABLE	TOGGLE	F	Ich Offset Enable
ICHOFFSET	QUANT	0	Ich Offset (V)
ICHFILTER	IQUANT	1	Ich Filter
VCHRANGE	IQUANT	2	Vch Range
VCHRANGEMODE	TOGGLE	T	Vch Auto Range
VCHOFFSETENABLE	TOGGLE	F	Vch Offset Enable
VCHOFFSET	QUANT	0	Vch Offset (V)
VCHFILTER	IQUANT	1	Vch Filter
IERANGELOWERLIMIT	IQUANT	9	I/E Range Lower Limit
IERANGEMODE	TOGGLE	F	I/E AutoRange
IERANGE	IQUANT	10	I/E Range
ACHSELECT	IQUANT	1	Ach Select
ACHRANGE	IQUANT	2	Ach Range
ACHOFFSETENABLE	TOGGLE	F	Ach Offset Enable
ACHOFFSET	QUANT	0	Ach Offset (V)
ACHFILTER	IQUANT	1	Ach Filter
CABLEID	IQUANT	14	Cable ID
DCCALDATE	LABEL	20-10-2016	DC Calibration Date
ACCALDATE	LABEL	12/3/2015	AC Calibration Date
FRAMEWORKVERSION	QUANT	7.01	Framework Version
INSTRUMENTVERSION	LABEL	4.00	Instrument Version
CURVE	TABLE	70
	Pt	T	Vf	Im	Vu	Pwr	Sig	Ach	Temp	IERange	Over
	#	s	V	A	V	W	V	V	deg C	#	bits
	0	0.013333	5.89441E-001	5.99362E-003	0.00000E+000	3.53289E-003	3.59960E-001	-1.05705E+000	3.57840E+000	10	...........
	1	0.026667	5.97713E-001	5.99574E-003	0.00000E+000	3.58373E-003	3.59960E-001	-1.06424E+000	3.57840E+000	10	...........
	2	0.04	6.05277E-001	5.98927E-003	0.00000E+000	3.62517E-003	3.59960E-001	-1.06343E+000	3.57840E+000	10	...........
	3	0.053333	6.12469E-001	5.99498E-003	0.00000E+000	3.67174E-003	3.59960E-001	-1.05696E+000	3.57840E+000	10	...........
	4	0.066667	6.19441E-001	5.99549E-003	0.00000E+000	3.71385E-003	3.59960E-001	-1.06392E+000	3.57840E+000	10	...........
	5	0.08	6.26202E-001	5.98759E-003	0.00000E+000	3.74944E-003	3.59960E-001	-1.06312E+000	3.57840E+000	10	...........
	6	0.093333	6.32776E-001	5.99442E-003	0.00000E+000	3.79312E-003	3.59960E-001	-1.05708E+000	3.57840E+000	10	...........
	7	0.106667	6.39264E-001	5.99290E-003	0.00000E+000	3.83105E-003	3.59960E-001	-1.06409E+000	3.57840E+000	10	...........
	8	0.12	6.45628E-001	5.99309E-003	0.00000E+000	3.86931E-003	3.59960E-001	-1.06305E+000	3.57840E+000	10	...........
	9	0.133333	6.51964E-001	5.99247E-003	0.00000E+000	3.90687E-003	3.59960E-001	-1.05670E+000	3.57840E+000	10	...........
	10	0.146667	6.58198E-001	5.99709E-003	0.00000E+000	3.94727E-003	3.59960E-001	-1.06374E+000	3.57840E+000	10	...........
	11	0.16	6.64430E-001	5.99155E-003	0.00000E+000	3.98096E-003	3.59960E-001	-1.06307E+000	3.57840E+000	10	...........
	12	0.173333	6.70622E-001	5.99595E-003	0.00000E+000	4.02102E-003	3.59960E-001	-1.05676E+000	3.57840E+000	10	...........
	13	0.186667	6.76719E-001	5.99559E-003	0.00000E+000	4.05733E-003	3.59960E-001	-1.06328E+000	3.57840E+000	10	...........
	14	0.2	6.82819E-001	5.99746E-003	0.00000E+000	4.09518E-003	3.59960E-001	-1.06245E+000	3.57840E+000	10	...........
	15	0.213333	6.88869E-001	5.99627E-003	0.00000E+000	4.13065E-003	3.59960E-001	-1.05631E+000	3.57840E+000	10	...........
	16	0.226667	6.94954E-001	5.99421E-003	0.00000E+000	4.16570E-003	3.59960E-001	-1.06332E+000	3.57840E+000	10	...........
	17	0.24	7.00958E-001	5.99605E-003	0.00000E+000	4.20299E-003	3.59960E-001	-1.06280E+000	3.57840E+000	10	...........
	18	0.253333	7.06984E-001	6.00025E-003	0.00000E+000	4.24208E-003	3.59960E-001	-1.05624E+000	3.57840E+000	10	...........
	19	0.266667	7.12935E-001	5.99319E-003	0.00000E+000	4.27275E-003	3.59960E-001	-1.06325E+000	3.57840E+000	10	...........
	20	0.28	7.18960E-001	5.99287E-003	0.00000E+000	4.30864E-003	3.59960E-001	-1.06256E+000	3.57840E+000	10	...........
	21	0.293333	7.24944E-001	5.99525E-003	0.00000E+000	4.34622E-003	3.59960E-001	-1.05624E+000	3.57840E+000	10	...........
	22	0.306667	7.30907E-001	5.99393E-003	0.00000E+000	4.38100E-003	3.59960E-001	-1.06316E+000	3.57840E+000	10	...........
	23	0.32	7.36853E-001	5.99656E-003	0.00000E+000	4.41858E-003	3.59960E-001	-1.06263E+000	3.57840E+000	10	...........
	24	0.333333	7.42813E-001	5.99426E-003	0.00000E+000	4.45261E-003	3.59960E-001	-1.05600E+000	3.57840E+000	10	...........
	25	0.346667	7.48765E-001	5.99081E-003	0.00000E+000	4.48571E-003	3.59960E-001	-1.06311E+000	3.57840E+000	10	...........
	26	0.36	7.54750E-001	5.99313E-003	0.00000E+000	4.52332E-003	3.59960E-001	-1.06264E+000	3.57840E+000	10	...........
	27	0.373333	7.60672E-001	5.99567E-003	0.00000E+000	4.56074E-003	3.59960E-001	-1.05612E+000	3.57840E+000	10	...........
	28	0.386667	7.66596E-001	5.99432E-003	0.00000E+000	4.59523E-003	3.59960E-001	-1.06280E+000	3.57840E+000	10	...........
	29	0.4	7.72516E-001	5.99514E-003	0.00000E+000	4.63134E-003	3.59960E-001	-1.06248E+000	3.57840E+000	10	...........
	30	0.413333	7.78431E-001	5.99502E-003	0.00000E+000	4.66671E-003	3.59960E-001	-1.05620E+000	3.57840E+000	10	...........
	31	0.426667	7.84351E-001	5.99264E-003	0.00000E+000	4.70033E-003	3.59960E-001	-1.06320E+000	3.57840E+000	10	...........
	32	0.44	7.90270E-001	5.99556E-003	0.00000E+000	4.73812E-003	3.59960E-001	-1.06264E+000	3.57840E+000	10	...........
	33	0.453333	7.96201E-001	5.99368E-003	0.00000E+000	4.77217E-003	3.59960E-001	-1.05605E+000	3.57840E+000	10	...........
	34	0.466667	8.02135E-001	5.99258E-003	0.00000E+000	4.80686E-003	3.59960E-001	-1.06274E+000	3.57840E+000	10	...........
	35	0.48	8.08029E-001	5.99297E-003	0.00000E+000	4.84249E-003	3.59960E-001	-1.06250E+000	3.57840E+000	10	...........
	36	0.493333	8.13926E-001	5.99716E-003	0.00000E+000	4.88125E-003	3.59960E-001	-1.05603E+000	3.57840E+000	10	...........
	37	0.506667	8.19804E-001	5.99617E-003	0.00000E+000	4.91568E-003	3.59960E-001	-1.06259E+000	3.57840E+000	10	...........
	38	0.52	8.25722E-001	5.99479E-003	0.00000E+000	4.95003E-003	3.59960E-001	-1.06216E+000	3.57840E+000	10	...........
	39	0.533333	8.31597E-001	5.99438E-003	0.00000E+000	4.98490E-003	3.59960E-001	-1.05542E+000	3.57840E+000	10	...........
	40	0.546667	8.37454E-001	5.99205E-003	0.00000E+000	5.01807E-003	3.59960E-001	-1.06234E+000	3.57840E+000	10	...........
	41	0.56	8.43327E-001	5.99574E-003	0.00000E+000	5.05637E-003	3.59960E-001	-1.06236E+000	3.57827E+000	10	...........
	42	0.573333	8.49189E-001	5.99423E-003	0.00000E+000	5.09024E-003	3.59960E-001	-1.05578E+000	3.57740E+000	10	...........
	43	0.586667	8.55033E-001	5.99305E-003	0.00000E+000	5.12426E-003	3.59960E-001	-1.06222E+000	3.57740E+000	10	...........
	44	0.6	8.60910E-001	5.98791E-003	0.00000E+000	5.15505E-003	3.59960E-001	-1.06218E+000	3.57740E+000	10	...........
	45	0.613333	8.66735E-001	5.99475E-003	0.00000E+000	5.19586E-003	3.59960E-001	-1.05553E+000	3.57740E+000	10	...........
	46	0.626667	8.72597E-001	5.99674E-003	0.00000E+000	5.23274E-003	3.59960E-001	-1.06248E+000	3.57740E+000	10	...........
	47	0.64	8.78407E-001	5.99178E-003	0.00000E+000	5.26322E-003	3.59960E-001	-1.06234E+000	3.57740E+000	10	...........
	48	0.653333	8.84212E-001	5.99575E-003	0.00000E+000	5.30152E-003	3.59960E-001	-1.05547E+000	3.57740E+000	10	...........
	49	0.666667	8.90001E-001	5.99389E-003	0.00000E+000	5.33456E-003	3.59960E-001	-1.06209E+000	3.57740E+000	10	...........
	50	0.68	8.95770E-001	5.99294E-003	0.00000E+000	5.36830E-003	3.59960E-001	-1.06205E+000	3.57740E+000	10	...........
	51	0.693333	9.01531E-001	5.99246E-003	0.00000E+000	5.40239E-003	3.59960E-001	-1.05563E+000	3.57740E+000	10	...........
	52	0.706667	9.07272E-001	5.98990E-003	0.00000E+000	5.43447E-003	3.59960E-001	-1.06219E+000	3.57740E+000	10	...........
	53	0.72	9.12996E-001	5.99326E-003	0.00000E+000	5.47182E-003	3.59960E-001	-1.06216E+000	3.57740E+000	10	...........
	54	0.733333	9.18749E-001	5.99234E-003	0.00000E+000	5.50546E-003	3.59960E-001	-1.05544E+000	3.57740E+000	10	...........
	55	0.746667	9.24547E-001	5.99669E-003	0.00000E+000	5.54422E-003	3.59960E-001	-1.06231E+000	3.57740E+000	10	...........
	56	0.76	9.30179E-001	5.99301E-003	0.00000E+000	5.57457E-003	3.59960E-001	-1.06235E+000	3.57740E+000	10	...........
	57	0.773333	9.35847E-001	5.99870E-003	0.00000E+000	5.61387E-003	3.59960E-001	-1.05609E+000	3.57740E+000	10	...........
	58	0.786667	9.41441E-001	5.99554E-003	0.00000E+000	5.64445E-003	3.59960E-001	-1.06204E+000	3.57740E+000	10	...........
	59	0.8	9.47063E-001	5.99452E-003	0.00000E+000	5.67719E-003	3.59960E-001	-1.06241E+000	3.57740E+000	10	...........
	60	0.813333	9.52678E-001	5.99623E-003	0.00000E+000	5.71248E-003	3.59960E-001	-1.05585E+000	3.57740E+000	10	...........
	61	0.826667	9.58214E-001	5.99570E-003	0.00000E+000	5.74516E-003	3.59960E-001	-1.06206E+000	3.57740E+000	10	...........
	62	0.84	9.63747E-001	5.99313E-003	0.00000E+000	5.77586E-003	3.59960E-001	-1.06224E+000	3.57740E+000	10	...........
	63	0.853333	9.69230E-001	5.99279E-003	0.00000E+000	5.80839E-003	3.59960E-001	-1.05524E+000	3.57740E+000	10	...........
	64	0.866667	9.74761E-001	5.99415E-003	0.00000E+000	5.84286E-003	3.59960E-001	-1.06181E+000	3.57740E+000	10	...........
	65	0.88	9.80175E-001	5.99233E-003	0.00000E+000	5.87354E-003	3.59960E-001	-1.06209E+000	3.57740E+000	10	...........
	66	0.893333	9.85574E-001	5.99332E-003	0.00000E+000	5.90686E-003	3.59960E-001	-1.05545E+000	3.57740E+000	10	...........
	67	0.906667	9.90943E-001	5.99131E-003	0.00000E+000	5.93705E-003	3.59960E-001	-1.06204E+000	3.57740E+000	10	...........
	68	0.92	9.96279E-001	5.98951E-003	0.00000E+000	5.96723E-003	3.59960E-001	-1.06195E+000	3.57740E+000	10	...........
	69	0.925	9.99937E-001	5.99660E-003	0.00000E+000	5.99622E-003	3.59960E-001	-1.05863E+000	3.57740E+000	10	...........
STARTTIMEOFFSET	QUANT	204.4216	Start Time Offset (s)