File: Data/CV_CRGO300517_1/PWRCCD_CRGO300517_1/CHARGE_DISCHARGE/CHARGE_#2.DTA
EXPLAIN
TAG	PWR800_CHARGE
TITLE	LABEL	PWR Cyclic Charge Discharge (Cell) - Charge Step	Test &Identifier
DATE	LABEL	22-6-2017	Date
TIME	LABEL	15:34:59	Time
NOTES	NOTES	3	&Notes...
	supercap test cell
	0.6mg
	6M KOH
PSTAT	PSTAT	IFC5000-01520	Potentiostat
CAPACITY	QUANT	1.00000E-003	Capacity (A-hr)
CELLTYPE	SELECTOR	1	&Cell Type
WORKINGCONNECTION	SELECTOR	0	&Working Lead
MAXCHARGETIME	VARIABLEANDUNITS	1.00000E+002	s	1.00000E+002	second(s)	Max &Charge Time
CHARGECURRENT	QUANT	6.00000E-003	&Charge Current (A)
VOLTAGEFINISH	TWOPARAM	F	1.00000E-003	3.60000E+003	&Voltage Finish	 I (A) < 	Max Time(s)
SAMPLETIME	QUANT	1.00000E-002	Sa&mple Period (s)
CHARGESTOPAT1	MULTIPARAM	4	1.00000E+000	Charge Stop At &1	Voltage > Limit	V
CHARGESTOPAT2	MULTIPARAM	0	0.00000E+000	Charge Stop At &2	None	N/A
AESBHCSELECTOR	TOGGLE	F	Save Both Half Cells
IRCOMP	TOGGLE	F	IR &Measure
EOC	QUANT	0	Open Circuit (V)
SEQUENCER	TOGGLE	TRUE	Run as Sequence
PSTATMODEL	IQUANT	53	Pstat Model
PSTATSECTION	LABEL	IFC5000-01520	Pstat Section
PSTATSERIALNO	LABEL	01520	Pstat Serial Number
CTRLMODE	IQUANT	0	Control Mode
ELECTROMETER	IQUANT	1	RE=0 or CS=1
IESTAB	IQUANT	0	I/E Stability
CASPEED	IQUANT	4	Control Amp Speed
CONVENTION	IQUANT	1	Current Convention
ICHRANGE	IQUANT	2	Ich Range
ICHRANGEMODE	TOGGLE	T	Ich Auto Range
ICHOFFSETENABLE	TOGGLE	F	Ich Offset Enable
ICHOFFSET	QUANT	0	Ich Offset (V)
ICHFILTER	IQUANT	1	Ich Filter
VCHRANGE	IQUANT	2	Vch Range
VCHRANGEMODE	TOGGLE	T	Vch Auto Range
VCHOFFSETENABLE	TOGGLE	F	Vch Offset Enable
VCHOFFSET	QUANT	0	Vch Offset (V)
VCHFILTER	IQUANT	1	Vch Filter
IERANGELOWERLIMIT	IQUANT	9	I/E Range Lower Limit
IERANGEMODE	TOGGLE	F	I/E AutoRange
IERANGE	IQUANT	10	I/E Range
ACHSELECT	IQUANT	1	Ach Select
ACHRANGE	IQUANT	2	Ach Range
ACHOFFSETENABLE	TOGGLE	F	Ach Offset Enable
ACHOFFSET	QUANT	0	Ach Offset (V)
ACHFILTER	IQUANT	1	Ach Filter
CABLEID	IQUANT	14	Cable ID
DCCALDATE	LABEL	20-10-2016	DC Calibration Date
ACCALDATE	LABEL	12/3/2015	AC Calibration Date
FRAMEWORKVERSION	QUANT	7.01	Framework Version
INSTRUMENTVERSION	LABEL	4.00	Instrument Version
CURVE	TABLE	84
	Pt	T	Vf	Im	Vu	Pwr	Sig	Ach	Temp	IERange	Over
	#	s	V	A	V	W	V	V	deg C	#	bits
	0	0.013333	5.58112E-001	5.99261E-003	0.00000E+000	3.34455E-003	3.59960E-001	-9.96894E-001	3.57740E+000	10	...........
	1	0.026667	5.65698E-001	5.99346E-003	0.00000E+000	3.39049E-003	3.59960E-001	-1.00835E+000	3.57740E+000	10	...........
	2	0.04	5.72612E-001	5.99389E-003	0.00000E+000	3.43217E-003	3.59960E-001	-9.97428E-001	3.57740E+000	10	...........
	3	0.053333	5.79171E-001	5.99594E-003	0.00000E+000	3.47267E-003	3.59960E-001	-9.96681E-001	3.57740E+000	10	...........
	4	0.066667	5.85416E-001	5.99595E-003	0.00000E+000	3.51012E-003	3.59960E-001	-1.00833E+000	3.57740E+000	10	...........
	5	0.08	5.91532E-001	5.99426E-003	0.00000E+000	3.54580E-003	3.59960E-001	-9.97191E-001	3.57740E+000	10	...........
	6	0.093333	5.97480E-001	5.99282E-003	0.00000E+000	3.58059E-003	3.59960E-001	-9.96893E-001	3.57740E+000	10	...........
	7	0.106667	6.03279E-001	5.99506E-003	0.00000E+000	3.61669E-003	3.59960E-001	-1.00772E+000	3.57740E+000	10	...........
	8	0.12	6.09001E-001	5.99589E-003	0.00000E+000	3.65150E-003	3.59960E-001	-9.96804E-001	3.57740E+000	10	...........
	9	0.133333	6.14692E-001	5.99616E-003	0.00000E+000	3.68579E-003	3.59960E-001	-9.96412E-001	3.57740E+000	10	...........
	10	0.146667	6.20295E-001	5.99440E-003	0.00000E+000	3.71829E-003	3.59960E-001	-1.00775E+000	3.57740E+000	10	...........
	11	0.16	6.25894E-001	5.99365E-003	0.00000E+000	3.75139E-003	3.59960E-001	-9.96782E-001	3.57740E+000	10	...........
	12	0.173333	6.31394E-001	5.99375E-003	0.00000E+000	3.78442E-003	3.59960E-001	-9.96359E-001	3.57740E+000	10	...........
	13	0.186667	6.36858E-001	5.99601E-003	0.00000E+000	3.81861E-003	3.59960E-001	-1.00785E+000	3.57740E+000	10	...........
	14	0.2	6.42268E-001	5.98761E-003	0.00000E+000	3.84565E-003	3.59960E-001	-9.96921E-001	3.57740E+000	10	...........
	15	0.213333	6.47661E-001	5.99328E-003	0.00000E+000	3.88162E-003	3.59960E-001	-9.96569E-001	3.57740E+000	10	...........
	16	0.226667	6.53082E-001	5.99095E-003	0.00000E+000	3.91258E-003	3.59960E-001	-1.00785E+000	3.57740E+000	10	...........
	17	0.24	6.58440E-001	5.99547E-003	0.00000E+000	3.94766E-003	3.59960E-001	-9.96643E-001	3.57740E+000	10	...........
	18	0.253333	6.63792E-001	5.98959E-003	0.00000E+000	3.97584E-003	3.59960E-001	-9.96321E-001	3.57740E+000	10	...........
	19	0.266667	6.69112E-001	5.99365E-003	0.00000E+000	4.01042E-003	3.59960E-001	-1.00782E+000	3.57740E+000	10	...........
	20	0.28	6.74399E-001	5.99198E-003	0.00000E+000	4.04098E-003	3.59960E-001	-9.97008E-001	3.57740E+000	10	...........
	21	0.293333	6.79682E-001	5.99390E-003	0.00000E+000	4.07394E-003	3.59960E-001	-9.96324E-001	3.57740E+000	10	...........
	22	0.306667	6.84914E-001	5.99228E-003	0.00000E+000	4.10419E-003	3.59960E-001	-1.00751E+000	3.57740E+000	10	...........
	23	0.32	6.90179E-001	5.99295E-003	0.00000E+000	4.13621E-003	3.59960E-001	-9.96842E-001	3.57740E+000	10	...........
	24	0.333333	6.95489E-001	5.99455E-003	0.00000E+000	4.16915E-003	3.59960E-001	-9.96314E-001	3.57740E+000	10	...........
	25	0.346667	7.00708E-001	5.99422E-003	0.00000E+000	4.20020E-003	3.59960E-001	-1.00803E+000	3.57740E+000	10	...........
	26	0.36	7.05923E-001	5.99417E-003	0.00000E+000	4.23142E-003	3.59960E-001	-9.96967E-001	3.57740E+000	10	...........
	27	0.373333	7.11141E-001	5.99448E-003	0.00000E+000	4.26292E-003	3.59960E-001	-9.96363E-001	3.57740E+000	10	...........
	28	0.386667	7.16370E-001	5.99379E-003	0.00000E+000	4.29377E-003	3.59960E-001	-1.00773E+000	3.57740E+000	10	...........
	29	0.4	7.21640E-001	5.99750E-003	0.00000E+000	4.32804E-003	3.59960E-001	-9.97082E-001	3.57740E+000	10	...........
	30	0.413333	7.26825E-001	5.99350E-003	0.00000E+000	4.35623E-003	3.59960E-001	-9.96493E-001	3.57740E+000	10	...........
	31	0.426667	7.32044E-001	5.99127E-003	0.00000E+000	4.38587E-003	3.59960E-001	-1.00744E+000	3.57740E+000	10	...........
	32	0.44	7.37259E-001	5.99256E-003	0.00000E+000	4.41807E-003	3.59960E-001	-9.96589E-001	3.57740E+000	10	...........
	33	0.453333	7.42491E-001	5.99652E-003	0.00000E+000	4.45237E-003	3.59960E-001	-9.96119E-001	3.57740E+000	10	...........
	34	0.466667	7.47707E-001	5.99475E-003	0.00000E+000	4.48232E-003	3.59960E-001	-1.00761E+000	3.57740E+000	10	...........
	35	0.48	7.52908E-001	5.99426E-003	0.00000E+000	4.51312E-003	3.59960E-001	-9.96929E-001	3.57740E+000	10	...........
	36	0.493333	7.58120E-001	5.99401E-003	0.00000E+000	4.54418E-003	3.59960E-001	-9.96153E-001	3.57740E+000	10	...........
	37	0.506667	7.63324E-001	5.98995E-003	0.00000E+000	4.57227E-003	3.59960E-001	-1.00741E+000	3.57740E+000	10	...........
	38	0.52	7.68521E-001	5.99214E-003	0.00000E+000	4.60509E-003	3.59960E-001	-9.96532E-001	3.57740E+000	10	...........
	39	0.533333	7.73702E-001	5.99178E-003	0.00000E+000	4.63585E-003	3.59960E-001	-9.96046E-001	3.57740E+000	10	...........
	40	0.546667	7.78911E-001	5.99184E-003	0.00000E+000	4.66711E-003	3.59960E-001	-1.00748E+000	3.57740E+000	10	...........
	41	0.56	7.84105E-001	5.99413E-003	0.00000E+000	4.70003E-003	3.59960E-001	-9.96527E-001	3.57740E+000	10	...........
	42	0.573333	7.89312E-001	5.99214E-003	0.00000E+000	4.72967E-003	3.59960E-001	-9.95836E-001	3.57740E+000	10	...........
	43	0.586667	7.94558E-001	5.99381E-003	0.00000E+000	4.76243E-003	3.59960E-001	-1.00735E+000	3.57740E+000	10	...........
	44	0.6	7.99792E-001	5.99484E-003	0.00000E+000	4.79463E-003	3.59960E-001	-9.96579E-001	3.58100E+000	10	...........
	45	0.613333	8.04986E-001	5.99351E-003	0.00000E+000	4.82469E-003	3.59960E-001	-9.95849E-001	3.58100E+000	10	...........
	46	0.626667	8.10186E-001	5.99894E-003	0.00000E+000	4.86026E-003	3.59960E-001	-1.00753E+000	3.58100E+000	10	...........
	47	0.64	8.15369E-001	5.99470E-003	0.00000E+000	4.88789E-003	3.59960E-001	-9.96491E-001	3.58100E+000	10	...........
	48	0.653333	8.20628E-001	5.99350E-003	0.00000E+000	4.91843E-003	3.59960E-001	-9.95876E-001	3.58100E+000	10	...........
	49	0.666667	8.25821E-001	5.99231E-003	0.00000E+000	4.94857E-003	3.59960E-001	-1.00748E+000	3.58100E+000	10	...........
	50	0.68	8.31014E-001	5.99446E-003	0.00000E+000	4.98148E-003	3.59960E-001	-9.96698E-001	3.58100E+000	10	...........
	51	0.693333	8.36205E-001	5.99089E-003	0.00000E+000	5.00961E-003	3.59960E-001	-9.95953E-001	3.58100E+000	10	...........
	52	0.706667	8.41409E-001	5.99359E-003	0.00000E+000	5.04306E-003	3.59960E-001	-1.00731E+000	3.58100E+000	10	...........
	53	0.72	8.46682E-001	5.99306E-003	0.00000E+000	5.07422E-003	3.59960E-001	-9.96508E-001	3.58100E+000	10	...........
	54	0.733333	8.51887E-001	5.99310E-003	0.00000E+000	5.10544E-003	3.59960E-001	-9.95873E-001	3.58100E+000	10	...........
	55	0.746667	8.57085E-001	5.99490E-003	0.00000E+000	5.13814E-003	3.59960E-001	-1.00705E+000	3.58100E+000	10	...........
	56	0.76	8.62291E-001	5.99479E-003	0.00000E+000	5.16925E-003	3.59960E-001	-9.96203E-001	3.58100E+000	10	...........
	57	0.773333	8.67471E-001	5.99559E-003	0.00000E+000	5.20100E-003	3.59960E-001	-9.95522E-001	3.58100E+000	10	...........
	58	0.786667	8.72677E-001	5.99357E-003	0.00000E+000	5.23045E-003	3.59960E-001	-1.00711E+000	3.58100E+000	10	...........
	59	0.8	8.77880E-001	5.99729E-003	0.00000E+000	5.26490E-003	3.59960E-001	-9.96339E-001	3.58100E+000	10	...........
	60	0.813333	8.83105E-001	5.99289E-003	0.00000E+000	5.29235E-003	3.59960E-001	-9.95574E-001	3.58100E+000	10	...........
	61	0.826667	8.88325E-001	5.99281E-003	0.00000E+000	5.32357E-003	3.59960E-001	-1.00699E+000	3.58100E+000	10	...........
	62	0.84	8.93485E-001	5.99317E-003	0.00000E+000	5.35480E-003	3.59960E-001	-9.96249E-001	3.58100E+000	10	...........
	63	0.853333	8.98667E-001	5.99158E-003	0.00000E+000	5.38443E-003	3.59960E-001	-9.95444E-001	3.58100E+000	10	...........
	64	0.866667	9.03848E-001	5.99483E-003	0.00000E+000	5.41842E-003	3.59960E-001	-1.00707E+000	3.58100E+000	10	...........
	65	0.88	9.09054E-001	5.99510E-003	0.00000E+000	5.44987E-003	3.59960E-001	-9.96403E-001	3.58100E+000	10	...........
	66	0.893333	9.14185E-001	5.99433E-003	0.00000E+000	5.47993E-003	3.59960E-001	-9.95656E-001	3.58100E+000	10	...........
	67	0.906667	9.19309E-001	5.99061E-003	0.00000E+000	5.50722E-003	3.59960E-001	-1.00693E+000	3.58100E+000	10	...........
	68	0.92	9.24531E-001	5.99526E-003	0.00000E+000	5.54281E-003	3.59960E-001	-9.96206E-001	3.58100E+000	10	...........
	69	0.933333	9.29680E-001	5.99240E-003	0.00000E+000	5.57102E-003	3.59960E-001	-9.95457E-001	3.58100E+000	10	...........
	70	0.946667	9.34827E-001	5.99389E-003	0.00000E+000	5.60325E-003	3.59960E-001	-1.00726E+000	3.58100E+000	10	...........
	71	0.96	9.39929E-001	5.99163E-003	0.00000E+000	5.63171E-003	3.59960E-001	-9.96493E-001	3.58100E+000	10	...........
	72	0.97333	9.45099E-001	5.99498E-003	0.00000E+000	5.66585E-003	3.59960E-001	-9.95682E-001	3.58100E+000	10	...........
	73	0.98667	9.50192E-001	5.99527E-003	0.00000E+000	5.69666E-003	3.59960E-001	-1.00719E+000	3.58100E+000	10	...........
	74	1	9.55275E-001	5.99471E-003	0.00000E+000	5.72660E-003	3.59960E-001	-9.96428E-001	3.58100E+000	10	...........
	75	1.01333	9.60324E-001	5.99358E-003	0.00000E+000	5.75578E-003	3.59960E-001	-9.95832E-001	3.58100E+000	10	...........
	76	1.02667	9.65341E-001	5.99622E-003	0.00000E+000	5.78840E-003	3.59960E-001	-1.00721E+000	3.58100E+000	10	...........
	77	1.04	9.70389E-001	5.99391E-003	0.00000E+000	5.81642E-003	3.59960E-001	-9.96204E-001	3.58100E+000	10	...........
	78	1.05333	9.75397E-001	5.99435E-003	0.00000E+000	5.84688E-003	3.59960E-001	-9.95626E-001	3.58100E+000	10	...........
	79	1.06667	9.80414E-001	5.99500E-003	0.00000E+000	5.87758E-003	3.59960E-001	-1.00697E+000	3.58100E+000	10	...........
	80	1.08	9.85321E-001	5.99370E-003	0.00000E+000	5.90572E-003	3.59960E-001	-9.96237E-001	3.58100E+000	10	...........
	81	1.09333	9.90265E-001	5.99171E-003	0.00000E+000	5.93338E-003	3.59960E-001	-9.95263E-001	3.58100E+000	10	...........
	82	1.10667	9.95117E-001	5.99201E-003	0.00000E+000	5.96275E-003	3.59960E-001	-1.00689E+000	3.58100E+000	10	...........
	83	1.115	9.99118E-001	5.99267E-003	0.00000E+000	5.98739E-003	3.59960E-001	-9.87861E-001	3.58100E+000	10	...........
STARTTIMEOFFSET	QUANT	2.458333	Start Time Offset (s)