File: Data/CV_CRGO300517_1/PWRCCD_CRGO300517_1/CHARGE_DISCHARGE/CHARGE_#920.DTA
EXPLAIN
TAG	PWR800_CHARGE
TITLE	LABEL	PWR Cyclic Charge Discharge (Cell) - Charge Step	Test &Identifier
DATE	LABEL	22-6-2017	Date
TIME	LABEL	16:11:43	Time
NOTES	NOTES	3	&Notes...
	supercap test cell
	0.6mg
	6M KOH
PSTAT	PSTAT	IFC5000-01520	Potentiostat
CAPACITY	QUANT	1.00000E-003	Capacity (A-hr)
CELLTYPE	SELECTOR	1	&Cell Type
WORKINGCONNECTION	SELECTOR	0	&Working Lead
MAXCHARGETIME	VARIABLEANDUNITS	1.00000E+002	s	1.00000E+002	second(s)	Max &Charge Time
CHARGECURRENT	QUANT	6.00000E-003	&Charge Current (A)
VOLTAGEFINISH	TWOPARAM	F	1.00000E-003	3.60000E+003	&Voltage Finish	 I (A) < 	Max Time(s)
SAMPLETIME	QUANT	1.00000E-002	Sa&mple Period (s)
CHARGESTOPAT1	MULTIPARAM	4	1.00000E+000	Charge Stop At &1	Voltage > Limit	V
CHARGESTOPAT2	MULTIPARAM	0	0.00000E+000	Charge Stop At &2	None	N/A
AESBHCSELECTOR	TOGGLE	F	Save Both Half Cells
IRCOMP	TOGGLE	F	IR &Measure
EOC	QUANT	0	Open Circuit (V)
SEQUENCER	TOGGLE	TRUE	Run as Sequence
PSTATMODEL	IQUANT	53	Pstat Model
PSTATSECTION	LABEL	IFC5000-01520	Pstat Section
PSTATSERIALNO	LABEL	01520	Pstat Serial Number
CTRLMODE	IQUANT	0	Control Mode
ELECTROMETER	IQUANT	1	RE=0 or CS=1
IESTAB	IQUANT	0	I/E Stability
CASPEED	IQUANT	4	Control Amp Speed
CONVENTION	IQUANT	1	Current Convention
ICHRANGE	IQUANT	2	Ich Range
ICHRANGEMODE	TOGGLE	T	Ich Auto Range
ICHOFFSETENABLE	TOGGLE	F	Ich Offset Enable
ICHOFFSET	QUANT	0	Ich Offset (V)
ICHFILTER	IQUANT	1	Ich Filter
VCHRANGE	IQUANT	2	Vch Range
VCHRANGEMODE	TOGGLE	T	Vch Auto Range
VCHOFFSETENABLE	TOGGLE	F	Vch Offset Enable
VCHOFFSET	QUANT	0	Vch Offset (V)
VCHFILTER	IQUANT	1	Vch Filter
IERANGELOWERLIMIT	IQUANT	9	I/E Range Lower Limit
IERANGEMODE	TOGGLE	F	I/E AutoRange
IERANGE	IQUANT	10	I/E Range
ACHSELECT	IQUANT	1	Ach Select
ACHRANGE	IQUANT	2	Ach Range
ACHOFFSETENABLE	TOGGLE	F	Ach Offset Enable
ACHOFFSET	QUANT	0	Ach Offset (V)
ACHFILTER	IQUANT	1	Ach Filter
CABLEID	IQUANT	14	Cable ID
DCCALDATE	LABEL	20-10-2016	DC Calibration Date
ACCALDATE	LABEL	12/3/2015	AC Calibration Date
FRAMEWORKVERSION	QUANT	7.01	Framework Version
INSTRUMENTVERSION	LABEL	4.00	Instrument Version
CURVE	TABLE	53
	Pt	T	Vf	Im	Vu	Pwr	Sig	Ach	Temp	IERange	Over
	#	s	V	A	V	W	V	V	deg C	#	bits
	0	0.013333	6.53991E-001	5.98834E-003	0.00000E+000	3.91632E-003	3.59960E-001	-1.17423E+000	3.57650E+000	10	...........
	1	0.026667	6.63271E-001	5.99295E-003	0.00000E+000	3.97495E-003	3.59960E-001	-1.18043E+000	3.57650E+000	10	...........
	2	0.04	6.71825E-001	5.99728E-003	0.00000E+000	4.02912E-003	3.59960E-001	-1.17037E+000	3.57650E+000	10	...........
	3	0.053333	6.79962E-001	5.99098E-003	0.00000E+000	4.07363E-003	3.59960E-001	-1.17391E+000	3.57650E+000	10	...........
	4	0.066667	6.87770E-001	5.99283E-003	0.00000E+000	4.12169E-003	3.59960E-001	-1.18042E+000	3.57650E+000	10	...........
	5	0.08	6.95400E-001	5.99538E-003	0.00000E+000	4.16919E-003	3.59960E-001	-1.17052E+000	3.57650E+000	10	...........
	6	0.093333	7.02780E-001	5.99089E-003	0.00000E+000	4.21028E-003	3.59960E-001	-1.17377E+000	3.57650E+000	10	...........
	7	0.106667	7.10094E-001	5.99334E-003	0.00000E+000	4.25584E-003	3.59960E-001	-1.18033E+000	3.57650E+000	10	...........
	8	0.12	7.17396E-001	5.99555E-003	0.00000E+000	4.30119E-003	3.59960E-001	-1.17009E+000	3.57650E+000	10	...........
	9	0.133333	7.24581E-001	5.99357E-003	0.00000E+000	4.34283E-003	3.59960E-001	-1.17357E+000	3.57650E+000	10	...........
	10	0.146667	7.31671E-001	5.99225E-003	0.00000E+000	4.38435E-003	3.59960E-001	-1.18031E+000	3.57650E+000	10	...........
	11	0.16	7.38754E-001	5.99016E-003	0.00000E+000	4.42525E-003	3.59960E-001	-1.16983E+000	3.57650E+000	10	...........
	12	0.173333	7.45753E-001	5.99059E-003	0.00000E+000	4.46750E-003	3.59960E-001	-1.17301E+000	3.57650E+000	10	...........
	13	0.186667	7.52660E-001	6.00088E-003	0.00000E+000	4.51663E-003	3.59960E-001	-1.17964E+000	3.57650E+000	10	...........
	14	0.2	7.59595E-001	5.99253E-003	0.00000E+000	4.55190E-003	3.59960E-001	-1.16969E+000	3.57650E+000	10	...........
	15	0.213333	7.66480E-001	5.99229E-003	0.00000E+000	4.59297E-003	3.59960E-001	-1.17328E+000	3.57650E+000	10	...........
	16	0.226667	7.73309E-001	5.99660E-003	0.00000E+000	4.63722E-003	3.59960E-001	-1.17995E+000	3.57650E+000	10	...........
	17	0.24	7.80128E-001	5.99249E-003	0.00000E+000	4.67491E-003	3.59960E-001	-1.16971E+000	3.57650E+000	10	...........
	18	0.253333	7.86916E-001	5.99334E-003	0.00000E+000	4.71626E-003	3.59960E-001	-1.17286E+000	3.57650E+000	10	...........
	19	0.266667	7.93724E-001	5.99273E-003	0.00000E+000	4.75657E-003	3.59960E-001	-1.17978E+000	3.57650E+000	10	...........
	20	0.28	8.00468E-001	5.99693E-003	0.00000E+000	4.80035E-003	3.59960E-001	-1.16984E+000	3.57650E+000	10	...........
	21	0.293333	8.07178E-001	5.99816E-003	0.00000E+000	4.84158E-003	3.59960E-001	-1.17277E+000	3.57650E+000	10	...........
	22	0.306667	8.13860E-001	5.99453E-003	0.00000E+000	4.87871E-003	3.59960E-001	-1.17977E+000	3.57650E+000	10	...........
	23	0.32	8.20590E-001	5.99290E-003	0.00000E+000	4.91772E-003	3.59960E-001	-1.16961E+000	3.57650E+000	10	...........
	24	0.333333	8.27220E-001	5.99355E-003	0.00000E+000	4.95799E-003	3.59960E-001	-1.17236E+000	3.57650E+000	10	...........
	25	0.346667	8.33839E-001	5.99075E-003	0.00000E+000	4.99532E-003	3.59960E-001	-1.17986E+000	3.57650E+000	10	...........
	26	0.36	8.40422E-001	5.99154E-003	0.00000E+000	5.03542E-003	3.59960E-001	-1.16971E+000	3.57650E+000	10	...........
	27	0.373333	8.47026E-001	5.99182E-003	0.00000E+000	5.07523E-003	3.59960E-001	-1.17244E+000	3.57650E+000	10	...........
	28	0.386667	8.53561E-001	5.99455E-003	0.00000E+000	5.11672E-003	3.59960E-001	-1.17971E+000	3.57650E+000	10	...........
	29	0.4	8.60041E-001	5.99023E-003	0.00000E+000	5.15185E-003	3.59960E-001	-1.16936E+000	3.57650E+000	10	...........
	30	0.413333	8.66550E-001	5.99379E-003	0.00000E+000	5.19392E-003	3.59960E-001	-1.17259E+000	3.57650E+000	10	...........
	31	0.426667	8.73012E-001	5.99045E-003	0.00000E+000	5.22974E-003	3.59960E-001	-1.17982E+000	3.57650E+000	10	...........
	32	0.44	8.79427E-001	5.98980E-003	0.00000E+000	5.26759E-003	3.59960E-001	-1.16939E+000	3.57650E+000	10	...........
	33	0.453333	8.85841E-001	5.99246E-003	0.00000E+000	5.30836E-003	3.59960E-001	-1.17227E+000	3.57650E+000	10	...........
	34	0.466667	8.92214E-001	5.99309E-003	0.00000E+000	5.34712E-003	3.59960E-001	-1.17968E+000	3.57650E+000	10	...........
	35	0.48	8.98555E-001	5.99307E-003	0.00000E+000	5.38511E-003	3.59960E-001	-1.16938E+000	3.57650E+000	10	...........
	36	0.493333	9.04804E-001	5.99306E-003	0.00000E+000	5.42254E-003	3.59960E-001	-1.17216E+000	3.57650E+000	10	...........
	37	0.506667	9.11099E-001	5.99390E-003	0.00000E+000	5.46103E-003	3.59960E-001	-1.17922E+000	3.57650E+000	10	...........
	38	0.52	9.17308E-001	5.99795E-003	0.00000E+000	5.50197E-003	3.59960E-001	-1.16874E+000	3.57650E+000	10	...........
	39	0.533333	9.23536E-001	5.99929E-003	0.00000E+000	5.54056E-003	3.59960E-001	-1.17191E+000	3.57650E+000	10	...........
	40	0.546667	9.29607E-001	5.99585E-003	0.00000E+000	5.57378E-003	3.59960E-001	-1.17963E+000	3.57650E+000	10	...........
	41	0.56	9.35695E-001	5.99429E-003	0.00000E+000	5.60883E-003	3.59960E-001	-1.16899E+000	3.57650E+000	10	...........
	42	0.573333	9.41734E-001	5.99746E-003	0.00000E+000	5.64801E-003	3.59960E-001	-1.17167E+000	3.57650E+000	10	...........
	43	0.586667	9.47765E-001	5.99265E-003	0.00000E+000	5.67963E-003	3.59960E-001	-1.17943E+000	3.57650E+000	10	...........
	44	0.6	9.53723E-001	5.99884E-003	0.00000E+000	5.72123E-003	3.59960E-001	-1.16917E+000	3.57650E+000	10	...........
	45	0.613333	9.59619E-001	5.99255E-003	0.00000E+000	5.75056E-003	3.59960E-001	-1.17177E+000	3.57650E+000	10	...........
	46	0.626667	9.65424E-001	5.99302E-003	0.00000E+000	5.78580E-003	3.59960E-001	-1.17942E+000	3.57650E+000	10	...........
	47	0.64	9.71240E-001	5.99316E-003	0.00000E+000	5.82079E-003	3.59960E-001	-1.16875E+000	3.57650E+000	10	...........
	48	0.653333	9.76990E-001	5.99291E-003	0.00000E+000	5.85501E-003	3.59960E-001	-1.17114E+000	3.57650E+000	10	...........
	49	0.666667	9.82681E-001	5.99271E-003	0.00000E+000	5.88892E-003	3.59960E-001	-1.17934E+000	3.57650E+000	10	...........
	50	0.68	9.88331E-001	5.99255E-003	0.00000E+000	5.92262E-003	3.59960E-001	-1.16913E+000	3.57650E+000	10	...........
	51	0.693333	9.93914E-001	5.98991E-003	0.00000E+000	5.95346E-003	3.59960E-001	-1.17150E+000	3.57650E+000	10	...........
	52	0.703333	9.98770E-001	5.99777E-003	0.00000E+000	5.99039E-003	3.59960E-001	-1.17898E+000	3.57650E+000	10	...........
STARTTIMEOFFSET	QUANT	1474.101	Start Time Offset (s)