File: Data/CV_CRGO300517_1/PWRCCD_CRGO300517_1/CHARGE_DISCHARGE/CHARGE_#865.DTA
EXPLAIN
TAG	PWR800_CHARGE
TITLE	LABEL	PWR Cyclic Charge Discharge (Cell) - Charge Step	Test &Identifier
DATE	LABEL	22-6-2017	Date
TIME	LABEL	16:09:41	Time
NOTES	NOTES	3	&Notes...
	supercap test cell
	0.6mg
	6M KOH
PSTAT	PSTAT	IFC5000-01520	Potentiostat
CAPACITY	QUANT	1.00000E-003	Capacity (A-hr)
CELLTYPE	SELECTOR	1	&Cell Type
WORKINGCONNECTION	SELECTOR	0	&Working Lead
MAXCHARGETIME	VARIABLEANDUNITS	1.00000E+002	s	1.00000E+002	second(s)	Max &Charge Time
CHARGECURRENT	QUANT	6.00000E-003	&Charge Current (A)
VOLTAGEFINISH	TWOPARAM	F	1.00000E-003	3.60000E+003	&Voltage Finish	 I (A) < 	Max Time(s)
SAMPLETIME	QUANT	1.00000E-002	Sa&mple Period (s)
CHARGESTOPAT1	MULTIPARAM	4	1.00000E+000	Charge Stop At &1	Voltage > Limit	V
CHARGESTOPAT2	MULTIPARAM	0	0.00000E+000	Charge Stop At &2	None	N/A
AESBHCSELECTOR	TOGGLE	F	Save Both Half Cells
IRCOMP	TOGGLE	F	IR &Measure
EOC	QUANT	0	Open Circuit (V)
SEQUENCER	TOGGLE	TRUE	Run as Sequence
PSTATMODEL	IQUANT	53	Pstat Model
PSTATSECTION	LABEL	IFC5000-01520	Pstat Section
PSTATSERIALNO	LABEL	01520	Pstat Serial Number
CTRLMODE	IQUANT	0	Control Mode
ELECTROMETER	IQUANT	1	RE=0 or CS=1
IESTAB	IQUANT	0	I/E Stability
CASPEED	IQUANT	4	Control Amp Speed
CONVENTION	IQUANT	1	Current Convention
ICHRANGE	IQUANT	2	Ich Range
ICHRANGEMODE	TOGGLE	T	Ich Auto Range
ICHOFFSETENABLE	TOGGLE	F	Ich Offset Enable
ICHOFFSET	QUANT	0	Ich Offset (V)
ICHFILTER	IQUANT	1	Ich Filter
VCHRANGE	IQUANT	2	Vch Range
VCHRANGEMODE	TOGGLE	T	Vch Auto Range
VCHOFFSETENABLE	TOGGLE	F	Vch Offset Enable
VCHOFFSET	QUANT	0	Vch Offset (V)
VCHFILTER	IQUANT	1	Vch Filter
IERANGELOWERLIMIT	IQUANT	9	I/E Range Lower Limit
IERANGEMODE	TOGGLE	F	I/E AutoRange
IERANGE	IQUANT	10	I/E Range
ACHSELECT	IQUANT	1	Ach Select
ACHRANGE	IQUANT	2	Ach Range
ACHOFFSETENABLE	TOGGLE	F	Ach Offset Enable
ACHOFFSET	QUANT	0	Ach Offset (V)
ACHFILTER	IQUANT	1	Ach Filter
CABLEID	IQUANT	14	Cable ID
DCCALDATE	LABEL	20-10-2016	DC Calibration Date
ACCALDATE	LABEL	12/3/2015	AC Calibration Date
FRAMEWORKVERSION	QUANT	7.01	Framework Version
INSTRUMENTVERSION	LABEL	4.00	Instrument Version
CURVE	TABLE	54
	Pt	T	Vf	Im	Vu	Pwr	Sig	Ach	Temp	IERange	Over
	#	s	V	A	V	W	V	V	deg C	#	bits
	0	0.013333	6.52083E-001	5.99140E-003	0.00000E+000	3.90689E-003	3.59960E-001	-1.16368E+000	3.57780E+000	10	...........
	1	0.026667	6.61299E-001	5.99261E-003	0.00000E+000	3.96291E-003	3.59960E-001	-1.17449E+000	3.57780E+000	10	...........
	2	0.04	6.69833E-001	5.98945E-003	0.00000E+000	4.01193E-003	3.59960E-001	-1.16533E+000	3.57780E+000	10	...........
	3	0.053333	6.77851E-001	5.99488E-003	0.00000E+000	4.06363E-003	3.59960E-001	-1.16312E+000	3.57780E+000	10	...........
	4	0.066667	6.85606E-001	5.99429E-003	0.00000E+000	4.10973E-003	3.59960E-001	-1.17400E+000	3.57780E+000	10	...........
	5	0.08	6.93176E-001	5.99716E-003	0.00000E+000	4.15708E-003	3.59960E-001	-1.16507E+000	3.57780E+000	10	...........
	6	0.093333	7.00581E-001	5.99257E-003	0.00000E+000	4.19828E-003	3.59960E-001	-1.16296E+000	3.57780E+000	10	...........
	7	0.106667	7.07922E-001	5.99465E-003	0.00000E+000	4.24374E-003	3.59960E-001	-1.17392E+000	3.57780E+000	10	...........
	8	0.12	7.15129E-001	5.99489E-003	0.00000E+000	4.28712E-003	3.59960E-001	-1.16491E+000	3.57780E+000	10	...........
	9	0.133333	7.22301E-001	5.99303E-003	0.00000E+000	4.32877E-003	3.59960E-001	-1.16312E+000	3.57780E+000	10	...........
	10	0.146667	7.29395E-001	5.99453E-003	0.00000E+000	4.37238E-003	3.59960E-001	-1.17399E+000	3.57780E+000	10	...........
	11	0.16	7.36400E-001	5.99270E-003	0.00000E+000	4.41302E-003	3.59960E-001	-1.16486E+000	3.57780E+000	10	...........
	12	0.173333	7.43342E-001	5.99595E-003	0.00000E+000	4.45704E-003	3.59960E-001	-1.16278E+000	3.57780E+000	10	...........
	13	0.186667	7.50260E-001	5.99432E-003	0.00000E+000	4.49730E-003	3.59960E-001	-1.17389E+000	3.57780E+000	10	...........
	14	0.2	7.57174E-001	5.99545E-003	0.00000E+000	4.53960E-003	3.59960E-001	-1.16484E+000	3.57780E+000	10	...........
	15	0.213333	7.64032E-001	5.99050E-003	0.00000E+000	4.57693E-003	3.59960E-001	-1.16287E+000	3.57780E+000	10	...........
	16	0.226667	7.70877E-001	5.99161E-003	0.00000E+000	4.61879E-003	3.59960E-001	-1.17383E+000	3.57780E+000	10	...........
	17	0.24	7.77646E-001	5.99084E-003	0.00000E+000	4.65875E-003	3.59960E-001	-1.16457E+000	3.57780E+000	10	...........
	18	0.253333	7.84436E-001	5.99939E-003	0.00000E+000	4.70614E-003	3.59960E-001	-1.16278E+000	3.57780E+000	10	...........
	19	0.266667	7.91140E-001	5.99195E-003	0.00000E+000	4.74047E-003	3.59960E-001	-1.17417E+000	3.57780E+000	10	...........
	20	0.28	7.97884E-001	5.99172E-003	0.00000E+000	4.78070E-003	3.59960E-001	-1.16514E+000	3.57780E+000	10	...........
	21	0.293333	8.04574E-001	5.99374E-003	0.00000E+000	4.82241E-003	3.59960E-001	-1.16305E+000	3.57780E+000	10	...........
	22	0.306667	8.11213E-001	5.99645E-003	0.00000E+000	4.86440E-003	3.59960E-001	-1.17400E+000	3.57780E+000	10	...........
	23	0.32	8.17878E-001	5.99201E-003	0.00000E+000	4.90073E-003	3.59960E-001	-1.16483E+000	3.57780E+000	10	...........
	24	0.333333	8.24504E-001	5.99152E-003	0.00000E+000	4.94003E-003	3.59960E-001	-1.16323E+000	3.57780E+000	10	...........
	25	0.346667	8.31055E-001	5.99734E-003	0.00000E+000	4.98412E-003	3.59960E-001	-1.17417E+000	3.57780E+000	10	...........
	26	0.36	8.37666E-001	5.99359E-003	0.00000E+000	5.02063E-003	3.59960E-001	-1.16460E+000	3.57780E+000	10	...........
	27	0.373333	8.44243E-001	5.99262E-003	0.00000E+000	5.05923E-003	3.59960E-001	-1.16242E+000	3.57780E+000	10	...........
	28	0.386667	8.50778E-001	5.99505E-003	0.00000E+000	5.10046E-003	3.59960E-001	-1.17358E+000	3.57780E+000	10	...........
	29	0.4	8.57277E-001	5.99292E-003	0.00000E+000	5.13759E-003	3.59960E-001	-1.16426E+000	3.57780E+000	10	...........
	30	0.413333	8.63760E-001	5.99100E-003	0.00000E+000	5.17478E-003	3.59960E-001	-1.16237E+000	3.57780E+000	10	...........
	31	0.426667	8.70243E-001	5.99913E-003	0.00000E+000	5.22071E-003	3.59960E-001	-1.17324E+000	3.57780E+000	10	...........
	32	0.44	8.76615E-001	5.99588E-003	0.00000E+000	5.25607E-003	3.59960E-001	-1.16385E+000	3.57780E+000	10	...........
	33	0.453333	8.82989E-001	5.99405E-003	0.00000E+000	5.29268E-003	3.59960E-001	-1.16241E+000	3.57780E+000	10	...........
	34	0.466667	8.89364E-001	5.99591E-003	0.00000E+000	5.33255E-003	3.59960E-001	-1.17340E+000	3.57780E+000	10	...........
	35	0.48	8.95667E-001	5.99143E-003	0.00000E+000	5.36633E-003	3.59960E-001	-1.16411E+000	3.57780E+000	10	...........
	36	0.493333	9.01954E-001	5.99363E-003	0.00000E+000	5.40598E-003	3.59960E-001	-1.16220E+000	3.57780E+000	10	...........
	37	0.506667	9.08201E-001	5.99390E-003	0.00000E+000	5.44366E-003	3.59960E-001	-1.17334E+000	3.57780E+000	10	...........
	38	0.52	9.14397E-001	5.99354E-003	0.00000E+000	5.48048E-003	3.59960E-001	-1.16405E+000	3.57780E+000	10	...........
	39	0.533333	9.20571E-001	5.99285E-003	0.00000E+000	5.51685E-003	3.59960E-001	-1.16256E+000	3.57780E+000	10	...........
	40	0.546667	9.26721E-001	5.99378E-003	0.00000E+000	5.55456E-003	3.59960E-001	-1.17370E+000	3.57780E+000	10	...........
	41	0.56	9.32810E-001	5.99599E-003	0.00000E+000	5.59312E-003	3.59960E-001	-1.16385E+000	3.57780E+000	10	...........
	42	0.573333	9.38838E-001	5.99760E-003	0.00000E+000	5.63077E-003	3.59960E-001	-1.16236E+000	3.57780E+000	10	...........
	43	0.586667	9.44839E-001	5.99113E-003	0.00000E+000	5.66065E-003	3.59960E-001	-1.17374E+000	3.57780E+000	10	...........
	44	0.6	9.50758E-001	5.99643E-003	0.00000E+000	5.70116E-003	3.59960E-001	-1.16416E+000	3.57780E+000	10	...........
	45	0.613333	9.56690E-001	5.99506E-003	0.00000E+000	5.73542E-003	3.59960E-001	-1.16273E+000	3.57780E+000	10	...........
	46	0.626667	9.62533E-001	5.99817E-003	0.00000E+000	5.77344E-003	3.59960E-001	-1.17366E+000	3.57780E+000	10	...........
	47	0.64	9.68338E-001	5.99576E-003	0.00000E+000	5.80593E-003	3.59960E-001	-1.16381E+000	3.57970E+000	10	...........
	48	0.653333	9.74129E-001	5.99670E-003	0.00000E+000	5.84156E-003	3.59960E-001	-1.16231E+000	3.57970E+000	10	...........
	49	0.666667	9.79815E-001	5.99596E-003	0.00000E+000	5.87493E-003	3.59960E-001	-1.17333E+000	3.57970E+000	10	...........
	50	0.68	9.85469E-001	5.99877E-003	0.00000E+000	5.91160E-003	3.59960E-001	-1.16385E+000	3.57970E+000	10	...........
	51	0.693333	9.91039E-001	5.99202E-003	0.00000E+000	5.93833E-003	3.59960E-001	-1.16198E+000	3.57970E+000	10	...........
	52	0.706667	9.96633E-001	5.99448E-003	0.00000E+000	5.97430E-003	3.59960E-001	-1.17274E+000	3.57970E+000	10	...........
	53	0.71	1.00003E+000	5.98949E-003	0.00000E+000	5.98970E-003	3.59960E-001	-1.15097E+000	3.57970E+000	10	...........
STARTTIMEOFFSET	QUANT	1396.701	Start Time Offset (s)