File: Data/CV_CRGO300517_1/PWRCCD_CRGO300517_1/CHARGE_DISCHARGE/CHARGE_#234.DTA
EXPLAIN
TAG	PWR800_CHARGE
TITLE	LABEL	PWR Cyclic Charge Discharge (Cell) - Charge Step	Test &Identifier
DATE	LABEL	22-6-2017	Date
TIME	LABEL	15:45:13	Time
NOTES	NOTES	3	&Notes...
	supercap test cell
	0.6mg
	6M KOH
PSTAT	PSTAT	IFC5000-01520	Potentiostat
CAPACITY	QUANT	1.00000E-003	Capacity (A-hr)
CELLTYPE	SELECTOR	1	&Cell Type
WORKINGCONNECTION	SELECTOR	0	&Working Lead
MAXCHARGETIME	VARIABLEANDUNITS	1.00000E+002	s	1.00000E+002	second(s)	Max &Charge Time
CHARGECURRENT	QUANT	6.00000E-003	&Charge Current (A)
VOLTAGEFINISH	TWOPARAM	F	1.00000E-003	3.60000E+003	&Voltage Finish	 I (A) < 	Max Time(s)
SAMPLETIME	QUANT	1.00000E-002	Sa&mple Period (s)
CHARGESTOPAT1	MULTIPARAM	4	1.00000E+000	Charge Stop At &1	Voltage > Limit	V
CHARGESTOPAT2	MULTIPARAM	0	0.00000E+000	Charge Stop At &2	None	N/A
AESBHCSELECTOR	TOGGLE	F	Save Both Half Cells
IRCOMP	TOGGLE	F	IR &Measure
EOC	QUANT	0	Open Circuit (V)
SEQUENCER	TOGGLE	TRUE	Run as Sequence
PSTATMODEL	IQUANT	53	Pstat Model
PSTATSECTION	LABEL	IFC5000-01520	Pstat Section
PSTATSERIALNO	LABEL	01520	Pstat Serial Number
CTRLMODE	IQUANT	0	Control Mode
ELECTROMETER	IQUANT	1	RE=0 or CS=1
IESTAB	IQUANT	0	I/E Stability
CASPEED	IQUANT	4	Control Amp Speed
CONVENTION	IQUANT	1	Current Convention
ICHRANGE	IQUANT	2	Ich Range
ICHRANGEMODE	TOGGLE	T	Ich Auto Range
ICHOFFSETENABLE	TOGGLE	F	Ich Offset Enable
ICHOFFSET	QUANT	0	Ich Offset (V)
ICHFILTER	IQUANT	1	Ich Filter
VCHRANGE	IQUANT	2	Vch Range
VCHRANGEMODE	TOGGLE	T	Vch Auto Range
VCHOFFSETENABLE	TOGGLE	F	Vch Offset Enable
VCHOFFSET	QUANT	0	Vch Offset (V)
VCHFILTER	IQUANT	1	Vch Filter
IERANGELOWERLIMIT	IQUANT	9	I/E Range Lower Limit
IERANGEMODE	TOGGLE	F	I/E AutoRange
IERANGE	IQUANT	10	I/E Range
ACHSELECT	IQUANT	1	Ach Select
ACHRANGE	IQUANT	2	Ach Range
ACHOFFSETENABLE	TOGGLE	F	Ach Offset Enable
ACHOFFSET	QUANT	0	Ach Offset (V)
ACHFILTER	IQUANT	1	Ach Filter
CABLEID	IQUANT	14	Cable ID
DCCALDATE	LABEL	20-10-2016	DC Calibration Date
ACCALDATE	LABEL	12/3/2015	AC Calibration Date
FRAMEWORKVERSION	QUANT	7.01	Framework Version
INSTRUMENTVERSION	LABEL	4.00	Instrument Version
CURVE	TABLE	64
	Pt	T	Vf	Im	Vu	Pwr	Sig	Ach	Temp	IERange	Over
	#	s	V	A	V	W	V	V	deg C	#	bits
	0	0.013333	6.09966E-001	5.99574E-003	0.00000E+000	3.65720E-003	3.59960E-001	-1.09245E+000	3.57700E+000	10	...........
	1	0.026667	6.18578E-001	5.99446E-003	0.00000E+000	3.70804E-003	3.59960E-001	-1.09189E+000	3.57700E+000	10	...........
	2	0.04	6.26323E-001	5.99734E-003	0.00000E+000	3.75627E-003	3.59960E-001	-1.10133E+000	3.57700E+000	10	...........
	3	0.053333	6.33715E-001	5.99931E-003	0.00000E+000	3.80185E-003	3.59960E-001	-1.09212E+000	3.57700E+000	10	...........
	4	0.066667	6.40901E-001	5.99589E-003	0.00000E+000	3.84277E-003	3.59960E-001	-1.09190E+000	3.57700E+000	10	...........
	5	0.08	6.47869E-001	5.99532E-003	0.00000E+000	3.88418E-003	3.59960E-001	-1.10144E+000	3.57700E+000	10	...........
	6	0.093333	6.54690E-001	5.99600E-003	0.00000E+000	3.92552E-003	3.59960E-001	-1.09206E+000	3.57700E+000	10	...........
	7	0.106667	6.61374E-001	5.99575E-003	0.00000E+000	3.96543E-003	3.59960E-001	-1.09178E+000	3.57700E+000	10	...........
	8	0.12	6.68019E-001	5.99810E-003	0.00000E+000	4.00684E-003	3.59960E-001	-1.10120E+000	3.57700E+000	10	...........
	9	0.133333	6.74520E-001	5.99699E-003	0.00000E+000	4.04509E-003	3.59960E-001	-1.09211E+000	3.57700E+000	10	...........
	10	0.146667	6.81026E-001	5.99184E-003	0.00000E+000	4.08060E-003	3.59960E-001	-1.09197E+000	3.57700E+000	10	...........
	11	0.16	6.87440E-001	5.99516E-003	0.00000E+000	4.12131E-003	3.59960E-001	-1.10125E+000	3.57700E+000	10	...........
	12	0.173333	6.93905E-001	5.99393E-003	0.00000E+000	4.15921E-003	3.59960E-001	-1.09188E+000	3.57700E+000	10	...........
	13	0.186667	7.00229E-001	5.99558E-003	0.00000E+000	4.19828E-003	3.59960E-001	-1.09168E+000	3.57700E+000	10	...........
	14	0.2	7.06552E-001	5.98977E-003	0.00000E+000	4.23208E-003	3.59960E-001	-1.10106E+000	3.57700E+000	10	...........
	15	0.213333	7.12879E-001	5.99517E-003	0.00000E+000	4.27383E-003	3.59960E-001	-1.09203E+000	3.57700E+000	10	...........
	16	0.226667	7.19204E-001	5.99629E-003	0.00000E+000	4.31256E-003	3.59960E-001	-1.09168E+000	3.57700E+000	10	...........
	17	0.24	7.25475E-001	5.99530E-003	0.00000E+000	4.34944E-003	3.59960E-001	-1.10117E+000	3.57700E+000	10	...........
	18	0.253333	7.31699E-001	5.99134E-003	0.00000E+000	4.38385E-003	3.59960E-001	-1.09217E+000	3.57700E+000	10	...........
	19	0.266667	7.37938E-001	5.99610E-003	0.00000E+000	4.42475E-003	3.59960E-001	-1.09194E+000	3.57700E+000	10	...........
	20	0.28	7.44167E-001	5.99670E-003	0.00000E+000	4.46255E-003	3.59960E-001	-1.10142E+000	3.57700E+000	10	...........
	21	0.293333	7.50380E-001	5.99216E-003	0.00000E+000	4.49640E-003	3.59960E-001	-1.09228E+000	3.57700E+000	10	...........
	22	0.306667	7.56593E-001	5.99044E-003	0.00000E+000	4.53233E-003	3.59960E-001	-1.09176E+000	3.57700E+000	10	...........
	23	0.32	7.62796E-001	5.99325E-003	0.00000E+000	4.57163E-003	3.59960E-001	-1.10115E+000	3.57700E+000	10	...........
	24	0.333333	7.69006E-001	5.99334E-003	0.00000E+000	4.60892E-003	3.59960E-001	-1.09178E+000	3.57700E+000	10	...........
	25	0.346667	7.75198E-001	5.99524E-003	0.00000E+000	4.64750E-003	3.59960E-001	-1.09149E+000	3.57700E+000	10	...........
	26	0.36	7.81371E-001	5.99200E-003	0.00000E+000	4.68197E-003	3.59960E-001	-1.10085E+000	3.57700E+000	10	...........
	27	0.373333	7.87475E-001	5.99798E-003	0.00000E+000	4.72327E-003	3.59960E-001	-1.09162E+000	3.57700E+000	10	...........
	28	0.386667	7.93644E-001	5.99894E-003	0.00000E+000	4.76103E-003	3.59960E-001	-1.09144E+000	3.57700E+000	10	...........
	29	0.4	7.99822E-001	5.99710E-003	0.00000E+000	4.79661E-003	3.59960E-001	-1.10094E+000	3.57700E+000	10	...........
	30	0.413333	8.05938E-001	5.99823E-003	0.00000E+000	4.83421E-003	3.59960E-001	-1.09170E+000	3.57700E+000	10	...........
	31	0.426667	8.12103E-001	5.99319E-003	0.00000E+000	4.86709E-003	3.59960E-001	-1.09161E+000	3.57700E+000	10	...........
	32	0.44	8.18215E-001	5.99228E-003	0.00000E+000	4.90298E-003	3.59960E-001	-1.10088E+000	3.57700E+000	10	...........
	33	0.453333	8.24324E-001	5.99656E-003	0.00000E+000	4.94310E-003	3.59960E-001	-1.09167E+000	3.57700E+000	10	...........
	34	0.466667	8.30431E-001	5.99626E-003	0.00000E+000	4.97948E-003	3.59960E-001	-1.09152E+000	3.57700E+000	10	...........
	35	0.48	8.36472E-001	5.99205E-003	0.00000E+000	5.01218E-003	3.59960E-001	-1.10092E+000	3.57700E+000	10	...........
	36	0.493333	8.42531E-001	5.99102E-003	0.00000E+000	5.04762E-003	3.59960E-001	-1.09176E+000	3.57700E+000	10	...........
	37	0.506667	8.48634E-001	5.99627E-003	0.00000E+000	5.08864E-003	3.59960E-001	-1.09136E+000	3.57700E+000	10	...........
	38	0.52	8.54658E-001	5.99101E-003	0.00000E+000	5.12026E-003	3.59960E-001	-1.10068E+000	3.57700E+000	10	...........
	39	0.533333	8.60689E-001	5.99504E-003	0.00000E+000	5.15987E-003	3.59960E-001	-1.09158E+000	3.57700E+000	10	...........
	40	0.546667	8.66745E-001	5.99539E-003	0.00000E+000	5.19647E-003	3.59960E-001	-1.09153E+000	3.57700E+000	10	...........
	41	0.56	8.72766E-001	5.99394E-003	0.00000E+000	5.23130E-003	3.59960E-001	-1.10090E+000	3.57700E+000	10	...........
	42	0.573333	8.78699E-001	5.99583E-003	0.00000E+000	5.26853E-003	3.59960E-001	-1.09169E+000	3.57700E+000	10	...........
	43	0.586667	8.84681E-001	5.99240E-003	0.00000E+000	5.30137E-003	3.59960E-001	-1.09143E+000	3.57700E+000	10	...........
	44	0.6	8.90642E-001	5.99785E-003	0.00000E+000	5.34194E-003	3.59960E-001	-1.10129E+000	3.57700E+000	10	...........
	45	0.613333	8.96552E-001	5.99329E-003	0.00000E+000	5.37330E-003	3.59960E-001	-1.09245E+000	3.57700E+000	10	...........
	46	0.626667	9.02483E-001	5.99164E-003	0.00000E+000	5.40736E-003	3.59960E-001	-1.09244E+000	3.57700E+000	10	...........
	47	0.64	9.08371E-001	5.99672E-003	0.00000E+000	5.44725E-003	3.59960E-001	-1.10253E+000	3.57700E+000	10	...........
	48	0.653333	9.14230E-001	5.98927E-003	0.00000E+000	5.47557E-003	3.59960E-001	-1.09360E+000	3.57700E+000	10	...........
	49	0.666667	9.20118E-001	5.99402E-003	0.00000E+000	5.51521E-003	3.59960E-001	-1.09375E+000	3.57700E+000	10	...........
	50	0.68	9.26003E-001	5.99765E-003	0.00000E+000	5.55384E-003	3.59960E-001	-1.10398E+000	3.57700E+000	10	...........
	51	0.693333	9.31827E-001	5.99060E-003	0.00000E+000	5.58221E-003	3.59960E-001	-1.09546E+000	3.57700E+000	10	...........
	52	0.706667	9.37596E-001	5.99327E-003	0.00000E+000	5.61927E-003	3.59960E-001	-1.09631E+000	3.57700E+000	10	...........
	53	0.72	9.43317E-001	5.99486E-003	0.00000E+000	5.65505E-003	3.59960E-001	-1.10656E+000	3.57700E+000	10	...........
	54	0.733333	9.49108E-001	5.99664E-003	0.00000E+000	5.69146E-003	3.59960E-001	-1.09840E+000	3.57700E+000	10	...........
	55	0.746667	9.54701E-001	5.99282E-003	0.00000E+000	5.72135E-003	3.59960E-001	-1.09956E+000	3.57700E+000	10	...........
	56	0.76	9.60359E-001	5.99382E-003	0.00000E+000	5.75622E-003	3.59960E-001	-1.10973E+000	3.57700E+000	10	...........
	57	0.773333	9.65988E-001	5.99773E-003	0.00000E+000	5.79374E-003	3.59960E-001	-1.10123E+000	3.57700E+000	10	...........
	58	0.786667	9.71553E-001	5.99057E-003	0.00000E+000	5.82016E-003	3.59960E-001	-1.10196E+000	3.57790E+000	10	...........
	59	0.8	9.77140E-001	5.99247E-003	0.00000E+000	5.85548E-003	3.59960E-001	-1.11213E+000	3.57820E+000	10	...........
	60	0.813333	9.82599E-001	5.99729E-003	0.00000E+000	5.89293E-003	3.59960E-001	-1.10364E+000	3.57820E+000	10	...........
	61	0.826667	9.88081E-001	5.99317E-003	0.00000E+000	5.92173E-003	3.59960E-001	-1.10408E+000	3.57820E+000	10	...........
	62	0.84	9.93515E-001	6.00212E-003	0.00000E+000	5.96319E-003	3.59960E-001	-1.11361E+000	3.57820E+000	10	...........
	63	0.851667	9.98542E-001	5.99173E-003	0.00000E+000	5.98299E-003	3.59960E-001	-1.10259E+000	3.57820E+000	10	...........
STARTTIMEOFFSET	QUANT	430.9817	Start Time Offset (s)