File: Data/CV_CRGO300517_1/PWRCCD_CRGO300517_1/CHARGE_DISCHARGE/CHARGE_#344.DTA
EXPLAIN
TAG	PWR800_CHARGE
TITLE	LABEL	PWR Cyclic Charge Discharge (Cell) - Charge Step	Test &Identifier
DATE	LABEL	22-6-2017	Date
TIME	LABEL	15:49:43	Time
NOTES	NOTES	3	&Notes...
	supercap test cell
	0.6mg
	6M KOH
PSTAT	PSTAT	IFC5000-01520	Potentiostat
CAPACITY	QUANT	1.00000E-003	Capacity (A-hr)
CELLTYPE	SELECTOR	1	&Cell Type
WORKINGCONNECTION	SELECTOR	0	&Working Lead
MAXCHARGETIME	VARIABLEANDUNITS	1.00000E+002	s	1.00000E+002	second(s)	Max &Charge Time
CHARGECURRENT	QUANT	6.00000E-003	&Charge Current (A)
VOLTAGEFINISH	TWOPARAM	F	1.00000E-003	3.60000E+003	&Voltage Finish	 I (A) < 	Max Time(s)
SAMPLETIME	QUANT	1.00000E-002	Sa&mple Period (s)
CHARGESTOPAT1	MULTIPARAM	4	1.00000E+000	Charge Stop At &1	Voltage > Limit	V
CHARGESTOPAT2	MULTIPARAM	0	0.00000E+000	Charge Stop At &2	None	N/A
AESBHCSELECTOR	TOGGLE	F	Save Both Half Cells
IRCOMP	TOGGLE	F	IR &Measure
EOC	QUANT	0	Open Circuit (V)
SEQUENCER	TOGGLE	TRUE	Run as Sequence
PSTATMODEL	IQUANT	53	Pstat Model
PSTATSECTION	LABEL	IFC5000-01520	Pstat Section
PSTATSERIALNO	LABEL	01520	Pstat Serial Number
CTRLMODE	IQUANT	0	Control Mode
ELECTROMETER	IQUANT	1	RE=0 or CS=1
IESTAB	IQUANT	0	I/E Stability
CASPEED	IQUANT	4	Control Amp Speed
CONVENTION	IQUANT	1	Current Convention
ICHRANGE	IQUANT	2	Ich Range
ICHRANGEMODE	TOGGLE	T	Ich Auto Range
ICHOFFSETENABLE	TOGGLE	F	Ich Offset Enable
ICHOFFSET	QUANT	0	Ich Offset (V)
ICHFILTER	IQUANT	1	Ich Filter
VCHRANGE	IQUANT	2	Vch Range
VCHRANGEMODE	TOGGLE	T	Vch Auto Range
VCHOFFSETENABLE	TOGGLE	F	Vch Offset Enable
VCHOFFSET	QUANT	0	Vch Offset (V)
VCHFILTER	IQUANT	1	Vch Filter
IERANGELOWERLIMIT	IQUANT	9	I/E Range Lower Limit
IERANGEMODE	TOGGLE	F	I/E AutoRange
IERANGE	IQUANT	10	I/E Range
ACHSELECT	IQUANT	1	Ach Select
ACHRANGE	IQUANT	2	Ach Range
ACHOFFSETENABLE	TOGGLE	F	Ach Offset Enable
ACHOFFSET	QUANT	0	Ach Offset (V)
ACHFILTER	IQUANT	1	Ach Filter
CABLEID	IQUANT	14	Cable ID
DCCALDATE	LABEL	20-10-2016	DC Calibration Date
ACCALDATE	LABEL	12/3/2015	AC Calibration Date
FRAMEWORKVERSION	QUANT	7.01	Framework Version
INSTRUMENTVERSION	LABEL	4.00	Instrument Version
CURVE	TABLE	61
	Pt	T	Vf	Im	Vu	Pwr	Sig	Ach	Temp	IERange	Over
	#	s	V	A	V	W	V	V	deg C	#	bits
	0	0.013333	6.20304E-001	5.98941E-003	0.00000E+000	3.71525E-003	3.59960E-001	-1.12157E+000	3.57660E+000	10	...........
	1	0.026667	6.28924E-001	5.98980E-003	0.00000E+000	3.76713E-003	3.59960E-001	-1.12199E+000	3.57660E+000	10	...........
	2	0.04	6.36894E-001	5.99629E-003	0.00000E+000	3.81900E-003	3.59960E-001	-1.11485E+000	3.57660E+000	10	...........
	3	0.053333	6.44466E-001	5.99340E-003	0.00000E+000	3.86254E-003	3.59960E-001	-1.12131E+000	3.57660E+000	10	...........
	4	0.066667	6.51778E-001	5.99257E-003	0.00000E+000	3.90582E-003	3.59960E-001	-1.12204E+000	3.57660E+000	10	...........
	5	0.08	6.58888E-001	5.99674E-003	0.00000E+000	3.95118E-003	3.59960E-001	-1.11501E+000	3.57660E+000	10	...........
	6	0.093333	6.65825E-001	5.99798E-003	0.00000E+000	3.99361E-003	3.59960E-001	-1.12154E+000	3.57660E+000	10	...........
	7	0.106667	6.72688E-001	5.99249E-003	0.00000E+000	4.03107E-003	3.59960E-001	-1.12242E+000	3.57660E+000	10	...........
	8	0.12	6.79434E-001	5.99266E-003	0.00000E+000	4.07162E-003	3.59960E-001	-1.11493E+000	3.57660E+000	10	...........
	9	0.133333	6.86127E-001	5.99498E-003	0.00000E+000	4.11332E-003	3.59960E-001	-1.12143E+000	3.57660E+000	10	...........
	10	0.146667	6.92740E-001	5.98936E-003	0.00000E+000	4.14907E-003	3.59960E-001	-1.12243E+000	3.57660E+000	10	...........
	11	0.16	6.99317E-001	5.99064E-003	0.00000E+000	4.18935E-003	3.59960E-001	-1.11520E+000	3.57660E+000	10	...........
	12	0.173333	7.05830E-001	5.99663E-003	0.00000E+000	4.23260E-003	3.59960E-001	-1.12159E+000	3.57660E+000	10	...........
	13	0.186667	7.12319E-001	5.99150E-003	0.00000E+000	4.26786E-003	3.59960E-001	-1.12232E+000	3.57660E+000	10	...........
	14	0.2	7.18859E-001	5.99288E-003	0.00000E+000	4.30804E-003	3.59960E-001	-1.11472E+000	3.57660E+000	10	...........
	15	0.213333	7.25312E-001	5.99559E-003	0.00000E+000	4.34867E-003	3.59960E-001	-1.12126E+000	3.57660E+000	10	...........
	16	0.226667	7.31744E-001	5.99470E-003	0.00000E+000	4.38658E-003	3.59960E-001	-1.12249E+000	3.57660E+000	10	...........
	17	0.24	7.38118E-001	5.99819E-003	0.00000E+000	4.42738E-003	3.59960E-001	-1.11514E+000	3.57660E+000	10	...........
	18	0.253333	7.44541E-001	5.99435E-003	0.00000E+000	4.46304E-003	3.59960E-001	-1.12130E+000	3.57660E+000	10	...........
	19	0.266667	7.50906E-001	5.99413E-003	0.00000E+000	4.50102E-003	3.59960E-001	-1.12269E+000	3.57660E+000	10	...........
	20	0.28	7.57288E-001	5.99381E-003	0.00000E+000	4.53904E-003	3.59960E-001	-1.11539E+000	3.57660E+000	10	...........
	21	0.293333	7.63595E-001	5.99143E-003	0.00000E+000	4.57503E-003	3.59960E-001	-1.12179E+000	3.57660E+000	10	...........
	22	0.306667	7.69925E-001	5.99174E-003	0.00000E+000	4.61319E-003	3.59960E-001	-1.12306E+000	3.57660E+000	10	...........
	23	0.32	7.76225E-001	5.99578E-003	0.00000E+000	4.65408E-003	3.59960E-001	-1.11568E+000	3.57660E+000	10	...........
	24	0.333333	7.82526E-001	5.98837E-003	0.00000E+000	4.68605E-003	3.59960E-001	-1.12184E+000	3.57660E+000	10	...........
	25	0.346667	7.88842E-001	5.99086E-003	0.00000E+000	4.72584E-003	3.59960E-001	-1.12356E+000	3.57660E+000	10	...........
	26	0.36	7.95211E-001	5.99331E-003	0.00000E+000	4.76595E-003	3.59960E-001	-1.11622E+000	3.57665E+000	10	...........
	27	0.373333	8.01457E-001	5.99676E-003	0.00000E+000	4.80615E-003	3.59960E-001	-1.12227E+000	3.57680E+000	10	...........
	28	0.386667	8.07697E-001	5.99650E-003	0.00000E+000	4.84336E-003	3.59960E-001	-1.12388E+000	3.57680E+000	10	...........
	29	0.4	8.13919E-001	5.99470E-003	0.00000E+000	4.87920E-003	3.59960E-001	-1.11640E+000	3.57680E+000	10	...........
	30	0.413333	8.20169E-001	5.99407E-003	0.00000E+000	4.91615E-003	3.59960E-001	-1.12282E+000	3.57680E+000	10	...........
	31	0.426667	8.26351E-001	5.99471E-003	0.00000E+000	4.95373E-003	3.59960E-001	-1.12464E+000	3.57680E+000	10	...........
	32	0.44	8.32572E-001	5.99631E-003	0.00000E+000	4.99236E-003	3.59960E-001	-1.11692E+000	3.57680E+000	10	...........
	33	0.453333	8.38757E-001	5.99431E-003	0.00000E+000	5.02777E-003	3.59960E-001	-1.12300E+000	3.57680E+000	10	...........
	34	0.466667	8.45008E-001	5.99250E-003	0.00000E+000	5.06371E-003	3.59960E-001	-1.12479E+000	3.57680E+000	10	...........
	35	0.48	8.51194E-001	5.99476E-003	0.00000E+000	5.10270E-003	3.59960E-001	-1.11730E+000	3.57680E+000	10	...........
	36	0.493333	8.57355E-001	5.99634E-003	0.00000E+000	5.14099E-003	3.59960E-001	-1.12346E+000	3.57680E+000	10	...........
	37	0.506667	8.63481E-001	5.99332E-003	0.00000E+000	5.17512E-003	3.59960E-001	-1.12524E+000	3.57680E+000	10	...........
	38	0.52	8.69643E-001	5.99992E-003	0.00000E+000	5.21779E-003	3.59960E-001	-1.11733E+000	3.57680E+000	10	...........
	39	0.533333	8.75753E-001	5.99370E-003	0.00000E+000	5.24900E-003	3.59960E-001	-1.12336E+000	3.57680E+000	10	...........
	40	0.546667	8.81844E-001	5.99674E-003	0.00000E+000	5.28819E-003	3.59960E-001	-1.12557E+000	3.57680E+000	10	...........
	41	0.56	8.87948E-001	5.99331E-003	0.00000E+000	5.32175E-003	3.59960E-001	-1.11798E+000	3.57680E+000	10	...........
	42	0.573333	8.93964E-001	5.99176E-003	0.00000E+000	5.35641E-003	3.59960E-001	-1.12357E+000	3.57680E+000	10	...........
	43	0.586667	8.99978E-001	5.99093E-003	0.00000E+000	5.39171E-003	3.59960E-001	-1.12544E+000	3.57680E+000	10	...........
	44	0.6	9.05947E-001	5.99378E-003	0.00000E+000	5.43005E-003	3.59960E-001	-1.11810E+000	3.57680E+000	10	...........
	45	0.613333	9.11969E-001	5.99818E-003	0.00000E+000	5.47016E-003	3.59960E-001	-1.12380E+000	3.57680E+000	10	...........
	46	0.626667	9.17912E-001	5.99711E-003	0.00000E+000	5.50482E-003	3.59960E-001	-1.12589E+000	3.57680E+000	10	...........
	47	0.64	9.23912E-001	5.99191E-003	0.00000E+000	5.53600E-003	3.59960E-001	-1.11822E+000	3.57680E+000	10	...........
	48	0.653333	9.29861E-001	5.99423E-003	0.00000E+000	5.57380E-003	3.59960E-001	-1.12358E+000	3.57680E+000	10	...........
	49	0.666667	9.35715E-001	5.99226E-003	0.00000E+000	5.60705E-003	3.59960E-001	-1.12557E+000	3.57680E+000	10	...........
	50	0.68	9.41507E-001	5.99637E-003	0.00000E+000	5.64562E-003	3.59960E-001	-1.11799E+000	3.57680E+000	10	...........
	51	0.693333	9.47289E-001	5.99541E-003	0.00000E+000	5.67939E-003	3.59960E-001	-1.12356E+000	3.57680E+000	10	...........
	52	0.706667	9.53058E-001	5.99596E-003	0.00000E+000	5.71450E-003	3.59960E-001	-1.12566E+000	3.57680E+000	10	...........
	53	0.72	9.58811E-001	5.99513E-003	0.00000E+000	5.74819E-003	3.59960E-001	-1.11765E+000	3.57680E+000	10	...........
	54	0.733333	9.64477E-001	5.99445E-003	0.00000E+000	5.78151E-003	3.59960E-001	-1.12335E+000	3.57680E+000	10	...........
	55	0.746667	9.70077E-001	5.98614E-003	0.00000E+000	5.80701E-003	3.59960E-001	-1.12575E+000	3.57680E+000	10	...........
	56	0.76	9.75756E-001	5.99423E-003	0.00000E+000	5.84891E-003	3.59960E-001	-1.11807E+000	3.57680E+000	10	...........
	57	0.773333	9.81288E-001	5.99462E-003	0.00000E+000	5.88245E-003	3.59960E-001	-1.12311E+000	3.57680E+000	10	...........
	58	0.786667	9.86793E-001	5.99617E-003	0.00000E+000	5.91698E-003	3.59960E-001	-1.12562E+000	3.57680E+000	10	...........
	59	0.8	9.92291E-001	5.99445E-003	0.00000E+000	5.94824E-003	3.59960E-001	-1.11734E+000	3.57680E+000	10	...........
	60	0.813333	9.97721E-001	5.99887E-003	0.00000E+000	5.98520E-003	3.59960E-001	-1.12277E+000	3.57680E+000	10	...........
STARTTIMEOFFSET	QUANT	612.9514	Start Time Offset (s)