File: Data/CV_CRGO300517_1/PWRCCD_CRGO300517_1/CHARGE_DISCHARGE/CHARGE_#119.DTA
EXPLAIN
TAG	PWR800_CHARGE
TITLE	LABEL	PWR Cyclic Charge Discharge (Cell) - Charge Step	Test &Identifier
DATE	LABEL	22-6-2017	Date
TIME	LABEL	15:40:20	Time
NOTES	NOTES	3	&Notes...
	supercap test cell
	0.6mg
	6M KOH
PSTAT	PSTAT	IFC5000-01520	Potentiostat
CAPACITY	QUANT	1.00000E-003	Capacity (A-hr)
CELLTYPE	SELECTOR	1	&Cell Type
WORKINGCONNECTION	SELECTOR	0	&Working Lead
MAXCHARGETIME	VARIABLEANDUNITS	1.00000E+002	s	1.00000E+002	second(s)	Max &Charge Time
CHARGECURRENT	QUANT	6.00000E-003	&Charge Current (A)
VOLTAGEFINISH	TWOPARAM	F	1.00000E-003	3.60000E+003	&Voltage Finish	 I (A) < 	Max Time(s)
SAMPLETIME	QUANT	1.00000E-002	Sa&mple Period (s)
CHARGESTOPAT1	MULTIPARAM	4	1.00000E+000	Charge Stop At &1	Voltage > Limit	V
CHARGESTOPAT2	MULTIPARAM	0	0.00000E+000	Charge Stop At &2	None	N/A
AESBHCSELECTOR	TOGGLE	F	Save Both Half Cells
IRCOMP	TOGGLE	F	IR &Measure
EOC	QUANT	0	Open Circuit (V)
SEQUENCER	TOGGLE	TRUE	Run as Sequence
PSTATMODEL	IQUANT	53	Pstat Model
PSTATSECTION	LABEL	IFC5000-01520	Pstat Section
PSTATSERIALNO	LABEL	01520	Pstat Serial Number
CTRLMODE	IQUANT	0	Control Mode
ELECTROMETER	IQUANT	1	RE=0 or CS=1
IESTAB	IQUANT	0	I/E Stability
CASPEED	IQUANT	4	Control Amp Speed
CONVENTION	IQUANT	1	Current Convention
ICHRANGE	IQUANT	2	Ich Range
ICHRANGEMODE	TOGGLE	T	Ich Auto Range
ICHOFFSETENABLE	TOGGLE	F	Ich Offset Enable
ICHOFFSET	QUANT	0	Ich Offset (V)
ICHFILTER	IQUANT	1	Ich Filter
VCHRANGE	IQUANT	2	Vch Range
VCHRANGEMODE	TOGGLE	T	Vch Auto Range
VCHOFFSETENABLE	TOGGLE	F	Vch Offset Enable
VCHOFFSET	QUANT	0	Vch Offset (V)
VCHFILTER	IQUANT	1	Vch Filter
IERANGELOWERLIMIT	IQUANT	9	I/E Range Lower Limit
IERANGEMODE	TOGGLE	F	I/E AutoRange
IERANGE	IQUANT	10	I/E Range
ACHSELECT	IQUANT	1	Ach Select
ACHRANGE	IQUANT	2	Ach Range
ACHOFFSETENABLE	TOGGLE	F	Ach Offset Enable
ACHOFFSET	QUANT	0	Ach Offset (V)
ACHFILTER	IQUANT	1	Ach Filter
CABLEID	IQUANT	14	Cable ID
DCCALDATE	LABEL	20-10-2016	DC Calibration Date
ACCALDATE	LABEL	12/3/2015	AC Calibration Date
FRAMEWORKVERSION	QUANT	7.01	Framework Version
INSTRUMENTVERSION	LABEL	4.00	Instrument Version
CURVE	TABLE	69
	Pt	T	Vf	Im	Vu	Pwr	Sig	Ach	Temp	IERange	Over
	#	s	V	A	V	W	V	V	deg C	#	bits
	0	0.013333	5.92790E-001	5.99363E-003	0.00000E+000	3.55297E-003	3.59960E-001	-1.06953E+000	3.57730E+000	10	...........
	1	0.026667	6.01075E-001	5.99500E-003	0.00000E+000	3.60345E-003	3.59960E-001	-1.07838E+000	3.57730E+000	10	...........
	2	0.04	6.08702E-001	5.99537E-003	0.00000E+000	3.64939E-003	3.59960E-001	-1.06681E+000	3.57730E+000	10	...........
	3	0.053333	6.16003E-001	5.99591E-003	0.00000E+000	3.69350E-003	3.59960E-001	-1.06946E+000	3.57730E+000	10	...........
	4	0.066667	6.22957E-001	5.99378E-003	0.00000E+000	3.73387E-003	3.59960E-001	-1.07819E+000	3.57730E+000	10	...........
	5	0.08	6.29700E-001	5.99282E-003	0.00000E+000	3.77368E-003	3.59960E-001	-1.06670E+000	3.57730E+000	10	...........
	6	0.093333	6.36268E-001	5.99324E-003	0.00000E+000	3.81331E-003	3.59960E-001	-1.06932E+000	3.57730E+000	10	...........
	7	0.106667	6.42773E-001	5.99101E-003	0.00000E+000	3.85086E-003	3.59960E-001	-1.07838E+000	3.57730E+000	10	...........
	8	0.12	6.49187E-001	5.99184E-003	0.00000E+000	3.88982E-003	3.59960E-001	-1.06652E+000	3.57730E+000	10	...........
	9	0.133333	6.55554E-001	5.99344E-003	0.00000E+000	3.92902E-003	3.59960E-001	-1.06868E+000	3.57730E+000	10	...........
	10	0.146667	6.61816E-001	5.99362E-003	0.00000E+000	3.96668E-003	3.59960E-001	-1.07777E+000	3.57730E+000	10	...........
	11	0.16	6.68139E-001	5.99365E-003	0.00000E+000	4.00459E-003	3.59960E-001	-1.06633E+000	3.57730E+000	10	...........
	12	0.173333	6.74276E-001	5.99457E-003	0.00000E+000	4.04200E-003	3.59960E-001	-1.06868E+000	3.57730E+000	10	...........
	13	0.186667	6.80446E-001	5.99518E-003	0.00000E+000	4.07939E-003	3.59960E-001	-1.07797E+000	3.57730E+000	10	...........
	14	0.2	6.86537E-001	5.98938E-003	0.00000E+000	4.11193E-003	3.59960E-001	-1.06625E+000	3.57730E+000	10	...........
	15	0.213333	6.92715E-001	6.00067E-003	0.00000E+000	4.15675E-003	3.59960E-001	-1.06864E+000	3.57730E+000	10	...........
	16	0.226667	6.98763E-001	5.99247E-003	0.00000E+000	4.18731E-003	3.59960E-001	-1.07799E+000	3.57730E+000	10	...........
	17	0.24	7.04844E-001	5.99263E-003	0.00000E+000	4.22387E-003	3.59960E-001	-1.06653E+000	3.57730E+000	10	...........
	18	0.253333	7.10875E-001	5.99535E-003	0.00000E+000	4.26194E-003	3.59960E-001	-1.06847E+000	3.57730E+000	10	...........
	19	0.266667	7.16942E-001	5.99511E-003	0.00000E+000	4.29814E-003	3.59960E-001	-1.07790E+000	3.57730E+000	10	...........
	20	0.28	7.22953E-001	5.99380E-003	0.00000E+000	4.33324E-003	3.59960E-001	-1.06622E+000	3.57730E+000	10	...........
	21	0.293333	7.28944E-001	5.99634E-003	0.00000E+000	4.37099E-003	3.59960E-001	-1.06829E+000	3.57730E+000	10	...........
	22	0.306667	7.34949E-001	5.99904E-003	0.00000E+000	4.40898E-003	3.59960E-001	-1.07817E+000	3.57725E+000	10	...........
	23	0.32	7.40971E-001	5.99292E-003	0.00000E+000	4.44057E-003	3.59960E-001	-1.06638E+000	3.57720E+000	10	...........
	24	0.333333	7.46967E-001	5.99439E-003	0.00000E+000	4.47761E-003	3.59960E-001	-1.06816E+000	3.57720E+000	10	...........
	25	0.346667	7.52924E-001	5.99750E-003	0.00000E+000	4.51566E-003	3.59960E-001	-1.07838E+000	3.57720E+000	10	...........
	26	0.36	7.58895E-001	5.99044E-003	0.00000E+000	4.54612E-003	3.59960E-001	-1.06699E+000	3.57720E+000	10	...........
	27	0.373333	7.64840E-001	5.98959E-003	0.00000E+000	4.58107E-003	3.59960E-001	-1.06882E+000	3.57720E+000	10	...........
	28	0.386667	7.70807E-001	5.99915E-003	0.00000E+000	4.62419E-003	3.59960E-001	-1.07861E+000	3.57720E+000	10	...........
	29	0.4	7.76808E-001	5.99521E-003	0.00000E+000	4.65713E-003	3.59960E-001	-1.06717E+000	3.57720E+000	10	...........
	30	0.413333	7.82765E-001	5.99532E-003	0.00000E+000	4.69293E-003	3.59960E-001	-1.06862E+000	3.57720E+000	10	...........
	31	0.426667	7.88693E-001	5.99413E-003	0.00000E+000	4.72753E-003	3.59960E-001	-1.07902E+000	3.57720E+000	10	...........
	32	0.44	7.94648E-001	5.99736E-003	0.00000E+000	4.76579E-003	3.59960E-001	-1.06730E+000	3.57720E+000	10	...........
	33	0.453333	8.00563E-001	5.99133E-003	0.00000E+000	4.79644E-003	3.59960E-001	-1.06842E+000	3.57720E+000	10	...........
	34	0.466667	8.06454E-001	5.99528E-003	0.00000E+000	4.83492E-003	3.59960E-001	-1.07862E+000	3.57720E+000	10	...........
	35	0.48	8.12376E-001	5.99917E-003	0.00000E+000	4.87358E-003	3.59960E-001	-1.06702E+000	3.57720E+000	10	...........
	36	0.493333	8.18326E-001	5.99706E-003	0.00000E+000	4.90754E-003	3.59960E-001	-1.06858E+000	3.57720E+000	10	...........
	37	0.506667	8.24317E-001	5.99114E-003	0.00000E+000	4.93860E-003	3.59960E-001	-1.07884E+000	3.57720E+000	10	...........
	38	0.52	8.30220E-001	5.99464E-003	0.00000E+000	4.97687E-003	3.59960E-001	-1.06704E+000	3.57720E+000	10	...........
	39	0.533333	8.36137E-001	5.99451E-003	0.00000E+000	5.01223E-003	3.59960E-001	-1.06825E+000	3.57720E+000	10	...........
	40	0.546667	8.42011E-001	5.99349E-003	0.00000E+000	5.04658E-003	3.59960E-001	-1.07867E+000	3.57720E+000	10	...........
	41	0.56	8.47928E-001	5.99616E-003	0.00000E+000	5.08431E-003	3.59960E-001	-1.06714E+000	3.57720E+000	10	...........
	42	0.573333	8.53782E-001	5.99462E-003	0.00000E+000	5.11810E-003	3.59960E-001	-1.06839E+000	3.57720E+000	10	...........
	43	0.586667	8.59695E-001	5.99457E-003	0.00000E+000	5.15350E-003	3.59960E-001	-1.07863E+000	3.57720E+000	10	...........
	44	0.6	8.65572E-001	5.99176E-003	0.00000E+000	5.18630E-003	3.59960E-001	-1.06698E+000	3.57720E+000	10	...........
	45	0.613333	8.71469E-001	5.99601E-003	0.00000E+000	5.22534E-003	3.59960E-001	-1.06807E+000	3.57720E+000	10	...........
	46	0.626667	8.77344E-001	5.99960E-003	0.00000E+000	5.26371E-003	3.59960E-001	-1.07878E+000	3.57720E+000	10	...........
	47	0.64	8.83160E-001	5.99312E-003	0.00000E+000	5.29288E-003	3.59960E-001	-1.06715E+000	3.57720E+000	10	...........
	48	0.653333	8.89027E-001	5.99552E-003	0.00000E+000	5.33018E-003	3.59960E-001	-1.06806E+000	3.57720E+000	10	...........
	49	0.666667	8.94819E-001	5.99071E-003	0.00000E+000	5.36060E-003	3.59960E-001	-1.07877E+000	3.57720E+000	10	...........
	50	0.68	9.00616E-001	5.99492E-003	0.00000E+000	5.39912E-003	3.59960E-001	-1.06709E+000	3.57720E+000	10	...........
	51	0.693333	9.06382E-001	5.99298E-003	0.00000E+000	5.43193E-003	3.59960E-001	-1.06803E+000	3.57720E+000	10	...........
	52	0.706667	9.12126E-001	5.99901E-003	0.00000E+000	5.47185E-003	3.59960E-001	-1.07880E+000	3.57720E+000	10	...........
	53	0.72	9.17834E-001	5.99488E-003	0.00000E+000	5.50230E-003	3.59960E-001	-1.06720E+000	3.57720E+000	10	...........
	54	0.733333	9.23665E-001	5.99571E-003	0.00000E+000	5.53802E-003	3.59960E-001	-1.06780E+000	3.57720E+000	10	...........
	55	0.746667	9.29359E-001	5.99483E-003	0.00000E+000	5.57135E-003	3.59960E-001	-1.07872E+000	3.57720E+000	10	...........
	56	0.76	9.35034E-001	5.99526E-003	0.00000E+000	5.60577E-003	3.59960E-001	-1.06708E+000	3.57720E+000	10	...........
	57	0.773333	9.40687E-001	5.99472E-003	0.00000E+000	5.63916E-003	3.59960E-001	-1.06748E+000	3.57720E+000	10	...........
	58	0.786667	9.46359E-001	5.99292E-003	0.00000E+000	5.67145E-003	3.59960E-001	-1.07826E+000	3.57720E+000	10	...........
	59	0.8	9.51997E-001	5.99784E-003	0.00000E+000	5.70993E-003	3.59960E-001	-1.06664E+000	3.57720E+000	10	...........
	60	0.813333	9.57572E-001	5.99320E-003	0.00000E+000	5.73892E-003	3.59960E-001	-1.06721E+000	3.57720E+000	10	...........
	61	0.826667	9.63130E-001	5.99563E-003	0.00000E+000	5.77457E-003	3.59960E-001	-1.07851E+000	3.57720E+000	10	...........
	62	0.84	9.68620E-001	5.99519E-003	0.00000E+000	5.80706E-003	3.59960E-001	-1.06682E+000	3.57720E+000	10	...........
	63	0.853333	9.74182E-001	5.99110E-003	0.00000E+000	5.83642E-003	3.59960E-001	-1.06722E+000	3.57720E+000	10	...........
	64	0.866667	9.79621E-001	5.99258E-003	0.00000E+000	5.87046E-003	3.59960E-001	-1.07829E+000	3.57720E+000	10	...........
	65	0.88	9.85045E-001	5.99414E-003	0.00000E+000	5.90449E-003	3.59960E-001	-1.06655E+000	3.57720E+000	10	...........
	66	0.893333	9.90483E-001	5.99620E-003	0.00000E+000	5.93913E-003	3.59960E-001	-1.06710E+000	3.57720E+000	10	...........
	67	0.906667	9.95766E-001	5.99761E-003	0.00000E+000	5.97222E-003	3.59960E-001	-1.07829E+000	3.57720E+000	10	...........
	68	0.911667	9.99444E-001	5.99791E-003	0.00000E+000	5.99457E-003	3.59960E-001	-1.05504E+000	3.57720E+000	10	...........
STARTTIMEOFFSET	QUANT	229.98	Start Time Offset (s)