File: Data/CV_CRGO300517_1/PWRCCD_CRGO300517_1/CHARGE_DISCHARGE/CHARGE_#511.DTA
EXPLAIN
TAG	PWR800_CHARGE
TITLE	LABEL	PWR Cyclic Charge Discharge (Cell) - Charge Step	Test &Identifier
DATE	LABEL	22-6-2017	Date
TIME	LABEL	15:56:21	Time
NOTES	NOTES	3	&Notes...
	supercap test cell
	0.6mg
	6M KOH
PSTAT	PSTAT	IFC5000-01520	Potentiostat
CAPACITY	QUANT	1.00000E-003	Capacity (A-hr)
CELLTYPE	SELECTOR	1	&Cell Type
WORKINGCONNECTION	SELECTOR	0	&Working Lead
MAXCHARGETIME	VARIABLEANDUNITS	1.00000E+002	s	1.00000E+002	second(s)	Max &Charge Time
CHARGECURRENT	QUANT	6.00000E-003	&Charge Current (A)
VOLTAGEFINISH	TWOPARAM	F	1.00000E-003	3.60000E+003	&Voltage Finish	 I (A) < 	Max Time(s)
SAMPLETIME	QUANT	1.00000E-002	Sa&mple Period (s)
CHARGESTOPAT1	MULTIPARAM	4	1.00000E+000	Charge Stop At &1	Voltage > Limit	V
CHARGESTOPAT2	MULTIPARAM	0	0.00000E+000	Charge Stop At &2	None	N/A
AESBHCSELECTOR	TOGGLE	F	Save Both Half Cells
IRCOMP	TOGGLE	F	IR &Measure
EOC	QUANT	0	Open Circuit (V)
SEQUENCER	TOGGLE	TRUE	Run as Sequence
PSTATMODEL	IQUANT	53	Pstat Model
PSTATSECTION	LABEL	IFC5000-01520	Pstat Section
PSTATSERIALNO	LABEL	01520	Pstat Serial Number
CTRLMODE	IQUANT	0	Control Mode
ELECTROMETER	IQUANT	1	RE=0 or CS=1
IESTAB	IQUANT	0	I/E Stability
CASPEED	IQUANT	4	Control Amp Speed
CONVENTION	IQUANT	1	Current Convention
ICHRANGE	IQUANT	2	Ich Range
ICHRANGEMODE	TOGGLE	T	Ich Auto Range
ICHOFFSETENABLE	TOGGLE	F	Ich Offset Enable
ICHOFFSET	QUANT	0	Ich Offset (V)
ICHFILTER	IQUANT	1	Ich Filter
VCHRANGE	IQUANT	2	Vch Range
VCHRANGEMODE	TOGGLE	T	Vch Auto Range
VCHOFFSETENABLE	TOGGLE	F	Vch Offset Enable
VCHOFFSET	QUANT	0	Vch Offset (V)
VCHFILTER	IQUANT	1	Vch Filter
IERANGELOWERLIMIT	IQUANT	9	I/E Range Lower Limit
IERANGEMODE	TOGGLE	F	I/E AutoRange
IERANGE	IQUANT	10	I/E Range
ACHSELECT	IQUANT	1	Ach Select
ACHRANGE	IQUANT	2	Ach Range
ACHOFFSETENABLE	TOGGLE	F	Ach Offset Enable
ACHOFFSET	QUANT	0	Ach Offset (V)
ACHFILTER	IQUANT	1	Ach Filter
CABLEID	IQUANT	14	Cable ID
DCCALDATE	LABEL	20-10-2016	DC Calibration Date
ACCALDATE	LABEL	12/3/2015	AC Calibration Date
FRAMEWORKVERSION	QUANT	7.01	Framework Version
INSTRUMENTVERSION	LABEL	4.00	Instrument Version
CURVE	TABLE	58
	Pt	T	Vf	Im	Vu	Pwr	Sig	Ach	Temp	IERange	Over
	#	s	V	A	V	W	V	V	deg C	#	bits
	0	0.013333	6.32239E-001	5.99255E-003	0.00000E+000	3.78873E-003	3.59960E-001	-1.13885E+000	3.57650E+000	10	...........
	1	0.026667	6.41180E-001	5.99271E-003	0.00000E+000	3.84240E-003	3.59960E-001	-1.13040E+000	3.57650E+000	10	...........
	2	0.04	6.49377E-001	5.99425E-003	0.00000E+000	3.89253E-003	3.59960E-001	-1.12823E+000	3.57650E+000	10	...........
	3	0.053333	6.57106E-001	5.99615E-003	0.00000E+000	3.94011E-003	3.59960E-001	-1.13885E+000	3.57666E+000	10	...........
	4	0.066667	6.64627E-001	5.99185E-003	0.00000E+000	3.98235E-003	3.59960E-001	-1.13001E+000	3.57670E+000	10	...........
	5	0.08	6.71919E-001	5.99381E-003	0.00000E+000	4.02736E-003	3.59960E-001	-1.12771E+000	3.57670E+000	10	...........
	6	0.093333	6.79045E-001	5.99714E-003	0.00000E+000	4.07233E-003	3.59960E-001	-1.13828E+000	3.57670E+000	10	...........
	7	0.106667	6.86064E-001	5.99079E-003	0.00000E+000	4.11006E-003	3.59960E-001	-1.12986E+000	3.57670E+000	10	...........
	8	0.12	6.93047E-001	5.99471E-003	0.00000E+000	4.15461E-003	3.59960E-001	-1.12744E+000	3.57670E+000	10	...........
	9	0.133333	6.99888E-001	5.99640E-003	0.00000E+000	4.19681E-003	3.59960E-001	-1.13821E+000	3.57670E+000	10	...........
	10	0.146667	7.06719E-001	5.99516E-003	0.00000E+000	4.23689E-003	3.59960E-001	-1.12956E+000	3.57670E+000	10	...........
	11	0.16	7.13498E-001	5.99373E-003	0.00000E+000	4.27651E-003	3.59960E-001	-1.12704E+000	3.57670E+000	10	...........
	12	0.173333	7.20239E-001	5.99130E-003	0.00000E+000	4.31517E-003	3.59960E-001	-1.13806E+000	3.57670E+000	10	...........
	13	0.186667	7.26911E-001	5.99527E-003	0.00000E+000	4.35803E-003	3.59960E-001	-1.12922E+000	3.57670E+000	10	...........
	14	0.2	7.33549E-001	5.99633E-003	0.00000E+000	4.39860E-003	3.59960E-001	-1.12703E+000	3.57670E+000	10	...........
	15	0.213333	7.40149E-001	5.99992E-003	0.00000E+000	4.44084E-003	3.59960E-001	-1.13788E+000	3.57670E+000	10	...........
	16	0.226667	7.46749E-001	5.99482E-003	0.00000E+000	4.47663E-003	3.59960E-001	-1.12899E+000	3.57670E+000	10	...........
	17	0.24	7.53318E-001	5.98970E-003	0.00000E+000	4.51215E-003	3.59960E-001	-1.12702E+000	3.57670E+000	10	...........
	18	0.253333	7.59910E-001	5.99454E-003	0.00000E+000	4.55531E-003	3.59960E-001	-1.13768E+000	3.57670E+000	10	...........
	19	0.266667	7.66465E-001	5.99416E-003	0.00000E+000	4.59431E-003	3.59960E-001	-1.12834E+000	3.57670E+000	10	...........
	20	0.28	7.72970E-001	5.99079E-003	0.00000E+000	4.63070E-003	3.59960E-001	-1.12637E+000	3.57670E+000	10	...........
	21	0.293333	7.79466E-001	5.99558E-003	0.00000E+000	4.67335E-003	3.59960E-001	-1.13729E+000	3.57670E+000	10	...........
	22	0.306667	7.85969E-001	5.99765E-003	0.00000E+000	4.71396E-003	3.59960E-001	-1.12835E+000	3.57670E+000	10	...........
	23	0.32	7.92465E-001	5.99336E-003	0.00000E+000	4.74953E-003	3.59960E-001	-1.12660E+000	3.57670E+000	10	...........
	24	0.333333	7.98905E-001	5.99416E-003	0.00000E+000	4.78876E-003	3.59960E-001	-1.13702E+000	3.57670E+000	10	...........
	25	0.346667	8.05311E-001	5.99628E-003	0.00000E+000	4.82887E-003	3.59960E-001	-1.12781E+000	3.57670E+000	10	...........
	26	0.36	8.11758E-001	5.99592E-003	0.00000E+000	4.86724E-003	3.59960E-001	-1.12624E+000	3.57670E+000	10	...........
	27	0.373333	8.18202E-001	5.99262E-003	0.00000E+000	4.90317E-003	3.59960E-001	-1.13727E+000	3.57670E+000	10	...........
	28	0.386667	8.24562E-001	5.99493E-003	0.00000E+000	4.94319E-003	3.59960E-001	-1.12800E+000	3.57670E+000	10	...........
	29	0.4	8.30966E-001	5.99232E-003	0.00000E+000	4.97942E-003	3.59960E-001	-1.12620E+000	3.57670E+000	10	...........
	30	0.413333	8.37314E-001	5.99647E-003	0.00000E+000	5.02093E-003	3.59960E-001	-1.13691E+000	3.57670E+000	10	...........
	31	0.426667	8.43650E-001	5.99456E-003	0.00000E+000	5.05731E-003	3.59960E-001	-1.12754E+000	3.57670E+000	10	...........
	32	0.44	8.49967E-001	5.99383E-003	0.00000E+000	5.09456E-003	3.59960E-001	-1.12600E+000	3.57670E+000	10	...........
	33	0.453333	8.56271E-001	5.99589E-003	0.00000E+000	5.13410E-003	3.59960E-001	-1.13674E+000	3.57670E+000	10	...........
	34	0.466667	8.62532E-001	5.99333E-003	0.00000E+000	5.16944E-003	3.59960E-001	-1.12709E+000	3.57670E+000	10	...........
	35	0.48	8.68815E-001	5.99337E-003	0.00000E+000	5.20714E-003	3.59960E-001	-1.12519E+000	3.57670E+000	10	...........
	36	0.493333	8.75057E-001	5.99967E-003	0.00000E+000	5.25005E-003	3.59960E-001	-1.13598E+000	3.57670E+000	10	...........
	37	0.506667	8.81271E-001	5.99396E-003	0.00000E+000	5.28230E-003	3.59960E-001	-1.12674E+000	3.57670E+000	10	...........
	38	0.52	8.87481E-001	5.99877E-003	0.00000E+000	5.32379E-003	3.59960E-001	-1.12523E+000	3.57670E+000	10	...........
	39	0.533333	8.93598E-001	5.99349E-003	0.00000E+000	5.35577E-003	3.59960E-001	-1.13530E+000	3.57670E+000	10	...........
	40	0.546667	8.99752E-001	5.99480E-003	0.00000E+000	5.39384E-003	3.59960E-001	-1.12565E+000	3.57670E+000	10	...........
	41	0.56	9.05833E-001	5.99422E-003	0.00000E+000	5.42976E-003	3.59960E-001	-1.12432E+000	3.57670E+000	10	...........
	42	0.573333	9.11921E-001	5.99273E-003	0.00000E+000	5.46490E-003	3.59960E-001	-1.13492E+000	3.57670E+000	10	...........
	43	0.586667	9.17986E-001	5.98861E-003	0.00000E+000	5.49746E-003	3.59960E-001	-1.12444E+000	3.57670E+000	10	...........
	44	0.6	9.24030E-001	5.99013E-003	0.00000E+000	5.53506E-003	3.59960E-001	-1.12289E+000	3.57670E+000	10	...........
	45	0.613333	9.30024E-001	5.99204E-003	0.00000E+000	5.57274E-003	3.59960E-001	-1.13337E+000	3.57670E+000	10	...........
	46	0.626667	9.35993E-001	5.99562E-003	0.00000E+000	5.61185E-003	3.59960E-001	-1.12327E+000	3.57670E+000	10	...........
	47	0.64	9.41809E-001	5.99616E-003	0.00000E+000	5.64724E-003	3.59960E-001	-1.12254E+000	3.57670E+000	10	...........
	48	0.653333	9.47696E-001	5.99115E-003	0.00000E+000	5.67779E-003	3.59960E-001	-1.13287E+000	3.57670E+000	10	...........
	49	0.666667	9.53523E-001	5.98998E-003	0.00000E+000	5.71159E-003	3.59960E-001	-1.12257E+000	3.57670E+000	10	...........
	50	0.68	9.59333E-001	5.99590E-003	0.00000E+000	5.75206E-003	3.59960E-001	-1.12142E+000	3.57670E+000	10	...........
	51	0.693333	9.65110E-001	5.99580E-003	0.00000E+000	5.78661E-003	3.59960E-001	-1.13217E+000	3.57670E+000	10	...........
	52	0.706667	9.70793E-001	5.99059E-003	0.00000E+000	5.81562E-003	3.59960E-001	-1.12228E+000	3.57670E+000	10	...........
	53	0.72	9.76517E-001	5.99555E-003	0.00000E+000	5.85476E-003	3.59960E-001	-1.12085E+000	3.57670E+000	10	...........
	54	0.733333	9.82126E-001	5.99284E-003	0.00000E+000	5.88573E-003	3.59960E-001	-1.13079E+000	3.57670E+000	10	...........
	55	0.746667	9.87679E-001	5.98940E-003	0.00000E+000	5.91561E-003	3.59960E-001	-1.12051E+000	3.57670E+000	10	...........
	56	0.76	9.93210E-001	5.99525E-003	0.00000E+000	5.95455E-003	3.59960E-001	-1.11995E+000	3.57670E+000	10	...........
	57	0.771667	9.98392E-001	6.00028E-003	0.00000E+000	5.99063E-003	3.59960E-001	-1.13128E+000	3.57670E+000	10	...........
STARTTIMEOFFSET	QUANT	875.9386	Start Time Offset (s)