File: Data/CV_CRGO300517_1/PWRCCD_CRGO300517_1/CHARGE_DISCHARGE/CHARGE_#529.DTA
EXPLAIN
TAG	PWR800_CHARGE
TITLE	LABEL	PWR Cyclic Charge Discharge (Cell) - Charge Step	Test &Identifier
DATE	LABEL	22-6-2017	Date
TIME	LABEL	15:57:02	Time
NOTES	NOTES	3	&Notes...
	supercap test cell
	0.6mg
	6M KOH
PSTAT	PSTAT	IFC5000-01520	Potentiostat
CAPACITY	QUANT	1.00000E-003	Capacity (A-hr)
CELLTYPE	SELECTOR	1	&Cell Type
WORKINGCONNECTION	SELECTOR	0	&Working Lead
MAXCHARGETIME	VARIABLEANDUNITS	1.00000E+002	s	1.00000E+002	second(s)	Max &Charge Time
CHARGECURRENT	QUANT	6.00000E-003	&Charge Current (A)
VOLTAGEFINISH	TWOPARAM	F	1.00000E-003	3.60000E+003	&Voltage Finish	 I (A) < 	Max Time(s)
SAMPLETIME	QUANT	1.00000E-002	Sa&mple Period (s)
CHARGESTOPAT1	MULTIPARAM	4	1.00000E+000	Charge Stop At &1	Voltage > Limit	V
CHARGESTOPAT2	MULTIPARAM	0	0.00000E+000	Charge Stop At &2	None	N/A
AESBHCSELECTOR	TOGGLE	F	Save Both Half Cells
IRCOMP	TOGGLE	F	IR &Measure
EOC	QUANT	0	Open Circuit (V)
SEQUENCER	TOGGLE	TRUE	Run as Sequence
PSTATMODEL	IQUANT	53	Pstat Model
PSTATSECTION	LABEL	IFC5000-01520	Pstat Section
PSTATSERIALNO	LABEL	01520	Pstat Serial Number
CTRLMODE	IQUANT	0	Control Mode
ELECTROMETER	IQUANT	1	RE=0 or CS=1
IESTAB	IQUANT	0	I/E Stability
CASPEED	IQUANT	4	Control Amp Speed
CONVENTION	IQUANT	1	Current Convention
ICHRANGE	IQUANT	2	Ich Range
ICHRANGEMODE	TOGGLE	T	Ich Auto Range
ICHOFFSETENABLE	TOGGLE	F	Ich Offset Enable
ICHOFFSET	QUANT	0	Ich Offset (V)
ICHFILTER	IQUANT	1	Ich Filter
VCHRANGE	IQUANT	2	Vch Range
VCHRANGEMODE	TOGGLE	T	Vch Auto Range
VCHOFFSETENABLE	TOGGLE	F	Vch Offset Enable
VCHOFFSET	QUANT	0	Vch Offset (V)
VCHFILTER	IQUANT	1	Vch Filter
IERANGELOWERLIMIT	IQUANT	9	I/E Range Lower Limit
IERANGEMODE	TOGGLE	F	I/E AutoRange
IERANGE	IQUANT	10	I/E Range
ACHSELECT	IQUANT	1	Ach Select
ACHRANGE	IQUANT	2	Ach Range
ACHOFFSETENABLE	TOGGLE	F	Ach Offset Enable
ACHOFFSET	QUANT	0	Ach Offset (V)
ACHFILTER	IQUANT	1	Ach Filter
CABLEID	IQUANT	14	Cable ID
DCCALDATE	LABEL	20-10-2016	DC Calibration Date
ACCALDATE	LABEL	12/3/2015	AC Calibration Date
FRAMEWORKVERSION	QUANT	7.01	Framework Version
INSTRUMENTVERSION	LABEL	4.00	Instrument Version
CURVE	TABLE	58
	Pt	T	Vf	Im	Vu	Pwr	Sig	Ach	Temp	IERange	Over
	#	s	V	A	V	W	V	V	deg C	#	bits
	0	0.013333	6.33782E-001	5.99593E-003	0.00000E+000	3.80011E-003	3.59960E-001	-1.13645E+000	3.57640E+000	10	...........
	1	0.026667	6.42763E-001	5.99086E-003	0.00000E+000	3.85070E-003	3.59960E-001	-1.14785E+000	3.57640E+000	10	...........
	2	0.04	6.50949E-001	5.99455E-003	0.00000E+000	3.90215E-003	3.59960E-001	-1.13870E+000	3.57640E+000	10	...........
	3	0.053333	6.58707E-001	5.99759E-003	0.00000E+000	3.95065E-003	3.59960E-001	-1.13635E+000	3.57640E+000	10	...........
	4	0.066667	6.66196E-001	5.98841E-003	0.00000E+000	3.98945E-003	3.59960E-001	-1.14758E+000	3.57640E+000	10	...........
	5	0.08	6.73498E-001	5.99691E-003	0.00000E+000	4.03891E-003	3.59960E-001	-1.13867E+000	3.57640E+000	10	...........
	6	0.093333	6.80648E-001	5.99365E-003	0.00000E+000	4.07957E-003	3.59960E-001	-1.13641E+000	3.57640E+000	10	...........
	7	0.106667	6.87677E-001	5.99471E-003	0.00000E+000	4.12243E-003	3.59960E-001	-1.14756E+000	3.57640E+000	10	...........
	8	0.12	6.94677E-001	5.99351E-003	0.00000E+000	4.16356E-003	3.59960E-001	-1.13867E+000	3.57640E+000	10	...........
	9	0.133333	7.01512E-001	5.99333E-003	0.00000E+000	4.20440E-003	3.59960E-001	-1.13600E+000	3.57640E+000	10	...........
	10	0.146667	7.08312E-001	5.98837E-003	0.00000E+000	4.24164E-003	3.59960E-001	-1.14721E+000	3.57640E+000	10	...........
	11	0.16	7.15076E-001	5.99717E-003	0.00000E+000	4.28843E-003	3.59960E-001	-1.13847E+000	3.57640E+000	10	...........
	12	0.173333	7.21827E-001	5.99480E-003	0.00000E+000	4.32721E-003	3.59960E-001	-1.13588E+000	3.57640E+000	10	...........
	13	0.186667	7.28496E-001	5.99402E-003	0.00000E+000	4.36662E-003	3.59960E-001	-1.14696E+000	3.57640E+000	10	...........
	14	0.2	7.35169E-001	5.99226E-003	0.00000E+000	4.40532E-003	3.59960E-001	-1.13845E+000	3.57640E+000	10	...........
	15	0.213333	7.41807E-001	5.99548E-003	0.00000E+000	4.44749E-003	3.59960E-001	-1.13589E+000	3.57640E+000	10	...........
	16	0.226667	7.48401E-001	5.99200E-003	0.00000E+000	4.48442E-003	3.59960E-001	-1.14704E+000	3.57640E+000	10	...........
	17	0.24	7.55010E-001	5.99100E-003	0.00000E+000	4.52326E-003	3.59960E-001	-1.13863E+000	3.57640E+000	10	...........
	18	0.253333	7.61571E-001	5.99449E-003	0.00000E+000	4.56523E-003	3.59960E-001	-1.13556E+000	3.57640E+000	10	...........
	19	0.266667	7.68112E-001	5.99865E-003	0.00000E+000	4.60764E-003	3.59960E-001	-1.14672E+000	3.57640E+000	10	...........
	20	0.28	7.74646E-001	5.99157E-003	0.00000E+000	4.64134E-003	3.59960E-001	-1.13855E+000	3.57640E+000	10	...........
	21	0.293333	7.81203E-001	5.99382E-003	0.00000E+000	4.68239E-003	3.59960E-001	-1.13549E+000	3.57640E+000	10	...........
	22	0.306667	7.87669E-001	5.99175E-003	0.00000E+000	4.71951E-003	3.59960E-001	-1.14658E+000	3.57640E+000	10	...........
	23	0.32	7.94155E-001	5.99244E-003	0.00000E+000	4.75892E-003	3.59960E-001	-1.13857E+000	3.57640E+000	10	...........
	24	0.333333	8.00600E-001	5.99300E-003	0.00000E+000	4.79800E-003	3.59960E-001	-1.13541E+000	3.57640E+000	10	...........
	25	0.346667	8.07009E-001	5.99192E-003	0.00000E+000	4.83554E-003	3.59960E-001	-1.14650E+000	3.57655E+000	10	...........
	26	0.36	8.13389E-001	5.98745E-003	0.00000E+000	4.87012E-003	3.59960E-001	-1.13887E+000	3.57660E+000	10	...........
	27	0.373333	8.19841E-001	5.99473E-003	0.00000E+000	4.91473E-003	3.59960E-001	-1.13557E+000	3.57660E+000	10	...........
	28	0.386667	8.26213E-001	5.99520E-003	0.00000E+000	4.95331E-003	3.59960E-001	-1.14646E+000	3.57660E+000	10	...........
	29	0.4	8.32631E-001	5.99300E-003	0.00000E+000	4.98996E-003	3.59960E-001	-1.13883E+000	3.57660E+000	10	...........
	30	0.413333	8.38938E-001	5.99633E-003	0.00000E+000	5.03055E-003	3.59960E-001	-1.13551E+000	3.57660E+000	10	...........
	31	0.426667	8.45291E-001	5.99811E-003	0.00000E+000	5.07015E-003	3.59960E-001	-1.14638E+000	3.57660E+000	10	...........
	32	0.44	8.51618E-001	5.99405E-003	0.00000E+000	5.10464E-003	3.59960E-001	-1.13877E+000	3.57660E+000	10	...........
	33	0.453333	8.57904E-001	5.99804E-003	0.00000E+000	5.14574E-003	3.59960E-001	-1.13486E+000	3.57660E+000	10	...........
	34	0.466667	8.64190E-001	5.99633E-003	0.00000E+000	5.18197E-003	3.59960E-001	-1.14584E+000	3.57660E+000	10	...........
	35	0.48	8.70490E-001	5.99759E-003	0.00000E+000	5.22084E-003	3.59960E-001	-1.13851E+000	3.57660E+000	10	...........
	36	0.493333	8.76748E-001	5.98980E-003	0.00000E+000	5.25154E-003	3.59960E-001	-1.13504E+000	3.57660E+000	10	...........
	37	0.506667	8.82979E-001	5.99227E-003	0.00000E+000	5.29105E-003	3.59960E-001	-1.14578E+000	3.57660E+000	10	...........
	38	0.52	8.89144E-001	5.99313E-003	0.00000E+000	5.32876E-003	3.59960E-001	-1.13856E+000	3.57660E+000	10	...........
	39	0.533333	8.95335E-001	5.99729E-003	0.00000E+000	5.36958E-003	3.59960E-001	-1.13488E+000	3.57660E+000	10	...........
	40	0.546667	9.01441E-001	5.99284E-003	0.00000E+000	5.40220E-003	3.59960E-001	-1.14555E+000	3.57660E+000	10	...........
	41	0.56	9.07561E-001	5.99753E-003	0.00000E+000	5.44312E-003	3.59960E-001	-1.13882E+000	3.57660E+000	10	...........
	42	0.573333	9.13642E-001	5.99335E-003	0.00000E+000	5.47578E-003	3.59960E-001	-1.13477E+000	3.57660E+000	10	...........
	43	0.586667	9.19656E-001	5.99563E-003	0.00000E+000	5.51391E-003	3.59960E-001	-1.14541E+000	3.57660E+000	10	...........
	44	0.6	9.25721E-001	5.99236E-003	0.00000E+000	5.54726E-003	3.59960E-001	-1.13869E+000	3.57660E+000	10	...........
	45	0.613333	9.31680E-001	5.99400E-003	0.00000E+000	5.58449E-003	3.59960E-001	-1.13486E+000	3.57660E+000	10	...........
	46	0.626667	9.37638E-001	5.99410E-003	0.00000E+000	5.62030E-003	3.59960E-001	-1.14551E+000	3.57660E+000	10	...........
	47	0.64	9.43489E-001	5.99594E-003	0.00000E+000	5.65711E-003	3.59960E-001	-1.13877E+000	3.57660E+000	10	...........
	48	0.653333	9.49388E-001	5.99468E-003	0.00000E+000	5.69127E-003	3.59960E-001	-1.13456E+000	3.57660E+000	10	...........
	49	0.666667	9.55225E-001	5.99536E-003	0.00000E+000	5.72691E-003	3.59960E-001	-1.14558E+000	3.57660E+000	10	...........
	50	0.68	9.60995E-001	5.99502E-003	0.00000E+000	5.76118E-003	3.59960E-001	-1.13920E+000	3.57660E+000	10	...........
	51	0.693333	9.66747E-001	5.99272E-003	0.00000E+000	5.79344E-003	3.59960E-001	-1.13518E+000	3.57660E+000	10	...........
	52	0.706667	9.72478E-001	5.99633E-003	0.00000E+000	5.83129E-003	3.59960E-001	-1.14553E+000	3.57660E+000	10	...........
	53	0.72	9.78165E-001	5.99552E-003	0.00000E+000	5.86461E-003	3.59960E-001	-1.13925E+000	3.57660E+000	10	...........
	54	0.733333	9.83700E-001	5.99420E-003	0.00000E+000	5.89650E-003	3.59960E-001	-1.13503E+000	3.57660E+000	10	...........
	55	0.746667	9.89300E-001	5.99294E-003	0.00000E+000	5.92881E-003	3.59960E-001	-1.14548E+000	3.57660E+000	10	...........
	56	0.76	9.94788E-001	5.99362E-003	0.00000E+000	5.96239E-003	3.59960E-001	-1.13937E+000	3.57660E+000	10	...........
	57	0.768333	9.99252E-001	5.99514E-003	0.00000E+000	5.99066E-003	3.59960E-001	-1.13712E+000	3.57660E+000	10	...........
STARTTIMEOFFSET	QUANT	903.5134	Start Time Offset (s)