File: Data/CV_CRGO300517_1/PWRCCD_CRGO300517_1/CHARGE_DISCHARGE/CHARGE_#512.DTA
EXPLAIN
TAG	PWR800_CHARGE
TITLE	LABEL	PWR Cyclic Charge Discharge (Cell) - Charge Step	Test &Identifier
DATE	LABEL	22-6-2017	Date
TIME	LABEL	15:56:23	Time
NOTES	NOTES	3	&Notes...
	supercap test cell
	0.6mg
	6M KOH
PSTAT	PSTAT	IFC5000-01520	Potentiostat
CAPACITY	QUANT	1.00000E-003	Capacity (A-hr)
CELLTYPE	SELECTOR	1	&Cell Type
WORKINGCONNECTION	SELECTOR	0	&Working Lead
MAXCHARGETIME	VARIABLEANDUNITS	1.00000E+002	s	1.00000E+002	second(s)	Max &Charge Time
CHARGECURRENT	QUANT	6.00000E-003	&Charge Current (A)
VOLTAGEFINISH	TWOPARAM	F	1.00000E-003	3.60000E+003	&Voltage Finish	 I (A) < 	Max Time(s)
SAMPLETIME	QUANT	1.00000E-002	Sa&mple Period (s)
CHARGESTOPAT1	MULTIPARAM	4	1.00000E+000	Charge Stop At &1	Voltage > Limit	V
CHARGESTOPAT2	MULTIPARAM	0	0.00000E+000	Charge Stop At &2	None	N/A
AESBHCSELECTOR	TOGGLE	F	Save Both Half Cells
IRCOMP	TOGGLE	F	IR &Measure
EOC	QUANT	0	Open Circuit (V)
SEQUENCER	TOGGLE	TRUE	Run as Sequence
PSTATMODEL	IQUANT	53	Pstat Model
PSTATSECTION	LABEL	IFC5000-01520	Pstat Section
PSTATSERIALNO	LABEL	01520	Pstat Serial Number
CTRLMODE	IQUANT	0	Control Mode
ELECTROMETER	IQUANT	1	RE=0 or CS=1
IESTAB	IQUANT	0	I/E Stability
CASPEED	IQUANT	4	Control Amp Speed
CONVENTION	IQUANT	1	Current Convention
ICHRANGE	IQUANT	2	Ich Range
ICHRANGEMODE	TOGGLE	T	Ich Auto Range
ICHOFFSETENABLE	TOGGLE	F	Ich Offset Enable
ICHOFFSET	QUANT	0	Ich Offset (V)
ICHFILTER	IQUANT	1	Ich Filter
VCHRANGE	IQUANT	2	Vch Range
VCHRANGEMODE	TOGGLE	T	Vch Auto Range
VCHOFFSETENABLE	TOGGLE	F	Vch Offset Enable
VCHOFFSET	QUANT	0	Vch Offset (V)
VCHFILTER	IQUANT	1	Vch Filter
IERANGELOWERLIMIT	IQUANT	9	I/E Range Lower Limit
IERANGEMODE	TOGGLE	F	I/E AutoRange
IERANGE	IQUANT	10	I/E Range
ACHSELECT	IQUANT	1	Ach Select
ACHRANGE	IQUANT	2	Ach Range
ACHOFFSETENABLE	TOGGLE	F	Ach Offset Enable
ACHOFFSET	QUANT	0	Ach Offset (V)
ACHFILTER	IQUANT	1	Ach Filter
CABLEID	IQUANT	14	Cable ID
DCCALDATE	LABEL	20-10-2016	DC Calibration Date
ACCALDATE	LABEL	12/3/2015	AC Calibration Date
FRAMEWORKVERSION	QUANT	7.01	Framework Version
INSTRUMENTVERSION	LABEL	4.00	Instrument Version
CURVE	TABLE	58
	Pt	T	Vf	Im	Vu	Pwr	Sig	Ach	Temp	IERange	Over
	#	s	V	A	V	W	V	V	deg C	#	bits
	0	0.013333	6.32668E-001	5.99031E-003	0.00000E+000	3.78988E-003	3.59960E-001	-1.11401E+000	3.57790E+000	10	...........
	1	0.026667	6.41600E-001	5.98819E-003	0.00000E+000	3.84202E-003	3.59960E-001	-1.10533E+000	3.57790E+000	10	...........
	2	0.04	6.49811E-001	5.99369E-003	0.00000E+000	3.89476E-003	3.59960E-001	-1.11028E+000	3.57790E+000	10	...........
	3	0.053333	6.57526E-001	5.99416E-003	0.00000E+000	3.94131E-003	3.59960E-001	-1.11437E+000	3.57790E+000	10	...........
	4	0.066667	6.65028E-001	5.99377E-003	0.00000E+000	3.98602E-003	3.59960E-001	-1.10597E+000	3.57790E+000	10	...........
	5	0.08	6.72285E-001	5.99752E-003	0.00000E+000	4.03204E-003	3.59960E-001	-1.11058E+000	3.57790E+000	10	...........
	6	0.093333	6.79457E-001	5.99604E-003	0.00000E+000	4.07405E-003	3.59960E-001	-1.11412E+000	3.57790E+000	10	...........
	7	0.106667	6.86463E-001	5.99639E-003	0.00000E+000	4.11630E-003	3.59960E-001	-1.10577E+000	3.57790E+000	10	...........
	8	0.12	6.93413E-001	5.99595E-003	0.00000E+000	4.15767E-003	3.59960E-001	-1.11099E+000	3.57790E+000	10	...........
	9	0.133333	7.00248E-001	5.99746E-003	0.00000E+000	4.19971E-003	3.59960E-001	-1.11463E+000	3.57790E+000	10	...........
	10	0.146667	7.07059E-001	5.99376E-003	0.00000E+000	4.23794E-003	3.59960E-001	-1.10644E+000	3.57790E+000	10	...........
	11	0.16	7.13833E-001	5.99333E-003	0.00000E+000	4.27824E-003	3.59960E-001	-1.11162E+000	3.57790E+000	10	...........
	12	0.173333	7.20629E-001	5.99504E-003	0.00000E+000	4.32020E-003	3.59960E-001	-1.11509E+000	3.57790E+000	10	...........
	13	0.186667	7.27254E-001	5.99256E-003	0.00000E+000	4.35812E-003	3.59960E-001	-1.10687E+000	3.57790E+000	10	...........
	14	0.2	7.33927E-001	5.99529E-003	0.00000E+000	4.40011E-003	3.59960E-001	-1.11239E+000	3.57790E+000	10	...........
	15	0.213333	7.40538E-001	5.99564E-003	0.00000E+000	4.44000E-003	3.59960E-001	-1.11566E+000	3.57790E+000	10	...........
	16	0.226667	7.47150E-001	5.99449E-003	0.00000E+000	4.47879E-003	3.59960E-001	-1.10756E+000	3.57790E+000	10	...........
	17	0.24	7.53674E-001	5.99305E-003	0.00000E+000	4.51681E-003	3.59960E-001	-1.11291E+000	3.57790E+000	10	...........
	18	0.253333	7.60255E-001	5.99290E-003	0.00000E+000	4.55614E-003	3.59960E-001	-1.11617E+000	3.57790E+000	10	...........
	19	0.266667	7.66813E-001	5.99358E-003	0.00000E+000	4.59596E-003	3.59960E-001	-1.10787E+000	3.57790E+000	10	...........
	20	0.28	7.73319E-001	5.99465E-003	0.00000E+000	4.63577E-003	3.59960E-001	-1.11340E+000	3.57790E+000	10	...........
	21	0.293333	7.79811E-001	5.99391E-003	0.00000E+000	4.67412E-003	3.59960E-001	-1.11613E+000	3.57790E+000	10	...........
	22	0.306667	7.86307E-001	5.99352E-003	0.00000E+000	4.71275E-003	3.59960E-001	-1.10793E+000	3.57790E+000	10	...........
	23	0.32	7.92785E-001	5.99241E-003	0.00000E+000	4.75070E-003	3.59960E-001	-1.11373E+000	3.57790E+000	10	...........
	24	0.333333	7.99245E-001	5.99074E-003	0.00000E+000	4.78806E-003	3.59960E-001	-1.11682E+000	3.57790E+000	10	...........
	25	0.346667	8.05673E-001	5.99607E-003	0.00000E+000	4.83087E-003	3.59960E-001	-1.10884E+000	3.57790E+000	10	...........
	26	0.36	8.12055E-001	5.99349E-003	0.00000E+000	4.86704E-003	3.59960E-001	-1.11442E+000	3.57790E+000	10	...........
	27	0.373333	8.18467E-001	5.99165E-003	0.00000E+000	4.90397E-003	3.59960E-001	-1.11702E+000	3.57790E+000	10	...........
	28	0.386667	8.24885E-001	5.99412E-003	0.00000E+000	4.94446E-003	3.59960E-001	-1.10926E+000	3.57790E+000	10	...........
	29	0.4	8.31199E-001	5.99433E-003	0.00000E+000	4.98248E-003	3.59960E-001	-1.11505E+000	3.57790E+000	10	...........
	30	0.413333	8.37553E-001	5.99156E-003	0.00000E+000	5.01825E-003	3.59960E-001	-1.11692E+000	3.57790E+000	10	...........
	31	0.426667	8.43895E-001	5.99456E-003	0.00000E+000	5.05878E-003	3.59960E-001	-1.10908E+000	3.57790E+000	10	...........
	32	0.44	8.50209E-001	5.98965E-003	0.00000E+000	5.09245E-003	3.59960E-001	-1.11503E+000	3.57790E+000	10	...........
	33	0.453333	8.56528E-001	5.99230E-003	0.00000E+000	5.13258E-003	3.59960E-001	-1.11734E+000	3.57790E+000	10	...........
	34	0.466667	8.62803E-001	5.99280E-003	0.00000E+000	5.17061E-003	3.59960E-001	-1.10973E+000	3.57790E+000	10	...........
	35	0.48	8.69058E-001	5.99525E-003	0.00000E+000	5.21022E-003	3.59960E-001	-1.11532E+000	3.57790E+000	10	...........
	36	0.493333	8.75304E-001	5.99279E-003	0.00000E+000	5.24551E-003	3.59960E-001	-1.11725E+000	3.57790E+000	10	...........
	37	0.506667	8.81529E-001	5.99862E-003	0.00000E+000	5.28796E-003	3.59960E-001	-1.10962E+000	3.57790E+000	10	...........
	38	0.52	8.87722E-001	5.99560E-003	0.00000E+000	5.32242E-003	3.59960E-001	-1.11578E+000	3.57790E+000	10	...........
	39	0.533333	8.93862E-001	5.99707E-003	0.00000E+000	5.36055E-003	3.59960E-001	-1.11784E+000	3.57790E+000	10	...........
	40	0.546667	9.00023E-001	5.99105E-003	0.00000E+000	5.39208E-003	3.59960E-001	-1.11003E+000	3.57790E+000	10	...........
	41	0.56	9.06122E-001	5.99172E-003	0.00000E+000	5.42922E-003	3.59960E-001	-1.11608E+000	3.57790E+000	10	...........
	42	0.573333	9.12214E-001	5.99463E-003	0.00000E+000	5.46838E-003	3.59960E-001	-1.11783E+000	3.57790E+000	10	...........
	43	0.586667	9.18270E-001	5.99282E-003	0.00000E+000	5.50303E-003	3.59960E-001	-1.11035E+000	3.57790E+000	10	...........
	44	0.6	9.24357E-001	5.99666E-003	0.00000E+000	5.54306E-003	3.59960E-001	-1.11655E+000	3.57790E+000	10	...........
	45	0.613333	9.30337E-001	5.99239E-003	0.00000E+000	5.57495E-003	3.59960E-001	-1.11808E+000	3.57790E+000	10	...........
	46	0.626667	9.36253E-001	5.99161E-003	0.00000E+000	5.60966E-003	3.59960E-001	-1.11025E+000	3.57790E+000	10	...........
	47	0.64	9.42123E-001	5.98987E-003	0.00000E+000	5.64319E-003	3.59960E-001	-1.11649E+000	3.57790E+000	10	...........
	48	0.653333	9.48045E-001	5.99084E-003	0.00000E+000	5.67958E-003	3.59960E-001	-1.11813E+000	3.57790E+000	10	...........
	49	0.666667	9.53876E-001	5.99286E-003	0.00000E+000	5.71645E-003	3.59960E-001	-1.11058E+000	3.57790E+000	10	...........
	50	0.68	9.59629E-001	5.99343E-003	0.00000E+000	5.75147E-003	3.59960E-001	-1.11706E+000	3.57790E+000	10	...........
	51	0.693333	9.65396E-001	5.99473E-003	0.00000E+000	5.78729E-003	3.59960E-001	-1.11799E+000	3.57790E+000	10	...........
	52	0.706667	9.71101E-001	5.99319E-003	0.00000E+000	5.81999E-003	3.59960E-001	-1.11072E+000	3.57790E+000	10	...........
	53	0.72	9.76803E-001	5.99896E-003	0.00000E+000	5.85981E-003	3.59960E-001	-1.11731E+000	3.57790E+000	10	...........
	54	0.733333	9.82420E-001	5.99669E-003	0.00000E+000	5.89127E-003	3.59960E-001	-1.11774E+000	3.57783E+000	10	...........
	55	0.746667	9.87988E-001	5.99405E-003	0.00000E+000	5.92205E-003	3.59960E-001	-1.11036E+000	3.57780E+000	10	...........
	56	0.76	9.93469E-001	5.99377E-003	0.00000E+000	5.95463E-003	3.59960E-001	-1.11681E+000	3.57780E+000	10	...........
	57	0.77	9.98295E-001	5.99203E-003	0.00000E+000	5.98181E-003	3.59960E-001	-1.11530E+000	3.57780E+000	10	...........
STARTTIMEOFFSET	QUANT	877.4736	Start Time Offset (s)