File: Data/CV_CRGO300517_1/PWRCCD_CRGO300517_1/CHARGE_DISCHARGE/CHARGE_#587.DTA
EXPLAIN
TAG	PWR800_CHARGE
TITLE	LABEL	PWR Cyclic Charge Discharge (Cell) - Charge Step	Test &Identifier
DATE	LABEL	22-6-2017	Date
TIME	LABEL	15:59:16	Time
NOTES	NOTES	3	&Notes...
	supercap test cell
	0.6mg
	6M KOH
PSTAT	PSTAT	IFC5000-01520	Potentiostat
CAPACITY	QUANT	1.00000E-003	Capacity (A-hr)
CELLTYPE	SELECTOR	1	&Cell Type
WORKINGCONNECTION	SELECTOR	0	&Working Lead
MAXCHARGETIME	VARIABLEANDUNITS	1.00000E+002	s	1.00000E+002	second(s)	Max &Charge Time
CHARGECURRENT	QUANT	6.00000E-003	&Charge Current (A)
VOLTAGEFINISH	TWOPARAM	F	1.00000E-003	3.60000E+003	&Voltage Finish	 I (A) < 	Max Time(s)
SAMPLETIME	QUANT	1.00000E-002	Sa&mple Period (s)
CHARGESTOPAT1	MULTIPARAM	4	1.00000E+000	Charge Stop At &1	Voltage > Limit	V
CHARGESTOPAT2	MULTIPARAM	0	0.00000E+000	Charge Stop At &2	None	N/A
AESBHCSELECTOR	TOGGLE	F	Save Both Half Cells
IRCOMP	TOGGLE	F	IR &Measure
EOC	QUANT	0	Open Circuit (V)
SEQUENCER	TOGGLE	TRUE	Run as Sequence
PSTATMODEL	IQUANT	53	Pstat Model
PSTATSECTION	LABEL	IFC5000-01520	Pstat Section
PSTATSERIALNO	LABEL	01520	Pstat Serial Number
CTRLMODE	IQUANT	0	Control Mode
ELECTROMETER	IQUANT	1	RE=0 or CS=1
IESTAB	IQUANT	0	I/E Stability
CASPEED	IQUANT	4	Control Amp Speed
CONVENTION	IQUANT	1	Current Convention
ICHRANGE	IQUANT	2	Ich Range
ICHRANGEMODE	TOGGLE	T	Ich Auto Range
ICHOFFSETENABLE	TOGGLE	F	Ich Offset Enable
ICHOFFSET	QUANT	0	Ich Offset (V)
ICHFILTER	IQUANT	1	Ich Filter
VCHRANGE	IQUANT	2	Vch Range
VCHRANGEMODE	TOGGLE	T	Vch Auto Range
VCHOFFSETENABLE	TOGGLE	F	Vch Offset Enable
VCHOFFSET	QUANT	0	Vch Offset (V)
VCHFILTER	IQUANT	1	Vch Filter
IERANGELOWERLIMIT	IQUANT	9	I/E Range Lower Limit
IERANGEMODE	TOGGLE	F	I/E AutoRange
IERANGE	IQUANT	10	I/E Range
ACHSELECT	IQUANT	1	Ach Select
ACHRANGE	IQUANT	2	Ach Range
ACHOFFSETENABLE	TOGGLE	F	Ach Offset Enable
ACHOFFSET	QUANT	0	Ach Offset (V)
ACHFILTER	IQUANT	1	Ach Filter
CABLEID	IQUANT	14	Cable ID
DCCALDATE	LABEL	20-10-2016	DC Calibration Date
ACCALDATE	LABEL	12/3/2015	AC Calibration Date
FRAMEWORKVERSION	QUANT	7.01	Framework Version
INSTRUMENTVERSION	LABEL	4.00	Instrument Version
CURVE	TABLE	57
	Pt	T	Vf	Im	Vu	Pwr	Sig	Ach	Temp	IERange	Over
	#	s	V	A	V	W	V	V	deg C	#	bits
	0	0.013333	6.37609E-001	5.99389E-003	0.00000E+000	3.82175E-003	3.59960E-001	-1.14551E+000	3.57790E+000	10	...........
	1	0.026667	6.46572E-001	5.99154E-003	0.00000E+000	3.87396E-003	3.59960E-001	-1.14494E+000	3.57790E+000	10	...........
	2	0.04	6.54785E-001	5.99085E-003	0.00000E+000	3.92272E-003	3.59960E-001	-1.15589E+000	3.57790E+000	10	...........
	3	0.053333	6.62599E-001	5.99174E-003	0.00000E+000	3.97012E-003	3.59960E-001	-1.14547E+000	3.57790E+000	10	...........
	4	0.066667	6.70163E-001	5.99774E-003	0.00000E+000	4.01947E-003	3.59960E-001	-1.14483E+000	3.57790E+000	10	...........
	5	0.08	6.77516E-001	5.99140E-003	0.00000E+000	4.05927E-003	3.59960E-001	-1.15535E+000	3.57790E+000	10	...........
	6	0.093333	6.84721E-001	5.99787E-003	0.00000E+000	4.10687E-003	3.59960E-001	-1.14540E+000	3.57790E+000	10	...........
	7	0.106667	6.91800E-001	5.99713E-003	0.00000E+000	4.14881E-003	3.59960E-001	-1.14474E+000	3.57790E+000	10	...........
	8	0.12	6.98835E-001	5.99004E-003	0.00000E+000	4.18605E-003	3.59960E-001	-1.15544E+000	3.57790E+000	10	...........
	9	0.133333	7.05750E-001	5.99636E-003	0.00000E+000	4.23193E-003	3.59960E-001	-1.14529E+000	3.57790E+000	10	...........
	10	0.146667	7.12635E-001	5.99301E-003	0.00000E+000	4.27083E-003	3.59960E-001	-1.14444E+000	3.57790E+000	10	...........
	11	0.16	7.19484E-001	5.99392E-003	0.00000E+000	4.31253E-003	3.59960E-001	-1.15541E+000	3.57790E+000	10	...........
	12	0.173333	7.26264E-001	5.99258E-003	0.00000E+000	4.35220E-003	3.59960E-001	-1.14520E+000	3.57790E+000	10	...........
	13	0.186667	7.33007E-001	5.99242E-003	0.00000E+000	4.39249E-003	3.59960E-001	-1.14430E+000	3.57790E+000	10	...........
	14	0.2	7.39698E-001	5.99321E-003	0.00000E+000	4.43316E-003	3.59960E-001	-1.15473E+000	3.57790E+000	10	...........
	15	0.213333	7.46396E-001	5.99106E-003	0.00000E+000	4.47171E-003	3.59960E-001	-1.14465E+000	3.57790E+000	10	...........
	16	0.226667	7.53041E-001	5.99275E-003	0.00000E+000	4.51279E-003	3.59960E-001	-1.14401E+000	3.57790E+000	10	...........
	17	0.24	7.59665E-001	5.98552E-003	0.00000E+000	4.54699E-003	3.59960E-001	-1.15497E+000	3.57790E+000	10	...........
	18	0.253333	7.66293E-001	5.99400E-003	0.00000E+000	4.59316E-003	3.59960E-001	-1.14463E+000	3.57790E+000	10	...........
	19	0.266667	7.72865E-001	5.99040E-003	0.00000E+000	4.62977E-003	3.59960E-001	-1.14381E+000	3.57790E+000	10	...........
	20	0.28	7.79431E-001	5.99297E-003	0.00000E+000	4.67111E-003	3.59960E-001	-1.15474E+000	3.57790E+000	10	...........
	21	0.293333	7.85971E-001	5.99275E-003	0.00000E+000	4.71013E-003	3.59960E-001	-1.14471E+000	3.57790E+000	10	...........
	22	0.306667	7.92516E-001	5.99325E-003	0.00000E+000	4.74975E-003	3.59960E-001	-1.14410E+000	3.57790E+000	10	...........
	23	0.32	7.99051E-001	5.99386E-003	0.00000E+000	4.78940E-003	3.59960E-001	-1.15462E+000	3.57790E+000	10	...........
	24	0.333333	8.05531E-001	5.99519E-003	0.00000E+000	4.82931E-003	3.59960E-001	-1.14454E+000	3.57790E+000	10	...........
	25	0.346667	8.11998E-001	5.99251E-003	0.00000E+000	4.86591E-003	3.59960E-001	-1.14378E+000	3.57790E+000	10	...........
	26	0.36	8.18459E-001	5.99511E-003	0.00000E+000	4.90675E-003	3.59960E-001	-1.15464E+000	3.57790E+000	10	...........
	27	0.373333	8.24943E-001	5.99298E-003	0.00000E+000	4.94387E-003	3.59960E-001	-1.14455E+000	3.57790E+000	10	...........
	28	0.386667	8.31353E-001	5.99583E-003	0.00000E+000	4.98465E-003	3.59960E-001	-1.14385E+000	3.57790E+000	10	...........
	29	0.4	8.37763E-001	5.99828E-003	0.00000E+000	5.02513E-003	3.59960E-001	-1.15460E+000	3.57790E+000	10	...........
	30	0.413333	8.44119E-001	5.99503E-003	0.00000E+000	5.06052E-003	3.59960E-001	-1.14456E+000	3.57790E+000	10	...........
	31	0.426667	8.50525E-001	5.99418E-003	0.00000E+000	5.09820E-003	3.59960E-001	-1.14405E+000	3.57790E+000	10	...........
	32	0.44	8.56855E-001	5.99456E-003	0.00000E+000	5.13647E-003	3.59960E-001	-1.15470E+000	3.57790E+000	10	...........
	33	0.453333	8.63196E-001	5.99391E-003	0.00000E+000	5.17392E-003	3.59960E-001	-1.14453E+000	3.57790E+000	10	...........
	34	0.466667	8.69504E-001	5.99285E-003	0.00000E+000	5.21081E-003	3.59960E-001	-1.14373E+000	3.57790E+000	10	...........
	35	0.48	8.75823E-001	5.99136E-003	0.00000E+000	5.24737E-003	3.59960E-001	-1.15460E+000	3.57790E+000	10	...........
	36	0.493333	8.82052E-001	5.99487E-003	0.00000E+000	5.28778E-003	3.59960E-001	-1.14470E+000	3.57790E+000	10	...........
	37	0.506667	8.88298E-001	5.99812E-003	0.00000E+000	5.32812E-003	3.59960E-001	-1.14380E+000	3.57790E+000	10	...........
	38	0.52	8.94460E-001	5.98870E-003	0.00000E+000	5.35665E-003	3.59960E-001	-1.15448E+000	3.57790E+000	10	...........
	39	0.533333	9.00645E-001	5.98912E-003	0.00000E+000	5.39407E-003	3.59960E-001	-1.14400E+000	3.57790E+000	10	...........
	40	0.546667	9.06780E-001	5.99142E-003	0.00000E+000	5.43290E-003	3.59960E-001	-1.14337E+000	3.57790E+000	10	...........
	41	0.56	9.12878E-001	5.99469E-003	0.00000E+000	5.47242E-003	3.59960E-001	-1.15439E+000	3.57790E+000	10	...........
	42	0.573333	9.18965E-001	5.99369E-003	0.00000E+000	5.50799E-003	3.59960E-001	-1.14420E+000	3.57790E+000	10	...........
	43	0.586667	9.25062E-001	5.99595E-003	0.00000E+000	5.54663E-003	3.59960E-001	-1.14346E+000	3.57790E+000	10	...........
	44	0.6	9.31040E-001	5.98960E-003	0.00000E+000	5.57655E-003	3.59960E-001	-1.15416E+000	3.57790E+000	10	...........
	45	0.613333	9.37013E-001	5.99481E-003	0.00000E+000	5.61722E-003	3.59960E-001	-1.14414E+000	3.57790E+000	10	...........
	46	0.626667	9.42948E-001	5.99341E-003	0.00000E+000	5.65147E-003	3.59960E-001	-1.14349E+000	3.57790E+000	10	...........
	47	0.64	9.48883E-001	5.99164E-003	0.00000E+000	5.68537E-003	3.59960E-001	-1.15457E+000	3.57790E+000	10	...........
	48	0.653333	9.54728E-001	5.99598E-003	0.00000E+000	5.72453E-003	3.59960E-001	-1.14413E+000	3.57790E+000	10	...........
	49	0.666667	9.60546E-001	5.99231E-003	0.00000E+000	5.75589E-003	3.59960E-001	-1.14343E+000	3.57790E+000	10	...........
	50	0.68	9.66284E-001	5.99683E-003	0.00000E+000	5.79464E-003	3.59960E-001	-1.15434E+000	3.57790E+000	10	...........
	51	0.693333	9.71995E-001	6.00081E-003	0.00000E+000	5.83276E-003	3.59960E-001	-1.14435E+000	3.57790E+000	10	...........
	52	0.706667	9.77674E-001	5.99205E-003	0.00000E+000	5.85827E-003	3.59960E-001	-1.14344E+000	3.57790E+000	10	...........
	53	0.72	9.83295E-001	5.99314E-003	0.00000E+000	5.89303E-003	3.59960E-001	-1.15432E+000	3.57790E+000	10	...........
	54	0.733333	9.88870E-001	5.99156E-003	0.00000E+000	5.92487E-003	3.59960E-001	-1.14418E+000	3.57790E+000	10	...........
	55	0.746667	9.94386E-001	5.99501E-003	0.00000E+000	5.96135E-003	3.59960E-001	-1.14347E+000	3.57790E+000	10	...........
	56	0.755	9.98862E-001	6.00085E-003	0.00000E+000	5.99402E-003	3.59960E-001	-1.15561E+000	3.57790E+000	10	...........
STARTTIMEOFFSET	QUANT	991.419	Start Time Offset (s)