File: Data/CV_CRGO300517_1/PWRCCD_CRGO300517_1/CHARGE_DISCHARGE/CHARGE_#671.DTA
EXPLAIN
TAG	PWR800_CHARGE
TITLE	LABEL	PWR Cyclic Charge Discharge (Cell) - Charge Step	Test &Identifier
DATE	LABEL	22-6-2017	Date
TIME	LABEL	16:02:28	Time
NOTES	NOTES	3	&Notes...
	supercap test cell
	0.6mg
	6M KOH
PSTAT	PSTAT	IFC5000-01520	Potentiostat
CAPACITY	QUANT	1.00000E-003	Capacity (A-hr)
CELLTYPE	SELECTOR	1	&Cell Type
WORKINGCONNECTION	SELECTOR	0	&Working Lead
MAXCHARGETIME	VARIABLEANDUNITS	1.00000E+002	s	1.00000E+002	second(s)	Max &Charge Time
CHARGECURRENT	QUANT	6.00000E-003	&Charge Current (A)
VOLTAGEFINISH	TWOPARAM	F	1.00000E-003	3.60000E+003	&Voltage Finish	 I (A) < 	Max Time(s)
SAMPLETIME	QUANT	1.00000E-002	Sa&mple Period (s)
CHARGESTOPAT1	MULTIPARAM	4	1.00000E+000	Charge Stop At &1	Voltage > Limit	V
CHARGESTOPAT2	MULTIPARAM	0	0.00000E+000	Charge Stop At &2	None	N/A
AESBHCSELECTOR	TOGGLE	F	Save Both Half Cells
IRCOMP	TOGGLE	F	IR &Measure
EOC	QUANT	0	Open Circuit (V)
SEQUENCER	TOGGLE	TRUE	Run as Sequence
PSTATMODEL	IQUANT	53	Pstat Model
PSTATSECTION	LABEL	IFC5000-01520	Pstat Section
PSTATSERIALNO	LABEL	01520	Pstat Serial Number
CTRLMODE	IQUANT	0	Control Mode
ELECTROMETER	IQUANT	1	RE=0 or CS=1
IESTAB	IQUANT	0	I/E Stability
CASPEED	IQUANT	4	Control Amp Speed
CONVENTION	IQUANT	1	Current Convention
ICHRANGE	IQUANT	2	Ich Range
ICHRANGEMODE	TOGGLE	T	Ich Auto Range
ICHOFFSETENABLE	TOGGLE	F	Ich Offset Enable
ICHOFFSET	QUANT	0	Ich Offset (V)
ICHFILTER	IQUANT	1	Ich Filter
VCHRANGE	IQUANT	2	Vch Range
VCHRANGEMODE	TOGGLE	T	Vch Auto Range
VCHOFFSETENABLE	TOGGLE	F	Vch Offset Enable
VCHOFFSET	QUANT	0	Vch Offset (V)
VCHFILTER	IQUANT	1	Vch Filter
IERANGELOWERLIMIT	IQUANT	9	I/E Range Lower Limit
IERANGEMODE	TOGGLE	F	I/E AutoRange
IERANGE	IQUANT	10	I/E Range
ACHSELECT	IQUANT	1	Ach Select
ACHRANGE	IQUANT	2	Ach Range
ACHOFFSETENABLE	TOGGLE	F	Ach Offset Enable
ACHOFFSET	QUANT	0	Ach Offset (V)
ACHFILTER	IQUANT	1	Ach Filter
CABLEID	IQUANT	14	Cable ID
DCCALDATE	LABEL	20-10-2016	DC Calibration Date
ACCALDATE	LABEL	12/3/2015	AC Calibration Date
FRAMEWORKVERSION	QUANT	7.01	Framework Version
INSTRUMENTVERSION	LABEL	4.00	Instrument Version
CURVE	TABLE	56
	Pt	T	Vf	Im	Vu	Pwr	Sig	Ach	Temp	IERange	Over
	#	s	V	A	V	W	V	V	deg C	#	bits
	0	0.013333	6.42049E-001	5.99029E-003	0.00000E+000	3.84606E-003	3.59960E-001	-1.15989E+000	3.57731E+000	10	...........
	1	0.026667	6.51129E-001	5.99476E-003	0.00000E+000	3.90336E-003	3.59960E-001	-1.15152E+000	3.57740E+000	10	...........
	2	0.04	6.59479E-001	5.99749E-003	0.00000E+000	3.95522E-003	3.59960E-001	-1.15719E+000	3.57740E+000	10	...........
	3	0.053333	6.67390E-001	5.99313E-003	0.00000E+000	3.99976E-003	3.59960E-001	-1.15982E+000	3.57740E+000	10	...........
	4	0.066667	6.75006E-001	5.98885E-003	0.00000E+000	4.04251E-003	3.59960E-001	-1.15145E+000	3.57740E+000	10	...........
	5	0.08	6.82439E-001	5.98857E-003	0.00000E+000	4.08683E-003	3.59960E-001	-1.15730E+000	3.57740E+000	10	...........
	6	0.093333	6.89741E-001	5.99105E-003	0.00000E+000	4.13227E-003	3.59960E-001	-1.15941E+000	3.57740E+000	10	...........
	7	0.106667	6.96931E-001	5.99365E-003	0.00000E+000	4.17716E-003	3.59960E-001	-1.15125E+000	3.57740E+000	10	...........
	8	0.12	7.04008E-001	5.99507E-003	0.00000E+000	4.22058E-003	3.59960E-001	-1.15715E+000	3.57740E+000	10	...........
	9	0.133333	7.10961E-001	5.98985E-003	0.00000E+000	4.25855E-003	3.59960E-001	-1.15954E+000	3.57740E+000	10	...........
	10	0.146667	7.17940E-001	5.99173E-003	0.00000E+000	4.30170E-003	3.59960E-001	-1.15137E+000	3.57740E+000	10	...........
	11	0.16	7.24832E-001	5.98871E-003	0.00000E+000	4.34081E-003	3.59960E-001	-1.15715E+000	3.57740E+000	10	...........
	12	0.173333	7.31671E-001	5.99384E-003	0.00000E+000	4.38552E-003	3.59960E-001	-1.15958E+000	3.57740E+000	10	...........
	13	0.186667	7.38510E-001	5.99044E-003	0.00000E+000	4.42400E-003	3.59960E-001	-1.15143E+000	3.57740E+000	10	...........
	14	0.2	7.45285E-001	5.99353E-003	0.00000E+000	4.46689E-003	3.59960E-001	-1.15723E+000	3.57740E+000	10	...........
	15	0.213333	7.51990E-001	5.99777E-003	0.00000E+000	4.51026E-003	3.59960E-001	-1.15968E+000	3.57740E+000	10	...........
	16	0.226667	7.58709E-001	5.99223E-003	0.00000E+000	4.54635E-003	3.59960E-001	-1.15130E+000	3.57740E+000	10	...........
	17	0.24	7.65380E-001	5.99675E-003	0.00000E+000	4.58979E-003	3.59960E-001	-1.15695E+000	3.57740E+000	10	...........
	18	0.253333	7.72033E-001	5.99260E-003	0.00000E+000	4.62649E-003	3.59960E-001	-1.15907E+000	3.57740E+000	10	...........
	19	0.266667	7.78661E-001	5.98785E-003	0.00000E+000	4.66250E-003	3.59960E-001	-1.15066E+000	3.57740E+000	10	...........
	20	0.28	7.85293E-001	5.99167E-003	0.00000E+000	4.70522E-003	3.59960E-001	-1.15672E+000	3.57740E+000	10	...........
	21	0.293333	7.91888E-001	5.99175E-003	0.00000E+000	4.74479E-003	3.59960E-001	-1.15859E+000	3.57740E+000	10	...........
	22	0.306667	7.98444E-001	5.99377E-003	0.00000E+000	4.78569E-003	3.59960E-001	-1.15034E+000	3.57740E+000	10	...........
	23	0.32	8.04988E-001	5.99178E-003	0.00000E+000	4.82331E-003	3.59960E-001	-1.15672E+000	3.57740E+000	10	...........
	24	0.333333	8.11527E-001	5.99201E-003	0.00000E+000	4.86267E-003	3.59960E-001	-1.15897E+000	3.57740E+000	10	...........
	25	0.346667	8.18068E-001	5.99387E-003	0.00000E+000	4.90340E-003	3.59960E-001	-1.15045E+000	3.57740E+000	10	...........
	26	0.36	8.24572E-001	5.99677E-003	0.00000E+000	4.94477E-003	3.59960E-001	-1.15639E+000	3.57740E+000	10	...........
	27	0.373333	8.31032E-001	5.99418E-003	0.00000E+000	4.98135E-003	3.59960E-001	-1.15858E+000	3.57740E+000	10	...........
	28	0.386667	8.37503E-001	5.99096E-003	0.00000E+000	5.01745E-003	3.59960E-001	-1.15040E+000	3.57740E+000	10	...........
	29	0.4	8.43931E-001	5.99813E-003	0.00000E+000	5.06201E-003	3.59960E-001	-1.15657E+000	3.57740E+000	10	...........
	30	0.413333	8.50407E-001	5.99402E-003	0.00000E+000	5.09736E-003	3.59960E-001	-1.15848E+000	3.57740E+000	10	...........
	31	0.426667	8.56794E-001	5.99542E-003	0.00000E+000	5.13684E-003	3.59960E-001	-1.15019E+000	3.57740E+000	10	...........
	32	0.44	8.63121E-001	5.99456E-003	0.00000E+000	5.17403E-003	3.59960E-001	-1.15660E+000	3.57740E+000	10	...........
	33	0.453333	8.69538E-001	5.99259E-003	0.00000E+000	5.21079E-003	3.59960E-001	-1.15859E+000	3.57740E+000	10	...........
	34	0.466667	8.75861E-001	5.99322E-003	0.00000E+000	5.24922E-003	3.59960E-001	-1.15057E+000	3.57740E+000	10	...........
	35	0.48	8.82150E-001	5.99478E-003	0.00000E+000	5.28830E-003	3.59960E-001	-1.15658E+000	3.57740E+000	10	...........
	36	0.493333	8.88413E-001	5.99011E-003	0.00000E+000	5.32169E-003	3.59960E-001	-1.15835E+000	3.57740E+000	10	...........
	37	0.506667	8.94640E-001	5.98932E-003	0.00000E+000	5.35828E-003	3.59960E-001	-1.15002E+000	3.57740E+000	10	...........
	38	0.52	9.00857E-001	5.99614E-003	0.00000E+000	5.40167E-003	3.59960E-001	-1.15663E+000	3.57740E+000	10	...........
	39	0.533333	9.07026E-001	5.99681E-003	0.00000E+000	5.43926E-003	3.59960E-001	-1.15848E+000	3.57740E+000	10	...........
	40	0.546667	9.13122E-001	5.99459E-003	0.00000E+000	5.47380E-003	3.59960E-001	-1.15027E+000	3.57740E+000	10	...........
	41	0.56	9.19275E-001	5.99745E-003	0.00000E+000	5.51331E-003	3.59960E-001	-1.15649E+000	3.57740E+000	10	...........
	42	0.573333	9.25375E-001	5.99102E-003	0.00000E+000	5.54394E-003	3.59960E-001	-1.15810E+000	3.57740E+000	10	...........
	43	0.586667	9.31444E-001	5.99666E-003	0.00000E+000	5.58555E-003	3.59960E-001	-1.15002E+000	3.57740E+000	10	...........
	44	0.6	9.37387E-001	5.99262E-003	0.00000E+000	5.61741E-003	3.59960E-001	-1.15635E+000	3.57740E+000	10	...........
	45	0.613333	9.43305E-001	5.99258E-003	0.00000E+000	5.65284E-003	3.59960E-001	-1.15801E+000	3.57740E+000	10	...........
	46	0.626667	9.49261E-001	6.00137E-003	0.00000E+000	5.69687E-003	3.59960E-001	-1.14990E+000	3.57740E+000	10	...........
	47	0.64	9.55119E-001	5.99553E-003	0.00000E+000	5.72645E-003	3.59960E-001	-1.15633E+000	3.57740E+000	10	...........
	48	0.653333	9.60932E-001	5.99203E-003	0.00000E+000	5.75793E-003	3.59960E-001	-1.15803E+000	3.57740E+000	10	...........
	49	0.666667	9.66718E-001	5.99480E-003	0.00000E+000	5.79528E-003	3.59960E-001	-1.14986E+000	3.57740E+000	10	...........
	50	0.68	9.72458E-001	5.99659E-003	0.00000E+000	5.83143E-003	3.59960E-001	-1.15625E+000	3.57740E+000	10	...........
	51	0.693333	9.78153E-001	5.99147E-003	0.00000E+000	5.86057E-003	3.59960E-001	-1.15794E+000	3.57740E+000	10	...........
	52	0.706667	9.83768E-001	5.99361E-003	0.00000E+000	5.89633E-003	3.59960E-001	-1.14969E+000	3.57740E+000	10	...........
	53	0.72	9.89319E-001	5.99328E-003	0.00000E+000	5.92926E-003	3.59960E-001	-1.15638E+000	3.57740E+000	10	...........
	54	0.733333	9.94837E-001	5.99259E-003	0.00000E+000	5.96165E-003	3.59960E-001	-1.15797E+000	3.57740E+000	10	...........
	55	0.74	9.98974E-001	5.99684E-003	0.00000E+000	5.99068E-003	3.59960E-001	-1.14818E+000	3.57740E+000	10	...........
STARTTIMEOFFSET	QUANT	1116.533	Start Time Offset (s)