File: Data/CV_CRGO300517_1/PWRCCD_CRGO300517_1/CHARGE_DISCHARGE/CHARGE_#156.DTA
EXPLAIN
TAG	PWR800_CHARGE
TITLE	LABEL	PWR Cyclic Charge Discharge (Cell) - Charge Step	Test &Identifier
DATE	LABEL	22-6-2017	Date
TIME	LABEL	15:41:56	Time
NOTES	NOTES	3	&Notes...
	supercap test cell
	0.6mg
	6M KOH
PSTAT	PSTAT	IFC5000-01520	Potentiostat
CAPACITY	QUANT	1.00000E-003	Capacity (A-hr)
CELLTYPE	SELECTOR	1	&Cell Type
WORKINGCONNECTION	SELECTOR	0	&Working Lead
MAXCHARGETIME	VARIABLEANDUNITS	1.00000E+002	s	1.00000E+002	second(s)	Max &Charge Time
CHARGECURRENT	QUANT	6.00000E-003	&Charge Current (A)
VOLTAGEFINISH	TWOPARAM	F	1.00000E-003	3.60000E+003	&Voltage Finish	 I (A) < 	Max Time(s)
SAMPLETIME	QUANT	1.00000E-002	Sa&mple Period (s)
CHARGESTOPAT1	MULTIPARAM	4	1.00000E+000	Charge Stop At &1	Voltage > Limit	V
CHARGESTOPAT2	MULTIPARAM	0	0.00000E+000	Charge Stop At &2	None	N/A
AESBHCSELECTOR	TOGGLE	F	Save Both Half Cells
IRCOMP	TOGGLE	F	IR &Measure
EOC	QUANT	0	Open Circuit (V)
SEQUENCER	TOGGLE	TRUE	Run as Sequence
PSTATMODEL	IQUANT	53	Pstat Model
PSTATSECTION	LABEL	IFC5000-01520	Pstat Section
PSTATSERIALNO	LABEL	01520	Pstat Serial Number
CTRLMODE	IQUANT	0	Control Mode
ELECTROMETER	IQUANT	1	RE=0 or CS=1
IESTAB	IQUANT	0	I/E Stability
CASPEED	IQUANT	4	Control Amp Speed
CONVENTION	IQUANT	1	Current Convention
ICHRANGE	IQUANT	2	Ich Range
ICHRANGEMODE	TOGGLE	T	Ich Auto Range
ICHOFFSETENABLE	TOGGLE	F	Ich Offset Enable
ICHOFFSET	QUANT	0	Ich Offset (V)
ICHFILTER	IQUANT	1	Ich Filter
VCHRANGE	IQUANT	2	Vch Range
VCHRANGEMODE	TOGGLE	T	Vch Auto Range
VCHOFFSETENABLE	TOGGLE	F	Vch Offset Enable
VCHOFFSET	QUANT	0	Vch Offset (V)
VCHFILTER	IQUANT	1	Vch Filter
IERANGELOWERLIMIT	IQUANT	9	I/E Range Lower Limit
IERANGEMODE	TOGGLE	F	I/E AutoRange
IERANGE	IQUANT	10	I/E Range
ACHSELECT	IQUANT	1	Ach Select
ACHRANGE	IQUANT	2	Ach Range
ACHOFFSETENABLE	TOGGLE	F	Ach Offset Enable
ACHOFFSET	QUANT	0	Ach Offset (V)
ACHFILTER	IQUANT	1	Ach Filter
CABLEID	IQUANT	14	Cable ID
DCCALDATE	LABEL	20-10-2016	DC Calibration Date
ACCALDATE	LABEL	12/3/2015	AC Calibration Date
FRAMEWORKVERSION	QUANT	7.01	Framework Version
INSTRUMENTVERSION	LABEL	4.00	Instrument Version
CURVE	TABLE	67
	Pt	T	Vf	Im	Vu	Pwr	Sig	Ach	Temp	IERange	Over
	#	s	V	A	V	W	V	V	deg C	#	bits
	0	0.013333	6.02007E-001	5.99143E-003	0.00000E+000	3.60688E-003	3.59960E-001	-1.08154E+000	3.57830E+000	10	...........
	1	0.026667	6.10062E-001	5.99635E-003	0.00000E+000	3.65815E-003	3.59960E-001	-1.07207E+000	3.57830E+000	10	...........
	2	0.04	6.17665E-001	5.99203E-003	0.00000E+000	3.70107E-003	3.59960E-001	-1.07662E+000	3.57830E+000	10	...........
	3	0.053333	6.24847E-001	5.99261E-003	0.00000E+000	3.74446E-003	3.59960E-001	-1.08149E+000	3.57830E+000	10	...........
	4	0.066667	6.31838E-001	5.99519E-003	0.00000E+000	3.78799E-003	3.59960E-001	-1.07215E+000	3.57830E+000	10	...........
	5	0.08	6.38625E-001	5.99199E-003	0.00000E+000	3.82663E-003	3.59960E-001	-1.07663E+000	3.57830E+000	10	...........
	6	0.093333	6.45284E-001	5.99161E-003	0.00000E+000	3.86629E-003	3.59960E-001	-1.08149E+000	3.57830E+000	10	...........
	7	0.106667	6.51872E-001	5.99394E-003	0.00000E+000	3.90728E-003	3.59960E-001	-1.07176E+000	3.57830E+000	10	...........
	8	0.12	6.58355E-001	5.99585E-003	0.00000E+000	3.94740E-003	3.59960E-001	-1.07600E+000	3.57830E+000	10	...........
	9	0.133333	6.64788E-001	5.99511E-003	0.00000E+000	3.98547E-003	3.59960E-001	-1.08118E+000	3.57830E+000	10	...........
	10	0.146667	6.71134E-001	5.99697E-003	0.00000E+000	4.02477E-003	3.59960E-001	-1.07134E+000	3.57830E+000	10	...........
	11	0.16	6.77442E-001	5.99729E-003	0.00000E+000	4.06281E-003	3.59960E-001	-1.07556E+000	3.57830E+000	10	...........
	12	0.173333	6.83661E-001	5.99280E-003	0.00000E+000	4.09704E-003	3.59960E-001	-1.08087E+000	3.57830E+000	10	...........
	13	0.186667	6.89968E-001	5.99452E-003	0.00000E+000	4.13603E-003	3.59960E-001	-1.07127E+000	3.57830E+000	10	...........
	14	0.2	6.96157E-001	5.99370E-003	0.00000E+000	4.17255E-003	3.59960E-001	-1.07550E+000	3.57830E+000	10	...........
	15	0.213333	7.02301E-001	5.99159E-003	0.00000E+000	4.20790E-003	3.59960E-001	-1.08120E+000	3.57830E+000	10	...........
	16	0.226667	7.08406E-001	5.99184E-003	0.00000E+000	4.24466E-003	3.59960E-001	-1.07112E+000	3.57830E+000	10	...........
	17	0.24	7.14517E-001	5.99171E-003	0.00000E+000	4.28118E-003	3.59960E-001	-1.07527E+000	3.57830E+000	10	...........
	18	0.253333	7.20699E-001	5.99584E-003	0.00000E+000	4.32120E-003	3.59960E-001	-1.08115E+000	3.57830E+000	10	...........
	19	0.266667	7.26800E-001	5.99680E-003	0.00000E+000	4.35847E-003	3.59960E-001	-1.07111E+000	3.57830E+000	10	...........
	20	0.28	7.32874E-001	5.99002E-003	0.00000E+000	4.38993E-003	3.59960E-001	-1.07506E+000	3.57830E+000	10	...........
	21	0.293333	7.38960E-001	5.99232E-003	0.00000E+000	4.42809E-003	3.59960E-001	-1.08119E+000	3.57830E+000	10	...........
	22	0.306667	7.45048E-001	5.99228E-003	0.00000E+000	4.46454E-003	3.59960E-001	-1.07119E+000	3.57830E+000	10	...........
	23	0.32	7.51114E-001	5.99445E-003	0.00000E+000	4.50252E-003	3.59960E-001	-1.07494E+000	3.57830E+000	10	...........
	24	0.333333	7.57182E-001	5.99243E-003	0.00000E+000	4.53735E-003	3.59960E-001	-1.08148E+000	3.57830E+000	10	...........
	25	0.346667	7.63214E-001	5.99369E-003	0.00000E+000	4.57447E-003	3.59960E-001	-1.07124E+000	3.57830E+000	10	...........
	26	0.36	7.69300E-001	5.99126E-003	0.00000E+000	4.60907E-003	3.59960E-001	-1.07501E+000	3.57830E+000	10	...........
	27	0.373333	7.75325E-001	5.99545E-003	0.00000E+000	4.64842E-003	3.59960E-001	-1.08141E+000	3.57830E+000	10	...........
	28	0.386667	7.81332E-001	5.99344E-003	0.00000E+000	4.68286E-003	3.59960E-001	-1.07124E+000	3.57830E+000	10	...........
	29	0.4	7.87379E-001	5.99281E-003	0.00000E+000	4.71861E-003	3.59960E-001	-1.07489E+000	3.57830E+000	10	...........
	30	0.413333	7.93418E-001	5.99798E-003	0.00000E+000	4.75891E-003	3.59960E-001	-1.08148E+000	3.57830E+000	10	...........
	31	0.426667	7.99439E-001	5.99617E-003	0.00000E+000	4.79357E-003	3.59960E-001	-1.07111E+000	3.57823E+000	10	...........
	32	0.44	8.05463E-001	5.99365E-003	0.00000E+000	4.82766E-003	3.59960E-001	-1.07446E+000	3.57710E+000	10	...........
	33	0.453333	8.11458E-001	5.99550E-003	0.00000E+000	4.86510E-003	3.59960E-001	-1.08102E+000	3.57710E+000	10	...........
	34	0.466667	8.17456E-001	5.99251E-003	0.00000E+000	4.89861E-003	3.59960E-001	-1.07079E+000	3.57710E+000	10	...........
	35	0.48	8.23478E-001	5.99587E-003	0.00000E+000	4.93746E-003	3.59960E-001	-1.07420E+000	3.57710E+000	10	...........
	36	0.493333	8.29498E-001	6.00054E-003	0.00000E+000	4.97744E-003	3.59960E-001	-1.08111E+000	3.57710E+000	10	...........
	37	0.506667	8.35474E-001	5.99519E-003	0.00000E+000	5.00883E-003	3.59960E-001	-1.07062E+000	3.57710E+000	10	...........
	38	0.52	8.41444E-001	5.99392E-003	0.00000E+000	5.04355E-003	3.59960E-001	-1.07421E+000	3.57710E+000	10	...........
	39	0.533333	8.47405E-001	5.99320E-003	0.00000E+000	5.07867E-003	3.59960E-001	-1.08133E+000	3.57710E+000	10	...........
	40	0.546667	8.53352E-001	5.99340E-003	0.00000E+000	5.11448E-003	3.59960E-001	-1.07068E+000	3.57710E+000	10	...........
	41	0.56	8.59282E-001	5.99859E-003	0.00000E+000	5.15448E-003	3.59960E-001	-1.07378E+000	3.57710E+000	10	...........
	42	0.573333	8.65204E-001	5.99202E-003	0.00000E+000	5.18432E-003	3.59960E-001	-1.08117E+000	3.57710E+000	10	...........
	43	0.586667	8.71164E-001	5.99629E-003	0.00000E+000	5.22376E-003	3.59960E-001	-1.07060E+000	3.57710E+000	10	...........
	44	0.6	8.77082E-001	5.99530E-003	0.00000E+000	5.25837E-003	3.59960E-001	-1.07381E+000	3.57710E+000	10	...........
	45	0.613333	8.82988E-001	5.99537E-003	0.00000E+000	5.29384E-003	3.59960E-001	-1.08129E+000	3.57710E+000	10	...........
	46	0.626667	8.88892E-001	5.99156E-003	0.00000E+000	5.32585E-003	3.59960E-001	-1.07067E+000	3.57710E+000	10	...........
	47	0.64	8.94750E-001	5.99219E-003	0.00000E+000	5.36151E-003	3.59960E-001	-1.07358E+000	3.57710E+000	10	...........
	48	0.653333	9.00591E-001	5.99659E-003	0.00000E+000	5.40047E-003	3.59960E-001	-1.08134E+000	3.57710E+000	10	...........
	49	0.666667	9.06418E-001	5.99663E-003	0.00000E+000	5.43545E-003	3.59960E-001	-1.07083E+000	3.57710E+000	10	...........
	50	0.68	9.12254E-001	5.99560E-003	0.00000E+000	5.46951E-003	3.59960E-001	-1.07386E+000	3.57710E+000	10	...........
	51	0.693333	9.18065E-001	5.99452E-003	0.00000E+000	5.50336E-003	3.59960E-001	-1.08142E+000	3.57710E+000	10	...........
	52	0.706667	9.23871E-001	5.99080E-003	0.00000E+000	5.53472E-003	3.59960E-001	-1.07072E+000	3.57710E+000	10	...........
	53	0.72	9.29617E-001	5.99737E-003	0.00000E+000	5.57525E-003	3.59960E-001	-1.07376E+000	3.57710E+000	10	...........
	54	0.733333	9.35346E-001	5.99563E-003	0.00000E+000	5.60799E-003	3.59960E-001	-1.08175E+000	3.57710E+000	10	...........
	55	0.746667	9.41018E-001	5.99235E-003	0.00000E+000	5.63891E-003	3.59960E-001	-1.07081E+000	3.57710E+000	10	...........
	56	0.76	9.46682E-001	5.99237E-003	0.00000E+000	5.67287E-003	3.59960E-001	-1.07324E+000	3.57710E+000	10	...........
	57	0.773333	9.52341E-001	5.99603E-003	0.00000E+000	5.71027E-003	3.59960E-001	-1.08115E+000	3.57710E+000	10	...........
	58	0.786667	9.57965E-001	5.99127E-003	0.00000E+000	5.73942E-003	3.59960E-001	-1.07047E+000	3.57710E+000	10	...........
	59	0.8	9.63517E-001	5.99122E-003	0.00000E+000	5.77264E-003	3.59960E-001	-1.07317E+000	3.57710E+000	10	...........
	60	0.813333	9.69034E-001	5.99444E-003	0.00000E+000	5.80881E-003	3.59960E-001	-1.08127E+000	3.57710E+000	10	...........
	61	0.826667	9.74621E-001	5.99396E-003	0.00000E+000	5.84184E-003	3.59960E-001	-1.07056E+000	3.57710E+000	10	...........
	62	0.84	9.80098E-001	5.99462E-003	0.00000E+000	5.87531E-003	3.59960E-001	-1.07302E+000	3.57710E+000	10	...........
	63	0.853333	9.85541E-001	5.99600E-003	0.00000E+000	5.90931E-003	3.59960E-001	-1.08135E+000	3.57710E+000	10	...........
	64	0.866667	9.90919E-001	5.99364E-003	0.00000E+000	5.93921E-003	3.59960E-001	-1.07062E+000	3.57710E+000	10	...........
	65	0.88	9.96310E-001	5.99584E-003	0.00000E+000	5.97371E-003	3.59960E-001	-1.07290E+000	3.57710E+000	10	...........
	66	0.885	9.99974E-001	5.98954E-003	0.00000E+000	5.98938E-003	3.59960E-001	-1.07674E+000	3.57710E+000	10	...........
STARTTIMEOFFSET	QUANT	296.2401	Start Time Offset (s)