File: Data/CV_CRGO300517_1/PWRCCD_CRGO300517_1/CHARGE_DISCHARGE/CHARGE_#35.DTA
EXPLAIN
TAG	PWR800_CHARGE
TITLE	LABEL	PWR Cyclic Charge Discharge (Cell) - Charge Step	Test &Identifier
DATE	LABEL	22-6-2017	Date
TIME	LABEL	15:36:35	Time
NOTES	NOTES	3	&Notes...
	supercap test cell
	0.6mg
	6M KOH
PSTAT	PSTAT	IFC5000-01520	Potentiostat
CAPACITY	QUANT	1.00000E-003	Capacity (A-hr)
CELLTYPE	SELECTOR	1	&Cell Type
WORKINGCONNECTION	SELECTOR	0	&Working Lead
MAXCHARGETIME	VARIABLEANDUNITS	1.00000E+002	s	1.00000E+002	second(s)	Max &Charge Time
CHARGECURRENT	QUANT	6.00000E-003	&Charge Current (A)
VOLTAGEFINISH	TWOPARAM	F	1.00000E-003	3.60000E+003	&Voltage Finish	 I (A) < 	Max Time(s)
SAMPLETIME	QUANT	1.00000E-002	Sa&mple Period (s)
CHARGESTOPAT1	MULTIPARAM	4	1.00000E+000	Charge Stop At &1	Voltage > Limit	V
CHARGESTOPAT2	MULTIPARAM	0	0.00000E+000	Charge Stop At &2	None	N/A
AESBHCSELECTOR	TOGGLE	F	Save Both Half Cells
IRCOMP	TOGGLE	F	IR &Measure
EOC	QUANT	0	Open Circuit (V)
SEQUENCER	TOGGLE	TRUE	Run as Sequence
PSTATMODEL	IQUANT	53	Pstat Model
PSTATSECTION	LABEL	IFC5000-01520	Pstat Section
PSTATSERIALNO	LABEL	01520	Pstat Serial Number
CTRLMODE	IQUANT	0	Control Mode
ELECTROMETER	IQUANT	1	RE=0 or CS=1
IESTAB	IQUANT	0	I/E Stability
CASPEED	IQUANT	4	Control Amp Speed
CONVENTION	IQUANT	1	Current Convention
ICHRANGE	IQUANT	2	Ich Range
ICHRANGEMODE	TOGGLE	T	Ich Auto Range
ICHOFFSETENABLE	TOGGLE	F	Ich Offset Enable
ICHOFFSET	QUANT	0	Ich Offset (V)
ICHFILTER	IQUANT	1	Ich Filter
VCHRANGE	IQUANT	2	Vch Range
VCHRANGEMODE	TOGGLE	T	Vch Auto Range
VCHOFFSETENABLE	TOGGLE	F	Vch Offset Enable
VCHOFFSET	QUANT	0	Vch Offset (V)
VCHFILTER	IQUANT	1	Vch Filter
IERANGELOWERLIMIT	IQUANT	9	I/E Range Lower Limit
IERANGEMODE	TOGGLE	F	I/E AutoRange
IERANGE	IQUANT	10	I/E Range
ACHSELECT	IQUANT	1	Ach Select
ACHRANGE	IQUANT	2	Ach Range
ACHOFFSETENABLE	TOGGLE	F	Ach Offset Enable
ACHOFFSET	QUANT	0	Ach Offset (V)
ACHFILTER	IQUANT	1	Ach Filter
CABLEID	IQUANT	14	Cable ID
DCCALDATE	LABEL	20-10-2016	DC Calibration Date
ACCALDATE	LABEL	12/3/2015	AC Calibration Date
FRAMEWORKVERSION	QUANT	7.01	Framework Version
INSTRUMENTVERSION	LABEL	4.00	Instrument Version
CURVE	TABLE	76
	Pt	T	Vf	Im	Vu	Pwr	Sig	Ach	Temp	IERange	Over
	#	s	V	A	V	W	V	V	deg C	#	bits
	0	0.013333	5.67680E-001	5.99521E-003	0.00000E+000	3.40336E-003	3.59960E-001	-1.02741E+000	3.57850E+000	10	...........
	1	0.026667	5.75752E-001	5.99319E-003	0.00000E+000	3.45059E-003	3.59960E-001	-1.02403E+000	3.57850E+000	10	...........
	2	0.04	5.83106E-001	5.98917E-003	0.00000E+000	3.49232E-003	3.59960E-001	-1.03601E+000	3.57850E+000	10	...........
	3	0.053333	5.90085E-001	5.99406E-003	0.00000E+000	3.53701E-003	3.59960E-001	-1.02699E+000	3.57850E+000	10	...........
	4	0.066667	5.96794E-001	5.99657E-003	0.00000E+000	3.57871E-003	3.59960E-001	-1.02403E+000	3.57850E+000	10	...........
	5	0.08	6.03336E-001	5.99670E-003	0.00000E+000	3.61803E-003	3.59960E-001	-1.03636E+000	3.57850E+000	10	...........
	6	0.093333	6.09693E-001	5.99663E-003	0.00000E+000	3.65610E-003	3.59960E-001	-1.02722E+000	3.57850E+000	10	...........
	7	0.106667	6.16021E-001	5.99425E-003	0.00000E+000	3.69258E-003	3.59960E-001	-1.02394E+000	3.57850E+000	10	...........
	8	0.12	6.22189E-001	5.99129E-003	0.00000E+000	3.72772E-003	3.59960E-001	-1.03615E+000	3.57850E+000	10	...........
	9	0.133333	6.28293E-001	5.99243E-003	0.00000E+000	3.76500E-003	3.59960E-001	-1.02699E+000	3.57850E+000	10	...........
	10	0.146667	6.34324E-001	5.99254E-003	0.00000E+000	3.80121E-003	3.59960E-001	-1.02411E+000	3.57850E+000	10	...........
	11	0.16	6.40343E-001	5.99129E-003	0.00000E+000	3.83648E-003	3.59960E-001	-1.03627E+000	3.57850E+000	10	...........
	12	0.173333	6.46277E-001	5.99575E-003	0.00000E+000	3.87492E-003	3.59960E-001	-1.02680E+000	3.57850E+000	10	...........
	13	0.186667	6.52162E-001	5.99718E-003	0.00000E+000	3.91113E-003	3.59960E-001	-1.02399E+000	3.57850E+000	10	...........
	14	0.2	6.58036E-001	5.99286E-003	0.00000E+000	3.94352E-003	3.59960E-001	-1.03639E+000	3.57850E+000	10	...........
	15	0.213333	6.63821E-001	5.99845E-003	0.00000E+000	3.98190E-003	3.59960E-001	-1.02716E+000	3.57850E+000	10	...........
	16	0.226667	6.69673E-001	5.99567E-003	0.00000E+000	4.01514E-003	3.59960E-001	-1.02420E+000	3.57768E+000	10	...........
	17	0.24	6.75469E-001	5.99340E-003	0.00000E+000	4.04835E-003	3.59960E-001	-1.03627E+000	3.57740E+000	10	...........
	18	0.253333	6.81240E-001	5.99422E-003	0.00000E+000	4.08350E-003	3.59960E-001	-1.02691E+000	3.57740E+000	10	...........
	19	0.266667	6.87010E-001	5.99458E-003	0.00000E+000	4.11834E-003	3.59960E-001	-1.02420E+000	3.57740E+000	10	...........
	20	0.28	6.92744E-001	5.99399E-003	0.00000E+000	4.15230E-003	3.59960E-001	-1.03640E+000	3.57740E+000	10	...........
	21	0.293333	6.98461E-001	5.99348E-003	0.00000E+000	4.18621E-003	3.59960E-001	-1.02642E+000	3.57740E+000	10	...........
	22	0.306667	7.04176E-001	5.99508E-003	0.00000E+000	4.22159E-003	3.59960E-001	-1.02351E+000	3.57740E+000	10	...........
	23	0.32	7.09885E-001	5.99306E-003	0.00000E+000	4.25439E-003	3.59960E-001	-1.03600E+000	3.57740E+000	10	...........
	24	0.333333	7.15586E-001	5.99603E-003	0.00000E+000	4.29068E-003	3.59960E-001	-1.02638E+000	3.57740E+000	10	...........
	25	0.346667	7.21321E-001	5.99481E-003	0.00000E+000	4.32418E-003	3.59960E-001	-1.02385E+000	3.57740E+000	10	...........
	26	0.36	7.26977E-001	5.99175E-003	0.00000E+000	4.35586E-003	3.59960E-001	-1.03586E+000	3.57740E+000	10	...........
	27	0.373333	7.32615E-001	5.99063E-003	0.00000E+000	4.38883E-003	3.59960E-001	-1.02627E+000	3.57740E+000	10	...........
	28	0.386667	7.38296E-001	5.99201E-003	0.00000E+000	4.42388E-003	3.59960E-001	-1.02373E+000	3.57740E+000	10	...........
	29	0.4	7.44011E-001	5.99786E-003	0.00000E+000	4.46247E-003	3.59960E-001	-1.03607E+000	3.57740E+000	10	...........
	30	0.413333	7.49681E-001	5.99415E-003	0.00000E+000	4.49370E-003	3.59960E-001	-1.02640E+000	3.57740E+000	10	...........
	31	0.426667	7.55371E-001	5.99190E-003	0.00000E+000	4.52611E-003	3.59960E-001	-1.02352E+000	3.57740E+000	10	...........
	32	0.44	7.61051E-001	5.99296E-003	0.00000E+000	4.56094E-003	3.59960E-001	-1.03585E+000	3.57740E+000	10	...........
	33	0.453333	7.66704E-001	5.99388E-003	0.00000E+000	4.59553E-003	3.59960E-001	-1.02625E+000	3.57740E+000	10	...........
	34	0.466667	7.72372E-001	5.99241E-003	0.00000E+000	4.62838E-003	3.59960E-001	-1.02379E+000	3.57740E+000	10	...........
	35	0.48	7.78019E-001	5.99359E-003	0.00000E+000	4.66313E-003	3.59960E-001	-1.03609E+000	3.57740E+000	10	...........
	36	0.493333	7.83710E-001	5.99106E-003	0.00000E+000	4.69525E-003	3.59960E-001	-1.02632E+000	3.57740E+000	10	...........
	37	0.506667	7.89381E-001	5.99576E-003	0.00000E+000	4.73294E-003	3.59960E-001	-1.02347E+000	3.57740E+000	10	...........
	38	0.52	7.95063E-001	5.99415E-003	0.00000E+000	4.76573E-003	3.59960E-001	-1.03603E+000	3.57740E+000	10	...........
	39	0.533333	8.00762E-001	5.99574E-003	0.00000E+000	4.80116E-003	3.59960E-001	-1.02627E+000	3.57740E+000	10	...........
	40	0.546667	8.06400E-001	5.99572E-003	0.00000E+000	4.83495E-003	3.59960E-001	-1.02406E+000	3.57740E+000	10	...........
	41	0.56	8.12064E-001	5.99240E-003	0.00000E+000	4.86622E-003	3.59960E-001	-1.03623E+000	3.57740E+000	10	...........
	42	0.573333	8.17732E-001	5.99601E-003	0.00000E+000	4.90313E-003	3.59960E-001	-1.02611E+000	3.57740E+000	10	...........
	43	0.586667	8.23376E-001	5.99214E-003	0.00000E+000	4.93379E-003	3.59960E-001	-1.02358E+000	3.57740E+000	10	...........
	44	0.6	8.29052E-001	5.99200E-003	0.00000E+000	4.96768E-003	3.59960E-001	-1.03602E+000	3.57740E+000	10	...........
	45	0.613333	8.34693E-001	5.99474E-003	0.00000E+000	5.00377E-003	3.59960E-001	-1.02607E+000	3.57740E+000	10	...........
	46	0.626667	8.40355E-001	5.99409E-003	0.00000E+000	5.03717E-003	3.59960E-001	-1.02350E+000	3.57740E+000	10	...........
	47	0.64	8.46061E-001	5.99301E-003	0.00000E+000	5.07045E-003	3.59960E-001	-1.03561E+000	3.57740E+000	10	...........
	48	0.653333	8.51683E-001	5.99488E-003	0.00000E+000	5.10573E-003	3.59960E-001	-1.02570E+000	3.57740E+000	10	...........
	49	0.666667	8.57365E-001	5.99340E-003	0.00000E+000	5.13853E-003	3.59960E-001	-1.02337E+000	3.57740E+000	10	...........
	50	0.68	8.63028E-001	5.99592E-003	0.00000E+000	5.17465E-003	3.59960E-001	-1.03582E+000	3.57740E+000	10	...........
	51	0.693333	8.68704E-001	5.99418E-003	0.00000E+000	5.20717E-003	3.59960E-001	-1.02564E+000	3.57740E+000	10	...........
	52	0.706667	8.74356E-001	5.98979E-003	0.00000E+000	5.23721E-003	3.59960E-001	-1.02308E+000	3.57740E+000	10	...........
	53	0.72	8.80001E-001	5.99338E-003	0.00000E+000	5.27418E-003	3.59960E-001	-1.03545E+000	3.57740E+000	10	...........
	54	0.733333	8.85628E-001	5.99589E-003	0.00000E+000	5.31013E-003	3.59960E-001	-1.02568E+000	3.57740E+000	10	...........
	55	0.746667	8.91259E-001	5.99743E-003	0.00000E+000	5.34526E-003	3.59960E-001	-1.02322E+000	3.57740E+000	10	...........
	56	0.76	8.96852E-001	5.99658E-003	0.00000E+000	5.37804E-003	3.59960E-001	-1.03547E+000	3.57740E+000	10	...........
	57	0.773333	9.02439E-001	5.99236E-003	0.00000E+000	5.40774E-003	3.59960E-001	-1.02525E+000	3.57740E+000	10	...........
	58	0.786667	9.08037E-001	5.99685E-003	0.00000E+000	5.44536E-003	3.59960E-001	-1.02314E+000	3.57740E+000	10	...........
	59	0.8	9.13612E-001	5.99856E-003	0.00000E+000	5.48036E-003	3.59960E-001	-1.03565E+000	3.57740E+000	10	...........
	60	0.813333	9.19202E-001	5.99561E-003	0.00000E+000	5.51117E-003	3.59960E-001	-1.02555E+000	3.57740E+000	10	...........
	61	0.826667	9.24765E-001	5.99677E-003	0.00000E+000	5.54561E-003	3.59960E-001	-1.02327E+000	3.57740E+000	10	...........
	62	0.84	9.30288E-001	5.99457E-003	0.00000E+000	5.57668E-003	3.59960E-001	-1.03565E+000	3.57740E+000	10	...........
	63	0.853333	9.35807E-001	5.99549E-003	0.00000E+000	5.61062E-003	3.59960E-001	-1.02538E+000	3.57740E+000	10	...........
	64	0.866667	9.41306E-001	5.99151E-003	0.00000E+000	5.63984E-003	3.59960E-001	-1.02324E+000	3.57740E+000	10	...........
	65	0.88	9.46801E-001	5.99277E-003	0.00000E+000	5.67396E-003	3.59960E-001	-1.03567E+000	3.57740E+000	10	...........
	66	0.893333	9.52330E-001	5.99101E-003	0.00000E+000	5.70542E-003	3.59960E-001	-1.02548E+000	3.57740E+000	10	...........
	67	0.906667	9.57781E-001	5.99155E-003	0.00000E+000	5.73859E-003	3.59960E-001	-1.02325E+000	3.57740E+000	10	...........
	68	0.92	9.63182E-001	5.99440E-003	0.00000E+000	5.77369E-003	3.59960E-001	-1.03558E+000	3.57740E+000	10	...........
	69	0.933333	9.68579E-001	5.99531E-003	0.00000E+000	5.80693E-003	3.59960E-001	-1.02502E+000	3.57740E+000	10	...........
	70	0.946667	9.73979E-001	5.99570E-003	0.00000E+000	5.83969E-003	3.59960E-001	-1.02298E+000	3.57740E+000	10	...........
	71	0.96	9.79329E-001	5.99522E-003	0.00000E+000	5.87129E-003	3.59960E-001	-1.03534E+000	3.57740E+000	10	...........
	72	0.97333	9.84652E-001	5.99590E-003	0.00000E+000	5.90387E-003	3.59960E-001	-1.02485E+000	3.57740E+000	10	...........
	73	0.98667	9.89953E-001	5.98989E-003	0.00000E+000	5.92971E-003	3.59960E-001	-1.02283E+000	3.57740E+000	10	...........
	74	1	9.95218E-001	5.99285E-003	0.00000E+000	5.96420E-003	3.59960E-001	-1.03521E+000	3.57740E+000	10	...........
	75	1.00667	9.99136E-001	5.98947E-003	0.00000E+000	5.98430E-003	3.59960E-001	-1.01265E+000	3.57740E+000	10	...........
STARTTIMEOFFSET	QUANT	70.935	Start Time Offset (s)