File: Data/CV_CRGO300517_1/PWRCCD_CRGO300517_1/CHARGE_DISCHARGE/CHARGE_#522.DTA
EXPLAIN
TAG	PWR800_CHARGE
TITLE	LABEL	PWR Cyclic Charge Discharge (Cell) - Charge Step	Test &Identifier
DATE	LABEL	22-6-2017	Date
TIME	LABEL	15:56:46	Time
NOTES	NOTES	3	&Notes...
	supercap test cell
	0.6mg
	6M KOH
PSTAT	PSTAT	IFC5000-01520	Potentiostat
CAPACITY	QUANT	1.00000E-003	Capacity (A-hr)
CELLTYPE	SELECTOR	1	&Cell Type
WORKINGCONNECTION	SELECTOR	0	&Working Lead
MAXCHARGETIME	VARIABLEANDUNITS	1.00000E+002	s	1.00000E+002	second(s)	Max &Charge Time
CHARGECURRENT	QUANT	6.00000E-003	&Charge Current (A)
VOLTAGEFINISH	TWOPARAM	F	1.00000E-003	3.60000E+003	&Voltage Finish	 I (A) < 	Max Time(s)
SAMPLETIME	QUANT	1.00000E-002	Sa&mple Period (s)
CHARGESTOPAT1	MULTIPARAM	4	1.00000E+000	Charge Stop At &1	Voltage > Limit	V
CHARGESTOPAT2	MULTIPARAM	0	0.00000E+000	Charge Stop At &2	None	N/A
AESBHCSELECTOR	TOGGLE	F	Save Both Half Cells
IRCOMP	TOGGLE	F	IR &Measure
EOC	QUANT	0	Open Circuit (V)
SEQUENCER	TOGGLE	TRUE	Run as Sequence
PSTATMODEL	IQUANT	53	Pstat Model
PSTATSECTION	LABEL	IFC5000-01520	Pstat Section
PSTATSERIALNO	LABEL	01520	Pstat Serial Number
CTRLMODE	IQUANT	0	Control Mode
ELECTROMETER	IQUANT	1	RE=0 or CS=1
IESTAB	IQUANT	0	I/E Stability
CASPEED	IQUANT	4	Control Amp Speed
CONVENTION	IQUANT	1	Current Convention
ICHRANGE	IQUANT	2	Ich Range
ICHRANGEMODE	TOGGLE	T	Ich Auto Range
ICHOFFSETENABLE	TOGGLE	F	Ich Offset Enable
ICHOFFSET	QUANT	0	Ich Offset (V)
ICHFILTER	IQUANT	1	Ich Filter
VCHRANGE	IQUANT	2	Vch Range
VCHRANGEMODE	TOGGLE	T	Vch Auto Range
VCHOFFSETENABLE	TOGGLE	F	Vch Offset Enable
VCHOFFSET	QUANT	0	Vch Offset (V)
VCHFILTER	IQUANT	1	Vch Filter
IERANGELOWERLIMIT	IQUANT	9	I/E Range Lower Limit
IERANGEMODE	TOGGLE	F	I/E AutoRange
IERANGE	IQUANT	10	I/E Range
ACHSELECT	IQUANT	1	Ach Select
ACHRANGE	IQUANT	2	Ach Range
ACHOFFSETENABLE	TOGGLE	F	Ach Offset Enable
ACHOFFSET	QUANT	0	Ach Offset (V)
ACHFILTER	IQUANT	1	Ach Filter
CABLEID	IQUANT	14	Cable ID
DCCALDATE	LABEL	20-10-2016	DC Calibration Date
ACCALDATE	LABEL	12/3/2015	AC Calibration Date
FRAMEWORKVERSION	QUANT	7.01	Framework Version
INSTRUMENTVERSION	LABEL	4.00	Instrument Version
CURVE	TABLE	58
	Pt	T	Vf	Im	Vu	Pwr	Sig	Ach	Temp	IERange	Over
	#	s	V	A	V	W	V	V	deg C	#	bits
	0	0.013333	6.33647E-001	5.99901E-003	0.00000E+000	3.80125E-003	3.59960E-001	-1.09275E+000	3.57790E+000	10	...........
	1	0.026667	6.42592E-001	5.99295E-003	0.00000E+000	3.85102E-003	3.59960E-001	-1.09240E+000	3.57790E+000	10	...........
	2	0.04	6.50765E-001	5.99900E-003	0.00000E+000	3.90394E-003	3.59960E-001	-1.08546E+000	3.57790E+000	10	...........
	3	0.053333	6.58521E-001	5.99564E-003	0.00000E+000	3.94826E-003	3.59960E-001	-1.09323E+000	3.57790E+000	10	...........
	4	0.066667	6.65976E-001	5.99787E-003	0.00000E+000	3.99443E-003	3.59960E-001	-1.09253E+000	3.57790E+000	10	...........
	5	0.08	6.73251E-001	5.99524E-003	0.00000E+000	4.03630E-003	3.59960E-001	-1.08611E+000	3.57790E+000	10	...........
	6	0.093333	6.80428E-001	5.99506E-003	0.00000E+000	4.07921E-003	3.59960E-001	-1.09439E+000	3.57790E+000	10	...........
	7	0.106667	6.87452E-001	5.99328E-003	0.00000E+000	4.12009E-003	3.59960E-001	-1.09390E+000	3.57790E+000	10	...........
	8	0.12	6.94407E-001	5.99083E-003	0.00000E+000	4.16008E-003	3.59960E-001	-1.08702E+000	3.57790E+000	10	...........
	9	0.133333	7.01289E-001	5.99868E-003	0.00000E+000	4.20681E-003	3.59960E-001	-1.09504E+000	3.57790E+000	10	...........
	10	0.146667	7.08104E-001	5.99069E-003	0.00000E+000	4.24203E-003	3.59960E-001	-1.09467E+000	3.57790E+000	10	...........
	11	0.16	7.14861E-001	5.98836E-003	0.00000E+000	4.28084E-003	3.59960E-001	-1.08812E+000	3.57790E+000	10	...........
	12	0.173333	7.21629E-001	5.99585E-003	0.00000E+000	4.32677E-003	3.59960E-001	-1.09626E+000	3.57790E+000	10	...........
	13	0.186667	7.28300E-001	5.99036E-003	0.00000E+000	4.36278E-003	3.59960E-001	-1.09564E+000	3.57790E+000	10	...........
	14	0.2	7.34937E-001	5.98931E-003	0.00000E+000	4.40176E-003	3.59960E-001	-1.08903E+000	3.57790E+000	10	...........
	15	0.213333	7.41580E-001	5.99297E-003	0.00000E+000	4.44426E-003	3.59960E-001	-1.09718E+000	3.57790E+000	10	...........
	16	0.226667	7.48165E-001	5.99079E-003	0.00000E+000	4.48210E-003	3.59960E-001	-1.09696E+000	3.57790E+000	10	...........
	17	0.24	7.54797E-001	5.99268E-003	0.00000E+000	4.52325E-003	3.59960E-001	-1.09060E+000	3.57790E+000	10	...........
	18	0.253333	7.61317E-001	5.99057E-003	0.00000E+000	4.56072E-003	3.59960E-001	-1.09839E+000	3.57790E+000	10	...........
	19	0.266667	7.67807E-001	5.99688E-003	0.00000E+000	4.60444E-003	3.59960E-001	-1.09765E+000	3.57790E+000	10	...........
	20	0.28	7.74298E-001	5.99322E-003	0.00000E+000	4.64054E-003	3.59960E-001	-1.09102E+000	3.57790E+000	10	...........
	21	0.293333	7.80815E-001	5.99712E-003	0.00000E+000	4.68264E-003	3.59960E-001	-1.09940E+000	3.57790E+000	10	...........
	22	0.306667	7.87279E-001	5.99459E-003	0.00000E+000	4.71942E-003	3.59960E-001	-1.09882E+000	3.57790E+000	10	...........
	23	0.32	7.93783E-001	5.99383E-003	0.00000E+000	4.75780E-003	3.59960E-001	-1.09212E+000	3.57790E+000	10	...........
	24	0.333333	8.00234E-001	5.99393E-003	0.00000E+000	4.79654E-003	3.59960E-001	-1.09991E+000	3.57790E+000	10	...........
	25	0.346667	8.06680E-001	5.99506E-003	0.00000E+000	4.83610E-003	3.59960E-001	-1.09948E+000	3.57790E+000	10	...........
	26	0.36	8.13069E-001	5.99561E-003	0.00000E+000	4.87484E-003	3.59960E-001	-1.09290E+000	3.57790E+000	10	...........
	27	0.373333	8.19465E-001	5.99138E-003	0.00000E+000	4.90973E-003	3.59960E-001	-1.10105E+000	3.57790E+000	10	...........
	28	0.386667	8.25856E-001	5.99221E-003	0.00000E+000	4.94870E-003	3.59960E-001	-1.10058E+000	3.57790E+000	10	...........
	29	0.4	8.32217E-001	5.99809E-003	0.00000E+000	4.99171E-003	3.59960E-001	-1.09378E+000	3.57790E+000	10	...........
	30	0.413333	8.38533E-001	5.99530E-003	0.00000E+000	5.02726E-003	3.59960E-001	-1.10200E+000	3.57790E+000	10	...........
	31	0.426667	8.44919E-001	5.99324E-003	0.00000E+000	5.06380E-003	3.59960E-001	-1.10173E+000	3.57790E+000	10	...........
	32	0.44	8.51224E-001	5.99447E-003	0.00000E+000	5.10264E-003	3.59960E-001	-1.09527E+000	3.57790E+000	10	...........
	33	0.453333	8.57476E-001	5.99942E-003	0.00000E+000	5.14436E-003	3.59960E-001	-1.10330E+000	3.57790E+000	10	...........
	34	0.466667	8.63726E-001	5.99479E-003	0.00000E+000	5.17786E-003	3.59960E-001	-1.10263E+000	3.57790E+000	10	...........
	35	0.48	8.69991E-001	5.99264E-003	0.00000E+000	5.21355E-003	3.59960E-001	-1.09608E+000	3.57790E+000	10	...........
	36	0.493333	8.76253E-001	5.99278E-003	0.00000E+000	5.25119E-003	3.59960E-001	-1.10431E+000	3.57790E+000	10	...........
	37	0.506667	8.82475E-001	5.99408E-003	0.00000E+000	5.28963E-003	3.59960E-001	-1.10379E+000	3.57790E+000	10	...........
	38	0.52	8.88662E-001	5.99209E-003	0.00000E+000	5.32494E-003	3.59960E-001	-1.09713E+000	3.57790E+000	10	...........
	39	0.533333	8.94835E-001	5.99576E-003	0.00000E+000	5.36522E-003	3.59960E-001	-1.10508E+000	3.57790E+000	10	...........
	40	0.546667	9.00966E-001	5.99805E-003	0.00000E+000	5.40404E-003	3.59960E-001	-1.10461E+000	3.57790E+000	10	...........
	41	0.56	9.07065E-001	5.99312E-003	0.00000E+000	5.43615E-003	3.59960E-001	-1.09824E+000	3.57790E+000	10	...........
	42	0.573333	9.13149E-001	5.99369E-003	0.00000E+000	5.47313E-003	3.59960E-001	-1.10627E+000	3.57737E+000	10	...........
	43	0.586667	9.19217E-001	5.99427E-003	0.00000E+000	5.51003E-003	3.59960E-001	-1.10585E+000	3.57730E+000	10	...........
	44	0.6	9.25285E-001	5.99498E-003	0.00000E+000	5.54707E-003	3.59960E-001	-1.09887E+000	3.57730E+000	10	...........
	45	0.613333	9.31300E-001	5.99514E-003	0.00000E+000	5.58327E-003	3.59960E-001	-1.10699E+000	3.57730E+000	10	...........
	46	0.626667	9.37203E-001	5.99464E-003	0.00000E+000	5.61819E-003	3.59960E-001	-1.10662E+000	3.57730E+000	10	...........
	47	0.64	9.43102E-001	5.99498E-003	0.00000E+000	5.65388E-003	3.59960E-001	-1.09986E+000	3.57730E+000	10	...........
	48	0.653333	9.49018E-001	5.99374E-003	0.00000E+000	5.68816E-003	3.59960E-001	-1.10717E+000	3.57730E+000	10	...........
	49	0.666667	9.54839E-001	5.99252E-003	0.00000E+000	5.72189E-003	3.59960E-001	-1.10685E+000	3.57730E+000	10	...........
	50	0.68	9.60568E-001	5.99858E-003	0.00000E+000	5.76204E-003	3.59960E-001	-1.10017E+000	3.57730E+000	10	...........
	51	0.693333	9.66309E-001	5.99391E-003	0.00000E+000	5.79197E-003	3.59960E-001	-1.10840E+000	3.57730E+000	10	...........
	52	0.706667	9.72049E-001	5.99484E-003	0.00000E+000	5.82728E-003	3.59960E-001	-1.10809E+000	3.57730E+000	10	...........
	53	0.72	9.77733E-001	5.99337E-003	0.00000E+000	5.85992E-003	3.59960E-001	-1.10135E+000	3.57730E+000	10	...........
	54	0.733333	9.83323E-001	5.99431E-003	0.00000E+000	5.89434E-003	3.59960E-001	-1.10921E+000	3.57730E+000	10	...........
	55	0.746667	9.88899E-001	5.99471E-003	0.00000E+000	5.92816E-003	3.59960E-001	-1.10879E+000	3.57730E+000	10	...........
	56	0.76	9.94352E-001	5.99241E-003	0.00000E+000	5.95857E-003	3.59960E-001	-1.10214E+000	3.57730E+000	10	...........
	57	0.768333	9.98826E-001	5.99316E-003	0.00000E+000	5.98612E-003	3.59960E-001	-1.11653E+000	3.57730E+000	10	...........
STARTTIMEOFFSET	QUANT	892.8085	Start Time Offset (s)