File: Data/CV_CRGO300517_1/PWRCCD_CRGO300517_1/CHARGE_DISCHARGE/CHARGE_#616.DTA
EXPLAIN
TAG	PWR800_CHARGE
TITLE	LABEL	PWR Cyclic Charge Discharge (Cell) - Charge Step	Test &Identifier
DATE	LABEL	22-6-2017	Date
TIME	LABEL	16:00:22	Time
NOTES	NOTES	3	&Notes...
	supercap test cell
	0.6mg
	6M KOH
PSTAT	PSTAT	IFC5000-01520	Potentiostat
CAPACITY	QUANT	1.00000E-003	Capacity (A-hr)
CELLTYPE	SELECTOR	1	&Cell Type
WORKINGCONNECTION	SELECTOR	0	&Working Lead
MAXCHARGETIME	VARIABLEANDUNITS	1.00000E+002	s	1.00000E+002	second(s)	Max &Charge Time
CHARGECURRENT	QUANT	6.00000E-003	&Charge Current (A)
VOLTAGEFINISH	TWOPARAM	F	1.00000E-003	3.60000E+003	&Voltage Finish	 I (A) < 	Max Time(s)
SAMPLETIME	QUANT	1.00000E-002	Sa&mple Period (s)
CHARGESTOPAT1	MULTIPARAM	4	1.00000E+000	Charge Stop At &1	Voltage > Limit	V
CHARGESTOPAT2	MULTIPARAM	0	0.00000E+000	Charge Stop At &2	None	N/A
AESBHCSELECTOR	TOGGLE	F	Save Both Half Cells
IRCOMP	TOGGLE	F	IR &Measure
EOC	QUANT	0	Open Circuit (V)
SEQUENCER	TOGGLE	TRUE	Run as Sequence
PSTATMODEL	IQUANT	53	Pstat Model
PSTATSECTION	LABEL	IFC5000-01520	Pstat Section
PSTATSERIALNO	LABEL	01520	Pstat Serial Number
CTRLMODE	IQUANT	0	Control Mode
ELECTROMETER	IQUANT	1	RE=0 or CS=1
IESTAB	IQUANT	0	I/E Stability
CASPEED	IQUANT	4	Control Amp Speed
CONVENTION	IQUANT	1	Current Convention
ICHRANGE	IQUANT	2	Ich Range
ICHRANGEMODE	TOGGLE	T	Ich Auto Range
ICHOFFSETENABLE	TOGGLE	F	Ich Offset Enable
ICHOFFSET	QUANT	0	Ich Offset (V)
ICHFILTER	IQUANT	1	Ich Filter
VCHRANGE	IQUANT	2	Vch Range
VCHRANGEMODE	TOGGLE	T	Vch Auto Range
VCHOFFSETENABLE	TOGGLE	F	Vch Offset Enable
VCHOFFSET	QUANT	0	Vch Offset (V)
VCHFILTER	IQUANT	1	Vch Filter
IERANGELOWERLIMIT	IQUANT	9	I/E Range Lower Limit
IERANGEMODE	TOGGLE	F	I/E AutoRange
IERANGE	IQUANT	10	I/E Range
ACHSELECT	IQUANT	1	Ach Select
ACHRANGE	IQUANT	2	Ach Range
ACHOFFSETENABLE	TOGGLE	F	Ach Offset Enable
ACHOFFSET	QUANT	0	Ach Offset (V)
ACHFILTER	IQUANT	1	Ach Filter
CABLEID	IQUANT	14	Cable ID
DCCALDATE	LABEL	20-10-2016	DC Calibration Date
ACCALDATE	LABEL	12/3/2015	AC Calibration Date
FRAMEWORKVERSION	QUANT	7.01	Framework Version
INSTRUMENTVERSION	LABEL	4.00	Instrument Version
CURVE	TABLE	57
	Pt	T	Vf	Im	Vu	Pwr	Sig	Ach	Temp	IERange	Over
	#	s	V	A	V	W	V	V	deg C	#	bits
	0	0.013333	6.38658E-001	5.99412E-003	0.00000E+000	3.82819E-003	3.59960E-001	-1.15439E+000	3.57640E+000	10	...........
	1	0.026667	6.47641E-001	5.99861E-003	0.00000E+000	3.88495E-003	3.59960E-001	-1.14821E+000	3.57640E+000	10	...........
	2	0.04	6.55913E-001	5.99182E-003	0.00000E+000	3.93011E-003	3.59960E-001	-1.15669E+000	3.57640E+000	10	...........
	3	0.053333	6.63758E-001	5.99483E-003	0.00000E+000	3.97912E-003	3.59960E-001	-1.15436E+000	3.57640E+000	10	...........
	4	0.066667	6.71364E-001	5.99281E-003	0.00000E+000	4.02336E-003	3.59960E-001	-1.14837E+000	3.57640E+000	10	...........
	5	0.08	6.78728E-001	5.99715E-003	0.00000E+000	4.07043E-003	3.59960E-001	-1.15675E+000	3.57640E+000	10	...........
	6	0.093333	6.85929E-001	5.99617E-003	0.00000E+000	4.11295E-003	3.59960E-001	-1.15420E+000	3.57640E+000	10	...........
	7	0.106667	6.93066E-001	5.99197E-003	0.00000E+000	4.15283E-003	3.59960E-001	-1.14833E+000	3.57640E+000	10	...........
	8	0.12	7.00113E-001	5.99748E-003	0.00000E+000	4.19892E-003	3.59960E-001	-1.15683E+000	3.57640E+000	10	...........
	9	0.133333	7.07056E-001	5.99542E-003	0.00000E+000	4.23909E-003	3.59960E-001	-1.15412E+000	3.57640E+000	10	...........
	10	0.146667	7.13941E-001	5.99228E-003	0.00000E+000	4.27813E-003	3.59960E-001	-1.14831E+000	3.57640E+000	10	...........
	11	0.16	7.20794E-001	5.99022E-003	0.00000E+000	4.31772E-003	3.59960E-001	-1.15661E+000	3.57640E+000	10	...........
	12	0.173333	7.27585E-001	5.99298E-003	0.00000E+000	4.36040E-003	3.59960E-001	-1.15390E+000	3.57640E+000	10	...........
	13	0.186667	7.34333E-001	5.99111E-003	0.00000E+000	4.39947E-003	3.59960E-001	-1.14768E+000	3.57640E+000	10	...........
	14	0.2	7.41073E-001	5.99225E-003	0.00000E+000	4.44069E-003	3.59960E-001	-1.15640E+000	3.57640E+000	10	...........
	15	0.213333	7.47779E-001	5.99323E-003	0.00000E+000	4.48161E-003	3.59960E-001	-1.15353E+000	3.57640E+000	10	...........
	16	0.226667	7.54446E-001	5.99493E-003	0.00000E+000	4.52285E-003	3.59960E-001	-1.14773E+000	3.57640E+000	10	...........
	17	0.24	7.61098E-001	5.99857E-003	0.00000E+000	4.56550E-003	3.59960E-001	-1.15627E+000	3.57640E+000	10	...........
	18	0.253333	7.67696E-001	5.99165E-003	0.00000E+000	4.59977E-003	3.59960E-001	-1.15352E+000	3.57640E+000	10	...........
	19	0.266667	7.74324E-001	5.99577E-003	0.00000E+000	4.64267E-003	3.59960E-001	-1.14785E+000	3.57640E+000	10	...........
	20	0.28	7.80892E-001	5.99185E-003	0.00000E+000	4.67899E-003	3.59960E-001	-1.15622E+000	3.57640E+000	10	...........
	21	0.293333	7.87490E-001	5.99962E-003	0.00000E+000	4.72465E-003	3.59960E-001	-1.15326E+000	3.57640E+000	10	...........
	22	0.306667	7.94018E-001	5.99758E-003	0.00000E+000	4.76218E-003	3.59960E-001	-1.14769E+000	3.57640E+000	10	...........
	23	0.32	8.00550E-001	5.99399E-003	0.00000E+000	4.79849E-003	3.59960E-001	-1.15630E+000	3.57650E+000	10	...........
	24	0.333333	8.07049E-001	5.99257E-003	0.00000E+000	4.83630E-003	3.59960E-001	-1.15355E+000	3.57660E+000	10	...........
	25	0.346667	8.13579E-001	5.99529E-003	0.00000E+000	4.87764E-003	3.59960E-001	-1.14772E+000	3.57660E+000	10	...........
	26	0.36	8.20049E-001	5.99387E-003	0.00000E+000	4.91527E-003	3.59960E-001	-1.15604E+000	3.57660E+000	10	...........
	27	0.373333	8.26460E-001	5.99297E-003	0.00000E+000	4.95295E-003	3.59960E-001	-1.15334E+000	3.57660E+000	10	...........
	28	0.386667	8.32871E-001	5.99510E-003	0.00000E+000	4.99314E-003	3.59960E-001	-1.14782E+000	3.57660E+000	10	...........
	29	0.4	8.39283E-001	5.99486E-003	0.00000E+000	5.03138E-003	3.59960E-001	-1.15638E+000	3.57660E+000	10	...........
	30	0.413333	8.45687E-001	5.99355E-003	0.00000E+000	5.06867E-003	3.59960E-001	-1.15337E+000	3.57660E+000	10	...........
	31	0.426667	8.52079E-001	5.99560E-003	0.00000E+000	5.10872E-003	3.59960E-001	-1.14760E+000	3.57660E+000	10	...........
	32	0.44	8.58437E-001	5.99288E-003	0.00000E+000	5.14451E-003	3.59960E-001	-1.15643E+000	3.57660E+000	10	...........
	33	0.453333	8.64842E-001	5.99401E-003	0.00000E+000	5.18387E-003	3.59960E-001	-1.15332E+000	3.57660E+000	10	...........
	34	0.466667	8.71156E-001	5.99571E-003	0.00000E+000	5.22320E-003	3.59960E-001	-1.14764E+000	3.57660E+000	10	...........
	35	0.48	8.77477E-001	5.99687E-003	0.00000E+000	5.26212E-003	3.59960E-001	-1.15631E+000	3.57660E+000	10	...........
	36	0.493333	8.83746E-001	5.99738E-003	0.00000E+000	5.30016E-003	3.59960E-001	-1.15289E+000	3.57660E+000	10	...........
	37	0.506667	8.90001E-001	5.99663E-003	0.00000E+000	5.33700E-003	3.59960E-001	-1.14714E+000	3.57660E+000	10	...........
	38	0.52	8.96191E-001	5.99473E-003	0.00000E+000	5.37242E-003	3.59960E-001	-1.15603E+000	3.57660E+000	10	...........
	39	0.533333	9.02383E-001	5.99681E-003	0.00000E+000	5.41142E-003	3.59960E-001	-1.15275E+000	3.57660E+000	10	...........
	40	0.546667	9.08524E-001	5.99445E-003	0.00000E+000	5.44610E-003	3.59960E-001	-1.14714E+000	3.57660E+000	10	...........
	41	0.56	9.14632E-001	5.99067E-003	0.00000E+000	5.47926E-003	3.59960E-001	-1.15575E+000	3.57660E+000	10	...........
	42	0.573333	9.20772E-001	5.99434E-003	0.00000E+000	5.51943E-003	3.59960E-001	-1.15264E+000	3.57660E+000	10	...........
	43	0.586667	9.26817E-001	5.99718E-003	0.00000E+000	5.55829E-003	3.59960E-001	-1.14720E+000	3.57660E+000	10	...........
	44	0.6	9.32799E-001	5.99302E-003	0.00000E+000	5.59028E-003	3.59960E-001	-1.15593E+000	3.57660E+000	10	...........
	45	0.613333	9.38735E-001	5.98879E-003	0.00000E+000	5.62188E-003	3.59960E-001	-1.15247E+000	3.57660E+000	10	...........
	46	0.626667	9.44635E-001	5.99460E-003	0.00000E+000	5.66271E-003	3.59960E-001	-1.14694E+000	3.57660E+000	10	...........
	47	0.64	9.50521E-001	5.99352E-003	0.00000E+000	5.69696E-003	3.59960E-001	-1.15576E+000	3.57660E+000	10	...........
	48	0.653333	9.56355E-001	5.99617E-003	0.00000E+000	5.73447E-003	3.59960E-001	-1.15261E+000	3.57660E+000	10	...........
	49	0.666667	9.62136E-001	5.99412E-003	0.00000E+000	5.76715E-003	3.59960E-001	-1.14694E+000	3.57660E+000	10	...........
	50	0.68	9.67907E-001	5.99311E-003	0.00000E+000	5.80078E-003	3.59960E-001	-1.15587E+000	3.57660E+000	10	...........
	51	0.693333	9.73692E-001	5.99554E-003	0.00000E+000	5.83781E-003	3.59960E-001	-1.15218E+000	3.57660E+000	10	...........
	52	0.706667	9.79359E-001	5.98946E-003	0.00000E+000	5.86583E-003	3.59960E-001	-1.14696E+000	3.57660E+000	10	...........
	53	0.72	9.84982E-001	5.99453E-003	0.00000E+000	5.90451E-003	3.59960E-001	-1.15599E+000	3.57660E+000	10	...........
	54	0.733333	9.90513E-001	5.99526E-003	0.00000E+000	5.93839E-003	3.59960E-001	-1.15247E+000	3.57660E+000	10	...........
	55	0.746667	9.96074E-001	5.99321E-003	0.00000E+000	5.96968E-003	3.59960E-001	-1.14699E+000	3.57660E+000	10	...........
	56	0.751667	9.99831E-001	5.99463E-003	0.00000E+000	5.99361E-003	3.59960E-001	-1.16146E+000	3.57660E+000	10	...........
STARTTIMEOFFSET	QUANT	1034.88	Start Time Offset (s)