File: Data/CV_CRGO300517_1/PWRCCD_CRGO300517_1/CHARGE_DISCHARGE/CHARGE_#219.DTA
EXPLAIN
TAG	PWR800_CHARGE
TITLE	LABEL	PWR Cyclic Charge Discharge (Cell) - Charge Step	Test &Identifier
DATE	LABEL	22-6-2017	Date
TIME	LABEL	15:44:36	Time
NOTES	NOTES	3	&Notes...
	supercap test cell
	0.6mg
	6M KOH
PSTAT	PSTAT	IFC5000-01520	Potentiostat
CAPACITY	QUANT	1.00000E-003	Capacity (A-hr)
CELLTYPE	SELECTOR	1	&Cell Type
WORKINGCONNECTION	SELECTOR	0	&Working Lead
MAXCHARGETIME	VARIABLEANDUNITS	1.00000E+002	s	1.00000E+002	second(s)	Max &Charge Time
CHARGECURRENT	QUANT	6.00000E-003	&Charge Current (A)
VOLTAGEFINISH	TWOPARAM	F	1.00000E-003	3.60000E+003	&Voltage Finish	 I (A) < 	Max Time(s)
SAMPLETIME	QUANT	1.00000E-002	Sa&mple Period (s)
CHARGESTOPAT1	MULTIPARAM	4	1.00000E+000	Charge Stop At &1	Voltage > Limit	V
CHARGESTOPAT2	MULTIPARAM	0	0.00000E+000	Charge Stop At &2	None	N/A
AESBHCSELECTOR	TOGGLE	F	Save Both Half Cells
IRCOMP	TOGGLE	F	IR &Measure
EOC	QUANT	0	Open Circuit (V)
SEQUENCER	TOGGLE	TRUE	Run as Sequence
PSTATMODEL	IQUANT	53	Pstat Model
PSTATSECTION	LABEL	IFC5000-01520	Pstat Section
PSTATSERIALNO	LABEL	01520	Pstat Serial Number
CTRLMODE	IQUANT	0	Control Mode
ELECTROMETER	IQUANT	1	RE=0 or CS=1
IESTAB	IQUANT	0	I/E Stability
CASPEED	IQUANT	4	Control Amp Speed
CONVENTION	IQUANT	1	Current Convention
ICHRANGE	IQUANT	2	Ich Range
ICHRANGEMODE	TOGGLE	T	Ich Auto Range
ICHOFFSETENABLE	TOGGLE	F	Ich Offset Enable
ICHOFFSET	QUANT	0	Ich Offset (V)
ICHFILTER	IQUANT	1	Ich Filter
VCHRANGE	IQUANT	2	Vch Range
VCHRANGEMODE	TOGGLE	T	Vch Auto Range
VCHOFFSETENABLE	TOGGLE	F	Vch Offset Enable
VCHOFFSET	QUANT	0	Vch Offset (V)
VCHFILTER	IQUANT	1	Vch Filter
IERANGELOWERLIMIT	IQUANT	9	I/E Range Lower Limit
IERANGEMODE	TOGGLE	F	I/E AutoRange
IERANGE	IQUANT	10	I/E Range
ACHSELECT	IQUANT	1	Ach Select
ACHRANGE	IQUANT	2	Ach Range
ACHOFFSETENABLE	TOGGLE	F	Ach Offset Enable
ACHOFFSET	QUANT	0	Ach Offset (V)
ACHFILTER	IQUANT	1	Ach Filter
CABLEID	IQUANT	14	Cable ID
DCCALDATE	LABEL	20-10-2016	DC Calibration Date
ACCALDATE	LABEL	12/3/2015	AC Calibration Date
FRAMEWORKVERSION	QUANT	7.01	Framework Version
INSTRUMENTVERSION	LABEL	4.00	Instrument Version
CURVE	TABLE	65
	Pt	T	Vf	Im	Vu	Pwr	Sig	Ach	Temp	IERange	Over
	#	s	V	A	V	W	V	V	deg C	#	bits
	0	0.013333	6.08460E-001	5.99638E-003	0.00000E+000	3.64856E-003	3.59960E-001	-1.06871E+000	3.57710E+000	10	...........
	1	0.026667	6.16995E-001	5.99256E-003	0.00000E+000	3.69738E-003	3.59960E-001	-1.07425E+000	3.57710E+000	10	...........
	2	0.04	6.24805E-001	5.99362E-003	0.00000E+000	3.74485E-003	3.59960E-001	-1.07677E+000	3.57710E+000	10	...........
	3	0.053333	6.32199E-001	5.98896E-003	0.00000E+000	3.78622E-003	3.59960E-001	-1.07000E+000	3.57710E+000	10	...........
	4	0.066667	6.39298E-001	5.99632E-003	0.00000E+000	3.83343E-003	3.59960E-001	-1.07579E+000	3.57710E+000	10	...........
	5	0.08	6.46236E-001	5.99653E-003	0.00000E+000	3.87517E-003	3.59960E-001	-1.07780E+000	3.57704E+000	10	...........
	6	0.093333	6.53026E-001	5.99863E-003	0.00000E+000	3.91726E-003	3.59960E-001	-1.07123E+000	3.57700E+000	10	...........
	7	0.106667	6.59721E-001	5.99259E-003	0.00000E+000	3.95344E-003	3.59960E-001	-1.07692E+000	3.57700E+000	10	...........
	8	0.12	6.66322E-001	5.99277E-003	0.00000E+000	3.99311E-003	3.59960E-001	-1.07893E+000	3.57700E+000	10	...........
	9	0.133333	6.72843E-001	5.99395E-003	0.00000E+000	4.03299E-003	3.59960E-001	-1.07203E+000	3.57700E+000	10	...........
	10	0.146667	6.79317E-001	5.99287E-003	0.00000E+000	4.07106E-003	3.59960E-001	-1.07779E+000	3.57700E+000	10	...........
	11	0.16	6.85730E-001	5.99645E-003	0.00000E+000	4.11195E-003	3.59960E-001	-1.07993E+000	3.57700E+000	10	...........
	12	0.173333	6.92120E-001	5.99460E-003	0.00000E+000	4.14899E-003	3.59960E-001	-1.07361E+000	3.57700E+000	10	...........
	13	0.186667	6.98426E-001	5.99169E-003	0.00000E+000	4.18476E-003	3.59960E-001	-1.07975E+000	3.57700E+000	10	...........
	14	0.2	7.04751E-001	5.99188E-003	0.00000E+000	4.22279E-003	3.59960E-001	-1.08171E+000	3.57700E+000	10	...........
	15	0.213333	7.11003E-001	5.99437E-003	0.00000E+000	4.26201E-003	3.59960E-001	-1.07545E+000	3.57700E+000	10	...........
	16	0.226667	7.17274E-001	5.99216E-003	0.00000E+000	4.29803E-003	3.59960E-001	-1.08185E+000	3.57700E+000	10	...........
	17	0.24	7.23545E-001	5.99396E-003	0.00000E+000	4.33690E-003	3.59960E-001	-1.08403E+000	3.57700E+000	10	...........
	18	0.253333	7.29749E-001	5.99658E-003	0.00000E+000	4.37600E-003	3.59960E-001	-1.07837E+000	3.57700E+000	10	...........
	19	0.266667	7.35945E-001	5.99369E-003	0.00000E+000	4.41102E-003	3.59960E-001	-1.08464E+000	3.57700E+000	10	...........
	20	0.28	7.42161E-001	6.00020E-003	0.00000E+000	4.45311E-003	3.59960E-001	-1.08648E+000	3.57700E+000	10	...........
	21	0.293333	7.48337E-001	5.99211E-003	0.00000E+000	4.48412E-003	3.59960E-001	-1.08040E+000	3.57700E+000	10	...........
	22	0.306667	7.54518E-001	5.99662E-003	0.00000E+000	4.52456E-003	3.59960E-001	-1.08708E+000	3.57700E+000	10	...........
	23	0.32	7.60682E-001	5.99476E-003	0.00000E+000	4.56011E-003	3.59960E-001	-1.08907E+000	3.57700E+000	10	...........
	24	0.333333	7.66819E-001	5.99070E-003	0.00000E+000	4.59379E-003	3.59960E-001	-1.08320E+000	3.57700E+000	10	...........
	25	0.346667	7.72998E-001	5.99260E-003	0.00000E+000	4.63227E-003	3.59960E-001	-1.08959E+000	3.57700E+000	10	...........
	26	0.36	7.79132E-001	5.99451E-003	0.00000E+000	4.67052E-003	3.59960E-001	-1.09113E+000	3.57700E+000	10	...........
	27	0.373333	7.85253E-001	5.99211E-003	0.00000E+000	4.70533E-003	3.59960E-001	-1.08522E+000	3.57700E+000	10	...........
	28	0.386667	7.91404E-001	5.99293E-003	0.00000E+000	4.74283E-003	3.59960E-001	-1.09159E+000	3.57700E+000	10	...........
	29	0.4	7.97593E-001	5.99119E-003	0.00000E+000	4.77853E-003	3.59960E-001	-1.09254E+000	3.57700E+000	10	...........
	30	0.413333	8.03690E-001	5.98982E-003	0.00000E+000	4.81396E-003	3.59960E-001	-1.08616E+000	3.57700E+000	10	...........
	31	0.426667	8.09801E-001	5.99109E-003	0.00000E+000	4.85159E-003	3.59960E-001	-1.09219E+000	3.57700E+000	10	...........
	32	0.44	8.15877E-001	5.99144E-003	0.00000E+000	4.88828E-003	3.59960E-001	-1.09294E+000	3.57700E+000	10	...........
	33	0.453333	8.22001E-001	5.99785E-003	0.00000E+000	4.93024E-003	3.59960E-001	-1.08664E+000	3.57700E+000	10	...........
	34	0.466667	8.28067E-001	5.99119E-003	0.00000E+000	4.96111E-003	3.59960E-001	-1.09242E+000	3.57700E+000	10	...........
	35	0.48	8.34123E-001	5.99338E-003	0.00000E+000	4.99922E-003	3.59960E-001	-1.09327E+000	3.57700E+000	10	...........
	36	0.493333	8.40154E-001	5.99158E-003	0.00000E+000	5.03385E-003	3.59960E-001	-1.08672E+000	3.57700E+000	10	...........
	37	0.506667	8.46262E-001	5.99723E-003	0.00000E+000	5.07523E-003	3.59960E-001	-1.09314E+000	3.57700E+000	10	...........
	38	0.52	8.52309E-001	5.98838E-003	0.00000E+000	5.10395E-003	3.59960E-001	-1.09380E+000	3.57700E+000	10	...........
	39	0.533333	8.58309E-001	5.99254E-003	0.00000E+000	5.14345E-003	3.59960E-001	-1.08728E+000	3.57700E+000	10	...........
	40	0.546667	8.64304E-001	5.99191E-003	0.00000E+000	5.17883E-003	3.59960E-001	-1.09351E+000	3.57700E+000	10	...........
	41	0.56	8.70360E-001	5.99642E-003	0.00000E+000	5.21904E-003	3.59960E-001	-1.09409E+000	3.57700E+000	10	...........
	42	0.573333	8.76336E-001	5.99383E-003	0.00000E+000	5.25261E-003	3.59960E-001	-1.08770E+000	3.57700E+000	10	...........
	43	0.586667	8.82322E-001	5.99340E-003	0.00000E+000	5.28810E-003	3.59960E-001	-1.09414E+000	3.57700E+000	10	...........
	44	0.6	8.88219E-001	5.99419E-003	0.00000E+000	5.32415E-003	3.59960E-001	-1.09450E+000	3.57700E+000	10	...........
	45	0.613333	8.94166E-001	5.99400E-003	0.00000E+000	5.35963E-003	3.59960E-001	-1.08803E+000	3.57700E+000	10	...........
	46	0.626667	9.00078E-001	5.99265E-003	0.00000E+000	5.39386E-003	3.59960E-001	-1.09469E+000	3.57700E+000	10	...........
	47	0.64	9.05992E-001	5.99413E-003	0.00000E+000	5.43063E-003	3.59960E-001	-1.09513E+000	3.57700E+000	10	...........
	48	0.653333	9.11858E-001	5.99088E-003	0.00000E+000	5.46283E-003	3.59960E-001	-1.08902E+000	3.57700E+000	10	...........
	49	0.666667	9.17711E-001	5.99238E-003	0.00000E+000	5.49928E-003	3.59960E-001	-1.09544E+000	3.57700E+000	10	...........
	50	0.68	9.23584E-001	5.99501E-003	0.00000E+000	5.53690E-003	3.59960E-001	-1.09546E+000	3.57700E+000	10	...........
	51	0.693333	9.29389E-001	5.99469E-003	0.00000E+000	5.57140E-003	3.59960E-001	-1.08937E+000	3.57700E+000	10	...........
	52	0.706667	9.35133E-001	5.99448E-003	0.00000E+000	5.60563E-003	3.59960E-001	-1.09628E+000	3.57700E+000	10	...........
	53	0.72	9.40865E-001	5.99281E-003	0.00000E+000	5.63842E-003	3.59960E-001	-1.09634E+000	3.57700E+000	10	...........
	54	0.733333	9.46602E-001	5.99747E-003	0.00000E+000	5.67722E-003	3.59960E-001	-1.09051E+000	3.57700E+000	10	...........
	55	0.746667	9.52306E-001	5.99546E-003	0.00000E+000	5.70951E-003	3.59960E-001	-1.09734E+000	3.57700E+000	10	...........
	56	0.76	9.57965E-001	5.99587E-003	0.00000E+000	5.74383E-003	3.59960E-001	-1.09740E+000	3.57700E+000	10	...........
	57	0.773333	9.63568E-001	5.98954E-003	0.00000E+000	5.77132E-003	3.59960E-001	-1.09141E+000	3.57700E+000	10	...........
	58	0.786667	9.69134E-001	5.99260E-003	0.00000E+000	5.80763E-003	3.59960E-001	-1.09873E+000	3.57700E+000	10	...........
	59	0.8	9.74736E-001	5.98941E-003	0.00000E+000	5.83809E-003	3.59960E-001	-1.09880E+000	3.57700E+000	10	...........
	60	0.813333	9.80244E-001	5.99147E-003	0.00000E+000	5.87310E-003	3.59960E-001	-1.09266E+000	3.57700E+000	10	...........
	61	0.826667	9.85719E-001	5.99792E-003	0.00000E+000	5.91226E-003	3.59960E-001	-1.09981E+000	3.57700E+000	10	...........
	62	0.84	9.91143E-001	5.99182E-003	0.00000E+000	5.93875E-003	3.59960E-001	-1.09985E+000	3.57700E+000	10	...........
	63	0.853333	9.96538E-001	5.99178E-003	0.00000E+000	5.97103E-003	3.59960E-001	-1.09379E+000	3.57700E+000	10	...........
	64	0.856667	9.99914E-001	5.98883E-003	0.00000E+000	5.98831E-003	3.59960E-001	-1.10739E+000	3.57700E+000	10	...........
STARTTIMEOFFSET	QUANT	405.4999	Start Time Offset (s)