File: Data/CV_CRGO300517_1/PWRCCD_CRGO300517_1/CHARGE_DISCHARGE/CHARGE_#588.DTA
EXPLAIN
TAG	PWR800_CHARGE
TITLE	LABEL	PWR Cyclic Charge Discharge (Cell) - Charge Step	Test &Identifier
DATE	LABEL	22-6-2017	Date
TIME	LABEL	15:59:18	Time
NOTES	NOTES	3	&Notes...
	supercap test cell
	0.6mg
	6M KOH
PSTAT	PSTAT	IFC5000-01520	Potentiostat
CAPACITY	QUANT	1.00000E-003	Capacity (A-hr)
CELLTYPE	SELECTOR	1	&Cell Type
WORKINGCONNECTION	SELECTOR	0	&Working Lead
MAXCHARGETIME	VARIABLEANDUNITS	1.00000E+002	s	1.00000E+002	second(s)	Max &Charge Time
CHARGECURRENT	QUANT	6.00000E-003	&Charge Current (A)
VOLTAGEFINISH	TWOPARAM	F	1.00000E-003	3.60000E+003	&Voltage Finish	 I (A) < 	Max Time(s)
SAMPLETIME	QUANT	1.00000E-002	Sa&mple Period (s)
CHARGESTOPAT1	MULTIPARAM	4	1.00000E+000	Charge Stop At &1	Voltage > Limit	V
CHARGESTOPAT2	MULTIPARAM	0	0.00000E+000	Charge Stop At &2	None	N/A
AESBHCSELECTOR	TOGGLE	F	Save Both Half Cells
IRCOMP	TOGGLE	F	IR &Measure
EOC	QUANT	0	Open Circuit (V)
SEQUENCER	TOGGLE	TRUE	Run as Sequence
PSTATMODEL	IQUANT	53	Pstat Model
PSTATSECTION	LABEL	IFC5000-01520	Pstat Section
PSTATSERIALNO	LABEL	01520	Pstat Serial Number
CTRLMODE	IQUANT	0	Control Mode
ELECTROMETER	IQUANT	1	RE=0 or CS=1
IESTAB	IQUANT	0	I/E Stability
CASPEED	IQUANT	4	Control Amp Speed
CONVENTION	IQUANT	1	Current Convention
ICHRANGE	IQUANT	2	Ich Range
ICHRANGEMODE	TOGGLE	T	Ich Auto Range
ICHOFFSETENABLE	TOGGLE	F	Ich Offset Enable
ICHOFFSET	QUANT	0	Ich Offset (V)
ICHFILTER	IQUANT	1	Ich Filter
VCHRANGE	IQUANT	2	Vch Range
VCHRANGEMODE	TOGGLE	T	Vch Auto Range
VCHOFFSETENABLE	TOGGLE	F	Vch Offset Enable
VCHOFFSET	QUANT	0	Vch Offset (V)
VCHFILTER	IQUANT	1	Vch Filter
IERANGELOWERLIMIT	IQUANT	9	I/E Range Lower Limit
IERANGEMODE	TOGGLE	F	I/E AutoRange
IERANGE	IQUANT	10	I/E Range
ACHSELECT	IQUANT	1	Ach Select
ACHRANGE	IQUANT	2	Ach Range
ACHOFFSETENABLE	TOGGLE	F	Ach Offset Enable
ACHOFFSET	QUANT	0	Ach Offset (V)
ACHFILTER	IQUANT	1	Ach Filter
CABLEID	IQUANT	14	Cable ID
DCCALDATE	LABEL	20-10-2016	DC Calibration Date
ACCALDATE	LABEL	12/3/2015	AC Calibration Date
FRAMEWORKVERSION	QUANT	7.01	Framework Version
INSTRUMENTVERSION	LABEL	4.00	Instrument Version
CURVE	TABLE	57
	Pt	T	Vf	Im	Vu	Pwr	Sig	Ach	Temp	IERange	Over
	#	s	V	A	V	W	V	V	deg C	#	bits
	0	0.013333	6.37571E-001	5.99289E-003	0.00000E+000	3.82090E-003	3.59960E-001	-1.14411E+000	3.57640E+000	10	...........
	1	0.026667	6.46511E-001	5.99229E-003	0.00000E+000	3.87408E-003	3.59960E-001	-1.14829E+000	3.57640E+000	10	...........
	2	0.04	6.54775E-001	5.99337E-003	0.00000E+000	3.92431E-003	3.59960E-001	-1.15305E+000	3.57640E+000	10	...........
	3	0.053333	6.62563E-001	5.99157E-003	0.00000E+000	3.96979E-003	3.59960E-001	-1.14389E+000	3.57640E+000	10	...........
	4	0.066667	6.70160E-001	5.98743E-003	0.00000E+000	4.01253E-003	3.59960E-001	-1.14841E+000	3.57640E+000	10	...........
	5	0.08	6.77499E-001	5.99995E-003	0.00000E+000	4.06495E-003	3.59960E-001	-1.15307E+000	3.57640E+000	10	...........
	6	0.093333	6.84645E-001	5.99468E-003	0.00000E+000	4.10423E-003	3.59960E-001	-1.14405E+000	3.57640E+000	10	...........
	7	0.106667	6.91756E-001	5.99827E-003	0.00000E+000	4.14934E-003	3.59960E-001	-1.14807E+000	3.57640E+000	10	...........
	8	0.12	6.98766E-001	5.99413E-003	0.00000E+000	4.18849E-003	3.59960E-001	-1.15287E+000	3.57640E+000	10	...........
	9	0.133333	7.05661E-001	5.99266E-003	0.00000E+000	4.22879E-003	3.59960E-001	-1.14378E+000	3.57640E+000	10	...........
	10	0.146667	7.12489E-001	5.99702E-003	0.00000E+000	4.27281E-003	3.59960E-001	-1.14790E+000	3.57640E+000	10	...........
	11	0.16	7.19358E-001	5.99758E-003	0.00000E+000	4.31440E-003	3.59960E-001	-1.15256E+000	3.57640E+000	10	...........
	12	0.173333	7.26148E-001	5.99310E-003	0.00000E+000	4.35188E-003	3.59960E-001	-1.14310E+000	3.57640E+000	10	...........
	13	0.186667	7.32838E-001	5.99595E-003	0.00000E+000	4.39406E-003	3.59960E-001	-1.14759E+000	3.57640E+000	10	...........
	14	0.2	7.39538E-001	5.99330E-003	0.00000E+000	4.43227E-003	3.59960E-001	-1.15256E+000	3.57640E+000	10	...........
	15	0.213333	7.46234E-001	5.99633E-003	0.00000E+000	4.47466E-003	3.59960E-001	-1.14324E+000	3.57640E+000	10	...........
	16	0.226667	7.52898E-001	5.99793E-003	0.00000E+000	4.51583E-003	3.59960E-001	-1.14765E+000	3.57640E+000	10	...........
	17	0.24	7.59523E-001	5.99225E-003	0.00000E+000	4.55125E-003	3.59960E-001	-1.15229E+000	3.57640E+000	10	...........
	18	0.253333	7.66085E-001	5.99217E-003	0.00000E+000	4.59052E-003	3.59960E-001	-1.14302E+000	3.57640E+000	10	...........
	19	0.266667	7.72682E-001	5.99342E-003	0.00000E+000	4.63101E-003	3.59960E-001	-1.14724E+000	3.57640E+000	10	...........
	20	0.28	7.79269E-001	5.99335E-003	0.00000E+000	4.67043E-003	3.59960E-001	-1.15251E+000	3.57640E+000	10	...........
	21	0.293333	7.85820E-001	5.99387E-003	0.00000E+000	4.71011E-003	3.59960E-001	-1.14290E+000	3.57640E+000	10	...........
	22	0.306667	7.92347E-001	5.99311E-003	0.00000E+000	4.74863E-003	3.59960E-001	-1.14697E+000	3.57640E+000	10	...........
	23	0.32	7.98868E-001	5.99567E-003	0.00000E+000	4.78975E-003	3.59960E-001	-1.15212E+000	3.57640E+000	10	...........
	24	0.333333	8.05351E-001	5.99522E-003	0.00000E+000	4.82826E-003	3.59960E-001	-1.14304E+000	3.57640E+000	10	...........
	25	0.346667	8.11844E-001	5.99325E-003	0.00000E+000	4.86559E-003	3.59960E-001	-1.14742E+000	3.57640E+000	10	...........
	26	0.36	8.18308E-001	5.99195E-003	0.00000E+000	4.90326E-003	3.59960E-001	-1.15222E+000	3.57640E+000	10	...........
	27	0.373333	8.24744E-001	5.98698E-003	0.00000E+000	4.93773E-003	3.59960E-001	-1.14312E+000	3.57640E+000	10	...........
	28	0.386667	8.31162E-001	5.99531E-003	0.00000E+000	4.98307E-003	3.59960E-001	-1.14738E+000	3.57640E+000	10	...........
	29	0.4	8.37564E-001	5.98879E-003	0.00000E+000	5.01599E-003	3.59960E-001	-1.15250E+000	3.57640E+000	10	...........
	30	0.413333	8.43973E-001	5.99193E-003	0.00000E+000	5.05703E-003	3.59960E-001	-1.14313E+000	3.57642E+000	10	...........
	31	0.426667	8.50341E-001	5.99350E-003	0.00000E+000	5.09652E-003	3.59960E-001	-1.14743E+000	3.57660E+000	10	...........
	32	0.44	8.56671E-001	5.99547E-003	0.00000E+000	5.13615E-003	3.59960E-001	-1.15216E+000	3.57660E+000	10	...........
	33	0.453333	8.62986E-001	5.99564E-003	0.00000E+000	5.17415E-003	3.59960E-001	-1.14306E+000	3.57660E+000	10	...........
	34	0.466667	8.69317E-001	5.99146E-003	0.00000E+000	5.20847E-003	3.59960E-001	-1.14713E+000	3.57660E+000	10	...........
	35	0.48	8.75639E-001	5.99512E-003	0.00000E+000	5.24956E-003	3.59960E-001	-1.15194E+000	3.57660E+000	10	...........
	36	0.493333	8.81867E-001	5.99556E-003	0.00000E+000	5.28729E-003	3.59960E-001	-1.14269E+000	3.57660E+000	10	...........
	37	0.506667	8.88121E-001	5.99555E-003	0.00000E+000	5.32478E-003	3.59960E-001	-1.14673E+000	3.57660E+000	10	...........
	38	0.52	8.94305E-001	5.99156E-003	0.00000E+000	5.35828E-003	3.59960E-001	-1.15183E+000	3.57660E+000	10	...........
	39	0.533333	9.00453E-001	5.99435E-003	0.00000E+000	5.39764E-003	3.59960E-001	-1.14268E+000	3.57660E+000	10	...........
	40	0.546667	9.06616E-001	5.99323E-003	0.00000E+000	5.43355E-003	3.59960E-001	-1.14693E+000	3.57660E+000	10	...........
	41	0.56	9.12764E-001	5.99598E-003	0.00000E+000	5.47292E-003	3.59960E-001	-1.15180E+000	3.57660E+000	10	...........
	42	0.573333	9.18826E-001	5.99660E-003	0.00000E+000	5.50983E-003	3.59960E-001	-1.14242E+000	3.57660E+000	10	...........
	43	0.586667	9.24937E-001	5.99252E-003	0.00000E+000	5.54271E-003	3.59960E-001	-1.14669E+000	3.57660E+000	10	...........
	44	0.6	9.30906E-001	5.99324E-003	0.00000E+000	5.57914E-003	3.59960E-001	-1.15173E+000	3.57660E+000	10	...........
	45	0.613333	9.36872E-001	5.99218E-003	0.00000E+000	5.61391E-003	3.59960E-001	-1.14267E+000	3.57660E+000	10	...........
	46	0.626667	9.42788E-001	5.99584E-003	0.00000E+000	5.65280E-003	3.59960E-001	-1.14680E+000	3.57660E+000	10	...........
	47	0.64	9.48715E-001	5.99641E-003	0.00000E+000	5.68888E-003	3.59960E-001	-1.15171E+000	3.57660E+000	10	...........
	48	0.653333	9.54562E-001	5.99340E-003	0.00000E+000	5.72107E-003	3.59960E-001	-1.14243E+000	3.57660E+000	10	...........
	49	0.666667	9.60359E-001	5.99304E-003	0.00000E+000	5.75547E-003	3.59960E-001	-1.14685E+000	3.57660E+000	10	...........
	50	0.68	9.66115E-001	5.99844E-003	0.00000E+000	5.79519E-003	3.59960E-001	-1.15197E+000	3.57660E+000	10	...........
	51	0.693333	9.71850E-001	5.99545E-003	0.00000E+000	5.82668E-003	3.59960E-001	-1.14269E+000	3.57660E+000	10	...........
	52	0.706667	9.77561E-001	5.99899E-003	0.00000E+000	5.86437E-003	3.59960E-001	-1.14695E+000	3.57660E+000	10	...........
	53	0.72	9.83123E-001	5.99027E-003	0.00000E+000	5.88917E-003	3.59960E-001	-1.15190E+000	3.57660E+000	10	...........
	54	0.733333	9.88742E-001	5.99531E-003	0.00000E+000	5.92782E-003	3.59960E-001	-1.14285E+000	3.57660E+000	10	...........
	55	0.746667	9.94233E-001	5.99518E-003	0.00000E+000	5.96060E-003	3.59960E-001	-1.14714E+000	3.57660E+000	10	...........
	56	0.755	9.98726E-001	5.99970E-003	0.00000E+000	5.99205E-003	3.59960E-001	-1.15020E+000	3.57660E+000	10	...........
STARTTIMEOFFSET	QUANT	992.922	Start Time Offset (s)