File: Data/CV_CRGO300517_1/PWRCCD_CRGO300517_1/CHARGE_DISCHARGE/CHARGE_#205.DTA
EXPLAIN
TAG	PWR800_CHARGE
TITLE	LABEL	PWR Cyclic Charge Discharge (Cell) - Charge Step	Test &Identifier
DATE	LABEL	22-6-2017	Date
TIME	LABEL	15:44:01	Time
NOTES	NOTES	3	&Notes...
	supercap test cell
	0.6mg
	6M KOH
PSTAT	PSTAT	IFC5000-01520	Potentiostat
CAPACITY	QUANT	1.00000E-003	Capacity (A-hr)
CELLTYPE	SELECTOR	1	&Cell Type
WORKINGCONNECTION	SELECTOR	0	&Working Lead
MAXCHARGETIME	VARIABLEANDUNITS	1.00000E+002	s	1.00000E+002	second(s)	Max &Charge Time
CHARGECURRENT	QUANT	6.00000E-003	&Charge Current (A)
VOLTAGEFINISH	TWOPARAM	F	1.00000E-003	3.60000E+003	&Voltage Finish	 I (A) < 	Max Time(s)
SAMPLETIME	QUANT	1.00000E-002	Sa&mple Period (s)
CHARGESTOPAT1	MULTIPARAM	4	1.00000E+000	Charge Stop At &1	Voltage > Limit	V
CHARGESTOPAT2	MULTIPARAM	0	0.00000E+000	Charge Stop At &2	None	N/A
AESBHCSELECTOR	TOGGLE	F	Save Both Half Cells
IRCOMP	TOGGLE	F	IR &Measure
EOC	QUANT	0	Open Circuit (V)
SEQUENCER	TOGGLE	TRUE	Run as Sequence
PSTATMODEL	IQUANT	53	Pstat Model
PSTATSECTION	LABEL	IFC5000-01520	Pstat Section
PSTATSERIALNO	LABEL	01520	Pstat Serial Number
CTRLMODE	IQUANT	0	Control Mode
ELECTROMETER	IQUANT	1	RE=0 or CS=1
IESTAB	IQUANT	0	I/E Stability
CASPEED	IQUANT	4	Control Amp Speed
CONVENTION	IQUANT	1	Current Convention
ICHRANGE	IQUANT	2	Ich Range
ICHRANGEMODE	TOGGLE	T	Ich Auto Range
ICHOFFSETENABLE	TOGGLE	F	Ich Offset Enable
ICHOFFSET	QUANT	0	Ich Offset (V)
ICHFILTER	IQUANT	1	Ich Filter
VCHRANGE	IQUANT	2	Vch Range
VCHRANGEMODE	TOGGLE	T	Vch Auto Range
VCHOFFSETENABLE	TOGGLE	F	Vch Offset Enable
VCHOFFSET	QUANT	0	Vch Offset (V)
VCHFILTER	IQUANT	1	Vch Filter
IERANGELOWERLIMIT	IQUANT	9	I/E Range Lower Limit
IERANGEMODE	TOGGLE	F	I/E AutoRange
IERANGE	IQUANT	10	I/E Range
ACHSELECT	IQUANT	1	Ach Select
ACHRANGE	IQUANT	2	Ach Range
ACHOFFSETENABLE	TOGGLE	F	Ach Offset Enable
ACHOFFSET	QUANT	0	Ach Offset (V)
ACHFILTER	IQUANT	1	Ach Filter
CABLEID	IQUANT	14	Cable ID
DCCALDATE	LABEL	20-10-2016	DC Calibration Date
ACCALDATE	LABEL	12/3/2015	AC Calibration Date
FRAMEWORKVERSION	QUANT	7.01	Framework Version
INSTRUMENTVERSION	LABEL	4.00	Instrument Version
CURVE	TABLE	65
	Pt	T	Vf	Im	Vu	Pwr	Sig	Ach	Temp	IERange	Over
	#	s	V	A	V	W	V	V	deg C	#	bits
	0	0.013333	6.07024E-001	5.99698E-003	0.00000E+000	3.64031E-003	3.59960E-001	-1.08740E+000	3.57670E+000	10	...........
	1	0.026667	6.15533E-001	5.99422E-003	0.00000E+000	3.68964E-003	3.59960E-001	-1.09143E+000	3.57670E+000	10	...........
	2	0.04	6.23303E-001	5.99010E-003	0.00000E+000	3.73365E-003	3.59960E-001	-1.09584E+000	3.57670E+000	10	...........
	3	0.053333	6.30601E-001	5.99322E-003	0.00000E+000	3.77933E-003	3.59960E-001	-1.08747E+000	3.57670E+000	10	...........
	4	0.066667	6.37749E-001	5.99200E-003	0.00000E+000	3.82139E-003	3.59960E-001	-1.09148E+000	3.57700E+000	10	...........
	5	0.08	6.44679E-001	5.99103E-003	0.00000E+000	3.86229E-003	3.59960E-001	-1.09571E+000	3.57700E+000	10	...........
	6	0.093333	6.51459E-001	5.99209E-003	0.00000E+000	3.90360E-003	3.59960E-001	-1.08749E+000	3.57700E+000	10	...........
	7	0.106667	6.58118E-001	5.99383E-003	0.00000E+000	3.94465E-003	3.59960E-001	-1.09143E+000	3.57700E+000	10	...........
	8	0.12	6.64661E-001	5.99316E-003	0.00000E+000	3.98342E-003	3.59960E-001	-1.09564E+000	3.57700E+000	10	...........
	9	0.133333	6.71204E-001	5.99601E-003	0.00000E+000	4.02455E-003	3.59960E-001	-1.08720E+000	3.57700E+000	10	...........
	10	0.146667	6.77644E-001	5.99293E-003	0.00000E+000	4.06107E-003	3.59960E-001	-1.09106E+000	3.57700E+000	10	...........
	11	0.16	6.84017E-001	5.99657E-003	0.00000E+000	4.10175E-003	3.59960E-001	-1.09517E+000	3.57700E+000	10	...........
	12	0.173333	6.90367E-001	5.99030E-003	0.00000E+000	4.13550E-003	3.59960E-001	-1.08692E+000	3.57700E+000	10	...........
	13	0.186667	6.96688E-001	5.99102E-003	0.00000E+000	4.17387E-003	3.59960E-001	-1.09102E+000	3.57700E+000	10	...........
	14	0.2	7.02989E-001	5.99519E-003	0.00000E+000	4.21455E-003	3.59960E-001	-1.09509E+000	3.57700E+000	10	...........
	15	0.213333	7.09200E-001	5.99647E-003	0.00000E+000	4.25270E-003	3.59960E-001	-1.08676E+000	3.57700E+000	10	...........
	16	0.226667	7.15443E-001	5.99665E-003	0.00000E+000	4.29026E-003	3.59960E-001	-1.09106E+000	3.57700E+000	10	...........
	17	0.24	7.21756E-001	5.99799E-003	0.00000E+000	4.32909E-003	3.59960E-001	-1.09515E+000	3.57700E+000	10	...........
	18	0.253333	7.27951E-001	5.99404E-003	0.00000E+000	4.36337E-003	3.59960E-001	-1.08694E+000	3.57700E+000	10	...........
	19	0.266667	7.34146E-001	5.99599E-003	0.00000E+000	4.40193E-003	3.59960E-001	-1.09084E+000	3.57700E+000	10	...........
	20	0.28	7.40337E-001	5.99656E-003	0.00000E+000	4.43947E-003	3.59960E-001	-1.09488E+000	3.57700E+000	10	...........
	21	0.293333	7.46496E-001	5.99643E-003	0.00000E+000	4.47631E-003	3.59960E-001	-1.08689E+000	3.57700E+000	10	...........
	22	0.306667	7.52644E-001	5.99424E-003	0.00000E+000	4.51153E-003	3.59960E-001	-1.09086E+000	3.57700E+000	10	...........
	23	0.32	7.58815E-001	5.99549E-003	0.00000E+000	4.54947E-003	3.59960E-001	-1.09488E+000	3.57700E+000	10	...........
	24	0.333333	7.64937E-001	5.99515E-003	0.00000E+000	4.58591E-003	3.59960E-001	-1.08650E+000	3.57700E+000	10	...........
	25	0.346667	7.71103E-001	5.99627E-003	0.00000E+000	4.62375E-003	3.59960E-001	-1.09060E+000	3.57700E+000	10	...........
	26	0.36	7.77245E-001	5.99158E-003	0.00000E+000	4.65693E-003	3.59960E-001	-1.09494E+000	3.57700E+000	10	...........
	27	0.373333	7.83365E-001	5.99333E-003	0.00000E+000	4.69497E-003	3.59960E-001	-1.08671E+000	3.57700E+000	10	...........
	28	0.386667	7.89471E-001	5.99308E-003	0.00000E+000	4.73137E-003	3.59960E-001	-1.09072E+000	3.57700E+000	10	...........
	29	0.4	7.95626E-001	5.99237E-003	0.00000E+000	4.76769E-003	3.59960E-001	-1.09462E+000	3.57700E+000	10	...........
	30	0.413333	8.01716E-001	5.99518E-003	0.00000E+000	4.80643E-003	3.59960E-001	-1.08662E+000	3.57700E+000	10	...........
	31	0.426667	8.07817E-001	5.99558E-003	0.00000E+000	4.84333E-003	3.59960E-001	-1.09087E+000	3.57700E+000	10	...........
	32	0.44	8.13880E-001	5.99141E-003	0.00000E+000	4.87629E-003	3.59960E-001	-1.09472E+000	3.57700E+000	10	...........
	33	0.453333	8.19960E-001	5.99357E-003	0.00000E+000	4.91449E-003	3.59960E-001	-1.08659E+000	3.57700E+000	10	...........
	34	0.466667	8.26016E-001	5.99196E-003	0.00000E+000	4.94945E-003	3.59960E-001	-1.09051E+000	3.57700E+000	10	...........
	35	0.48	8.32064E-001	5.98851E-003	0.00000E+000	4.98283E-003	3.59960E-001	-1.09408E+000	3.57700E+000	10	...........
	36	0.493333	8.38092E-001	5.99591E-003	0.00000E+000	5.02512E-003	3.59960E-001	-1.08636E+000	3.57700E+000	10	...........
	37	0.506667	8.44108E-001	5.99318E-003	0.00000E+000	5.05889E-003	3.59960E-001	-1.09055E+000	3.57700E+000	10	...........
	38	0.52	8.50122E-001	5.99731E-003	0.00000E+000	5.09844E-003	3.59960E-001	-1.09412E+000	3.57700E+000	10	...........
	39	0.533333	8.56126E-001	5.99064E-003	0.00000E+000	5.12874E-003	3.59960E-001	-1.08614E+000	3.57700E+000	10	...........
	40	0.546667	8.62139E-001	5.99522E-003	0.00000E+000	5.16872E-003	3.59960E-001	-1.09019E+000	3.57700E+000	10	...........
	41	0.56	8.68159E-001	5.99513E-003	0.00000E+000	5.20472E-003	3.59960E-001	-1.09414E+000	3.57700E+000	10	...........
	42	0.573333	8.74146E-001	5.99652E-003	0.00000E+000	5.24184E-003	3.59960E-001	-1.08624E+000	3.57700E+000	10	...........
	43	0.586667	8.80105E-001	5.99587E-003	0.00000E+000	5.27699E-003	3.59960E-001	-1.09027E+000	3.57700E+000	10	...........
	44	0.6	8.86089E-001	5.98887E-003	0.00000E+000	5.30667E-003	3.59960E-001	-1.09405E+000	3.57700E+000	10	...........
	45	0.613333	8.92022E-001	5.98977E-003	0.00000E+000	5.34300E-003	3.59960E-001	-1.08610E+000	3.57700E+000	10	...........
	46	0.626667	8.97929E-001	5.99624E-003	0.00000E+000	5.38420E-003	3.59960E-001	-1.09042E+000	3.57700E+000	10	...........
	47	0.64	9.03808E-001	5.99947E-003	0.00000E+000	5.42237E-003	3.59960E-001	-1.09419E+000	3.57700E+000	10	...........
	48	0.653333	9.09687E-001	5.99551E-003	0.00000E+000	5.45404E-003	3.59960E-001	-1.08586E+000	3.57700E+000	10	...........
	49	0.666667	9.15524E-001	5.99268E-003	0.00000E+000	5.48644E-003	3.59960E-001	-1.08989E+000	3.57700E+000	10	...........
	50	0.68	9.21377E-001	5.99208E-003	0.00000E+000	5.52097E-003	3.59960E-001	-1.09388E+000	3.57700E+000	10	...........
	51	0.693333	9.27200E-001	5.99367E-003	0.00000E+000	5.55732E-003	3.59960E-001	-1.08605E+000	3.57700E+000	10	...........
	52	0.706667	9.32939E-001	5.99763E-003	0.00000E+000	5.59542E-003	3.59960E-001	-1.09047E+000	3.57700E+000	10	...........
	53	0.72	9.38699E-001	5.99511E-003	0.00000E+000	5.62760E-003	3.59960E-001	-1.09395E+000	3.57700E+000	10	...........
	54	0.733333	9.44405E-001	5.99875E-003	0.00000E+000	5.66524E-003	3.59960E-001	-1.08578E+000	3.57700E+000	10	...........
	55	0.746667	9.50105E-001	5.99010E-003	0.00000E+000	5.69123E-003	3.59960E-001	-1.09027E+000	3.57700E+000	10	...........
	56	0.76	9.55766E-001	5.99366E-003	0.00000E+000	5.72853E-003	3.59960E-001	-1.09376E+000	3.57700E+000	10	...........
	57	0.773333	9.61361E-001	5.99627E-003	0.00000E+000	5.76458E-003	3.59960E-001	-1.08589E+000	3.57700E+000	10	...........
	58	0.786667	9.66972E-001	5.99349E-003	0.00000E+000	5.79553E-003	3.59960E-001	-1.09014E+000	3.57700E+000	10	...........
	59	0.8	9.72583E-001	5.99803E-003	0.00000E+000	5.83358E-003	3.59960E-001	-1.09338E+000	3.57700E+000	10	...........
	60	0.813333	9.78118E-001	5.99435E-003	0.00000E+000	5.86319E-003	3.59960E-001	-1.08568E+000	3.57700E+000	10	...........
	61	0.826667	9.83597E-001	5.99269E-003	0.00000E+000	5.89439E-003	3.59960E-001	-1.08991E+000	3.57700E+000	10	...........
	62	0.84	9.89050E-001	5.99514E-003	0.00000E+000	5.92949E-003	3.59960E-001	-1.09334E+000	3.57700E+000	10	...........
	63	0.853333	9.94443E-001	5.99474E-003	0.00000E+000	5.96143E-003	3.59960E-001	-1.08553E+000	3.57700E+000	10	...........
	64	0.861667	9.98838E-001	5.99815E-003	0.00000E+000	5.99117E-003	3.59960E-001	-1.09696E+000	3.57700E+000	10	...........
STARTTIMEOFFSET	QUANT	381.56	Start Time Offset (s)