File: Data/CV_CRGO300517_1/PWRCCD_CRGO300517_1/CHARGE_DISCHARGE/CHARGE_#900.DTA
EXPLAIN
TAG	PWR800_CHARGE
TITLE	LABEL	PWR Cyclic Charge Discharge (Cell) - Charge Step	Test &Identifier
DATE	LABEL	22-6-2017	Date
TIME	LABEL	16:10:59	Time
NOTES	NOTES	3	&Notes...
	supercap test cell
	0.6mg
	6M KOH
PSTAT	PSTAT	IFC5000-01520	Potentiostat
CAPACITY	QUANT	1.00000E-003	Capacity (A-hr)
CELLTYPE	SELECTOR	1	&Cell Type
WORKINGCONNECTION	SELECTOR	0	&Working Lead
MAXCHARGETIME	VARIABLEANDUNITS	1.00000E+002	s	1.00000E+002	second(s)	Max &Charge Time
CHARGECURRENT	QUANT	6.00000E-003	&Charge Current (A)
VOLTAGEFINISH	TWOPARAM	F	1.00000E-003	3.60000E+003	&Voltage Finish	 I (A) < 	Max Time(s)
SAMPLETIME	QUANT	1.00000E-002	Sa&mple Period (s)
CHARGESTOPAT1	MULTIPARAM	4	1.00000E+000	Charge Stop At &1	Voltage > Limit	V
CHARGESTOPAT2	MULTIPARAM	0	0.00000E+000	Charge Stop At &2	None	N/A
AESBHCSELECTOR	TOGGLE	F	Save Both Half Cells
IRCOMP	TOGGLE	F	IR &Measure
EOC	QUANT	0	Open Circuit (V)
SEQUENCER	TOGGLE	TRUE	Run as Sequence
PSTATMODEL	IQUANT	53	Pstat Model
PSTATSECTION	LABEL	IFC5000-01520	Pstat Section
PSTATSERIALNO	LABEL	01520	Pstat Serial Number
CTRLMODE	IQUANT	0	Control Mode
ELECTROMETER	IQUANT	1	RE=0 or CS=1
IESTAB	IQUANT	0	I/E Stability
CASPEED	IQUANT	4	Control Amp Speed
CONVENTION	IQUANT	1	Current Convention
ICHRANGE	IQUANT	2	Ich Range
ICHRANGEMODE	TOGGLE	T	Ich Auto Range
ICHOFFSETENABLE	TOGGLE	F	Ich Offset Enable
ICHOFFSET	QUANT	0	Ich Offset (V)
ICHFILTER	IQUANT	1	Ich Filter
VCHRANGE	IQUANT	2	Vch Range
VCHRANGEMODE	TOGGLE	T	Vch Auto Range
VCHOFFSETENABLE	TOGGLE	F	Vch Offset Enable
VCHOFFSET	QUANT	0	Vch Offset (V)
VCHFILTER	IQUANT	1	Vch Filter
IERANGELOWERLIMIT	IQUANT	9	I/E Range Lower Limit
IERANGEMODE	TOGGLE	F	I/E AutoRange
IERANGE	IQUANT	10	I/E Range
ACHSELECT	IQUANT	1	Ach Select
ACHRANGE	IQUANT	2	Ach Range
ACHOFFSETENABLE	TOGGLE	F	Ach Offset Enable
ACHOFFSET	QUANT	0	Ach Offset (V)
ACHFILTER	IQUANT	1	Ach Filter
CABLEID	IQUANT	14	Cable ID
DCCALDATE	LABEL	20-10-2016	DC Calibration Date
ACCALDATE	LABEL	12/3/2015	AC Calibration Date
FRAMEWORKVERSION	QUANT	7.01	Framework Version
INSTRUMENTVERSION	LABEL	4.00	Instrument Version
CURVE	TABLE	53
	Pt	T	Vf	Im	Vu	Pwr	Sig	Ach	Temp	IERange	Over
	#	s	V	A	V	W	V	V	deg C	#	bits
	0	0.013333	6.52839E-001	5.99437E-003	0.00000E+000	3.91336E-003	3.59960E-001	-1.17906E+000	3.57780E+000	10	...........
	1	0.026667	6.62104E-001	5.99666E-003	0.00000E+000	3.97041E-003	3.59960E-001	-1.16865E+000	3.57780E+000	10	...........
	2	0.04	6.70626E-001	5.98992E-003	0.00000E+000	4.01700E-003	3.59960E-001	-1.17074E+000	3.57780E+000	10	...........
	3	0.053333	6.78741E-001	5.99688E-003	0.00000E+000	4.07033E-003	3.59960E-001	-1.17882E+000	3.57780E+000	10	...........
	4	0.066667	6.86523E-001	5.99667E-003	0.00000E+000	4.11685E-003	3.59960E-001	-1.16813E+000	3.57780E+000	10	...........
	5	0.08	6.94131E-001	5.99063E-003	0.00000E+000	4.15828E-003	3.59960E-001	-1.17023E+000	3.57780E+000	10	...........
	6	0.093333	7.01581E-001	5.99318E-003	0.00000E+000	4.20470E-003	3.59960E-001	-1.17860E+000	3.57780E+000	10	...........
	7	0.106667	7.08868E-001	5.99768E-003	0.00000E+000	4.25156E-003	3.59960E-001	-1.16792E+000	3.57780E+000	10	...........
	8	0.12	7.16105E-001	5.99314E-003	0.00000E+000	4.29172E-003	3.59960E-001	-1.17036E+000	3.57780E+000	10	...........
	9	0.133333	7.23297E-001	5.99936E-003	0.00000E+000	4.33932E-003	3.59960E-001	-1.17849E+000	3.57780E+000	10	...........
	10	0.146667	7.30383E-001	5.99244E-003	0.00000E+000	4.37677E-003	3.59960E-001	-1.16783E+000	3.57780E+000	10	...........
	11	0.16	7.37403E-001	5.99283E-003	0.00000E+000	4.41913E-003	3.59960E-001	-1.17021E+000	3.57780E+000	10	...........
	12	0.173333	7.44424E-001	5.99147E-003	0.00000E+000	4.46019E-003	3.59960E-001	-1.17851E+000	3.57780E+000	10	...........
	13	0.186667	7.51350E-001	5.99307E-003	0.00000E+000	4.50289E-003	3.59960E-001	-1.16776E+000	3.57780E+000	10	...........
	14	0.2	7.58257E-001	5.99330E-003	0.00000E+000	4.54446E-003	3.59960E-001	-1.17015E+000	3.57780E+000	10	...........
	15	0.213333	7.65112E-001	5.99628E-003	0.00000E+000	4.58783E-003	3.59960E-001	-1.17816E+000	3.57780E+000	10	...........
	16	0.226667	7.71990E-001	5.99839E-003	0.00000E+000	4.63070E-003	3.59960E-001	-1.16763E+000	3.57780E+000	10	...........
	17	0.24	7.78797E-001	5.99181E-003	0.00000E+000	4.66640E-003	3.59960E-001	-1.17024E+000	3.57780E+000	10	...........
	18	0.253333	7.85640E-001	6.00010E-003	0.00000E+000	4.71392E-003	3.59960E-001	-1.17827E+000	3.57780E+000	10	...........
	19	0.266667	7.92408E-001	5.99780E-003	0.00000E+000	4.75271E-003	3.59960E-001	-1.16771E+000	3.57780E+000	10	...........
	20	0.28	7.99212E-001	5.99613E-003	0.00000E+000	4.79218E-003	3.59960E-001	-1.17011E+000	3.57780E+000	10	...........
	21	0.293333	8.05913E-001	5.99155E-003	0.00000E+000	4.82867E-003	3.59960E-001	-1.17819E+000	3.57780E+000	10	...........
	22	0.306667	8.12581E-001	5.99229E-003	0.00000E+000	4.86922E-003	3.59960E-001	-1.16777E+000	3.57780E+000	10	...........
	23	0.32	8.19232E-001	5.99124E-003	0.00000E+000	4.90821E-003	3.59960E-001	-1.17028E+000	3.57780E+000	10	...........
	24	0.333333	8.25911E-001	5.99570E-003	0.00000E+000	4.95191E-003	3.59960E-001	-1.17828E+000	3.57780E+000	10	...........
	25	0.346667	8.32507E-001	5.99390E-003	0.00000E+000	4.98996E-003	3.59960E-001	-1.16760E+000	3.57780E+000	10	...........
	26	0.36	8.39089E-001	5.98510E-003	0.00000E+000	5.02204E-003	3.59960E-001	-1.16999E+000	3.57780E+000	10	...........
	27	0.373333	8.45683E-001	5.99322E-003	0.00000E+000	5.06836E-003	3.59960E-001	-1.17791E+000	3.57780E+000	10	...........
	28	0.386667	8.52218E-001	5.99023E-003	0.00000E+000	5.10499E-003	3.59960E-001	-1.16721E+000	3.57780E+000	10	...........
	29	0.4	8.58739E-001	5.99238E-003	0.00000E+000	5.14589E-003	3.59960E-001	-1.16955E+000	3.57780E+000	10	...........
	30	0.413333	8.65193E-001	5.99118E-003	0.00000E+000	5.18353E-003	3.59960E-001	-1.17769E+000	3.57780E+000	10	...........
	31	0.426667	8.71654E-001	5.99130E-003	0.00000E+000	5.22234E-003	3.59960E-001	-1.16708E+000	3.57780E+000	10	...........
	32	0.44	8.78080E-001	5.99235E-003	0.00000E+000	5.26177E-003	3.59960E-001	-1.16996E+000	3.57780E+000	10	...........
	33	0.453333	8.84518E-001	5.99167E-003	0.00000E+000	5.29974E-003	3.59960E-001	-1.17783E+000	3.57780E+000	10	...........
	34	0.466667	8.90842E-001	5.99870E-003	0.00000E+000	5.34390E-003	3.59960E-001	-1.16720E+000	3.57780E+000	10	...........
	35	0.48	8.97191E-001	5.99293E-003	0.00000E+000	5.37680E-003	3.59960E-001	-1.16973E+000	3.57780E+000	10	...........
	36	0.493333	9.03446E-001	5.99608E-003	0.00000E+000	5.41713E-003	3.59960E-001	-1.17755E+000	3.57780E+000	10	...........
	37	0.506667	9.09713E-001	5.99348E-003	0.00000E+000	5.45235E-003	3.59960E-001	-1.16702E+000	3.57780E+000	10	...........
	38	0.52	9.15912E-001	6.00076E-003	0.00000E+000	5.49616E-003	3.59960E-001	-1.16997E+000	3.57780E+000	10	...........
	39	0.533333	9.22135E-001	5.99607E-003	0.00000E+000	5.52918E-003	3.59960E-001	-1.17754E+000	3.57780E+000	10	...........
	40	0.546667	9.28317E-001	5.99175E-003	0.00000E+000	5.56224E-003	3.59960E-001	-1.16696E+000	3.57780E+000	10	...........
	41	0.56	9.34353E-001	5.99308E-003	0.00000E+000	5.59966E-003	3.59960E-001	-1.16956E+000	3.57780E+000	10	...........
	42	0.573333	9.40409E-001	5.99523E-003	0.00000E+000	5.63797E-003	3.59960E-001	-1.17744E+000	3.57780E+000	10	...........
	43	0.586667	9.46427E-001	5.99099E-003	0.00000E+000	5.67003E-003	3.59960E-001	-1.16714E+000	3.57780E+000	10	...........
	44	0.6	9.52369E-001	5.99157E-003	0.00000E+000	5.70618E-003	3.59960E-001	-1.16987E+000	3.57780E+000	10	...........
	45	0.613333	9.58276E-001	5.99216E-003	0.00000E+000	5.74215E-003	3.59960E-001	-1.17730E+000	3.57780E+000	10	...........
	46	0.626667	9.64107E-001	5.99599E-003	0.00000E+000	5.78078E-003	3.59960E-001	-1.16723E+000	3.57780E+000	10	...........
	47	0.64	9.69893E-001	5.99288E-003	0.00000E+000	5.81245E-003	3.59960E-001	-1.16996E+000	3.57780E+000	10	...........
	48	0.653333	9.75694E-001	5.99385E-003	0.00000E+000	5.84817E-003	3.59960E-001	-1.17747E+000	3.57780E+000	10	...........
	49	0.666667	9.81376E-001	5.99411E-003	0.00000E+000	5.88248E-003	3.59960E-001	-1.16695E+000	3.57780E+000	10	...........
	50	0.68	9.87042E-001	5.99882E-003	0.00000E+000	5.92108E-003	3.59960E-001	-1.16970E+000	3.57780E+000	10	...........
	51	0.693333	9.92606E-001	5.99514E-003	0.00000E+000	5.95081E-003	3.59960E-001	-1.17737E+000	3.57780E+000	10	...........
	52	0.706667	9.98133E-001	5.99279E-003	0.00000E+000	5.98160E-003	3.59960E-001	-1.16672E+000	3.57780E+000	10	...........
STARTTIMEOFFSET	QUANT	1446.063	Start Time Offset (s)