File: Data/CV_CRGO300517_1/PWRCCD_CRGO300517_1/CHARGE_DISCHARGE/CHARGE_#938.DTA
EXPLAIN
TAG	PWR800_CHARGE
TITLE	LABEL	PWR Cyclic Charge Discharge (Cell) - Charge Step	Test &Identifier
DATE	LABEL	22-6-2017	Date
TIME	LABEL	16:12:23	Time
NOTES	NOTES	3	&Notes...
	supercap test cell
	0.6mg
	6M KOH
PSTAT	PSTAT	IFC5000-01520	Potentiostat
CAPACITY	QUANT	1.00000E-003	Capacity (A-hr)
CELLTYPE	SELECTOR	1	&Cell Type
WORKINGCONNECTION	SELECTOR	0	&Working Lead
MAXCHARGETIME	VARIABLEANDUNITS	1.00000E+002	s	1.00000E+002	second(s)	Max &Charge Time
CHARGECURRENT	QUANT	6.00000E-003	&Charge Current (A)
VOLTAGEFINISH	TWOPARAM	F	1.00000E-003	3.60000E+003	&Voltage Finish	 I (A) < 	Max Time(s)
SAMPLETIME	QUANT	1.00000E-002	Sa&mple Period (s)
CHARGESTOPAT1	MULTIPARAM	4	1.00000E+000	Charge Stop At &1	Voltage > Limit	V
CHARGESTOPAT2	MULTIPARAM	0	0.00000E+000	Charge Stop At &2	None	N/A
AESBHCSELECTOR	TOGGLE	F	Save Both Half Cells
IRCOMP	TOGGLE	F	IR &Measure
EOC	QUANT	0	Open Circuit (V)
SEQUENCER	TOGGLE	TRUE	Run as Sequence
PSTATMODEL	IQUANT	53	Pstat Model
PSTATSECTION	LABEL	IFC5000-01520	Pstat Section
PSTATSERIALNO	LABEL	01520	Pstat Serial Number
CTRLMODE	IQUANT	0	Control Mode
ELECTROMETER	IQUANT	1	RE=0 or CS=1
IESTAB	IQUANT	0	I/E Stability
CASPEED	IQUANT	4	Control Amp Speed
CONVENTION	IQUANT	1	Current Convention
ICHRANGE	IQUANT	2	Ich Range
ICHRANGEMODE	TOGGLE	T	Ich Auto Range
ICHOFFSETENABLE	TOGGLE	F	Ich Offset Enable
ICHOFFSET	QUANT	0	Ich Offset (V)
ICHFILTER	IQUANT	1	Ich Filter
VCHRANGE	IQUANT	2	Vch Range
VCHRANGEMODE	TOGGLE	T	Vch Auto Range
VCHOFFSETENABLE	TOGGLE	F	Vch Offset Enable
VCHOFFSET	QUANT	0	Vch Offset (V)
VCHFILTER	IQUANT	1	Vch Filter
IERANGELOWERLIMIT	IQUANT	9	I/E Range Lower Limit
IERANGEMODE	TOGGLE	F	I/E AutoRange
IERANGE	IQUANT	10	I/E Range
ACHSELECT	IQUANT	1	Ach Select
ACHRANGE	IQUANT	2	Ach Range
ACHOFFSETENABLE	TOGGLE	F	Ach Offset Enable
ACHOFFSET	QUANT	0	Ach Offset (V)
ACHFILTER	IQUANT	1	Ach Filter
CABLEID	IQUANT	14	Cable ID
DCCALDATE	LABEL	20-10-2016	DC Calibration Date
ACCALDATE	LABEL	12/3/2015	AC Calibration Date
FRAMEWORKVERSION	QUANT	7.01	Framework Version
INSTRUMENTVERSION	LABEL	4.00	Instrument Version
CURVE	TABLE	53
	Pt	T	Vf	Im	Vu	Pwr	Sig	Ach	Temp	IERange	Over
	#	s	V	A	V	W	V	V	deg C	#	bits
	0	0.013333	6.54566E-001	5.99686E-003	0.00000E+000	3.92534E-003	3.59960E-001	-1.18413E+000	3.57780E+000	10	...........
	1	0.026667	6.63886E-001	5.99251E-003	0.00000E+000	3.97834E-003	3.59960E-001	-1.17504E+000	3.57780E+000	10	...........
	2	0.04	6.72432E-001	5.99517E-003	0.00000E+000	4.03134E-003	3.59960E-001	-1.17291E+000	3.57780E+000	10	...........
	3	0.053333	6.80538E-001	5.99428E-003	0.00000E+000	4.07934E-003	3.59960E-001	-1.18389E+000	3.57780E+000	10	...........
	4	0.066667	6.88360E-001	5.99403E-003	0.00000E+000	4.12605E-003	3.59960E-001	-1.17518E+000	3.57780E+000	10	...........
	5	0.08	6.96022E-001	5.99644E-003	0.00000E+000	4.17365E-003	3.59960E-001	-1.17276E+000	3.57780E+000	10	...........
	6	0.093333	7.03459E-001	5.99192E-003	0.00000E+000	4.21508E-003	3.59960E-001	-1.18373E+000	3.57780E+000	10	...........
	7	0.106667	7.10782E-001	5.99439E-003	0.00000E+000	4.26070E-003	3.59960E-001	-1.17510E+000	3.57780E+000	10	...........
	8	0.12	7.18075E-001	5.99490E-003	0.00000E+000	4.30478E-003	3.59960E-001	-1.17269E+000	3.57780E+000	10	...........
	9	0.133333	7.25266E-001	5.99377E-003	0.00000E+000	4.34708E-003	3.59960E-001	-1.18365E+000	3.57780E+000	10	...........
	10	0.146667	7.32373E-001	5.99198E-003	0.00000E+000	4.38836E-003	3.59960E-001	-1.17459E+000	3.57780E+000	10	...........
	11	0.16	7.39431E-001	5.99050E-003	0.00000E+000	4.42956E-003	3.59960E-001	-1.17239E+000	3.57780E+000	10	...........
	12	0.173333	7.46435E-001	5.99360E-003	0.00000E+000	4.47384E-003	3.59960E-001	-1.18367E+000	3.57780E+000	10	...........
	13	0.186667	7.53380E-001	5.99383E-003	0.00000E+000	4.51564E-003	3.59960E-001	-1.17456E+000	3.57780E+000	10	...........
	14	0.2	7.60320E-001	5.99432E-003	0.00000E+000	4.55761E-003	3.59960E-001	-1.17233E+000	3.57780E+000	10	...........
	15	0.213333	7.67212E-001	5.99696E-003	0.00000E+000	4.60094E-003	3.59960E-001	-1.18313E+000	3.57780E+000	10	...........
	16	0.226667	7.74109E-001	5.99834E-003	0.00000E+000	4.64337E-003	3.59960E-001	-1.17458E+000	3.57780E+000	10	...........
	17	0.24	7.80950E-001	5.99556E-003	0.00000E+000	4.68224E-003	3.59960E-001	-1.17209E+000	3.57780E+000	10	...........
	18	0.253333	7.87745E-001	5.98780E-003	0.00000E+000	4.71687E-003	3.59960E-001	-1.18342E+000	3.57780E+000	10	...........
	19	0.266667	7.94527E-001	5.99108E-003	0.00000E+000	4.76007E-003	3.59960E-001	-1.17452E+000	3.57780E+000	10	...........
	20	0.28	8.01308E-001	5.99455E-003	0.00000E+000	4.80348E-003	3.59960E-001	-1.17194E+000	3.57780E+000	10	...........
	21	0.293333	8.08007E-001	5.99653E-003	0.00000E+000	4.84524E-003	3.59960E-001	-1.18325E+000	3.57780E+000	10	...........
	22	0.306667	8.14659E-001	5.99172E-003	0.00000E+000	4.88121E-003	3.59960E-001	-1.17465E+000	3.57780E+000	10	...........
	23	0.32	8.21370E-001	5.99231E-003	0.00000E+000	4.92191E-003	3.59960E-001	-1.17235E+000	3.57780E+000	10	...........
	24	0.333333	8.28002E-001	5.99537E-003	0.00000E+000	4.96417E-003	3.59960E-001	-1.18361E+000	3.57780E+000	10	...........
	25	0.346667	8.34589E-001	5.99886E-003	0.00000E+000	5.00658E-003	3.59960E-001	-1.17455E+000	3.57780E+000	10	...........
	26	0.36	8.41196E-001	5.99042E-003	0.00000E+000	5.03912E-003	3.59960E-001	-1.17207E+000	3.57780E+000	10	...........
	27	0.373333	8.47809E-001	5.99513E-003	0.00000E+000	5.08272E-003	3.59960E-001	-1.18311E+000	3.57780E+000	10	...........
	28	0.386667	8.54331E-001	5.99023E-003	0.00000E+000	5.11765E-003	3.59960E-001	-1.17479E+000	3.57780E+000	10	...........
	29	0.4	8.60854E-001	5.99488E-003	0.00000E+000	5.16071E-003	3.59960E-001	-1.17233E+000	3.57780E+000	10	...........
	30	0.413333	8.67365E-001	5.99111E-003	0.00000E+000	5.19648E-003	3.59960E-001	-1.18313E+000	3.57780E+000	10	...........
	31	0.426667	8.73855E-001	6.00126E-003	0.00000E+000	5.24423E-003	3.59960E-001	-1.17448E+000	3.57780E+000	10	...........
	32	0.44	8.80245E-001	5.99203E-003	0.00000E+000	5.27445E-003	3.59960E-001	-1.17232E+000	3.57780E+000	10	...........
	33	0.453333	8.86662E-001	5.99642E-003	0.00000E+000	5.31680E-003	3.59960E-001	-1.18351E+000	3.57780E+000	10	...........
	34	0.466667	8.93002E-001	5.99383E-003	0.00000E+000	5.35250E-003	3.59960E-001	-1.17463E+000	3.57780E+000	10	...........
	35	0.48	8.99334E-001	5.99447E-003	0.00000E+000	5.39103E-003	3.59960E-001	-1.17193E+000	3.57780E+000	10	...........
	36	0.493333	9.05597E-001	5.99458E-003	0.00000E+000	5.42867E-003	3.59960E-001	-1.18308E+000	3.57780E+000	10	...........
	37	0.506667	9.11886E-001	5.99498E-003	0.00000E+000	5.46674E-003	3.59960E-001	-1.17415E+000	3.57780E+000	10	...........
	38	0.52	9.18045E-001	5.99244E-003	0.00000E+000	5.50133E-003	3.59960E-001	-1.17160E+000	3.57780E+000	10	...........
	39	0.533333	9.24260E-001	5.99182E-003	0.00000E+000	5.53800E-003	3.59960E-001	-1.18264E+000	3.57780E+000	10	...........
	40	0.546667	9.30397E-001	5.99633E-003	0.00000E+000	5.57896E-003	3.59960E-001	-1.17382E+000	3.57780E+000	10	...........
	41	0.56	9.36483E-001	5.99518E-003	0.00000E+000	5.61438E-003	3.59960E-001	-1.17134E+000	3.57780E+000	10	...........
	42	0.573333	9.42469E-001	5.99587E-003	0.00000E+000	5.65092E-003	3.59960E-001	-1.18250E+000	3.57780E+000	10	...........
	43	0.586667	9.48526E-001	5.98927E-003	0.00000E+000	5.68098E-003	3.59960E-001	-1.17412E+000	3.57780E+000	10	...........
	44	0.6	9.54445E-001	5.99487E-003	0.00000E+000	5.72177E-003	3.59960E-001	-1.17172E+000	3.57780E+000	10	...........
	45	0.613333	9.60347E-001	5.99792E-003	0.00000E+000	5.76009E-003	3.59960E-001	-1.18255E+000	3.57780E+000	10	...........
	46	0.626667	9.66153E-001	5.98982E-003	0.00000E+000	5.78708E-003	3.59960E-001	-1.17382E+000	3.57780E+000	10	...........
	47	0.64	9.71980E-001	5.99499E-003	0.00000E+000	5.82701E-003	3.59960E-001	-1.17157E+000	3.57780E+000	10	...........
	48	0.653333	9.77739E-001	5.99627E-003	0.00000E+000	5.86279E-003	3.59960E-001	-1.18273E+000	3.57780E+000	10	...........
	49	0.666667	9.83367E-001	5.99052E-003	0.00000E+000	5.89087E-003	3.59960E-001	-1.17425E+000	3.57780E+000	10	...........
	50	0.68	9.89020E-001	5.99067E-003	0.00000E+000	5.92489E-003	3.59960E-001	-1.17160E+000	3.57780E+000	10	...........
	51	0.693333	9.94596E-001	5.99592E-003	0.00000E+000	5.96352E-003	3.59960E-001	-1.18269E+000	3.57780E+000	10	...........
	52	0.701667	9.99128E-001	5.99327E-003	0.00000E+000	5.98805E-003	3.59960E-001	-1.16716E+000	3.57780E+000	10	...........
STARTTIMEOFFSET	QUANT	1499.242	Start Time Offset (s)