File: Data/CV_CRGO300517_1/PWRCCD_CRGO300517_1/CHARGE_DISCHARGE/CHARGE_#574.DTA
EXPLAIN
TAG	PWR800_CHARGE
TITLE	LABEL	PWR Cyclic Charge Discharge (Cell) - Charge Step	Test &Identifier
DATE	LABEL	22-6-2017	Date
TIME	LABEL	15:58:46	Time
NOTES	NOTES	3	&Notes...
	supercap test cell
	0.6mg
	6M KOH
PSTAT	PSTAT	IFC5000-01520	Potentiostat
CAPACITY	QUANT	1.00000E-003	Capacity (A-hr)
CELLTYPE	SELECTOR	1	&Cell Type
WORKINGCONNECTION	SELECTOR	0	&Working Lead
MAXCHARGETIME	VARIABLEANDUNITS	1.00000E+002	s	1.00000E+002	second(s)	Max &Charge Time
CHARGECURRENT	QUANT	6.00000E-003	&Charge Current (A)
VOLTAGEFINISH	TWOPARAM	F	1.00000E-003	3.60000E+003	&Voltage Finish	 I (A) < 	Max Time(s)
SAMPLETIME	QUANT	1.00000E-002	Sa&mple Period (s)
CHARGESTOPAT1	MULTIPARAM	4	1.00000E+000	Charge Stop At &1	Voltage > Limit	V
CHARGESTOPAT2	MULTIPARAM	0	0.00000E+000	Charge Stop At &2	None	N/A
AESBHCSELECTOR	TOGGLE	F	Save Both Half Cells
IRCOMP	TOGGLE	F	IR &Measure
EOC	QUANT	0	Open Circuit (V)
SEQUENCER	TOGGLE	TRUE	Run as Sequence
PSTATMODEL	IQUANT	53	Pstat Model
PSTATSECTION	LABEL	IFC5000-01520	Pstat Section
PSTATSERIALNO	LABEL	01520	Pstat Serial Number
CTRLMODE	IQUANT	0	Control Mode
ELECTROMETER	IQUANT	1	RE=0 or CS=1
IESTAB	IQUANT	0	I/E Stability
CASPEED	IQUANT	4	Control Amp Speed
CONVENTION	IQUANT	1	Current Convention
ICHRANGE	IQUANT	2	Ich Range
ICHRANGEMODE	TOGGLE	T	Ich Auto Range
ICHOFFSETENABLE	TOGGLE	F	Ich Offset Enable
ICHOFFSET	QUANT	0	Ich Offset (V)
ICHFILTER	IQUANT	1	Ich Filter
VCHRANGE	IQUANT	2	Vch Range
VCHRANGEMODE	TOGGLE	T	Vch Auto Range
VCHOFFSETENABLE	TOGGLE	F	Vch Offset Enable
VCHOFFSET	QUANT	0	Vch Offset (V)
VCHFILTER	IQUANT	1	Vch Filter
IERANGELOWERLIMIT	IQUANT	9	I/E Range Lower Limit
IERANGEMODE	TOGGLE	F	I/E AutoRange
IERANGE	IQUANT	10	I/E Range
ACHSELECT	IQUANT	1	Ach Select
ACHRANGE	IQUANT	2	Ach Range
ACHOFFSETENABLE	TOGGLE	F	Ach Offset Enable
ACHOFFSET	QUANT	0	Ach Offset (V)
ACHFILTER	IQUANT	1	Ach Filter
CABLEID	IQUANT	14	Cable ID
DCCALDATE	LABEL	20-10-2016	DC Calibration Date
ACCALDATE	LABEL	12/3/2015	AC Calibration Date
FRAMEWORKVERSION	QUANT	7.01	Framework Version
INSTRUMENTVERSION	LABEL	4.00	Instrument Version
CURVE	TABLE	57
	Pt	T	Vf	Im	Vu	Pwr	Sig	Ach	Temp	IERange	Over
	#	s	V	A	V	W	V	V	deg C	#	bits
	0	0.013333	6.36964E-001	5.99359E-003	0.00000E+000	3.81770E-003	3.59960E-001	-1.14992E+000	3.57790E+000	10	...........
	1	0.026667	6.45943E-001	5.99469E-003	0.00000E+000	3.87223E-003	3.59960E-001	-1.14079E+000	3.57790E+000	10	...........
	2	0.04	6.54134E-001	5.98805E-003	0.00000E+000	3.91699E-003	3.59960E-001	-1.14546E+000	3.57790E+000	10	...........
	3	0.053333	6.61935E-001	5.99537E-003	0.00000E+000	3.96854E-003	3.59960E-001	-1.14957E+000	3.57790E+000	10	...........
	4	0.066667	6.69508E-001	5.99548E-003	0.00000E+000	4.01402E-003	3.59960E-001	-1.14043E+000	3.57790E+000	10	...........
	5	0.08	6.76818E-001	5.99577E-003	0.00000E+000	4.05805E-003	3.59960E-001	-1.14509E+000	3.57790E+000	10	...........
	6	0.093333	6.83993E-001	5.99580E-003	0.00000E+000	4.10109E-003	3.59960E-001	-1.14956E+000	3.57790E+000	10	...........
	7	0.106667	6.91036E-001	5.99369E-003	0.00000E+000	4.14185E-003	3.59960E-001	-1.14061E+000	3.57790E+000	10	...........
	8	0.12	6.98054E-001	5.99278E-003	0.00000E+000	4.18328E-003	3.59960E-001	-1.14518E+000	3.57790E+000	10	...........
	9	0.133333	7.04980E-001	5.99440E-003	0.00000E+000	4.22593E-003	3.59960E-001	-1.14917E+000	3.57790E+000	10	...........
	10	0.146667	7.11822E-001	5.99174E-003	0.00000E+000	4.26505E-003	3.59960E-001	-1.14050E+000	3.57790E+000	10	...........
	11	0.16	7.18674E-001	5.99739E-003	0.00000E+000	4.31017E-003	3.59960E-001	-1.14525E+000	3.57790E+000	10	...........
	12	0.173333	7.25415E-001	5.99188E-003	0.00000E+000	4.34660E-003	3.59960E-001	-1.14961E+000	3.57790E+000	10	...........
	13	0.186667	7.32142E-001	5.99179E-003	0.00000E+000	4.38684E-003	3.59960E-001	-1.14037E+000	3.57790E+000	10	...........
	14	0.2	7.38831E-001	5.99978E-003	0.00000E+000	4.43282E-003	3.59960E-001	-1.14456E+000	3.57790E+000	10	...........
	15	0.213333	7.45567E-001	5.99373E-003	0.00000E+000	4.46873E-003	3.59960E-001	-1.14918E+000	3.57790E+000	10	...........
	16	0.226667	7.52196E-001	5.99397E-003	0.00000E+000	4.50864E-003	3.59960E-001	-1.14018E+000	3.57790E+000	10	...........
	17	0.24	7.58784E-001	5.99564E-003	0.00000E+000	4.54939E-003	3.59960E-001	-1.14466E+000	3.57790E+000	10	...........
	18	0.253333	7.65320E-001	5.99135E-003	0.00000E+000	4.58530E-003	3.59960E-001	-1.14914E+000	3.57790E+000	10	...........
	19	0.266667	7.71907E-001	5.99225E-003	0.00000E+000	4.62546E-003	3.59960E-001	-1.13983E+000	3.57790E+000	10	...........
	20	0.28	7.78495E-001	5.99255E-003	0.00000E+000	4.66517E-003	3.59960E-001	-1.14393E+000	3.57790E+000	10	...........
	21	0.293333	7.85044E-001	5.99306E-003	0.00000E+000	4.70482E-003	3.59960E-001	-1.14895E+000	3.57790E+000	10	...........
	22	0.306667	7.91546E-001	5.99205E-003	0.00000E+000	4.74298E-003	3.59960E-001	-1.13979E+000	3.57790E+000	10	...........
	23	0.32	7.98086E-001	5.99271E-003	0.00000E+000	4.78269E-003	3.59960E-001	-1.14414E+000	3.57790E+000	10	...........
	24	0.333333	8.04537E-001	5.99546E-003	0.00000E+000	4.82357E-003	3.59960E-001	-1.14878E+000	3.57790E+000	10	...........
	25	0.346667	8.11010E-001	5.98860E-003	0.00000E+000	4.85681E-003	3.59960E-001	-1.13967E+000	3.57790E+000	10	...........
	26	0.36	8.17493E-001	5.99523E-003	0.00000E+000	4.90106E-003	3.59960E-001	-1.14390E+000	3.57790E+000	10	...........
	27	0.373333	8.23931E-001	5.99532E-003	0.00000E+000	4.93974E-003	3.59960E-001	-1.14872E+000	3.57790E+000	10	...........
	28	0.386667	8.30295E-001	5.99329E-003	0.00000E+000	4.97620E-003	3.59960E-001	-1.13943E+000	3.57790E+000	10	...........
	29	0.4	8.36690E-001	5.99709E-003	0.00000E+000	5.01770E-003	3.59960E-001	-1.14363E+000	3.57790E+000	10	...........
	30	0.413333	8.43065E-001	5.99599E-003	0.00000E+000	5.05501E-003	3.59960E-001	-1.14867E+000	3.57790E+000	10	...........
	31	0.426667	8.49436E-001	5.99429E-003	0.00000E+000	5.09177E-003	3.59960E-001	-1.13930E+000	3.57790E+000	10	...........
	32	0.44	8.55776E-001	5.99733E-003	0.00000E+000	5.13237E-003	3.59960E-001	-1.14375E+000	3.57790E+000	10	...........
	33	0.453333	8.62068E-001	5.99578E-003	0.00000E+000	5.16877E-003	3.59960E-001	-1.14838E+000	3.57790E+000	10	...........
	34	0.466667	8.68393E-001	5.99397E-003	0.00000E+000	5.20512E-003	3.59960E-001	-1.13918E+000	3.57790E+000	10	...........
	35	0.48	8.74685E-001	5.99675E-003	0.00000E+000	5.24527E-003	3.59960E-001	-1.14356E+000	3.57790E+000	10	...........
	36	0.493333	8.80936E-001	5.99234E-003	0.00000E+000	5.27887E-003	3.59960E-001	-1.14890E+000	3.57790E+000	10	...........
	37	0.506667	8.87145E-001	5.99596E-003	0.00000E+000	5.31929E-003	3.59960E-001	-1.13972E+000	3.57790E+000	10	...........
	38	0.52	8.93341E-001	5.99440E-003	0.00000E+000	5.35504E-003	3.59960E-001	-1.14371E+000	3.57790E+000	10	...........
	39	0.533333	8.99479E-001	5.99304E-003	0.00000E+000	5.39062E-003	3.59960E-001	-1.14858E+000	3.57790E+000	10	...........
	40	0.546667	9.05620E-001	5.99553E-003	0.00000E+000	5.42968E-003	3.59960E-001	-1.13935E+000	3.57790E+000	10	...........
	41	0.56	9.11750E-001	5.99193E-003	0.00000E+000	5.46315E-003	3.59960E-001	-1.14356E+000	3.57790E+000	10	...........
	42	0.573333	9.17829E-001	5.99816E-003	0.00000E+000	5.50528E-003	3.59960E-001	-1.14886E+000	3.57790E+000	10	...........
	43	0.586667	9.23917E-001	5.99262E-003	0.00000E+000	5.53669E-003	3.59960E-001	-1.13916E+000	3.57790E+000	10	...........
	44	0.6	9.29952E-001	5.99394E-003	0.00000E+000	5.57407E-003	3.59960E-001	-1.14284E+000	3.57790E+000	10	...........
	45	0.613333	9.35923E-001	5.99182E-003	0.00000E+000	5.60788E-003	3.59960E-001	-1.14832E+000	3.57850E+000	10	...........
	46	0.626667	9.41835E-001	5.98981E-003	0.00000E+000	5.64141E-003	3.59960E-001	-1.13901E+000	3.57850E+000	10	...........
	47	0.64	9.47750E-001	5.99186E-003	0.00000E+000	5.67879E-003	3.59960E-001	-1.14313E+000	3.57850E+000	10	...........
	48	0.653333	9.53596E-001	5.99275E-003	0.00000E+000	5.71466E-003	3.59960E-001	-1.14840E+000	3.57850E+000	10	...........
	49	0.666667	9.59445E-001	5.99521E-003	0.00000E+000	5.75207E-003	3.59960E-001	-1.13858E+000	3.57850E+000	10	...........
	50	0.68	9.65219E-001	5.99152E-003	0.00000E+000	5.78312E-003	3.59960E-001	-1.14291E+000	3.57850E+000	10	...........
	51	0.693333	9.70932E-001	5.99434E-003	0.00000E+000	5.82010E-003	3.59960E-001	-1.14843E+000	3.57850E+000	10	...........
	52	0.706667	9.76638E-001	5.99127E-003	0.00000E+000	5.85130E-003	3.59960E-001	-1.13902E+000	3.57850E+000	10	...........
	53	0.72	9.82226E-001	5.99026E-003	0.00000E+000	5.88379E-003	3.59960E-001	-1.14283E+000	3.57850E+000	10	...........
	54	0.733333	9.87776E-001	5.99469E-003	0.00000E+000	5.92141E-003	3.59960E-001	-1.14836E+000	3.57850E+000	10	...........
	55	0.746667	9.93270E-001	5.99435E-003	0.00000E+000	5.95401E-003	3.59960E-001	-1.13879E+000	3.57850E+000	10	...........
	56	0.758333	9.98483E-001	5.99271E-003	0.00000E+000	5.98362E-003	3.59960E-001	-1.14542E+000	3.57850E+000	10	...........
STARTTIMEOFFSET	QUANT	971.832	Start Time Offset (s)