File: Data/CV_CRGO300517_1/PWRCCD_CRGO300517_1/CHARGE_DISCHARGE/CHARGE_#428.DTA
EXPLAIN
TAG	PWR800_CHARGE
TITLE	LABEL	PWR Cyclic Charge Discharge (Cell) - Charge Step	Test &Identifier
DATE	LABEL	22-6-2017	Date
TIME	LABEL	15:53:05	Time
NOTES	NOTES	3	&Notes...
	supercap test cell
	0.6mg
	6M KOH
PSTAT	PSTAT	IFC5000-01520	Potentiostat
CAPACITY	QUANT	1.00000E-003	Capacity (A-hr)
CELLTYPE	SELECTOR	1	&Cell Type
WORKINGCONNECTION	SELECTOR	0	&Working Lead
MAXCHARGETIME	VARIABLEANDUNITS	1.00000E+002	s	1.00000E+002	second(s)	Max &Charge Time
CHARGECURRENT	QUANT	6.00000E-003	&Charge Current (A)
VOLTAGEFINISH	TWOPARAM	F	1.00000E-003	3.60000E+003	&Voltage Finish	 I (A) < 	Max Time(s)
SAMPLETIME	QUANT	1.00000E-002	Sa&mple Period (s)
CHARGESTOPAT1	MULTIPARAM	4	1.00000E+000	Charge Stop At &1	Voltage > Limit	V
CHARGESTOPAT2	MULTIPARAM	0	0.00000E+000	Charge Stop At &2	None	N/A
AESBHCSELECTOR	TOGGLE	F	Save Both Half Cells
IRCOMP	TOGGLE	F	IR &Measure
EOC	QUANT	0	Open Circuit (V)
SEQUENCER	TOGGLE	TRUE	Run as Sequence
PSTATMODEL	IQUANT	53	Pstat Model
PSTATSECTION	LABEL	IFC5000-01520	Pstat Section
PSTATSERIALNO	LABEL	01520	Pstat Serial Number
CTRLMODE	IQUANT	0	Control Mode
ELECTROMETER	IQUANT	1	RE=0 or CS=1
IESTAB	IQUANT	0	I/E Stability
CASPEED	IQUANT	4	Control Amp Speed
CONVENTION	IQUANT	1	Current Convention
ICHRANGE	IQUANT	2	Ich Range
ICHRANGEMODE	TOGGLE	T	Ich Auto Range
ICHOFFSETENABLE	TOGGLE	F	Ich Offset Enable
ICHOFFSET	QUANT	0	Ich Offset (V)
ICHFILTER	IQUANT	1	Ich Filter
VCHRANGE	IQUANT	2	Vch Range
VCHRANGEMODE	TOGGLE	T	Vch Auto Range
VCHOFFSETENABLE	TOGGLE	F	Vch Offset Enable
VCHOFFSET	QUANT	0	Vch Offset (V)
VCHFILTER	IQUANT	1	Vch Filter
IERANGELOWERLIMIT	IQUANT	9	I/E Range Lower Limit
IERANGEMODE	TOGGLE	F	I/E AutoRange
IERANGE	IQUANT	10	I/E Range
ACHSELECT	IQUANT	1	Ach Select
ACHRANGE	IQUANT	2	Ach Range
ACHOFFSETENABLE	TOGGLE	F	Ach Offset Enable
ACHOFFSET	QUANT	0	Ach Offset (V)
ACHFILTER	IQUANT	1	Ach Filter
CABLEID	IQUANT	14	Cable ID
DCCALDATE	LABEL	20-10-2016	DC Calibration Date
ACCALDATE	LABEL	12/3/2015	AC Calibration Date
FRAMEWORKVERSION	QUANT	7.01	Framework Version
INSTRUMENTVERSION	LABEL	4.00	Instrument Version
CURVE	TABLE	60
	Pt	T	Vf	Im	Vu	Pwr	Sig	Ach	Temp	IERange	Over
	#	s	V	A	V	W	V	V	deg C	#	bits
	0	0.013333	6.27085E-001	5.99792E-003	0.00000E+000	3.76121E-003	3.59960E-001	-1.14202E+000	3.57650E+000	10	...........
	1	0.026667	6.35806E-001	5.99489E-003	0.00000E+000	3.81158E-003	3.59960E-001	-1.13347E+000	3.57650E+000	10	...........
	2	0.04	6.43871E-001	5.99223E-003	0.00000E+000	3.85822E-003	3.59960E-001	-1.13074E+000	3.57650E+000	10	...........
	3	0.053333	6.51520E-001	5.99642E-003	0.00000E+000	3.90679E-003	3.59960E-001	-1.14149E+000	3.57650E+000	10	...........
	4	0.066667	6.58905E-001	5.99297E-003	0.00000E+000	3.94880E-003	3.59960E-001	-1.13280E+000	3.57650E+000	10	...........
	5	0.08	6.66124E-001	5.99359E-003	0.00000E+000	3.99248E-003	3.59960E-001	-1.13056E+000	3.57650E+000	10	...........
	6	0.093333	6.73186E-001	5.99128E-003	0.00000E+000	4.03324E-003	3.59960E-001	-1.14167E+000	3.57650E+000	10	...........
	7	0.106667	6.80096E-001	5.99249E-003	0.00000E+000	4.07547E-003	3.59960E-001	-1.13302E+000	3.57650E+000	10	...........
	8	0.12	6.86936E-001	5.99546E-003	0.00000E+000	4.11850E-003	3.59960E-001	-1.13060E+000	3.57650E+000	10	...........
	9	0.133333	6.93744E-001	5.99763E-003	0.00000E+000	4.16082E-003	3.59960E-001	-1.14140E+000	3.57650E+000	10	...........
	10	0.146667	7.00469E-001	5.99270E-003	0.00000E+000	4.19770E-003	3.59960E-001	-1.13255E+000	3.57650E+000	10	...........
	11	0.16	7.07133E-001	5.99280E-003	0.00000E+000	4.23771E-003	3.59960E-001	-1.13057E+000	3.57663E+000	10	...........
	12	0.173333	7.13751E-001	5.99349E-003	0.00000E+000	4.27786E-003	3.59960E-001	-1.14162E+000	3.57670E+000	10	...........
	13	0.186667	7.20418E-001	5.99448E-003	0.00000E+000	4.31853E-003	3.59960E-001	-1.13256E+000	3.57670E+000	10	...........
	14	0.2	7.26957E-001	5.99459E-003	0.00000E+000	4.35781E-003	3.59960E-001	-1.13041E+000	3.57670E+000	10	...........
	15	0.213333	7.33439E-001	5.99521E-003	0.00000E+000	4.39712E-003	3.59960E-001	-1.14147E+000	3.57670E+000	10	...........
	16	0.226667	7.39988E-001	5.99383E-003	0.00000E+000	4.43536E-003	3.59960E-001	-1.13230E+000	3.57670E+000	10	...........
	17	0.24	7.46494E-001	5.99091E-003	0.00000E+000	4.47218E-003	3.59960E-001	-1.13057E+000	3.57670E+000	10	...........
	18	0.253333	7.52963E-001	5.99545E-003	0.00000E+000	4.51435E-003	3.59960E-001	-1.14135E+000	3.57670E+000	10	...........
	19	0.266667	7.59448E-001	5.99700E-003	0.00000E+000	4.55441E-003	3.59960E-001	-1.13227E+000	3.57670E+000	10	...........
	20	0.28	7.65859E-001	5.99597E-003	0.00000E+000	4.59207E-003	3.59960E-001	-1.13048E+000	3.57670E+000	10	...........
	21	0.293333	7.72307E-001	5.99576E-003	0.00000E+000	4.63057E-003	3.59960E-001	-1.14154E+000	3.57670E+000	10	...........
	22	0.306667	7.78720E-001	5.99437E-003	0.00000E+000	4.66793E-003	3.59960E-001	-1.13215E+000	3.57670E+000	10	...........
	23	0.32	7.85117E-001	5.99269E-003	0.00000E+000	4.70496E-003	3.59960E-001	-1.13043E+000	3.57670E+000	10	...........
	24	0.333333	7.91467E-001	5.99508E-003	0.00000E+000	4.74491E-003	3.59960E-001	-1.14130E+000	3.57670E+000	10	...........
	25	0.346667	7.97884E-001	5.99620E-003	0.00000E+000	4.78427E-003	3.59960E-001	-1.13180E+000	3.57670E+000	10	...........
	26	0.36	8.04207E-001	5.99124E-003	0.00000E+000	4.81819E-003	3.59960E-001	-1.13025E+000	3.57670E+000	10	...........
	27	0.373333	8.10494E-001	5.99127E-003	0.00000E+000	4.85589E-003	3.59960E-001	-1.14122E+000	3.57670E+000	10	...........
	28	0.386667	8.16849E-001	5.99423E-003	0.00000E+000	4.89638E-003	3.59960E-001	-1.13124E+000	3.57670E+000	10	...........
	29	0.4	8.23167E-001	5.98998E-003	0.00000E+000	4.93076E-003	3.59960E-001	-1.13002E+000	3.57670E+000	10	...........
	30	0.413333	8.29495E-001	5.99762E-003	0.00000E+000	4.97499E-003	3.59960E-001	-1.14112E+000	3.57670E+000	10	...........
	31	0.426667	8.35786E-001	5.99582E-003	0.00000E+000	5.01122E-003	3.59960E-001	-1.13127E+000	3.57670E+000	10	...........
	32	0.44	8.42066E-001	5.99375E-003	0.00000E+000	5.04713E-003	3.59960E-001	-1.13037E+000	3.57670E+000	10	...........
	33	0.453333	8.48322E-001	5.99592E-003	0.00000E+000	5.08647E-003	3.59960E-001	-1.14110E+000	3.57670E+000	10	...........
	34	0.466667	8.54566E-001	5.99540E-003	0.00000E+000	5.12347E-003	3.59960E-001	-1.13109E+000	3.57670E+000	10	...........
	35	0.48	8.60810E-001	5.99661E-003	0.00000E+000	5.16194E-003	3.59960E-001	-1.13030E+000	3.57670E+000	10	...........
	36	0.493333	8.66990E-001	5.99864E-003	0.00000E+000	5.20076E-003	3.59960E-001	-1.14108E+000	3.57670E+000	10	...........
	37	0.506667	8.73165E-001	5.99156E-003	0.00000E+000	5.23162E-003	3.59960E-001	-1.13123E+000	3.57670E+000	10	...........
	38	0.52	8.79361E-001	5.99212E-003	0.00000E+000	5.26924E-003	3.59960E-001	-1.13038E+000	3.57670E+000	10	...........
	39	0.533333	8.85532E-001	5.99625E-003	0.00000E+000	5.30987E-003	3.59960E-001	-1.14075E+000	3.57670E+000	10	...........
	40	0.546667	8.91665E-001	5.98932E-003	0.00000E+000	5.34047E-003	3.59960E-001	-1.13083E+000	3.57670E+000	10	...........
	41	0.56	8.97752E-001	5.99639E-003	0.00000E+000	5.38327E-003	3.59960E-001	-1.13040E+000	3.57670E+000	10	...........
	42	0.573333	9.03833E-001	5.99474E-003	0.00000E+000	5.41825E-003	3.59960E-001	-1.14111E+000	3.57670E+000	10	...........
	43	0.586667	9.09922E-001	5.99521E-003	0.00000E+000	5.45517E-003	3.59960E-001	-1.13088E+000	3.57670E+000	10	...........
	44	0.6	9.15902E-001	5.99715E-003	0.00000E+000	5.49280E-003	3.59960E-001	-1.13040E+000	3.57670E+000	10	...........
	45	0.613333	9.21924E-001	5.99079E-003	0.00000E+000	5.52305E-003	3.59960E-001	-1.14093E+000	3.57670E+000	10	...........
	46	0.626667	9.27891E-001	5.99139E-003	0.00000E+000	5.55936E-003	3.59960E-001	-1.13101E+000	3.57670E+000	10	...........
	47	0.64	9.33792E-001	5.99391E-003	0.00000E+000	5.59706E-003	3.59960E-001	-1.13067E+000	3.57670E+000	10	...........
	48	0.653333	9.39673E-001	5.99136E-003	0.00000E+000	5.62992E-003	3.59960E-001	-1.14110E+000	3.57670E+000	10	...........
	49	0.666667	9.45525E-001	5.99269E-003	0.00000E+000	5.66623E-003	3.59960E-001	-1.13073E+000	3.57670E+000	10	...........
	50	0.68	9.51345E-001	5.99401E-003	0.00000E+000	5.70237E-003	3.59960E-001	-1.13020E+000	3.57670E+000	10	...........
	51	0.693333	9.57092E-001	5.99746E-003	0.00000E+000	5.74012E-003	3.59960E-001	-1.14085E+000	3.57670E+000	10	...........
	52	0.706667	9.62791E-001	5.99440E-003	0.00000E+000	5.77135E-003	3.59960E-001	-1.13057E+000	3.57670E+000	10	...........
	53	0.72	9.68455E-001	5.98987E-003	0.00000E+000	5.80092E-003	3.59960E-001	-1.13046E+000	3.57670E+000	10	...........
	54	0.733333	9.74149E-001	5.99398E-003	0.00000E+000	5.83903E-003	3.59960E-001	-1.14071E+000	3.57670E+000	10	...........
	55	0.746667	9.79746E-001	5.99271E-003	0.00000E+000	5.87133E-003	3.59960E-001	-1.13015E+000	3.57670E+000	10	...........
	56	0.76	9.85292E-001	5.99827E-003	0.00000E+000	5.91005E-003	3.59960E-001	-1.13056E+000	3.57670E+000	10	...........
	57	0.773333	9.90798E-001	5.99637E-003	0.00000E+000	5.94119E-003	3.59960E-001	-1.14085E+000	3.57670E+000	10	...........
	58	0.786667	9.96295E-001	5.99605E-003	0.00000E+000	5.97384E-003	3.59960E-001	-1.13035E+000	3.57670E+000	10	...........
	59	0.791667	1.00001E+000	5.99321E-003	0.00000E+000	5.99329E-003	3.59960E-001	-1.14224E+000	3.57670E+000	10	...........
STARTTIMEOFFSET	QUANT	746.9384	Start Time Offset (s)