File: Data/CV_CRGO300517_1/PWRCCD_CRGO300517_1/CHARGE_DISCHARGE/CHARGE_#17.DTA
EXPLAIN
TAG	PWR800_CHARGE
TITLE	LABEL	PWR Cyclic Charge Discharge (Cell) - Charge Step	Test &Identifier
DATE	LABEL	22-6-2017	Date
TIME	LABEL	15:35:43	Time
NOTES	NOTES	3	&Notes...
	supercap test cell
	0.6mg
	6M KOH
PSTAT	PSTAT	IFC5000-01520	Potentiostat
CAPACITY	QUANT	1.00000E-003	Capacity (A-hr)
CELLTYPE	SELECTOR	1	&Cell Type
WORKINGCONNECTION	SELECTOR	0	&Working Lead
MAXCHARGETIME	VARIABLEANDUNITS	1.00000E+002	s	1.00000E+002	second(s)	Max &Charge Time
CHARGECURRENT	QUANT	6.00000E-003	&Charge Current (A)
VOLTAGEFINISH	TWOPARAM	F	1.00000E-003	3.60000E+003	&Voltage Finish	 I (A) < 	Max Time(s)
SAMPLETIME	QUANT	1.00000E-002	Sa&mple Period (s)
CHARGESTOPAT1	MULTIPARAM	4	1.00000E+000	Charge Stop At &1	Voltage > Limit	V
CHARGESTOPAT2	MULTIPARAM	0	0.00000E+000	Charge Stop At &2	None	N/A
AESBHCSELECTOR	TOGGLE	F	Save Both Half Cells
IRCOMP	TOGGLE	F	IR &Measure
EOC	QUANT	0	Open Circuit (V)
SEQUENCER	TOGGLE	TRUE	Run as Sequence
PSTATMODEL	IQUANT	53	Pstat Model
PSTATSECTION	LABEL	IFC5000-01520	Pstat Section
PSTATSERIALNO	LABEL	01520	Pstat Serial Number
CTRLMODE	IQUANT	0	Control Mode
ELECTROMETER	IQUANT	1	RE=0 or CS=1
IESTAB	IQUANT	0	I/E Stability
CASPEED	IQUANT	4	Control Amp Speed
CONVENTION	IQUANT	1	Current Convention
ICHRANGE	IQUANT	2	Ich Range
ICHRANGEMODE	TOGGLE	T	Ich Auto Range
ICHOFFSETENABLE	TOGGLE	F	Ich Offset Enable
ICHOFFSET	QUANT	0	Ich Offset (V)
ICHFILTER	IQUANT	1	Ich Filter
VCHRANGE	IQUANT	2	Vch Range
VCHRANGEMODE	TOGGLE	T	Vch Auto Range
VCHOFFSETENABLE	TOGGLE	F	Vch Offset Enable
VCHOFFSET	QUANT	0	Vch Offset (V)
VCHFILTER	IQUANT	1	Vch Filter
IERANGELOWERLIMIT	IQUANT	9	I/E Range Lower Limit
IERANGEMODE	TOGGLE	F	I/E AutoRange
IERANGE	IQUANT	10	I/E Range
ACHSELECT	IQUANT	1	Ach Select
ACHRANGE	IQUANT	2	Ach Range
ACHOFFSETENABLE	TOGGLE	F	Ach Offset Enable
ACHOFFSET	QUANT	0	Ach Offset (V)
ACHFILTER	IQUANT	1	Ach Filter
CABLEID	IQUANT	14	Cable ID
DCCALDATE	LABEL	20-10-2016	DC Calibration Date
ACCALDATE	LABEL	12/3/2015	AC Calibration Date
FRAMEWORKVERSION	QUANT	7.01	Framework Version
INSTRUMENTVERSION	LABEL	4.00	Instrument Version
CURVE	TABLE	79
	Pt	T	Vf	Im	Vu	Pwr	Sig	Ach	Temp	IERange	Over
	#	s	V	A	V	W	V	V	deg C	#	bits
	0	0.013333	5.59165E-001	5.99459E-003	0.00000E+000	3.35197E-003	3.59960E-001	-1.01481E+000	3.57780E+000	10	...........
	1	0.026667	5.67228E-001	5.99423E-003	0.00000E+000	3.40009E-003	3.59960E-001	-1.02367E+000	3.57780E+000	10	...........
	2	0.04	5.74507E-001	5.99375E-003	0.00000E+000	3.44345E-003	3.59960E-001	-1.01219E+000	3.57780E+000	10	...........
	3	0.053333	5.81383E-001	5.99428E-003	0.00000E+000	3.48497E-003	3.59960E-001	-1.01490E+000	3.57780E+000	10	...........
	4	0.066667	5.88019E-001	5.99743E-003	0.00000E+000	3.52660E-003	3.59960E-001	-1.02352E+000	3.57780E+000	10	...........
	5	0.08	5.94488E-001	5.99334E-003	0.00000E+000	3.56297E-003	3.59960E-001	-1.01204E+000	3.57780E+000	10	...........
	6	0.093333	6.00765E-001	5.99273E-003	0.00000E+000	3.60022E-003	3.59960E-001	-1.01466E+000	3.57780E+000	10	...........
	7	0.106667	6.06895E-001	5.99308E-003	0.00000E+000	3.63717E-003	3.59960E-001	-1.02323E+000	3.57780E+000	10	...........
	8	0.12	6.12985E-001	5.99381E-003	0.00000E+000	3.67412E-003	3.59960E-001	-1.01203E+000	3.57780E+000	10	...........
	9	0.133333	6.19026E-001	5.99608E-003	0.00000E+000	3.71172E-003	3.59960E-001	-1.01476E+000	3.57780E+000	10	...........
	10	0.146667	6.24924E-001	5.99532E-003	0.00000E+000	3.74662E-003	3.59960E-001	-1.02342E+000	3.57780E+000	10	...........
	11	0.16	6.30815E-001	5.99310E-003	0.00000E+000	3.78054E-003	3.59960E-001	-1.01197E+000	3.57780E+000	10	...........
	12	0.173333	6.36651E-001	5.99469E-003	0.00000E+000	3.81652E-003	3.59960E-001	-1.01470E+000	3.57780E+000	10	...........
	13	0.186667	6.42476E-001	5.99080E-003	0.00000E+000	3.84894E-003	3.59960E-001	-1.02371E+000	3.57780E+000	10	...........
	14	0.2	6.48208E-001	5.99621E-003	0.00000E+000	3.88679E-003	3.59960E-001	-1.01220E+000	3.57780E+000	10	...........
	15	0.213333	6.53956E-001	5.99644E-003	0.00000E+000	3.92141E-003	3.59960E-001	-1.01461E+000	3.57780E+000	10	...........
	16	0.226667	6.59656E-001	5.99676E-003	0.00000E+000	3.95580E-003	3.59960E-001	-1.02322E+000	3.57780E+000	10	...........
	17	0.24	6.65367E-001	5.99233E-003	0.00000E+000	3.98710E-003	3.59960E-001	-1.01158E+000	3.57780E+000	10	...........
	18	0.253333	6.71034E-001	5.99271E-003	0.00000E+000	4.02131E-003	3.59960E-001	-1.01427E+000	3.57780E+000	10	...........
	19	0.266667	6.76667E-001	5.98912E-003	0.00000E+000	4.05264E-003	3.59960E-001	-1.02303E+000	3.57780E+000	10	...........
	20	0.28	6.82288E-001	5.99332E-003	0.00000E+000	4.08917E-003	3.59960E-001	-1.01144E+000	3.57780E+000	10	...........
	21	0.293333	6.87896E-001	5.99463E-003	0.00000E+000	4.12368E-003	3.59960E-001	-1.01395E+000	3.57780E+000	10	...........
	22	0.306667	6.93492E-001	5.99345E-003	0.00000E+000	4.15641E-003	3.59960E-001	-1.02292E+000	3.57780E+000	10	...........
	23	0.32	6.99065E-001	5.99314E-003	0.00000E+000	4.18960E-003	3.59960E-001	-1.01150E+000	3.57780E+000	10	...........
	24	0.333333	7.04664E-001	5.99658E-003	0.00000E+000	4.22557E-003	3.59960E-001	-1.01413E+000	3.57780E+000	10	...........
	25	0.346667	7.10242E-001	5.99269E-003	0.00000E+000	4.25626E-003	3.59960E-001	-1.02306E+000	3.57780E+000	10	...........
	26	0.36	7.15856E-001	5.99034E-003	0.00000E+000	4.28822E-003	3.59960E-001	-1.01136E+000	3.57780E+000	10	...........
	27	0.373333	7.21442E-001	5.99214E-003	0.00000E+000	4.32299E-003	3.59960E-001	-1.01395E+000	3.57780E+000	10	...........
	28	0.386667	7.27004E-001	5.99479E-003	0.00000E+000	4.35824E-003	3.59960E-001	-1.02310E+000	3.57780E+000	10	...........
	29	0.4	7.32513E-001	5.99350E-003	0.00000E+000	4.39031E-003	3.59960E-001	-1.01161E+000	3.57780E+000	10	...........
	30	0.413333	7.38073E-001	5.99516E-003	0.00000E+000	4.42487E-003	3.59960E-001	-1.01408E+000	3.57780E+000	10	...........
	31	0.426667	7.43664E-001	5.99660E-003	0.00000E+000	4.45945E-003	3.59960E-001	-1.02281E+000	3.57780E+000	10	...........
	32	0.44	7.49226E-001	5.99330E-003	0.00000E+000	4.49034E-003	3.59960E-001	-1.01134E+000	3.57780E+000	10	...........
	33	0.453333	7.54758E-001	5.99221E-003	0.00000E+000	4.52267E-003	3.59960E-001	-1.01412E+000	3.57780E+000	10	...........
	34	0.466667	7.60322E-001	5.99459E-003	0.00000E+000	4.55782E-003	3.59960E-001	-1.02325E+000	3.57780E+000	10	...........
	35	0.48	7.65865E-001	5.99629E-003	0.00000E+000	4.59235E-003	3.59960E-001	-1.01168E+000	3.57780E+000	10	...........
	36	0.493333	7.71422E-001	5.99179E-003	0.00000E+000	4.62220E-003	3.59960E-001	-1.01399E+000	3.57780E+000	10	...........
	37	0.506667	7.76958E-001	5.99175E-003	0.00000E+000	4.65533E-003	3.59960E-001	-1.02296E+000	3.57780E+000	10	...........
	38	0.52	7.82549E-001	5.99828E-003	0.00000E+000	4.69394E-003	3.59960E-001	-1.01167E+000	3.57780E+000	10	...........
	39	0.533333	7.88091E-001	5.98958E-003	0.00000E+000	4.72033E-003	3.59960E-001	-1.01432E+000	3.57780E+000	10	...........
	40	0.546667	7.93688E-001	5.99368E-003	0.00000E+000	4.75711E-003	3.59960E-001	-1.02308E+000	3.57780E+000	10	...........
	41	0.56	7.99259E-001	5.99222E-003	0.00000E+000	4.78933E-003	3.59960E-001	-1.01121E+000	3.57780E+000	10	...........
	42	0.573333	8.04767E-001	5.99521E-003	0.00000E+000	4.82475E-003	3.59960E-001	-1.01367E+000	3.57780E+000	10	...........
	43	0.586667	8.10323E-001	5.99465E-003	0.00000E+000	4.85760E-003	3.59960E-001	-1.02284E+000	3.57780E+000	10	...........
	44	0.6	8.15867E-001	5.99430E-003	0.00000E+000	4.89055E-003	3.59960E-001	-1.01138E+000	3.57780E+000	10	...........
	45	0.613333	8.21397E-001	5.99207E-003	0.00000E+000	4.92187E-003	3.59960E-001	-1.01375E+000	3.57780E+000	10	...........
	46	0.626667	8.27009E-001	5.99455E-003	0.00000E+000	4.95755E-003	3.59960E-001	-1.02259E+000	3.57780E+000	10	...........
	47	0.64	8.32506E-001	5.99149E-003	0.00000E+000	4.98795E-003	3.59960E-001	-1.01112E+000	3.57780E+000	10	...........
	48	0.653333	8.38063E-001	5.99368E-003	0.00000E+000	5.02308E-003	3.59960E-001	-1.01356E+000	3.57780E+000	10	...........
	49	0.666667	8.43624E-001	5.99169E-003	0.00000E+000	5.05474E-003	3.59960E-001	-1.02262E+000	3.57780E+000	10	...........
	50	0.68	8.49174E-001	5.99521E-003	0.00000E+000	5.09098E-003	3.59960E-001	-1.01114E+000	3.57780E+000	10	...........
	51	0.693333	8.54723E-001	5.99370E-003	0.00000E+000	5.12295E-003	3.59960E-001	-1.01346E+000	3.57780E+000	10	...........
	52	0.706667	8.60286E-001	5.99147E-003	0.00000E+000	5.15437E-003	3.59960E-001	-1.02270E+000	3.57780E+000	10	...........
	53	0.72	8.65806E-001	5.99467E-003	0.00000E+000	5.19022E-003	3.59960E-001	-1.01132E+000	3.57780E+000	10	...........
	54	0.733333	8.71388E-001	5.99600E-003	0.00000E+000	5.22484E-003	3.59960E-001	-1.01365E+000	3.57780E+000	10	...........
	55	0.746667	8.76903E-001	5.99288E-003	0.00000E+000	5.25518E-003	3.59960E-001	-1.02270E+000	3.57780E+000	10	...........
	56	0.76	8.82443E-001	5.99426E-003	0.00000E+000	5.28959E-003	3.59960E-001	-1.01128E+000	3.57780E+000	10	...........
	57	0.773333	8.88004E-001	5.99261E-003	0.00000E+000	5.32146E-003	3.59960E-001	-1.01374E+000	3.57780E+000	10	...........
	58	0.786667	8.93485E-001	5.99458E-003	0.00000E+000	5.35607E-003	3.59960E-001	-1.02312E+000	3.57780E+000	10	...........
	59	0.8	8.99033E-001	5.99656E-003	0.00000E+000	5.39110E-003	3.59960E-001	-1.01156E+000	3.57870E+000	10	...........
	60	0.813333	9.04522E-001	5.99481E-003	0.00000E+000	5.42244E-003	3.59960E-001	-1.01364E+000	3.57870E+000	10	...........
	61	0.826667	9.10046E-001	5.99571E-003	0.00000E+000	5.45637E-003	3.59960E-001	-1.02279E+000	3.57870E+000	10	...........
	62	0.84	9.15523E-001	5.99222E-003	0.00000E+000	5.48601E-003	3.59960E-001	-1.01134E+000	3.57870E+000	10	...........
	63	0.853333	9.21081E-001	5.99608E-003	0.00000E+000	5.52287E-003	3.59960E-001	-1.01384E+000	3.57870E+000	10	...........
	64	0.866667	9.26544E-001	5.99433E-003	0.00000E+000	5.55402E-003	3.59960E-001	-1.02305E+000	3.57870E+000	10	...........
	65	0.88	9.31998E-001	5.99610E-003	0.00000E+000	5.58835E-003	3.59960E-001	-1.01076E+000	3.57870E+000	10	...........
	66	0.893333	9.37437E-001	5.99580E-003	0.00000E+000	5.62069E-003	3.59960E-001	-1.01327E+000	3.57870E+000	10	...........
	67	0.906667	9.42843E-001	5.99346E-003	0.00000E+000	5.65089E-003	3.59960E-001	-1.02249E+000	3.57870E+000	10	...........
	68	0.92	9.48301E-001	5.99114E-003	0.00000E+000	5.68141E-003	3.59960E-001	-1.01103E+000	3.57870E+000	10	...........
	69	0.933333	9.53696E-001	5.99594E-003	0.00000E+000	5.71830E-003	3.59960E-001	-1.01321E+000	3.57870E+000	10	...........
	70	0.946667	9.59074E-001	5.99448E-003	0.00000E+000	5.74915E-003	3.59960E-001	-1.02256E+000	3.57870E+000	10	...........
	71	0.96	9.64425E-001	5.99688E-003	0.00000E+000	5.78354E-003	3.59960E-001	-1.01100E+000	3.57870E+000	10	...........
	72	0.97333	9.69747E-001	5.99493E-003	0.00000E+000	5.81356E-003	3.59960E-001	-1.01314E+000	3.57870E+000	10	...........
	73	0.98667	9.75081E-001	5.99269E-003	0.00000E+000	5.84335E-003	3.59960E-001	-1.02271E+000	3.57870E+000	10	...........
	74	1	9.80328E-001	5.99598E-003	0.00000E+000	5.87803E-003	3.59960E-001	-1.01115E+000	3.57870E+000	10	...........
	75	1.01333	9.85610E-001	5.99399E-003	0.00000E+000	5.90774E-003	3.59960E-001	-1.01317E+000	3.57870E+000	10	...........
	76	1.02667	9.90862E-001	5.99740E-003	0.00000E+000	5.94260E-003	3.59960E-001	-1.02238E+000	3.57870E+000	10	...........
	77	1.04	9.96085E-001	5.99473E-003	0.00000E+000	5.97126E-003	3.59960E-001	-1.01096E+000	3.57870E+000	10	...........
	78	1.045	9.99644E-001	5.99290E-003	0.00000E+000	5.99077E-003	3.59960E-001	-1.02557E+000	3.57870E+000	10	...........
STARTTIMEOFFSET	QUANT	34.30167	Start Time Offset (s)