File: Data/CV_CRGO300517_1/PWRCCD_CRGO300517_1/CHARGE_DISCHARGE/CHARGE_#942.DTA
EXPLAIN
TAG	PWR800_CHARGE
TITLE	LABEL	PWR Cyclic Charge Discharge (Cell) - Charge Step	Test &Identifier
DATE	LABEL	22-6-2017	Date
TIME	LABEL	16:12:32	Time
NOTES	NOTES	3	&Notes...
	supercap test cell
	0.6mg
	6M KOH
PSTAT	PSTAT	IFC5000-01520	Potentiostat
CAPACITY	QUANT	1.00000E-003	Capacity (A-hr)
CELLTYPE	SELECTOR	1	&Cell Type
WORKINGCONNECTION	SELECTOR	0	&Working Lead
MAXCHARGETIME	VARIABLEANDUNITS	1.00000E+002	s	1.00000E+002	second(s)	Max &Charge Time
CHARGECURRENT	QUANT	6.00000E-003	&Charge Current (A)
VOLTAGEFINISH	TWOPARAM	F	1.00000E-003	3.60000E+003	&Voltage Finish	 I (A) < 	Max Time(s)
SAMPLETIME	QUANT	1.00000E-002	Sa&mple Period (s)
CHARGESTOPAT1	MULTIPARAM	4	1.00000E+000	Charge Stop At &1	Voltage > Limit	V
CHARGESTOPAT2	MULTIPARAM	0	0.00000E+000	Charge Stop At &2	None	N/A
AESBHCSELECTOR	TOGGLE	F	Save Both Half Cells
IRCOMP	TOGGLE	F	IR &Measure
EOC	QUANT	0	Open Circuit (V)
SEQUENCER	TOGGLE	TRUE	Run as Sequence
PSTATMODEL	IQUANT	53	Pstat Model
PSTATSECTION	LABEL	IFC5000-01520	Pstat Section
PSTATSERIALNO	LABEL	01520	Pstat Serial Number
CTRLMODE	IQUANT	0	Control Mode
ELECTROMETER	IQUANT	1	RE=0 or CS=1
IESTAB	IQUANT	0	I/E Stability
CASPEED	IQUANT	4	Control Amp Speed
CONVENTION	IQUANT	1	Current Convention
ICHRANGE	IQUANT	2	Ich Range
ICHRANGEMODE	TOGGLE	T	Ich Auto Range
ICHOFFSETENABLE	TOGGLE	F	Ich Offset Enable
ICHOFFSET	QUANT	0	Ich Offset (V)
ICHFILTER	IQUANT	1	Ich Filter
VCHRANGE	IQUANT	2	Vch Range
VCHRANGEMODE	TOGGLE	T	Vch Auto Range
VCHOFFSETENABLE	TOGGLE	F	Vch Offset Enable
VCHOFFSET	QUANT	0	Vch Offset (V)
VCHFILTER	IQUANT	1	Vch Filter
IERANGELOWERLIMIT	IQUANT	9	I/E Range Lower Limit
IERANGEMODE	TOGGLE	F	I/E AutoRange
IERANGE	IQUANT	10	I/E Range
ACHSELECT	IQUANT	1	Ach Select
ACHRANGE	IQUANT	2	Ach Range
ACHOFFSETENABLE	TOGGLE	F	Ach Offset Enable
ACHOFFSET	QUANT	0	Ach Offset (V)
ACHFILTER	IQUANT	1	Ach Filter
CABLEID	IQUANT	14	Cable ID
DCCALDATE	LABEL	20-10-2016	DC Calibration Date
ACCALDATE	LABEL	12/3/2015	AC Calibration Date
FRAMEWORKVERSION	QUANT	7.01	Framework Version
INSTRUMENTVERSION	LABEL	4.00	Instrument Version
CURVE	TABLE	53
	Pt	T	Vf	Im	Vu	Pwr	Sig	Ach	Temp	IERange	Over
	#	s	V	A	V	W	V	V	deg C	#	bits
	0	0.013333	6.55146E-001	5.98798E-003	0.00000E+000	3.92300E-003	3.59960E-001	-1.18214E+000	3.57640E+000	10	...........
	1	0.026667	6.64485E-001	5.99564E-003	0.00000E+000	3.98401E-003	3.59960E-001	-1.17400E+000	3.57640E+000	10	...........
	2	0.04	6.73058E-001	5.99299E-003	0.00000E+000	4.03363E-003	3.59960E-001	-1.17914E+000	3.57640E+000	10	...........
	3	0.053333	6.81132E-001	5.99499E-003	0.00000E+000	4.08338E-003	3.59960E-001	-1.18249E+000	3.57640E+000	10	...........
	4	0.066667	6.88939E-001	5.99782E-003	0.00000E+000	4.13213E-003	3.59960E-001	-1.17396E+000	3.57640E+000	10	...........
	5	0.08	6.96547E-001	5.99767E-003	0.00000E+000	4.17766E-003	3.59960E-001	-1.17881E+000	3.57640E+000	10	...........
	6	0.093333	7.04012E-001	5.99196E-003	0.00000E+000	4.21841E-003	3.59960E-001	-1.18239E+000	3.57640E+000	10	...........
	7	0.106667	7.11421E-001	5.99488E-003	0.00000E+000	4.26488E-003	3.59960E-001	-1.17390E+000	3.57640E+000	10	...........
	8	0.12	7.18697E-001	5.99135E-003	0.00000E+000	4.30597E-003	3.59960E-001	-1.17910E+000	3.57640E+000	10	...........
	9	0.133333	7.25845E-001	5.99306E-003	0.00000E+000	4.35003E-003	3.59960E-001	-1.18233E+000	3.57645E+000	10	...........
	10	0.146667	7.32968E-001	5.98973E-003	0.00000E+000	4.39028E-003	3.59960E-001	-1.17316E+000	3.57660E+000	10	...........
	11	0.16	7.40038E-001	5.99281E-003	0.00000E+000	4.43491E-003	3.59960E-001	-1.17834E+000	3.57660E+000	10	...........
	12	0.173333	7.47042E-001	5.99243E-003	0.00000E+000	4.47659E-003	3.59960E-001	-1.18202E+000	3.57660E+000	10	...........
	13	0.186667	7.54014E-001	5.99524E-003	0.00000E+000	4.52050E-003	3.59960E-001	-1.17322E+000	3.57660E+000	10	...........
	14	0.2	7.60922E-001	5.99085E-003	0.00000E+000	4.55857E-003	3.59960E-001	-1.17809E+000	3.57660E+000	10	...........
	15	0.213333	7.67823E-001	5.99106E-003	0.00000E+000	4.60007E-003	3.59960E-001	-1.18176E+000	3.57660E+000	10	...........
	16	0.226667	7.74692E-001	5.99044E-003	0.00000E+000	4.64075E-003	3.59960E-001	-1.17321E+000	3.57660E+000	10	...........
	17	0.24	7.81531E-001	5.99534E-003	0.00000E+000	4.68554E-003	3.59960E-001	-1.17824E+000	3.57660E+000	10	...........
	18	0.253333	7.88347E-001	5.99561E-003	0.00000E+000	4.72662E-003	3.59960E-001	-1.18200E+000	3.57660E+000	10	...........
	19	0.266667	7.95151E-001	5.99116E-003	0.00000E+000	4.76388E-003	3.59960E-001	-1.17308E+000	3.57660E+000	10	...........
	20	0.28	8.01899E-001	5.99385E-003	0.00000E+000	4.80647E-003	3.59960E-001	-1.17793E+000	3.57660E+000	10	...........
	21	0.293333	8.08616E-001	5.99488E-003	0.00000E+000	4.84755E-003	3.59960E-001	-1.18176E+000	3.57660E+000	10	...........
	22	0.306667	8.15309E-001	5.99497E-003	0.00000E+000	4.88776E-003	3.59960E-001	-1.17323E+000	3.57660E+000	10	...........
	23	0.32	8.22014E-001	5.99165E-003	0.00000E+000	4.92523E-003	3.59960E-001	-1.17787E+000	3.57660E+000	10	...........
	24	0.333333	8.28666E-001	5.99782E-003	0.00000E+000	4.97018E-003	3.59960E-001	-1.18174E+000	3.57660E+000	10	...........
	25	0.346667	8.35322E-001	5.99165E-003	0.00000E+000	5.00496E-003	3.59960E-001	-1.17279E+000	3.57660E+000	10	...........
	26	0.36	8.41944E-001	5.99253E-003	0.00000E+000	5.04538E-003	3.59960E-001	-1.17783E+000	3.57660E+000	10	...........
	27	0.373333	8.48519E-001	5.99515E-003	0.00000E+000	5.08700E-003	3.59960E-001	-1.18193E+000	3.57660E+000	10	...........
	28	0.386667	8.54998E-001	5.98969E-003	0.00000E+000	5.12117E-003	3.59960E-001	-1.17315E+000	3.57660E+000	10	...........
	29	0.4	8.61552E-001	5.99120E-003	0.00000E+000	5.16173E-003	3.59960E-001	-1.17793E+000	3.57660E+000	10	...........
	30	0.413333	8.68055E-001	5.99376E-003	0.00000E+000	5.20292E-003	3.59960E-001	-1.18177E+000	3.57660E+000	10	...........
	31	0.426667	8.74531E-001	5.99573E-003	0.00000E+000	5.24346E-003	3.59960E-001	-1.17301E+000	3.57660E+000	10	...........
	32	0.44	8.80931E-001	5.99305E-003	0.00000E+000	5.27947E-003	3.59960E-001	-1.17805E+000	3.57660E+000	10	...........
	33	0.453333	8.87312E-001	5.99332E-003	0.00000E+000	5.31795E-003	3.59960E-001	-1.18203E+000	3.57660E+000	10	...........
	34	0.466667	8.93653E-001	5.99206E-003	0.00000E+000	5.35482E-003	3.59960E-001	-1.17265E+000	3.57660E+000	10	...........
	35	0.48	9.00003E-001	5.99299E-003	0.00000E+000	5.39371E-003	3.59960E-001	-1.17734E+000	3.57660E+000	10	...........
	36	0.493333	9.06291E-001	5.99318E-003	0.00000E+000	5.43156E-003	3.59960E-001	-1.18148E+000	3.57660E+000	10	...........
	37	0.506667	9.12534E-001	5.99480E-003	0.00000E+000	5.47046E-003	3.59960E-001	-1.17274E+000	3.57660E+000	10	...........
	38	0.52	9.18764E-001	5.99421E-003	0.00000E+000	5.50726E-003	3.59960E-001	-1.17733E+000	3.57660E+000	10	...........
	39	0.533333	9.24945E-001	5.99190E-003	0.00000E+000	5.54218E-003	3.59960E-001	-1.18111E+000	3.57660E+000	10	...........
	40	0.546667	9.31061E-001	5.98992E-003	0.00000E+000	5.57698E-003	3.59960E-001	-1.17249E+000	3.57660E+000	10	...........
	41	0.56	9.37126E-001	5.99357E-003	0.00000E+000	5.61673E-003	3.59960E-001	-1.17722E+000	3.57660E+000	10	...........
	42	0.573333	9.43167E-001	5.99480E-003	0.00000E+000	5.65410E-003	3.59960E-001	-1.18172E+000	3.57660E+000	10	...........
	43	0.586667	9.49159E-001	5.98723E-003	0.00000E+000	5.68283E-003	3.59960E-001	-1.17261E+000	3.57660E+000	10	...........
	44	0.6	9.55060E-001	5.99429E-003	0.00000E+000	5.72491E-003	3.59960E-001	-1.17715E+000	3.57660E+000	10	...........
	45	0.613333	9.60936E-001	5.99433E-003	0.00000E+000	5.76017E-003	3.59960E-001	-1.18139E+000	3.57660E+000	10	...........
	46	0.626667	9.66763E-001	5.99199E-003	0.00000E+000	5.79283E-003	3.59960E-001	-1.17247E+000	3.57660E+000	10	...........
	47	0.64	9.72553E-001	5.99157E-003	0.00000E+000	5.82712E-003	3.59960E-001	-1.17727E+000	3.57660E+000	10	...........
	48	0.653333	9.78316E-001	5.99351E-003	0.00000E+000	5.86355E-003	3.59960E-001	-1.18144E+000	3.57660E+000	10	...........
	49	0.666667	9.83982E-001	5.99479E-003	0.00000E+000	5.89877E-003	3.59960E-001	-1.17243E+000	3.57660E+000	10	...........
	50	0.68	9.89621E-001	5.98863E-003	0.00000E+000	5.92647E-003	3.59960E-001	-1.17698E+000	3.57660E+000	10	...........
	51	0.693333	9.95158E-001	5.99208E-003	0.00000E+000	5.96307E-003	3.59960E-001	-1.18163E+000	3.57660E+000	10	...........
	52	0.7	9.99326E-001	5.99538E-003	0.00000E+000	5.99134E-003	3.59960E-001	-1.16851E+000	3.57660E+000	10	...........
STARTTIMEOFFSET	QUANT	1504.82	Start Time Offset (s)