File: Data/CV_CRGO300517_1/PWRCCD_CRGO300517_1/CHARGE_DISCHARGE/CHARGE_#749.DTA
EXPLAIN
TAG	PWR800_CHARGE
TITLE	LABEL	PWR Cyclic Charge Discharge (Cell) - Charge Step	Test &Identifier
DATE	LABEL	22-6-2017	Date
TIME	LABEL	16:05:23	Time
NOTES	NOTES	3	&Notes...
	supercap test cell
	0.6mg
	6M KOH
PSTAT	PSTAT	IFC5000-01520	Potentiostat
CAPACITY	QUANT	1.00000E-003	Capacity (A-hr)
CELLTYPE	SELECTOR	1	&Cell Type
WORKINGCONNECTION	SELECTOR	0	&Working Lead
MAXCHARGETIME	VARIABLEANDUNITS	1.00000E+002	s	1.00000E+002	second(s)	Max &Charge Time
CHARGECURRENT	QUANT	6.00000E-003	&Charge Current (A)
VOLTAGEFINISH	TWOPARAM	F	1.00000E-003	3.60000E+003	&Voltage Finish	 I (A) < 	Max Time(s)
SAMPLETIME	QUANT	1.00000E-002	Sa&mple Period (s)
CHARGESTOPAT1	MULTIPARAM	4	1.00000E+000	Charge Stop At &1	Voltage > Limit	V
CHARGESTOPAT2	MULTIPARAM	0	0.00000E+000	Charge Stop At &2	None	N/A
AESBHCSELECTOR	TOGGLE	F	Save Both Half Cells
IRCOMP	TOGGLE	F	IR &Measure
EOC	QUANT	0	Open Circuit (V)
SEQUENCER	TOGGLE	TRUE	Run as Sequence
PSTATMODEL	IQUANT	53	Pstat Model
PSTATSECTION	LABEL	IFC5000-01520	Pstat Section
PSTATSERIALNO	LABEL	01520	Pstat Serial Number
CTRLMODE	IQUANT	0	Control Mode
ELECTROMETER	IQUANT	1	RE=0 or CS=1
IESTAB	IQUANT	0	I/E Stability
CASPEED	IQUANT	4	Control Amp Speed
CONVENTION	IQUANT	1	Current Convention
ICHRANGE	IQUANT	2	Ich Range
ICHRANGEMODE	TOGGLE	T	Ich Auto Range
ICHOFFSETENABLE	TOGGLE	F	Ich Offset Enable
ICHOFFSET	QUANT	0	Ich Offset (V)
ICHFILTER	IQUANT	1	Ich Filter
VCHRANGE	IQUANT	2	Vch Range
VCHRANGEMODE	TOGGLE	T	Vch Auto Range
VCHOFFSETENABLE	TOGGLE	F	Vch Offset Enable
VCHOFFSET	QUANT	0	Vch Offset (V)
VCHFILTER	IQUANT	1	Vch Filter
IERANGELOWERLIMIT	IQUANT	9	I/E Range Lower Limit
IERANGEMODE	TOGGLE	F	I/E AutoRange
IERANGE	IQUANT	10	I/E Range
ACHSELECT	IQUANT	1	Ach Select
ACHRANGE	IQUANT	2	Ach Range
ACHOFFSETENABLE	TOGGLE	F	Ach Offset Enable
ACHOFFSET	QUANT	0	Ach Offset (V)
ACHFILTER	IQUANT	1	Ach Filter
CABLEID	IQUANT	14	Cable ID
DCCALDATE	LABEL	20-10-2016	DC Calibration Date
ACCALDATE	LABEL	12/3/2015	AC Calibration Date
FRAMEWORKVERSION	QUANT	7.01	Framework Version
INSTRUMENTVERSION	LABEL	4.00	Instrument Version
CURVE	TABLE	55
	Pt	T	Vf	Im	Vu	Pwr	Sig	Ach	Temp	IERange	Over
	#	s	V	A	V	W	V	V	deg C	#	bits
	0	0.013333	6.45924E-001	5.99327E-003	0.00000E+000	3.87120E-003	3.59960E-001	-1.16348E+000	3.57780E+000	10	...........
	1	0.026667	6.55040E-001	5.99093E-003	0.00000E+000	3.92430E-003	3.59960E-001	-1.15673E+000	3.57780E+000	10	...........
	2	0.04	6.63453E-001	5.99121E-003	0.00000E+000	3.97489E-003	3.59960E-001	-1.16515E+000	3.57780E+000	10	...........
	3	0.053333	6.71421E-001	5.99128E-003	0.00000E+000	4.02267E-003	3.59960E-001	-1.16335E+000	3.57780E+000	10	...........
	4	0.066667	6.79118E-001	5.99414E-003	0.00000E+000	4.07072E-003	3.59960E-001	-1.15717E+000	3.57780E+000	10	...........
	5	0.08	6.86619E-001	5.99530E-003	0.00000E+000	4.11649E-003	3.59960E-001	-1.16515E+000	3.57780E+000	10	...........
	6	0.093333	6.93973E-001	5.99169E-003	0.00000E+000	4.15808E-003	3.59960E-001	-1.16309E+000	3.57780E+000	10	...........
	7	0.106667	7.01202E-001	5.99360E-003	0.00000E+000	4.20273E-003	3.59960E-001	-1.15696E+000	3.57780E+000	10	...........
	8	0.12	7.08359E-001	5.99887E-003	0.00000E+000	4.24935E-003	3.59960E-001	-1.16537E+000	3.57780E+000	10	...........
	9	0.133333	7.15412E-001	5.99002E-003	0.00000E+000	4.28533E-003	3.59960E-001	-1.16298E+000	3.57780E+000	10	...........
	10	0.146667	7.22404E-001	5.98767E-003	0.00000E+000	4.32552E-003	3.59960E-001	-1.15667E+000	3.57780E+000	10	...........
	11	0.16	7.29373E-001	5.99761E-003	0.00000E+000	4.37449E-003	3.59960E-001	-1.16511E+000	3.57780E+000	10	...........
	12	0.173333	7.36254E-001	5.99138E-003	0.00000E+000	4.41118E-003	3.59960E-001	-1.16266E+000	3.57780E+000	10	...........
	13	0.186667	7.43116E-001	5.99136E-003	0.00000E+000	4.45228E-003	3.59960E-001	-1.15704E+000	3.57780E+000	10	...........
	14	0.2	7.49958E-001	5.99156E-003	0.00000E+000	4.49342E-003	3.59960E-001	-1.16561E+000	3.57780E+000	10	...........
	15	0.213333	7.56754E-001	5.99362E-003	0.00000E+000	4.53570E-003	3.59960E-001	-1.16279E+000	3.57780E+000	10	...........
	16	0.226667	7.63498E-001	5.99456E-003	0.00000E+000	4.57684E-003	3.59960E-001	-1.15662E+000	3.57780E+000	10	...........
	17	0.24	7.70233E-001	5.99418E-003	0.00000E+000	4.61691E-003	3.59960E-001	-1.16546E+000	3.57780E+000	10	...........
	18	0.253333	7.76964E-001	5.99246E-003	0.00000E+000	4.65592E-003	3.59960E-001	-1.16267E+000	3.57780E+000	10	...........
	19	0.266667	7.83666E-001	5.99728E-003	0.00000E+000	4.69986E-003	3.59960E-001	-1.15664E+000	3.57780E+000	10	...........
	20	0.28	7.90339E-001	5.99485E-003	0.00000E+000	4.73796E-003	3.59960E-001	-1.16509E+000	3.57780E+000	10	...........
	21	0.293333	7.97010E-001	5.99290E-003	0.00000E+000	4.77641E-003	3.59960E-001	-1.16201E+000	3.57780E+000	10	...........
	22	0.306667	8.03608E-001	5.99492E-003	0.00000E+000	4.81756E-003	3.59960E-001	-1.15636E+000	3.57780E+000	10	...........
	23	0.32	8.10203E-001	5.99493E-003	0.00000E+000	4.85711E-003	3.59960E-001	-1.16537E+000	3.57780E+000	10	...........
	24	0.333333	8.16792E-001	5.99287E-003	0.00000E+000	4.89493E-003	3.59960E-001	-1.16196E+000	3.57780E+000	10	...........
	25	0.346667	8.23382E-001	5.99589E-003	0.00000E+000	4.93691E-003	3.59960E-001	-1.15630E+000	3.57780E+000	10	...........
	26	0.36	8.29902E-001	5.99241E-003	0.00000E+000	4.97312E-003	3.59960E-001	-1.16511E+000	3.57780E+000	10	...........
	27	0.373333	8.36401E-001	5.99067E-003	0.00000E+000	5.01060E-003	3.59960E-001	-1.16178E+000	3.57780E+000	10	...........
	28	0.386667	8.42936E-001	5.99383E-003	0.00000E+000	5.05242E-003	3.59960E-001	-1.15622E+000	3.57780E+000	10	...........
	29	0.4	8.49448E-001	5.99365E-003	0.00000E+000	5.09129E-003	3.59960E-001	-1.16553E+000	3.57780E+000	10	...........
	30	0.413333	8.55833E-001	5.99201E-003	0.00000E+000	5.12816E-003	3.59960E-001	-1.16150E+000	3.57780E+000	10	...........
	31	0.426667	8.62292E-001	5.99745E-003	0.00000E+000	5.17155E-003	3.59960E-001	-1.15592E+000	3.57780E+000	10	...........
	32	0.44	8.68654E-001	5.99042E-003	0.00000E+000	5.20361E-003	3.59960E-001	-1.16532E+000	3.57780E+000	10	...........
	33	0.453333	8.75038E-001	5.99236E-003	0.00000E+000	5.24354E-003	3.59960E-001	-1.16125E+000	3.57780E+000	10	...........
	34	0.466667	8.81371E-001	5.99127E-003	0.00000E+000	5.28053E-003	3.59960E-001	-1.15595E+000	3.57780E+000	10	...........
	35	0.48	8.87670E-001	5.99262E-003	0.00000E+000	5.31947E-003	3.59960E-001	-1.16545E+000	3.57780E+000	10	...........
	36	0.493333	8.93946E-001	5.99039E-003	0.00000E+000	5.35509E-003	3.59960E-001	-1.16117E+000	3.57780E+000	10	...........
	37	0.506667	9.00237E-001	5.99433E-003	0.00000E+000	5.39632E-003	3.59960E-001	-1.15606E+000	3.57780E+000	10	...........
	38	0.52	9.06491E-001	5.99830E-003	0.00000E+000	5.43740E-003	3.59960E-001	-1.16587E+000	3.57780E+000	10	...........
	39	0.533333	9.12677E-001	5.99734E-003	0.00000E+000	5.47363E-003	3.59960E-001	-1.16108E+000	3.57780E+000	10	...........
	40	0.546667	9.18836E-001	5.99279E-003	0.00000E+000	5.50639E-003	3.59960E-001	-1.15591E+000	3.57780E+000	10	...........
	41	0.56	9.24944E-001	5.98977E-003	0.00000E+000	5.54020E-003	3.59960E-001	-1.16582E+000	3.57780E+000	10	...........
	42	0.573333	9.30991E-001	5.99522E-003	0.00000E+000	5.58150E-003	3.59960E-001	-1.16075E+000	3.57780E+000	10	...........
	43	0.586667	9.37023E-001	5.99453E-003	0.00000E+000	5.61702E-003	3.59960E-001	-1.15590E+000	3.57780E+000	10	...........
	44	0.6	9.42965E-001	5.99440E-003	0.00000E+000	5.65251E-003	3.59960E-001	-1.16553E+000	3.57780E+000	10	...........
	45	0.613333	9.48944E-001	5.99044E-003	0.00000E+000	5.68459E-003	3.59960E-001	-1.16038E+000	3.57780E+000	10	...........
	46	0.626667	9.54832E-001	5.99631E-003	0.00000E+000	5.72547E-003	3.59960E-001	-1.15565E+000	3.57780E+000	10	...........
	47	0.64	9.60672E-001	5.99401E-003	0.00000E+000	5.75828E-003	3.59960E-001	-1.16573E+000	3.57780E+000	10	...........
	48	0.653333	9.66494E-001	5.99697E-003	0.00000E+000	5.79604E-003	3.59960E-001	-1.16049E+000	3.57841E+000	10	...........
	49	0.666667	9.72245E-001	5.99177E-003	0.00000E+000	5.82547E-003	3.59960E-001	-1.15567E+000	3.57850E+000	10	...........
	50	0.68	9.77985E-001	5.99413E-003	0.00000E+000	5.86216E-003	3.59960E-001	-1.16591E+000	3.57850E+000	10	...........
	51	0.693333	9.83607E-001	5.99529E-003	0.00000E+000	5.89701E-003	3.59960E-001	-1.16014E+000	3.57850E+000	10	...........
	52	0.706667	9.89170E-001	5.99464E-003	0.00000E+000	5.92971E-003	3.59960E-001	-1.15581E+000	3.57850E+000	10	...........
	53	0.72	9.94783E-001	5.99001E-003	0.00000E+000	5.95876E-003	3.59960E-001	-1.16597E+000	3.57850E+000	10	...........
	54	0.728333	9.99276E-001	5.98929E-003	0.00000E+000	5.98495E-003	3.59960E-001	-1.15379E+000	3.57850E+000	10	...........
STARTTIMEOFFSET	QUANT	1230.631	Start Time Offset (s)