File: Data/CV_CRGO300517_1/PWRCCD_CRGO300517_1/CHARGE_DISCHARGE/CHARGE_#471.DTA
EXPLAIN
TAG	PWR800_CHARGE
TITLE	LABEL	PWR Cyclic Charge Discharge (Cell) - Charge Step	Test &Identifier
DATE	LABEL	22-6-2017	Date
TIME	LABEL	15:54:47	Time
NOTES	NOTES	3	&Notes...
	supercap test cell
	0.6mg
	6M KOH
PSTAT	PSTAT	IFC5000-01520	Potentiostat
CAPACITY	QUANT	1.00000E-003	Capacity (A-hr)
CELLTYPE	SELECTOR	1	&Cell Type
WORKINGCONNECTION	SELECTOR	0	&Working Lead
MAXCHARGETIME	VARIABLEANDUNITS	1.00000E+002	s	1.00000E+002	second(s)	Max &Charge Time
CHARGECURRENT	QUANT	6.00000E-003	&Charge Current (A)
VOLTAGEFINISH	TWOPARAM	F	1.00000E-003	3.60000E+003	&Voltage Finish	 I (A) < 	Max Time(s)
SAMPLETIME	QUANT	1.00000E-002	Sa&mple Period (s)
CHARGESTOPAT1	MULTIPARAM	4	1.00000E+000	Charge Stop At &1	Voltage > Limit	V
CHARGESTOPAT2	MULTIPARAM	0	0.00000E+000	Charge Stop At &2	None	N/A
AESBHCSELECTOR	TOGGLE	F	Save Both Half Cells
IRCOMP	TOGGLE	F	IR &Measure
EOC	QUANT	0	Open Circuit (V)
SEQUENCER	TOGGLE	TRUE	Run as Sequence
PSTATMODEL	IQUANT	53	Pstat Model
PSTATSECTION	LABEL	IFC5000-01520	Pstat Section
PSTATSERIALNO	LABEL	01520	Pstat Serial Number
CTRLMODE	IQUANT	0	Control Mode
ELECTROMETER	IQUANT	1	RE=0 or CS=1
IESTAB	IQUANT	0	I/E Stability
CASPEED	IQUANT	4	Control Amp Speed
CONVENTION	IQUANT	1	Current Convention
ICHRANGE	IQUANT	2	Ich Range
ICHRANGEMODE	TOGGLE	T	Ich Auto Range
ICHOFFSETENABLE	TOGGLE	F	Ich Offset Enable
ICHOFFSET	QUANT	0	Ich Offset (V)
ICHFILTER	IQUANT	1	Ich Filter
VCHRANGE	IQUANT	2	Vch Range
VCHRANGEMODE	TOGGLE	T	Vch Auto Range
VCHOFFSETENABLE	TOGGLE	F	Vch Offset Enable
VCHOFFSET	QUANT	0	Vch Offset (V)
VCHFILTER	IQUANT	1	Vch Filter
IERANGELOWERLIMIT	IQUANT	9	I/E Range Lower Limit
IERANGEMODE	TOGGLE	F	I/E AutoRange
IERANGE	IQUANT	10	I/E Range
ACHSELECT	IQUANT	1	Ach Select
ACHRANGE	IQUANT	2	Ach Range
ACHOFFSETENABLE	TOGGLE	F	Ach Offset Enable
ACHOFFSET	QUANT	0	Ach Offset (V)
ACHFILTER	IQUANT	1	Ach Filter
CABLEID	IQUANT	14	Cable ID
DCCALDATE	LABEL	20-10-2016	DC Calibration Date
ACCALDATE	LABEL	12/3/2015	AC Calibration Date
FRAMEWORKVERSION	QUANT	7.01	Framework Version
INSTRUMENTVERSION	LABEL	4.00	Instrument Version
CURVE	TABLE	59
	Pt	T	Vf	Im	Vu	Pwr	Sig	Ach	Temp	IERange	Over
	#	s	V	A	V	W	V	V	deg C	#	bits
	0	0.013333	6.29488E-001	5.99639E-003	0.00000E+000	3.77466E-003	3.59960E-001	-1.13820E+000	3.57750E+000	10	...........
	1	0.026667	6.38362E-001	5.99235E-003	0.00000E+000	3.82529E-003	3.59960E-001	-1.14853E+000	3.57750E+000	10	...........
	2	0.04	6.46495E-001	5.99466E-003	0.00000E+000	3.87551E-003	3.59960E-001	-1.14143E+000	3.57750E+000	10	...........
	3	0.053333	6.54195E-001	5.99454E-003	0.00000E+000	3.92160E-003	3.59960E-001	-1.13823E+000	3.57750E+000	10	...........
	4	0.066667	6.61665E-001	5.99503E-003	0.00000E+000	3.96670E-003	3.59960E-001	-1.14868E+000	3.57750E+000	10	...........
	5	0.08	6.68920E-001	5.99343E-003	0.00000E+000	4.00912E-003	3.59960E-001	-1.14103E+000	3.57750E+000	10	...........
	6	0.093333	6.76005E-001	5.99824E-003	0.00000E+000	4.05484E-003	3.59960E-001	-1.13790E+000	3.57750E+000	10	...........
	7	0.106667	6.82997E-001	6.00260E-003	0.00000E+000	4.09976E-003	3.59960E-001	-1.14869E+000	3.57750E+000	10	...........
	8	0.12	6.89906E-001	5.99378E-003	0.00000E+000	4.13514E-003	3.59960E-001	-1.14113E+000	3.57750E+000	10	...........
	9	0.133333	6.96747E-001	5.99226E-003	0.00000E+000	4.17509E-003	3.59960E-001	-1.13818E+000	3.57750E+000	10	...........
	10	0.146667	7.03468E-001	5.99581E-003	0.00000E+000	4.21786E-003	3.59960E-001	-1.14884E+000	3.57750E+000	10	...........
	11	0.16	7.10166E-001	5.99660E-003	0.00000E+000	4.25858E-003	3.59960E-001	-1.14085E+000	3.57750E+000	10	...........
	12	0.173333	7.16847E-001	5.99588E-003	0.00000E+000	4.29813E-003	3.59960E-001	-1.13831E+000	3.57750E+000	10	...........
	13	0.186667	7.23523E-001	5.99672E-003	0.00000E+000	4.33877E-003	3.59960E-001	-1.14920E+000	3.57750E+000	10	...........
	14	0.2	7.30154E-001	5.99585E-003	0.00000E+000	4.37789E-003	3.59960E-001	-1.14115E+000	3.57750E+000	10	...........
	15	0.213333	7.36729E-001	5.99485E-003	0.00000E+000	4.41658E-003	3.59960E-001	-1.13849E+000	3.57750E+000	10	...........
	16	0.226667	7.43282E-001	5.99403E-003	0.00000E+000	4.45525E-003	3.59960E-001	-1.14879E+000	3.57750E+000	10	...........
	17	0.24	7.49813E-001	5.99522E-003	0.00000E+000	4.49529E-003	3.59960E-001	-1.14063E+000	3.57750E+000	10	...........
	18	0.253333	7.56359E-001	5.99757E-003	0.00000E+000	4.53631E-003	3.59960E-001	-1.13794E+000	3.57750E+000	10	...........
	19	0.266667	7.62838E-001	5.99683E-003	0.00000E+000	4.57460E-003	3.59960E-001	-1.14906E+000	3.57750E+000	10	...........
	20	0.28	7.69340E-001	6.00222E-003	0.00000E+000	4.61775E-003	3.59960E-001	-1.14052E+000	3.57750E+000	10	...........
	21	0.293333	7.75812E-001	5.99525E-003	0.00000E+000	4.65119E-003	3.59960E-001	-1.13812E+000	3.57750E+000	10	...........
	22	0.306667	7.82254E-001	5.99598E-003	0.00000E+000	4.69038E-003	3.59960E-001	-1.14922E+000	3.57750E+000	10	...........
	23	0.32	7.88716E-001	5.99980E-003	0.00000E+000	4.73214E-003	3.59960E-001	-1.14064E+000	3.57750E+000	10	...........
	24	0.333333	7.95141E-001	5.99498E-003	0.00000E+000	4.76685E-003	3.59960E-001	-1.13857E+000	3.57750E+000	10	...........
	25	0.346667	8.01521E-001	5.99816E-003	0.00000E+000	4.80765E-003	3.59960E-001	-1.14950E+000	3.57750E+000	10	...........
	26	0.36	8.07885E-001	5.99315E-003	0.00000E+000	4.84177E-003	3.59960E-001	-1.14044E+000	3.57750E+000	10	...........
	27	0.373333	8.14283E-001	5.99512E-003	0.00000E+000	4.88172E-003	3.59960E-001	-1.13871E+000	3.57750E+000	10	...........
	28	0.386667	8.20684E-001	5.99402E-003	0.00000E+000	4.91920E-003	3.59960E-001	-1.14967E+000	3.57750E+000	10	...........
	29	0.4	8.27035E-001	5.99406E-003	0.00000E+000	4.95730E-003	3.59960E-001	-1.14062E+000	3.57750E+000	10	...........
	30	0.413333	8.33327E-001	5.99552E-003	0.00000E+000	4.99623E-003	3.59960E-001	-1.13895E+000	3.57750E+000	10	...........
	31	0.426667	8.39608E-001	5.99583E-003	0.00000E+000	5.03414E-003	3.59960E-001	-1.14994E+000	3.57750E+000	10	...........
	32	0.44	8.45910E-001	5.99629E-003	0.00000E+000	5.07232E-003	3.59960E-001	-1.14072E+000	3.57750E+000	10	...........
	33	0.453333	8.52211E-001	5.98862E-003	0.00000E+000	5.10356E-003	3.59960E-001	-1.13876E+000	3.57750E+000	10	...........
	34	0.466667	8.58492E-001	5.99292E-003	0.00000E+000	5.14487E-003	3.59960E-001	-1.14985E+000	3.57750E+000	10	...........
	35	0.48	8.64736E-001	5.99512E-003	0.00000E+000	5.18420E-003	3.59960E-001	-1.14001E+000	3.57750E+000	10	...........
	36	0.493333	8.71014E-001	5.99351E-003	0.00000E+000	5.22043E-003	3.59960E-001	-1.13852E+000	3.57750E+000	10	...........
	37	0.506667	8.77179E-001	5.99235E-003	0.00000E+000	5.25636E-003	3.59960E-001	-1.14917E+000	3.57750E+000	10	...........
	38	0.52	8.83378E-001	5.99841E-003	0.00000E+000	5.29887E-003	3.59960E-001	-1.13980E+000	3.57750E+000	10	...........
	39	0.533333	8.89502E-001	5.99570E-003	0.00000E+000	5.33319E-003	3.59960E-001	-1.13862E+000	3.57750E+000	10	...........
	40	0.546667	8.95637E-001	5.99442E-003	0.00000E+000	5.36882E-003	3.59960E-001	-1.14886E+000	3.57750E+000	10	...........
	41	0.56	9.01731E-001	5.99403E-003	0.00000E+000	5.40501E-003	3.59960E-001	-1.13905E+000	3.57750E+000	10	...........
	42	0.573333	9.07832E-001	5.99663E-003	0.00000E+000	5.44393E-003	3.59960E-001	-1.13826E+000	3.57750E+000	10	...........
	43	0.586667	9.13860E-001	5.99740E-003	0.00000E+000	5.48078E-003	3.59960E-001	-1.14864E+000	3.57750E+000	10	...........
	44	0.6	9.19854E-001	5.99190E-003	0.00000E+000	5.51168E-003	3.59960E-001	-1.13852E+000	3.57750E+000	10	...........
	45	0.613333	9.25884E-001	5.99133E-003	0.00000E+000	5.54728E-003	3.59960E-001	-1.13808E+000	3.57750E+000	10	...........
	46	0.626667	9.31809E-001	5.99356E-003	0.00000E+000	5.58485E-003	3.59960E-001	-1.14844E+000	3.57750E+000	10	...........
	47	0.64	9.37711E-001	5.99378E-003	0.00000E+000	5.62043E-003	3.59960E-001	-1.13808E+000	3.57750E+000	10	...........
	48	0.653333	9.43577E-001	5.99710E-003	0.00000E+000	5.65872E-003	3.59960E-001	-1.13788E+000	3.57750E+000	10	...........
	49	0.666667	9.49452E-001	5.99353E-003	0.00000E+000	5.69057E-003	3.59960E-001	-1.14845E+000	3.57750E+000	10	...........
	50	0.68	9.55217E-001	5.98942E-003	0.00000E+000	5.72120E-003	3.59960E-001	-1.13829E+000	3.57750E+000	10	...........
	51	0.693333	9.61003E-001	5.99918E-003	0.00000E+000	5.76524E-003	3.59960E-001	-1.13806E+000	3.57750E+000	10	...........
	52	0.706667	9.66728E-001	5.99617E-003	0.00000E+000	5.79666E-003	3.59960E-001	-1.14818E+000	3.57750E+000	10	...........
	53	0.72	9.72449E-001	5.98841E-003	0.00000E+000	5.82342E-003	3.59960E-001	-1.13815E+000	3.57750E+000	10	...........
	54	0.733333	9.78083E-001	5.99508E-003	0.00000E+000	5.86369E-003	3.59960E-001	-1.13819E+000	3.57750E+000	10	...........
	55	0.746667	9.83684E-001	5.99140E-003	0.00000E+000	5.89365E-003	3.59960E-001	-1.14841E+000	3.57750E+000	10	...........
	56	0.76	9.89249E-001	5.99518E-003	0.00000E+000	5.93072E-003	3.59960E-001	-1.13797E+000	3.57750E+000	10	...........
	57	0.773333	9.94698E-001	5.98901E-003	0.00000E+000	5.95726E-003	3.59960E-001	-1.13828E+000	3.57750E+000	10	...........
	58	0.781667	9.99160E-001	5.99221E-003	0.00000E+000	5.98717E-003	3.59960E-001	-1.14865E+000	3.57750E+000	10	...........
STARTTIMEOFFSET	QUANT	814.1751	Start Time Offset (s)