File: Data/CV_CRGO300517_1/PWRCCD_CRGO300517_1/CHARGE_DISCHARGE/CHARGE_#819.DTA
EXPLAIN
TAG	PWR800_CHARGE
TITLE	LABEL	PWR Cyclic Charge Discharge (Cell) - Charge Step	Test &Identifier
DATE	LABEL	22-6-2017	Date
TIME	LABEL	16:07:59	Time
NOTES	NOTES	3	&Notes...
	supercap test cell
	0.6mg
	6M KOH
PSTAT	PSTAT	IFC5000-01520	Potentiostat
CAPACITY	QUANT	1.00000E-003	Capacity (A-hr)
CELLTYPE	SELECTOR	1	&Cell Type
WORKINGCONNECTION	SELECTOR	0	&Working Lead
MAXCHARGETIME	VARIABLEANDUNITS	1.00000E+002	s	1.00000E+002	second(s)	Max &Charge Time
CHARGECURRENT	QUANT	6.00000E-003	&Charge Current (A)
VOLTAGEFINISH	TWOPARAM	F	1.00000E-003	3.60000E+003	&Voltage Finish	 I (A) < 	Max Time(s)
SAMPLETIME	QUANT	1.00000E-002	Sa&mple Period (s)
CHARGESTOPAT1	MULTIPARAM	4	1.00000E+000	Charge Stop At &1	Voltage > Limit	V
CHARGESTOPAT2	MULTIPARAM	0	0.00000E+000	Charge Stop At &2	None	N/A
AESBHCSELECTOR	TOGGLE	F	Save Both Half Cells
IRCOMP	TOGGLE	F	IR &Measure
EOC	QUANT	0	Open Circuit (V)
SEQUENCER	TOGGLE	TRUE	Run as Sequence
PSTATMODEL	IQUANT	53	Pstat Model
PSTATSECTION	LABEL	IFC5000-01520	Pstat Section
PSTATSERIALNO	LABEL	01520	Pstat Serial Number
CTRLMODE	IQUANT	0	Control Mode
ELECTROMETER	IQUANT	1	RE=0 or CS=1
IESTAB	IQUANT	0	I/E Stability
CASPEED	IQUANT	4	Control Amp Speed
CONVENTION	IQUANT	1	Current Convention
ICHRANGE	IQUANT	2	Ich Range
ICHRANGEMODE	TOGGLE	T	Ich Auto Range
ICHOFFSETENABLE	TOGGLE	F	Ich Offset Enable
ICHOFFSET	QUANT	0	Ich Offset (V)
ICHFILTER	IQUANT	1	Ich Filter
VCHRANGE	IQUANT	2	Vch Range
VCHRANGEMODE	TOGGLE	T	Vch Auto Range
VCHOFFSETENABLE	TOGGLE	F	Vch Offset Enable
VCHOFFSET	QUANT	0	Vch Offset (V)
VCHFILTER	IQUANT	1	Vch Filter
IERANGELOWERLIMIT	IQUANT	9	I/E Range Lower Limit
IERANGEMODE	TOGGLE	F	I/E AutoRange
IERANGE	IQUANT	10	I/E Range
ACHSELECT	IQUANT	1	Ach Select
ACHRANGE	IQUANT	2	Ach Range
ACHOFFSETENABLE	TOGGLE	F	Ach Offset Enable
ACHOFFSET	QUANT	0	Ach Offset (V)
ACHFILTER	IQUANT	1	Ach Filter
CABLEID	IQUANT	14	Cable ID
DCCALDATE	LABEL	20-10-2016	DC Calibration Date
ACCALDATE	LABEL	12/3/2015	AC Calibration Date
FRAMEWORKVERSION	QUANT	7.01	Framework Version
INSTRUMENTVERSION	LABEL	4.00	Instrument Version
CURVE	TABLE	54
	Pt	T	Vf	Im	Vu	Pwr	Sig	Ach	Temp	IERange	Over
	#	s	V	A	V	W	V	V	deg C	#	bits
	0	0.013333	6.49172E-001	5.99716E-003	0.00000E+000	3.89319E-003	3.59960E-001	-1.16387E+000	3.57780E+000	10	...........
	1	0.026667	6.58419E-001	5.99574E-003	0.00000E+000	3.94771E-003	3.59960E-001	-1.15875E+000	3.57780E+000	10	...........
	2	0.04	6.66902E-001	5.99980E-003	0.00000E+000	4.00128E-003	3.59960E-001	-1.16774E+000	3.57780E+000	10	...........
	3	0.053333	6.74938E-001	5.99642E-003	0.00000E+000	4.04721E-003	3.59960E-001	-1.16388E+000	3.57780E+000	10	...........
	4	0.066667	6.82633E-001	5.99541E-003	0.00000E+000	4.09266E-003	3.59960E-001	-1.15884E+000	3.57780E+000	10	...........
	5	0.08	6.90182E-001	6.00001E-003	0.00000E+000	4.14110E-003	3.59960E-001	-1.16798E+000	3.57780E+000	10	...........
	6	0.093333	6.97600E-001	5.99539E-003	0.00000E+000	4.18238E-003	3.59960E-001	-1.16366E+000	3.57780E+000	10	...........
	7	0.106667	7.04840E-001	5.98814E-003	0.00000E+000	4.22068E-003	3.59960E-001	-1.15850E+000	3.57780E+000	10	...........
	8	0.12	7.11979E-001	5.99445E-003	0.00000E+000	4.26792E-003	3.59960E-001	-1.16787E+000	3.57780E+000	10	...........
	9	0.133333	7.19158E-001	5.99444E-003	0.00000E+000	4.31095E-003	3.59960E-001	-1.16401E+000	3.57780E+000	10	...........
	10	0.146667	7.26183E-001	5.99005E-003	0.00000E+000	4.34987E-003	3.59960E-001	-1.15850E+000	3.57780E+000	10	...........
	11	0.16	7.33170E-001	5.99335E-003	0.00000E+000	4.39415E-003	3.59960E-001	-1.16772E+000	3.57780E+000	10	...........
	12	0.173333	7.40084E-001	5.99842E-003	0.00000E+000	4.43934E-003	3.59960E-001	-1.16392E+000	3.57780E+000	10	...........
	13	0.186667	7.46975E-001	5.99248E-003	0.00000E+000	4.47623E-003	3.59960E-001	-1.15873E+000	3.57780E+000	10	...........
	14	0.2	7.53788E-001	5.99637E-003	0.00000E+000	4.51999E-003	3.59960E-001	-1.16802E+000	3.57780E+000	10	...........
	15	0.213333	7.60642E-001	5.99504E-003	0.00000E+000	4.56008E-003	3.59960E-001	-1.16381E+000	3.57780E+000	10	...........
	16	0.226667	7.67434E-001	5.99526E-003	0.00000E+000	4.60097E-003	3.59960E-001	-1.15873E+000	3.57780E+000	10	...........
	17	0.24	7.74219E-001	5.99144E-003	0.00000E+000	4.63869E-003	3.59960E-001	-1.16801E+000	3.57780E+000	10	...........
	18	0.253333	7.80988E-001	5.99504E-003	0.00000E+000	4.68206E-003	3.59960E-001	-1.16409E+000	3.57780E+000	10	...........
	19	0.266667	7.87748E-001	5.99272E-003	0.00000E+000	4.72075E-003	3.59960E-001	-1.15872E+000	3.57780E+000	10	...........
	20	0.28	7.94453E-001	5.99160E-003	0.00000E+000	4.76005E-003	3.59960E-001	-1.16792E+000	3.57780E+000	10	...........
	21	0.293333	8.01094E-001	5.99675E-003	0.00000E+000	4.80396E-003	3.59960E-001	-1.16374E+000	3.57780E+000	10	...........
	22	0.306667	8.07725E-001	5.99680E-003	0.00000E+000	4.84376E-003	3.59960E-001	-1.15855E+000	3.57780E+000	10	...........
	23	0.32	8.14324E-001	5.99234E-003	0.00000E+000	4.87971E-003	3.59960E-001	-1.16774E+000	3.57780E+000	10	...........
	24	0.333333	8.20942E-001	5.98966E-003	0.00000E+000	4.91716E-003	3.59960E-001	-1.16379E+000	3.57780E+000	10	...........
	25	0.346667	8.27556E-001	5.99623E-003	0.00000E+000	4.96222E-003	3.59960E-001	-1.15854E+000	3.57780E+000	10	...........
	26	0.36	8.34135E-001	5.99953E-003	0.00000E+000	5.00442E-003	3.59960E-001	-1.16797E+000	3.57780E+000	10	...........
	27	0.373333	8.40668E-001	5.99344E-003	0.00000E+000	5.03849E-003	3.59960E-001	-1.16381E+000	3.57780E+000	10	...........
	28	0.386667	8.47199E-001	5.99067E-003	0.00000E+000	5.07529E-003	3.59960E-001	-1.15857E+000	3.57780E+000	10	...........
	29	0.4	8.53706E-001	5.99266E-003	0.00000E+000	5.11597E-003	3.59960E-001	-1.16798E+000	3.57780E+000	10	...........
	30	0.413333	8.60152E-001	5.99329E-003	0.00000E+000	5.15514E-003	3.59960E-001	-1.16363E+000	3.57780E+000	10	...........
	31	0.426667	8.66575E-001	5.99125E-003	0.00000E+000	5.19186E-003	3.59960E-001	-1.15855E+000	3.57780E+000	10	...........
	32	0.44	8.73012E-001	5.99417E-003	0.00000E+000	5.23298E-003	3.59960E-001	-1.16805E+000	3.57780E+000	10	...........
	33	0.453333	8.79356E-001	5.99293E-003	0.00000E+000	5.26991E-003	3.59960E-001	-1.16341E+000	3.57780E+000	10	...........
	34	0.466667	8.85722E-001	5.99760E-003	0.00000E+000	5.31220E-003	3.59960E-001	-1.15831E+000	3.57780E+000	10	...........
	35	0.48	8.92034E-001	5.99795E-003	0.00000E+000	5.35038E-003	3.59960E-001	-1.16810E+000	3.57780E+000	10	...........
	36	0.493333	8.98321E-001	5.99377E-003	0.00000E+000	5.38433E-003	3.59960E-001	-1.16384E+000	3.57780E+000	10	...........
	37	0.506667	9.04596E-001	5.99508E-003	0.00000E+000	5.42313E-003	3.59960E-001	-1.15869E+000	3.57780E+000	10	...........
	38	0.52	9.10797E-001	5.98828E-003	0.00000E+000	5.45411E-003	3.59960E-001	-1.16764E+000	3.57670E+000	10	...........
	39	0.533333	9.16992E-001	5.99198E-003	0.00000E+000	5.49459E-003	3.59960E-001	-1.16367E+000	3.57670E+000	10	...........
	40	0.546667	9.23182E-001	5.99335E-003	0.00000E+000	5.53295E-003	3.59960E-001	-1.15879E+000	3.57670E+000	10	...........
	41	0.56	9.29265E-001	5.99215E-003	0.00000E+000	5.56830E-003	3.59960E-001	-1.16805E+000	3.57670E+000	10	...........
	42	0.573333	9.35286E-001	5.99152E-003	0.00000E+000	5.60378E-003	3.59960E-001	-1.16356E+000	3.57670E+000	10	...........
	43	0.586667	9.41290E-001	5.99569E-003	0.00000E+000	5.64368E-003	3.59960E-001	-1.15854E+000	3.57670E+000	10	...........
	44	0.6	9.47287E-001	5.99434E-003	0.00000E+000	5.67836E-003	3.59960E-001	-1.16768E+000	3.57670E+000	10	...........
	45	0.613333	9.53230E-001	5.99540E-003	0.00000E+000	5.71500E-003	3.59960E-001	-1.16331E+000	3.57670E+000	10	...........
	46	0.626667	9.59096E-001	5.99373E-003	0.00000E+000	5.74856E-003	3.59960E-001	-1.15809E+000	3.57670E+000	10	...........
	47	0.64	9.64907E-001	5.99138E-003	0.00000E+000	5.78113E-003	3.59960E-001	-1.16743E+000	3.57670E+000	10	...........
	48	0.653333	9.70684E-001	5.98860E-003	0.00000E+000	5.81304E-003	3.59960E-001	-1.16308E+000	3.57670E+000	10	...........
	49	0.666667	9.76426E-001	5.99134E-003	0.00000E+000	5.85010E-003	3.59960E-001	-1.15798E+000	3.57670E+000	10	...........
	50	0.68	9.82089E-001	5.99050E-003	0.00000E+000	5.88320E-003	3.59960E-001	-1.16761E+000	3.57670E+000	10	...........
	51	0.693333	9.87732E-001	5.99623E-003	0.00000E+000	5.92267E-003	3.59960E-001	-1.16353E+000	3.57670E+000	10	...........
	52	0.706667	9.93283E-001	5.99311E-003	0.00000E+000	5.95286E-003	3.59960E-001	-1.15781E+000	3.57670E+000	10	...........
	53	0.718333	9.98493E-001	5.99473E-003	0.00000E+000	5.98570E-003	3.59960E-001	-1.16987E+000	3.57670E+000	10	...........
STARTTIMEOFFSET	QUANT	1331.314	Start Time Offset (s)