File: Data/CV_CRGO300517_1/PWRCCD_CRGO300517_1/CHARGE_DISCHARGE/CHARGE_#337.DTA
EXPLAIN
TAG	PWR800_CHARGE
TITLE	LABEL	PWR Cyclic Charge Discharge (Cell) - Charge Step	Test &Identifier
DATE	LABEL	22-6-2017	Date
TIME	LABEL	15:49:26	Time
NOTES	NOTES	3	&Notes...
	supercap test cell
	0.6mg
	6M KOH
PSTAT	PSTAT	IFC5000-01520	Potentiostat
CAPACITY	QUANT	1.00000E-003	Capacity (A-hr)
CELLTYPE	SELECTOR	1	&Cell Type
WORKINGCONNECTION	SELECTOR	0	&Working Lead
MAXCHARGETIME	VARIABLEANDUNITS	1.00000E+002	s	1.00000E+002	second(s)	Max &Charge Time
CHARGECURRENT	QUANT	6.00000E-003	&Charge Current (A)
VOLTAGEFINISH	TWOPARAM	F	1.00000E-003	3.60000E+003	&Voltage Finish	 I (A) < 	Max Time(s)
SAMPLETIME	QUANT	1.00000E-002	Sa&mple Period (s)
CHARGESTOPAT1	MULTIPARAM	4	1.00000E+000	Charge Stop At &1	Voltage > Limit	V
CHARGESTOPAT2	MULTIPARAM	0	0.00000E+000	Charge Stop At &2	None	N/A
AESBHCSELECTOR	TOGGLE	F	Save Both Half Cells
IRCOMP	TOGGLE	F	IR &Measure
EOC	QUANT	0	Open Circuit (V)
SEQUENCER	TOGGLE	TRUE	Run as Sequence
PSTATMODEL	IQUANT	53	Pstat Model
PSTATSECTION	LABEL	IFC5000-01520	Pstat Section
PSTATSERIALNO	LABEL	01520	Pstat Serial Number
CTRLMODE	IQUANT	0	Control Mode
ELECTROMETER	IQUANT	1	RE=0 or CS=1
IESTAB	IQUANT	0	I/E Stability
CASPEED	IQUANT	4	Control Amp Speed
CONVENTION	IQUANT	1	Current Convention
ICHRANGE	IQUANT	2	Ich Range
ICHRANGEMODE	TOGGLE	T	Ich Auto Range
ICHOFFSETENABLE	TOGGLE	F	Ich Offset Enable
ICHOFFSET	QUANT	0	Ich Offset (V)
ICHFILTER	IQUANT	1	Ich Filter
VCHRANGE	IQUANT	2	Vch Range
VCHRANGEMODE	TOGGLE	T	Vch Auto Range
VCHOFFSETENABLE	TOGGLE	F	Vch Offset Enable
VCHOFFSET	QUANT	0	Vch Offset (V)
VCHFILTER	IQUANT	1	Vch Filter
IERANGELOWERLIMIT	IQUANT	9	I/E Range Lower Limit
IERANGEMODE	TOGGLE	F	I/E AutoRange
IERANGE	IQUANT	10	I/E Range
ACHSELECT	IQUANT	1	Ach Select
ACHRANGE	IQUANT	2	Ach Range
ACHOFFSETENABLE	TOGGLE	F	Ach Offset Enable
ACHOFFSET	QUANT	0	Ach Offset (V)
ACHFILTER	IQUANT	1	Ach Filter
CABLEID	IQUANT	14	Cable ID
DCCALDATE	LABEL	20-10-2016	DC Calibration Date
ACCALDATE	LABEL	12/3/2015	AC Calibration Date
FRAMEWORKVERSION	QUANT	7.01	Framework Version
INSTRUMENTVERSION	LABEL	4.00	Instrument Version
CURVE	TABLE	62
	Pt	T	Vf	Im	Vu	Pwr	Sig	Ach	Temp	IERange	Over
	#	s	V	A	V	W	V	V	deg C	#	bits
	0	0.013333	6.19402E-001	5.99305E-003	0.00000E+000	3.71211E-003	3.59960E-001	-1.12378E+000	3.57660E+000	10	...........
	1	0.026667	6.28074E-001	5.99365E-003	0.00000E+000	3.76445E-003	3.59960E-001	-1.11484E+000	3.57660E+000	10	...........
	2	0.04	6.36048E-001	5.99073E-003	0.00000E+000	3.81039E-003	3.59960E-001	-1.11819E+000	3.57678E+000	10	...........
	3	0.053333	6.43618E-001	5.98708E-003	0.00000E+000	3.85340E-003	3.59960E-001	-1.12407E+000	3.57680E+000	10	...........
	4	0.066667	6.50937E-001	5.99504E-003	0.00000E+000	3.90240E-003	3.59960E-001	-1.11435E+000	3.57680E+000	10	...........
	5	0.08	6.58019E-001	5.99689E-003	0.00000E+000	3.94607E-003	3.59960E-001	-1.11777E+000	3.57680E+000	10	...........
	6	0.093333	6.64941E-001	5.99445E-003	0.00000E+000	3.98596E-003	3.59960E-001	-1.12349E+000	3.57680E+000	10	...........
	7	0.106667	6.71793E-001	5.99277E-003	0.00000E+000	4.02590E-003	3.59960E-001	-1.11413E+000	3.57680E+000	10	...........
	8	0.12	6.78528E-001	5.99919E-003	0.00000E+000	4.07062E-003	3.59960E-001	-1.11750E+000	3.57680E+000	10	...........
	9	0.133333	6.85214E-001	5.99729E-003	0.00000E+000	4.10942E-003	3.59960E-001	-1.12312E+000	3.57680E+000	10	...........
	10	0.146667	6.91851E-001	5.99920E-003	0.00000E+000	4.15056E-003	3.59960E-001	-1.11342E+000	3.57680E+000	10	...........
	11	0.16	6.98385E-001	5.99149E-003	0.00000E+000	4.18436E-003	3.59960E-001	-1.11682E+000	3.57680E+000	10	...........
	12	0.173333	7.04907E-001	5.99479E-003	0.00000E+000	4.22577E-003	3.59960E-001	-1.12312E+000	3.57680E+000	10	...........
	13	0.186667	7.11390E-001	5.99740E-003	0.00000E+000	4.26649E-003	3.59960E-001	-1.11387E+000	3.57680E+000	10	...........
	14	0.2	7.17876E-001	5.99844E-003	0.00000E+000	4.30614E-003	3.59960E-001	-1.11684E+000	3.57680E+000	10	...........
	15	0.213333	7.24303E-001	5.99260E-003	0.00000E+000	4.34046E-003	3.59960E-001	-1.12310E+000	3.57680E+000	10	...........
	16	0.226667	7.30747E-001	5.99878E-003	0.00000E+000	4.38359E-003	3.59960E-001	-1.11370E+000	3.57680E+000	10	...........
	17	0.24	7.37122E-001	5.99354E-003	0.00000E+000	4.41797E-003	3.59960E-001	-1.11674E+000	3.57680E+000	10	...........
	18	0.253333	7.43525E-001	5.99740E-003	0.00000E+000	4.45922E-003	3.59960E-001	-1.12316E+000	3.57680E+000	10	...........
	19	0.266667	7.49883E-001	5.99092E-003	0.00000E+000	4.49249E-003	3.59960E-001	-1.11387E+000	3.57680E+000	10	...........
	20	0.28	7.56266E-001	5.99152E-003	0.00000E+000	4.53118E-003	3.59960E-001	-1.11688E+000	3.57680E+000	10	...........
	21	0.293333	7.62619E-001	5.99251E-003	0.00000E+000	4.57000E-003	3.59960E-001	-1.12339E+000	3.57680E+000	10	...........
	22	0.306667	7.68916E-001	5.99435E-003	0.00000E+000	4.60916E-003	3.59960E-001	-1.11399E+000	3.57680E+000	10	...........
	23	0.32	7.75247E-001	5.99173E-003	0.00000E+000	4.64507E-003	3.59960E-001	-1.11677E+000	3.57680E+000	10	...........
	24	0.333333	7.81552E-001	5.98999E-003	0.00000E+000	4.68149E-003	3.59960E-001	-1.12336E+000	3.57680E+000	10	...........
	25	0.346667	7.87869E-001	5.99489E-003	0.00000E+000	4.72319E-003	3.59960E-001	-1.11348E+000	3.57680E+000	10	...........
	26	0.36	7.94150E-001	5.99358E-003	0.00000E+000	4.75981E-003	3.59960E-001	-1.11597E+000	3.57680E+000	10	...........
	27	0.373333	8.00440E-001	5.99159E-003	0.00000E+000	4.79591E-003	3.59960E-001	-1.12288E+000	3.57680E+000	10	...........
	28	0.386667	8.06677E-001	5.99689E-003	0.00000E+000	4.83756E-003	3.59960E-001	-1.11294E+000	3.57680E+000	10	...........
	29	0.4	8.12935E-001	5.99491E-003	0.00000E+000	4.87347E-003	3.59960E-001	-1.11553E+000	3.57680E+000	10	...........
	30	0.413333	8.19173E-001	5.99586E-003	0.00000E+000	4.91165E-003	3.59960E-001	-1.12237E+000	3.57680E+000	10	...........
	31	0.426667	8.25387E-001	5.99141E-003	0.00000E+000	4.94523E-003	3.59960E-001	-1.11287E+000	3.57680E+000	10	...........
	32	0.44	8.31612E-001	5.99279E-003	0.00000E+000	4.98367E-003	3.59960E-001	-1.11561E+000	3.57680E+000	10	...........
	33	0.453333	8.37823E-001	5.99458E-003	0.00000E+000	5.02240E-003	3.59960E-001	-1.12261E+000	3.57680E+000	10	...........
	34	0.466667	8.44010E-001	5.99674E-003	0.00000E+000	5.06131E-003	3.59960E-001	-1.11318E+000	3.57680E+000	10	...........
	35	0.48	8.50199E-001	5.99636E-003	0.00000E+000	5.09809E-003	3.59960E-001	-1.11571E+000	3.57680E+000	10	...........
	36	0.493333	8.56358E-001	5.99618E-003	0.00000E+000	5.13488E-003	3.59960E-001	-1.12303E+000	3.57680E+000	10	...........
	37	0.506667	8.62489E-001	5.99135E-003	0.00000E+000	5.16748E-003	3.59960E-001	-1.11373E+000	3.57680E+000	10	...........
	38	0.52	8.68618E-001	5.99450E-003	0.00000E+000	5.20693E-003	3.59960E-001	-1.11634E+000	3.57680E+000	10	...........
	39	0.533333	8.74756E-001	5.99230E-003	0.00000E+000	5.24180E-003	3.59960E-001	-1.12365E+000	3.57680E+000	10	...........
	40	0.546667	8.80795E-001	5.99232E-003	0.00000E+000	5.27801E-003	3.59960E-001	-1.11377E+000	3.57680E+000	10	...........
	41	0.56	8.86906E-001	5.99244E-003	0.00000E+000	5.31473E-003	3.59960E-001	-1.11563E+000	3.57680E+000	10	...........
	42	0.573333	8.92923E-001	5.99642E-003	0.00000E+000	5.35434E-003	3.59960E-001	-1.12333E+000	3.57680E+000	10	...........
	43	0.586667	8.98969E-001	5.99660E-003	0.00000E+000	5.39076E-003	3.59960E-001	-1.11355E+000	3.57680E+000	10	...........
	44	0.6	9.04975E-001	5.99307E-003	0.00000E+000	5.42358E-003	3.59960E-001	-1.11524E+000	3.57680E+000	10	...........
	45	0.613333	9.10967E-001	5.99246E-003	0.00000E+000	5.45893E-003	3.59960E-001	-1.12266E+000	3.57680E+000	10	...........
	46	0.626667	9.16916E-001	5.99276E-003	0.00000E+000	5.49486E-003	3.59960E-001	-1.11265E+000	3.57680E+000	10	...........
	47	0.64	9.22873E-001	5.99114E-003	0.00000E+000	5.52906E-003	3.59960E-001	-1.11452E+000	3.57680E+000	10	...........
	48	0.653333	9.28790E-001	5.99369E-003	0.00000E+000	5.56688E-003	3.59960E-001	-1.12247E+000	3.57680E+000	10	...........
	49	0.666667	9.34636E-001	5.99054E-003	0.00000E+000	5.59897E-003	3.59960E-001	-1.11282E+000	3.57680E+000	10	...........
	50	0.68	9.40461E-001	5.99483E-003	0.00000E+000	5.63791E-003	3.59960E-001	-1.11466E+000	3.57680E+000	10	...........
	51	0.693333	9.46300E-001	5.99175E-003	0.00000E+000	5.66999E-003	3.59960E-001	-1.12267E+000	3.57680E+000	10	...........
	52	0.706667	9.52066E-001	5.99722E-003	0.00000E+000	5.70975E-003	3.59960E-001	-1.11277E+000	3.57680E+000	10	...........
	53	0.72	9.57815E-001	5.99474E-003	0.00000E+000	5.74185E-003	3.59960E-001	-1.11488E+000	3.57680E+000	10	...........
	54	0.733333	9.63457E-001	5.99492E-003	0.00000E+000	5.77584E-003	3.59960E-001	-1.12332E+000	3.57680E+000	10	...........
	55	0.746667	9.69101E-001	5.99685E-003	0.00000E+000	5.81155E-003	3.59960E-001	-1.11362E+000	3.57680E+000	10	...........
	56	0.76	9.74755E-001	5.98939E-003	0.00000E+000	5.83819E-003	3.59960E-001	-1.11539E+000	3.57680E+000	10	...........
	57	0.773333	9.80284E-001	5.99512E-003	0.00000E+000	5.87692E-003	3.59960E-001	-1.12398E+000	3.57680E+000	10	...........
	58	0.786667	9.85796E-001	5.99105E-003	0.00000E+000	5.90595E-003	3.59960E-001	-1.11403E+000	3.57680E+000	10	...........
	59	0.8	9.91287E-001	5.98951E-003	0.00000E+000	5.93733E-003	3.59960E-001	-1.11584E+000	3.57680E+000	10	...........
	60	0.813333	9.96732E-001	5.99373E-003	0.00000E+000	5.97414E-003	3.59960E-001	-1.12353E+000	3.57680E+000	10	...........
	61	0.816667	1.00013E+000	5.99221E-003	0.00000E+000	5.99301E-003	3.59960E-001	-1.10868E+000	3.57680E+000	10	...........
STARTTIMEOFFSET	QUANT	601.6131	Start Time Offset (s)