File: Data/CV_CRGO300517_1/PWRCCD_CRGO300517_1/CHARGE_DISCHARGE/CHARGE_#736.DTA
EXPLAIN
TAG	PWR800_CHARGE
TITLE	LABEL	PWR Cyclic Charge Discharge (Cell) - Charge Step	Test &Identifier
DATE	LABEL	22-6-2017	Date
TIME	LABEL	16:04:54	Time
NOTES	NOTES	3	&Notes...
	supercap test cell
	0.6mg
	6M KOH
PSTAT	PSTAT	IFC5000-01520	Potentiostat
CAPACITY	QUANT	1.00000E-003	Capacity (A-hr)
CELLTYPE	SELECTOR	1	&Cell Type
WORKINGCONNECTION	SELECTOR	0	&Working Lead
MAXCHARGETIME	VARIABLEANDUNITS	1.00000E+002	s	1.00000E+002	second(s)	Max &Charge Time
CHARGECURRENT	QUANT	6.00000E-003	&Charge Current (A)
VOLTAGEFINISH	TWOPARAM	F	1.00000E-003	3.60000E+003	&Voltage Finish	 I (A) < 	Max Time(s)
SAMPLETIME	QUANT	1.00000E-002	Sa&mple Period (s)
CHARGESTOPAT1	MULTIPARAM	4	1.00000E+000	Charge Stop At &1	Voltage > Limit	V
CHARGESTOPAT2	MULTIPARAM	0	0.00000E+000	Charge Stop At &2	None	N/A
AESBHCSELECTOR	TOGGLE	F	Save Both Half Cells
IRCOMP	TOGGLE	F	IR &Measure
EOC	QUANT	0	Open Circuit (V)
SEQUENCER	TOGGLE	TRUE	Run as Sequence
PSTATMODEL	IQUANT	53	Pstat Model
PSTATSECTION	LABEL	IFC5000-01520	Pstat Section
PSTATSERIALNO	LABEL	01520	Pstat Serial Number
CTRLMODE	IQUANT	0	Control Mode
ELECTROMETER	IQUANT	1	RE=0 or CS=1
IESTAB	IQUANT	0	I/E Stability
CASPEED	IQUANT	4	Control Amp Speed
CONVENTION	IQUANT	1	Current Convention
ICHRANGE	IQUANT	2	Ich Range
ICHRANGEMODE	TOGGLE	T	Ich Auto Range
ICHOFFSETENABLE	TOGGLE	F	Ich Offset Enable
ICHOFFSET	QUANT	0	Ich Offset (V)
ICHFILTER	IQUANT	1	Ich Filter
VCHRANGE	IQUANT	2	Vch Range
VCHRANGEMODE	TOGGLE	T	Vch Auto Range
VCHOFFSETENABLE	TOGGLE	F	Vch Offset Enable
VCHOFFSET	QUANT	0	Vch Offset (V)
VCHFILTER	IQUANT	1	Vch Filter
IERANGELOWERLIMIT	IQUANT	9	I/E Range Lower Limit
IERANGEMODE	TOGGLE	F	I/E AutoRange
IERANGE	IQUANT	10	I/E Range
ACHSELECT	IQUANT	1	Ach Select
ACHRANGE	IQUANT	2	Ach Range
ACHOFFSETENABLE	TOGGLE	F	Ach Offset Enable
ACHOFFSET	QUANT	0	Ach Offset (V)
ACHFILTER	IQUANT	1	Ach Filter
CABLEID	IQUANT	14	Cable ID
DCCALDATE	LABEL	20-10-2016	DC Calibration Date
ACCALDATE	LABEL	12/3/2015	AC Calibration Date
FRAMEWORKVERSION	QUANT	7.01	Framework Version
INSTRUMENTVERSION	LABEL	4.00	Instrument Version
CURVE	TABLE	55
	Pt	T	Vf	Im	Vu	Pwr	Sig	Ach	Temp	IERange	Over
	#	s	V	A	V	W	V	V	deg C	#	bits
	0	0.013333	6.44973E-001	5.98896E-003	0.00000E+000	3.86272E-003	3.59960E-001	-1.15056E+000	3.57650E+000	10	...........
	1	0.026667	6.54135E-001	5.99653E-003	0.00000E+000	3.92254E-003	3.59960E-001	-1.14741E+000	3.57650E+000	10	...........
	2	0.04	6.62537E-001	5.99981E-003	0.00000E+000	3.97509E-003	3.59960E-001	-1.15857E+000	3.57650E+000	10	...........
	3	0.053333	6.70492E-001	5.98731E-003	0.00000E+000	4.01445E-003	3.59960E-001	-1.15029E+000	3.57650E+000	10	...........
	4	0.066667	6.78154E-001	5.99087E-003	0.00000E+000	4.06273E-003	3.59960E-001	-1.14744E+000	3.57650E+000	10	...........
	5	0.08	6.85632E-001	5.99125E-003	0.00000E+000	4.10779E-003	3.59960E-001	-1.15868E+000	3.57650E+000	10	...........
	6	0.093333	6.92949E-001	5.99358E-003	0.00000E+000	4.15325E-003	3.59960E-001	-1.15001E+000	3.57650E+000	10	...........
	7	0.106667	7.00138E-001	5.99469E-003	0.00000E+000	4.19711E-003	3.59960E-001	-1.14741E+000	3.57650E+000	10	...........
	8	0.12	7.07261E-001	5.99454E-003	0.00000E+000	4.23970E-003	3.59960E-001	-1.15866E+000	3.57650E+000	10	...........
	9	0.133333	7.14317E-001	5.99535E-003	0.00000E+000	4.28258E-003	3.59960E-001	-1.15000E+000	3.57650E+000	10	...........
	10	0.146667	7.21320E-001	5.98915E-003	0.00000E+000	4.32009E-003	3.59960E-001	-1.14763E+000	3.57650E+000	10	...........
	11	0.16	7.28261E-001	5.99440E-003	0.00000E+000	4.36549E-003	3.59960E-001	-1.15864E+000	3.57650E+000	10	...........
	12	0.173333	7.35147E-001	5.99524E-003	0.00000E+000	4.40739E-003	3.59960E-001	-1.14995E+000	3.57650E+000	10	...........
	13	0.186667	7.42020E-001	5.99618E-003	0.00000E+000	4.44928E-003	3.59960E-001	-1.14777E+000	3.57650E+000	10	...........
	14	0.2	7.48869E-001	5.99317E-003	0.00000E+000	4.48809E-003	3.59960E-001	-1.15886E+000	3.57650E+000	10	...........
	15	0.213333	7.55657E-001	5.99712E-003	0.00000E+000	4.53177E-003	3.59960E-001	-1.15004E+000	3.57650E+000	10	...........
	16	0.226667	7.62386E-001	5.99418E-003	0.00000E+000	4.56988E-003	3.59960E-001	-1.14772E+000	3.57650E+000	10	...........
	17	0.24	7.69096E-001	5.99467E-003	0.00000E+000	4.61048E-003	3.59960E-001	-1.15881E+000	3.57650E+000	10	...........
	18	0.253333	7.75790E-001	5.99489E-003	0.00000E+000	4.65077E-003	3.59960E-001	-1.14996E+000	3.57650E+000	10	...........
	19	0.266667	7.82482E-001	5.99254E-003	0.00000E+000	4.68906E-003	3.59960E-001	-1.14753E+000	3.57650E+000	10	...........
	20	0.28	7.89129E-001	5.99434E-003	0.00000E+000	4.73031E-003	3.59960E-001	-1.15877E+000	3.57650E+000	10	...........
	21	0.293333	7.95817E-001	5.99559E-003	0.00000E+000	4.77139E-003	3.59960E-001	-1.14949E+000	3.57650E+000	10	...........
	22	0.306667	8.02420E-001	5.99334E-003	0.00000E+000	4.80918E-003	3.59960E-001	-1.14745E+000	3.57650E+000	10	...........
	23	0.32	8.09007E-001	5.99352E-003	0.00000E+000	4.84880E-003	3.59960E-001	-1.15852E+000	3.57650E+000	10	...........
	24	0.333333	8.15610E-001	5.99613E-003	0.00000E+000	4.89050E-003	3.59960E-001	-1.14943E+000	3.57650E+000	10	...........
	25	0.346667	8.22182E-001	5.99680E-003	0.00000E+000	4.93046E-003	3.59960E-001	-1.14743E+000	3.57650E+000	10	...........
	26	0.36	8.28719E-001	5.99574E-003	0.00000E+000	4.96879E-003	3.59960E-001	-1.15860E+000	3.57650E+000	10	...........
	27	0.373333	8.35219E-001	5.99163E-003	0.00000E+000	5.00433E-003	3.59960E-001	-1.14926E+000	3.57650E+000	10	...........
	28	0.386667	8.41704E-001	5.99695E-003	0.00000E+000	5.04766E-003	3.59960E-001	-1.14755E+000	3.57650E+000	10	...........
	29	0.4	8.48183E-001	5.99005E-003	0.00000E+000	5.08065E-003	3.59960E-001	-1.15874E+000	3.57650E+000	10	...........
	30	0.413333	8.54629E-001	5.99373E-003	0.00000E+000	5.12241E-003	3.59960E-001	-1.14904E+000	3.57650E+000	10	...........
	31	0.426667	8.61051E-001	5.99671E-003	0.00000E+000	5.16348E-003	3.59960E-001	-1.14730E+000	3.57650E+000	10	...........
	32	0.44	8.67467E-001	5.99022E-003	0.00000E+000	5.19633E-003	3.59960E-001	-1.15892E+000	3.57650E+000	10	...........
	33	0.453333	8.73854E-001	5.99094E-003	0.00000E+000	5.23521E-003	3.59960E-001	-1.14903E+000	3.57650E+000	10	...........
	34	0.466667	8.80190E-001	5.99394E-003	0.00000E+000	5.27580E-003	3.59960E-001	-1.14734E+000	3.57650E+000	10	...........
	35	0.48	8.86514E-001	5.99440E-003	0.00000E+000	5.31412E-003	3.59960E-001	-1.15875E+000	3.57650E+000	10	...........
	36	0.493333	8.92771E-001	5.99175E-003	0.00000E+000	5.34926E-003	3.59960E-001	-1.14887E+000	3.57650E+000	10	...........
	37	0.506667	8.99074E-001	5.99620E-003	0.00000E+000	5.39103E-003	3.59960E-001	-1.14754E+000	3.57650E+000	10	...........
	38	0.52	9.05249E-001	5.99951E-003	0.00000E+000	5.43105E-003	3.59960E-001	-1.15908E+000	3.57650E+000	10	...........
	39	0.533333	9.11420E-001	5.99138E-003	0.00000E+000	5.46067E-003	3.59960E-001	-1.14899E+000	3.57650E+000	10	...........
	40	0.546667	9.17535E-001	5.99440E-003	0.00000E+000	5.50007E-003	3.59960E-001	-1.14760E+000	3.57650E+000	10	...........
	41	0.56	9.23694E-001	5.99594E-003	0.00000E+000	5.53842E-003	3.59960E-001	-1.15885E+000	3.57650E+000	10	...........
	42	0.573333	9.29767E-001	5.99361E-003	0.00000E+000	5.57266E-003	3.59960E-001	-1.14892E+000	3.57650E+000	10	...........
	43	0.586667	9.35796E-001	5.99439E-003	0.00000E+000	5.60953E-003	3.59960E-001	-1.14788E+000	3.57650E+000	10	...........
	44	0.6	9.41774E-001	5.99191E-003	0.00000E+000	5.64303E-003	3.59960E-001	-1.15890E+000	3.57650E+000	10	...........
	45	0.613333	9.47728E-001	5.99837E-003	0.00000E+000	5.68483E-003	3.59960E-001	-1.14842E+000	3.57650E+000	10	...........
	46	0.626667	9.53613E-001	5.99654E-003	0.00000E+000	5.71838E-003	3.59960E-001	-1.14746E+000	3.57650E+000	10	...........
	47	0.64	9.59434E-001	5.98870E-003	0.00000E+000	5.74576E-003	3.59960E-001	-1.15860E+000	3.57650E+000	10	...........
	48	0.653333	9.65225E-001	5.99610E-003	0.00000E+000	5.78758E-003	3.59960E-001	-1.14839E+000	3.57650E+000	10	...........
	49	0.666667	9.70956E-001	5.99399E-003	0.00000E+000	5.81990E-003	3.59960E-001	-1.14769E+000	3.57650E+000	10	...........
	50	0.68	9.76738E-001	5.99603E-003	0.00000E+000	5.85655E-003	3.59960E-001	-1.15865E+000	3.57650E+000	10	...........
	51	0.693333	9.82425E-001	5.99449E-003	0.00000E+000	5.88914E-003	3.59960E-001	-1.14833E+000	3.57650E+000	10	...........
	52	0.706667	9.88045E-001	5.99098E-003	0.00000E+000	5.91935E-003	3.59960E-001	-1.14787E+000	3.57650E+000	10	...........
	53	0.72	9.93579E-001	5.99051E-003	0.00000E+000	5.95204E-003	3.59960E-001	-1.15881E+000	3.57650E+000	10	...........
	54	0.73	9.98422E-001	5.99611E-003	0.00000E+000	5.98665E-003	3.59960E-001	-1.14386E+000	3.57650E+000	10	...........
STARTTIMEOFFSET	QUANT	1211.769	Start Time Offset (s)