File: Data/CV_CRGO300517_1/PWRCCD_CRGO300517_1/CHARGE_DISCHARGE/CHARGE_#467.DTA
EXPLAIN
TAG	PWR800_CHARGE
TITLE	LABEL	PWR Cyclic Charge Discharge (Cell) - Charge Step	Test &Identifier
DATE	LABEL	22-6-2017	Date
TIME	LABEL	15:54:37	Time
NOTES	NOTES	3	&Notes...
	supercap test cell
	0.6mg
	6M KOH
PSTAT	PSTAT	IFC5000-01520	Potentiostat
CAPACITY	QUANT	1.00000E-003	Capacity (A-hr)
CELLTYPE	SELECTOR	1	&Cell Type
WORKINGCONNECTION	SELECTOR	0	&Working Lead
MAXCHARGETIME	VARIABLEANDUNITS	1.00000E+002	s	1.00000E+002	second(s)	Max &Charge Time
CHARGECURRENT	QUANT	6.00000E-003	&Charge Current (A)
VOLTAGEFINISH	TWOPARAM	F	1.00000E-003	3.60000E+003	&Voltage Finish	 I (A) < 	Max Time(s)
SAMPLETIME	QUANT	1.00000E-002	Sa&mple Period (s)
CHARGESTOPAT1	MULTIPARAM	4	1.00000E+000	Charge Stop At &1	Voltage > Limit	V
CHARGESTOPAT2	MULTIPARAM	0	0.00000E+000	Charge Stop At &2	None	N/A
AESBHCSELECTOR	TOGGLE	F	Save Both Half Cells
IRCOMP	TOGGLE	F	IR &Measure
EOC	QUANT	0	Open Circuit (V)
SEQUENCER	TOGGLE	TRUE	Run as Sequence
PSTATMODEL	IQUANT	53	Pstat Model
PSTATSECTION	LABEL	IFC5000-01520	Pstat Section
PSTATSERIALNO	LABEL	01520	Pstat Serial Number
CTRLMODE	IQUANT	0	Control Mode
ELECTROMETER	IQUANT	1	RE=0 or CS=1
IESTAB	IQUANT	0	I/E Stability
CASPEED	IQUANT	4	Control Amp Speed
CONVENTION	IQUANT	1	Current Convention
ICHRANGE	IQUANT	2	Ich Range
ICHRANGEMODE	TOGGLE	T	Ich Auto Range
ICHOFFSETENABLE	TOGGLE	F	Ich Offset Enable
ICHOFFSET	QUANT	0	Ich Offset (V)
ICHFILTER	IQUANT	1	Ich Filter
VCHRANGE	IQUANT	2	Vch Range
VCHRANGEMODE	TOGGLE	T	Vch Auto Range
VCHOFFSETENABLE	TOGGLE	F	Vch Offset Enable
VCHOFFSET	QUANT	0	Vch Offset (V)
VCHFILTER	IQUANT	1	Vch Filter
IERANGELOWERLIMIT	IQUANT	9	I/E Range Lower Limit
IERANGEMODE	TOGGLE	F	I/E AutoRange
IERANGE	IQUANT	10	I/E Range
ACHSELECT	IQUANT	1	Ach Select
ACHRANGE	IQUANT	2	Ach Range
ACHOFFSETENABLE	TOGGLE	F	Ach Offset Enable
ACHOFFSET	QUANT	0	Ach Offset (V)
ACHFILTER	IQUANT	1	Ach Filter
CABLEID	IQUANT	14	Cable ID
DCCALDATE	LABEL	20-10-2016	DC Calibration Date
ACCALDATE	LABEL	12/3/2015	AC Calibration Date
FRAMEWORKVERSION	QUANT	7.01	Framework Version
INSTRUMENTVERSION	LABEL	4.00	Instrument Version
CURVE	TABLE	59
	Pt	T	Vf	Im	Vu	Pwr	Sig	Ach	Temp	IERange	Over
	#	s	V	A	V	W	V	V	deg C	#	bits
	0	0.013333	6.29705E-001	5.99471E-003	0.00000E+000	3.77490E-003	3.59960E-001	-1.14934E+000	3.57670E+000	10	...........
	1	0.026667	6.38555E-001	5.99478E-003	0.00000E+000	3.82800E-003	3.59960E-001	-1.14312E+000	3.57670E+000	10	...........
	2	0.04	6.46666E-001	5.99603E-003	0.00000E+000	3.87743E-003	3.59960E-001	-1.15128E+000	3.57670E+000	10	...........
	3	0.053333	6.54367E-001	5.98884E-003	0.00000E+000	3.91890E-003	3.59960E-001	-1.14934E+000	3.57670E+000	10	...........
	4	0.066667	6.61801E-001	5.99282E-003	0.00000E+000	3.96606E-003	3.59960E-001	-1.14319E+000	3.57670E+000	10	...........
	5	0.08	6.69068E-001	5.99107E-003	0.00000E+000	4.00843E-003	3.59960E-001	-1.15121E+000	3.57670E+000	10	...........
	6	0.093333	6.76159E-001	5.99472E-003	0.00000E+000	4.05338E-003	3.59960E-001	-1.14881E+000	3.57670E+000	10	...........
	7	0.106667	6.83158E-001	5.99156E-003	0.00000E+000	4.09318E-003	3.59960E-001	-1.14277E+000	3.57670E+000	10	...........
	8	0.12	6.90054E-001	5.99450E-003	0.00000E+000	4.13653E-003	3.59960E-001	-1.15100E+000	3.57670E+000	10	...........
	9	0.133333	6.96896E-001	5.99564E-003	0.00000E+000	4.17833E-003	3.59960E-001	-1.14856E+000	3.57670E+000	10	...........
	10	0.146667	7.03634E-001	5.99635E-003	0.00000E+000	4.21924E-003	3.59960E-001	-1.14261E+000	3.57670E+000	10	...........
	11	0.16	7.10289E-001	5.99001E-003	0.00000E+000	4.25464E-003	3.59960E-001	-1.15083E+000	3.57670E+000	10	...........
	12	0.173333	7.17002E-001	5.99439E-003	0.00000E+000	4.29799E-003	3.59960E-001	-1.14843E+000	3.57670E+000	10	...........
	13	0.186667	7.23661E-001	5.99055E-003	0.00000E+000	4.33512E-003	3.59960E-001	-1.14263E+000	3.57670E+000	10	...........
	14	0.2	7.30269E-001	5.99287E-003	0.00000E+000	4.37641E-003	3.59960E-001	-1.15121E+000	3.57670E+000	10	...........
	15	0.213333	7.36824E-001	5.99300E-003	0.00000E+000	4.41579E-003	3.59960E-001	-1.14837E+000	3.57670E+000	10	...........
	16	0.226667	7.43380E-001	5.98902E-003	0.00000E+000	4.45212E-003	3.59960E-001	-1.14265E+000	3.57670E+000	10	...........
	17	0.24	7.49922E-001	5.99209E-003	0.00000E+000	4.49360E-003	3.59960E-001	-1.15110E+000	3.57670E+000	10	...........
	18	0.253333	7.56450E-001	5.99633E-003	0.00000E+000	4.53592E-003	3.59960E-001	-1.14823E+000	3.57670E+000	10	...........
	19	0.266667	7.62940E-001	5.99452E-003	0.00000E+000	4.57346E-003	3.59960E-001	-1.14251E+000	3.57670E+000	10	...........
	20	0.28	7.69397E-001	5.99427E-003	0.00000E+000	4.61198E-003	3.59960E-001	-1.15101E+000	3.57670E+000	10	...........
	21	0.293333	7.75865E-001	5.99370E-003	0.00000E+000	4.65030E-003	3.59960E-001	-1.14749E+000	3.57670E+000	10	...........
	22	0.306667	7.82325E-001	5.99842E-003	0.00000E+000	4.69271E-003	3.59960E-001	-1.14218E+000	3.57670E+000	10	...........
	23	0.32	7.88762E-001	5.98989E-003	0.00000E+000	4.72460E-003	3.59960E-001	-1.15091E+000	3.57670E+000	10	...........
	24	0.333333	7.95178E-001	5.99382E-003	0.00000E+000	4.76616E-003	3.59960E-001	-1.14747E+000	3.57670E+000	10	...........
	25	0.346667	8.01606E-001	5.99195E-003	0.00000E+000	4.80318E-003	3.59960E-001	-1.14184E+000	3.57670E+000	10	...........
	26	0.36	8.07937E-001	5.99414E-003	0.00000E+000	4.84288E-003	3.59960E-001	-1.15068E+000	3.57670E+000	10	...........
	27	0.373333	8.14304E-001	5.99645E-003	0.00000E+000	4.88293E-003	3.59960E-001	-1.14715E+000	3.57670E+000	10	...........
	28	0.386667	8.20674E-001	5.99752E-003	0.00000E+000	4.92200E-003	3.59960E-001	-1.14189E+000	3.57670E+000	10	...........
	29	0.4	8.27043E-001	5.99397E-003	0.00000E+000	4.95727E-003	3.59960E-001	-1.15063E+000	3.57670E+000	10	...........
	30	0.413333	8.33352E-001	5.99579E-003	0.00000E+000	4.99661E-003	3.59960E-001	-1.14716E+000	3.57670E+000	10	...........
	31	0.426667	8.39668E-001	5.99620E-003	0.00000E+000	5.03482E-003	3.59960E-001	-1.14195E+000	3.57689E+000	10	...........
	32	0.44	8.46006E-001	5.99841E-003	0.00000E+000	5.07469E-003	3.59960E-001	-1.15087E+000	3.57700E+000	10	...........
	33	0.453333	8.52314E-001	5.99481E-003	0.00000E+000	5.10947E-003	3.59960E-001	-1.14709E+000	3.57700E+000	10	...........
	34	0.466667	8.58552E-001	5.99577E-003	0.00000E+000	5.14768E-003	3.59960E-001	-1.14165E+000	3.57700E+000	10	...........
	35	0.48	8.64765E-001	5.99268E-003	0.00000E+000	5.18226E-003	3.59960E-001	-1.15082E+000	3.57700E+000	10	...........
	36	0.493333	8.71019E-001	5.99541E-003	0.00000E+000	5.22211E-003	3.59960E-001	-1.14663E+000	3.57700E+000	10	...........
	37	0.506667	8.77239E-001	5.99450E-003	0.00000E+000	5.25861E-003	3.59960E-001	-1.14186E+000	3.57700E+000	10	...........
	38	0.52	8.83411E-001	5.99397E-003	0.00000E+000	5.29514E-003	3.59960E-001	-1.15122E+000	3.57700E+000	10	...........
	39	0.533333	8.89554E-001	5.99136E-003	0.00000E+000	5.32964E-003	3.59960E-001	-1.14704E+000	3.57700E+000	10	...........
	40	0.546667	8.95685E-001	5.99495E-003	0.00000E+000	5.36959E-003	3.59960E-001	-1.14201E+000	3.57700E+000	10	...........
	41	0.56	9.01778E-001	5.99379E-003	0.00000E+000	5.40507E-003	3.59960E-001	-1.15102E+000	3.57700E+000	10	...........
	42	0.573333	9.07826E-001	5.99467E-003	0.00000E+000	5.44212E-003	3.59960E-001	-1.14668E+000	3.57700E+000	10	...........
	43	0.586667	9.13860E-001	5.99784E-003	0.00000E+000	5.48118E-003	3.59960E-001	-1.14196E+000	3.57700E+000	10	...........
	44	0.6	9.19913E-001	5.99306E-003	0.00000E+000	5.51310E-003	3.59960E-001	-1.15124E+000	3.57700E+000	10	...........
	45	0.613333	9.25938E-001	5.98943E-003	0.00000E+000	5.54584E-003	3.59960E-001	-1.14623E+000	3.57700E+000	10	...........
	46	0.626667	9.31920E-001	5.99599E-003	0.00000E+000	5.58779E-003	3.59960E-001	-1.14130E+000	3.57700E+000	10	...........
	47	0.64	9.37809E-001	5.99542E-003	0.00000E+000	5.62255E-003	3.59960E-001	-1.15093E+000	3.57700E+000	10	...........
	48	0.653333	9.43651E-001	5.99316E-003	0.00000E+000	5.65544E-003	3.59960E-001	-1.14608E+000	3.57700E+000	10	...........
	49	0.666667	9.49532E-001	5.99655E-003	0.00000E+000	5.69391E-003	3.59960E-001	-1.14154E+000	3.57700E+000	10	...........
	50	0.68	9.55329E-001	5.99574E-003	0.00000E+000	5.72790E-003	3.59960E-001	-1.15106E+000	3.57700E+000	10	...........
	51	0.693333	9.61046E-001	5.99526E-003	0.00000E+000	5.76172E-003	3.59960E-001	-1.14569E+000	3.57700E+000	10	...........
	52	0.706667	9.66797E-001	5.99336E-003	0.00000E+000	5.79436E-003	3.59960E-001	-1.14134E+000	3.57700E+000	10	...........
	53	0.72	9.72484E-001	5.99437E-003	0.00000E+000	5.82942E-003	3.59960E-001	-1.15109E+000	3.57700E+000	10	...........
	54	0.733333	9.78136E-001	5.99656E-003	0.00000E+000	5.86545E-003	3.59960E-001	-1.14575E+000	3.57700E+000	10	...........
	55	0.746667	9.83684E-001	5.99481E-003	0.00000E+000	5.89700E-003	3.59960E-001	-1.14124E+000	3.57700E+000	10	...........
	56	0.76	9.89253E-001	5.99681E-003	0.00000E+000	5.93236E-003	3.59960E-001	-1.15097E+000	3.57700E+000	10	...........
	57	0.773333	9.94727E-001	5.98966E-003	0.00000E+000	5.95808E-003	3.59960E-001	-1.14585E+000	3.57700E+000	10	...........
	58	0.781667	9.99154E-001	5.99287E-003	0.00000E+000	5.98780E-003	3.59960E-001	-1.14282E+000	3.57700E+000	10	...........
STARTTIMEOFFSET	QUANT	807.9584	Start Time Offset (s)