File: Data/CV_CRGO300517_1/PWRCCD_CRGO300517_1/CHARGE_DISCHARGE/CHARGE_#779.DTA
EXPLAIN
TAG	PWR800_CHARGE
TITLE	LABEL	PWR Cyclic Charge Discharge (Cell) - Charge Step	Test &Identifier
DATE	LABEL	22-6-2017	Date
TIME	LABEL	16:06:30	Time
NOTES	NOTES	3	&Notes...
	supercap test cell
	0.6mg
	6M KOH
PSTAT	PSTAT	IFC5000-01520	Potentiostat
CAPACITY	QUANT	1.00000E-003	Capacity (A-hr)
CELLTYPE	SELECTOR	1	&Cell Type
WORKINGCONNECTION	SELECTOR	0	&Working Lead
MAXCHARGETIME	VARIABLEANDUNITS	1.00000E+002	s	1.00000E+002	second(s)	Max &Charge Time
CHARGECURRENT	QUANT	6.00000E-003	&Charge Current (A)
VOLTAGEFINISH	TWOPARAM	F	1.00000E-003	3.60000E+003	&Voltage Finish	 I (A) < 	Max Time(s)
SAMPLETIME	QUANT	1.00000E-002	Sa&mple Period (s)
CHARGESTOPAT1	MULTIPARAM	4	1.00000E+000	Charge Stop At &1	Voltage > Limit	V
CHARGESTOPAT2	MULTIPARAM	0	0.00000E+000	Charge Stop At &2	None	N/A
AESBHCSELECTOR	TOGGLE	F	Save Both Half Cells
IRCOMP	TOGGLE	F	IR &Measure
EOC	QUANT	0	Open Circuit (V)
SEQUENCER	TOGGLE	TRUE	Run as Sequence
PSTATMODEL	IQUANT	53	Pstat Model
PSTATSECTION	LABEL	IFC5000-01520	Pstat Section
PSTATSERIALNO	LABEL	01520	Pstat Serial Number
CTRLMODE	IQUANT	0	Control Mode
ELECTROMETER	IQUANT	1	RE=0 or CS=1
IESTAB	IQUANT	0	I/E Stability
CASPEED	IQUANT	4	Control Amp Speed
CONVENTION	IQUANT	1	Current Convention
ICHRANGE	IQUANT	2	Ich Range
ICHRANGEMODE	TOGGLE	T	Ich Auto Range
ICHOFFSETENABLE	TOGGLE	F	Ich Offset Enable
ICHOFFSET	QUANT	0	Ich Offset (V)
ICHFILTER	IQUANT	1	Ich Filter
VCHRANGE	IQUANT	2	Vch Range
VCHRANGEMODE	TOGGLE	T	Vch Auto Range
VCHOFFSETENABLE	TOGGLE	F	Vch Offset Enable
VCHOFFSET	QUANT	0	Vch Offset (V)
VCHFILTER	IQUANT	1	Vch Filter
IERANGELOWERLIMIT	IQUANT	9	I/E Range Lower Limit
IERANGEMODE	TOGGLE	F	I/E AutoRange
IERANGE	IQUANT	10	I/E Range
ACHSELECT	IQUANT	1	Ach Select
ACHRANGE	IQUANT	2	Ach Range
ACHOFFSETENABLE	TOGGLE	F	Ach Offset Enable
ACHOFFSET	QUANT	0	Ach Offset (V)
ACHFILTER	IQUANT	1	Ach Filter
CABLEID	IQUANT	14	Cable ID
DCCALDATE	LABEL	20-10-2016	DC Calibration Date
ACCALDATE	LABEL	12/3/2015	AC Calibration Date
FRAMEWORKVERSION	QUANT	7.01	Framework Version
INSTRUMENTVERSION	LABEL	4.00	Instrument Version
CURVE	TABLE	55
	Pt	T	Vf	Im	Vu	Pwr	Sig	Ach	Temp	IERange	Over
	#	s	V	A	V	W	V	V	deg C	#	bits
	0	0.013333	6.47351E-001	5.99207E-003	0.00000E+000	3.87897E-003	3.59960E-001	-1.16390E+000	3.57690E+000	10	...........
	1	0.026667	6.56508E-001	5.99740E-003	0.00000E+000	3.93734E-003	3.59960E-001	-1.17475E+000	3.57690E+000	10	...........
	2	0.04	6.64903E-001	5.99374E-003	0.00000E+000	3.98525E-003	3.59960E-001	-1.16756E+000	3.57690E+000	10	...........
	3	0.053333	6.72869E-001	5.99535E-003	0.00000E+000	4.03408E-003	3.59960E-001	-1.16379E+000	3.57690E+000	10	...........
	4	0.066667	6.80590E-001	5.99240E-003	0.00000E+000	4.07837E-003	3.59960E-001	-1.17441E+000	3.57690E+000	10	...........
	5	0.08	6.88076E-001	5.99480E-003	0.00000E+000	4.12488E-003	3.59960E-001	-1.16712E+000	3.57690E+000	10	...........
	6	0.093333	6.95520E-001	5.99400E-003	0.00000E+000	4.16895E-003	3.59960E-001	-1.16358E+000	3.57690E+000	10	...........
	7	0.106667	7.02730E-001	5.99309E-003	0.00000E+000	4.21153E-003	3.59960E-001	-1.17451E+000	3.57690E+000	10	...........
	8	0.12	7.09902E-001	5.99141E-003	0.00000E+000	4.25331E-003	3.59960E-001	-1.16705E+000	3.57690E+000	10	...........
	9	0.133333	7.16998E-001	5.99497E-003	0.00000E+000	4.29838E-003	3.59960E-001	-1.16335E+000	3.57690E+000	10	...........
	10	0.146667	7.24027E-001	5.99741E-003	0.00000E+000	4.34229E-003	3.59960E-001	-1.17418E+000	3.57690E+000	10	...........
	11	0.16	7.30960E-001	5.99401E-003	0.00000E+000	4.38138E-003	3.59960E-001	-1.16705E+000	3.57690E+000	10	...........
	12	0.173333	7.37873E-001	5.99939E-003	0.00000E+000	4.42679E-003	3.59960E-001	-1.16363E+000	3.57690E+000	10	...........
	13	0.186667	7.44777E-001	5.99524E-003	0.00000E+000	4.46512E-003	3.59960E-001	-1.17422E+000	3.57690E+000	10	...........
	14	0.2	7.51591E-001	5.99626E-003	0.00000E+000	4.50674E-003	3.59960E-001	-1.16688E+000	3.57690E+000	10	...........
	15	0.213333	7.58420E-001	5.99960E-003	0.00000E+000	4.55022E-003	3.59960E-001	-1.16352E+000	3.57690E+000	10	...........
	16	0.226667	7.65186E-001	6.00071E-003	0.00000E+000	4.59166E-003	3.59960E-001	-1.17464E+000	3.57690E+000	10	...........
	17	0.24	7.71955E-001	5.99032E-003	0.00000E+000	4.62425E-003	3.59960E-001	-1.16718E+000	3.57690E+000	10	...........
	18	0.253333	7.78673E-001	5.99638E-003	0.00000E+000	4.66922E-003	3.59960E-001	-1.16330E+000	3.57690E+000	10	...........
	19	0.266667	7.85362E-001	5.99537E-003	0.00000E+000	4.70853E-003	3.59960E-001	-1.17424E+000	3.57690E+000	10	...........
	20	0.28	7.92058E-001	5.99030E-003	0.00000E+000	4.74466E-003	3.59960E-001	-1.16669E+000	3.57690E+000	10	...........
	21	0.293333	7.98772E-001	5.99462E-003	0.00000E+000	4.78833E-003	3.59960E-001	-1.16350E+000	3.57690E+000	10	...........
	22	0.306667	8.05392E-001	5.99656E-003	0.00000E+000	4.82958E-003	3.59960E-001	-1.17406E+000	3.57690E+000	10	...........
	23	0.32	8.11954E-001	5.99016E-003	0.00000E+000	4.86374E-003	3.59960E-001	-1.16631E+000	3.57690E+000	10	...........
	24	0.333333	8.18582E-001	5.99431E-003	0.00000E+000	4.90684E-003	3.59960E-001	-1.16290E+000	3.57690E+000	10	...........
	25	0.346667	8.25157E-001	5.99392E-003	0.00000E+000	4.94592E-003	3.59960E-001	-1.17410E+000	3.57690E+000	10	...........
	26	0.36	8.31674E-001	5.99147E-003	0.00000E+000	4.98295E-003	3.59960E-001	-1.16629E+000	3.57690E+000	10	...........
	27	0.373333	8.38208E-001	5.99455E-003	0.00000E+000	5.02468E-003	3.59960E-001	-1.16284E+000	3.57690E+000	10	...........
	28	0.386667	8.44760E-001	5.99429E-003	0.00000E+000	5.06374E-003	3.59960E-001	-1.17394E+000	3.57690E+000	10	...........
	29	0.4	8.51250E-001	5.99446E-003	0.00000E+000	5.10278E-003	3.59960E-001	-1.16592E+000	3.57690E+000	10	...........
	30	0.413333	8.57683E-001	5.99220E-003	0.00000E+000	5.13940E-003	3.59960E-001	-1.16297E+000	3.57690E+000	10	...........
	31	0.426667	8.64132E-001	5.99261E-003	0.00000E+000	5.17841E-003	3.59960E-001	-1.17394E+000	3.57690E+000	10	...........
	32	0.44	8.70544E-001	5.99063E-003	0.00000E+000	5.21511E-003	3.59960E-001	-1.16606E+000	3.57690E+000	10	...........
	33	0.453333	8.76893E-001	5.99220E-003	0.00000E+000	5.25452E-003	3.59960E-001	-1.16301E+000	3.57690E+000	10	...........
	34	0.466667	8.83267E-001	5.99624E-003	0.00000E+000	5.29628E-003	3.59960E-001	-1.17390E+000	3.57690E+000	10	...........
	35	0.48	8.89567E-001	5.99456E-003	0.00000E+000	5.33256E-003	3.59960E-001	-1.16575E+000	3.57690E+000	10	...........
	36	0.493333	8.95843E-001	5.99548E-003	0.00000E+000	5.37101E-003	3.59960E-001	-1.16290E+000	3.57690E+000	10	...........
	37	0.506667	9.02086E-001	5.99815E-003	0.00000E+000	5.41085E-003	3.59960E-001	-1.17394E+000	3.57690E+000	10	...........
	38	0.52	9.08324E-001	5.99407E-003	0.00000E+000	5.44456E-003	3.59960E-001	-1.16592E+000	3.57690E+000	10	...........
	39	0.533333	9.14505E-001	5.99007E-003	0.00000E+000	5.47795E-003	3.59960E-001	-1.16287E+000	3.57690E+000	10	...........
	40	0.546667	9.20686E-001	5.99529E-003	0.00000E+000	5.51978E-003	3.59960E-001	-1.17404E+000	3.57690E+000	10	...........
	41	0.56	9.26784E-001	5.99635E-003	0.00000E+000	5.55732E-003	3.59960E-001	-1.16590E+000	3.57690E+000	10	...........
	42	0.573333	9.32833E-001	5.99249E-003	0.00000E+000	5.58999E-003	3.59960E-001	-1.16290E+000	3.57690E+000	10	...........
	43	0.586667	9.38846E-001	5.99259E-003	0.00000E+000	5.62612E-003	3.59960E-001	-1.17397E+000	3.57690E+000	10	...........
	44	0.6	9.44835E-001	5.99668E-003	0.00000E+000	5.66587E-003	3.59960E-001	-1.16562E+000	3.57690E+000	10	...........
	45	0.613333	9.50790E-001	5.99563E-003	0.00000E+000	5.70058E-003	3.59960E-001	-1.16291E+000	3.57690E+000	10	...........
	46	0.626667	9.56652E-001	5.99542E-003	0.00000E+000	5.73553E-003	3.59960E-001	-1.17370E+000	3.57690E+000	10	...........
	47	0.64	9.62510E-001	5.99599E-003	0.00000E+000	5.77120E-003	3.59960E-001	-1.16546E+000	3.57690E+000	10	...........
	48	0.653333	9.68238E-001	5.99592E-003	0.00000E+000	5.80548E-003	3.59960E-001	-1.16265E+000	3.57690E+000	10	...........
	49	0.666667	9.73979E-001	5.99010E-003	0.00000E+000	5.83423E-003	3.59960E-001	-1.17356E+000	3.57690E+000	10	...........
	50	0.68	9.79691E-001	5.99165E-003	0.00000E+000	5.86997E-003	3.59960E-001	-1.16543E+000	3.57690E+000	10	...........
	51	0.693333	9.85342E-001	5.99410E-003	0.00000E+000	5.90624E-003	3.59960E-001	-1.16279E+000	3.57690E+000	10	...........
	52	0.706667	9.90934E-001	5.99878E-003	0.00000E+000	5.94439E-003	3.59960E-001	-1.17392E+000	3.57690E+000	10	...........
	53	0.72	9.96463E-001	6.00329E-003	0.00000E+000	5.98206E-003	3.59960E-001	-1.16533E+000	3.57690E+000	10	...........
	54	0.723333	9.99904E-001	5.99212E-003	0.00000E+000	5.99155E-003	3.59960E-001	-1.17513E+000	3.57690E+000	10	...........
STARTTIMEOFFSET	QUANT	1273.952	Start Time Offset (s)