File: Data/CV_CRGO300517_1/PWRCCD_CRGO300517_1/CHARGE_DISCHARGE/CHARGE_#889.DTA
EXPLAIN
TAG	PWR800_CHARGE
TITLE	LABEL	PWR Cyclic Charge Discharge (Cell) - Charge Step	Test &Identifier
DATE	LABEL	22-6-2017	Date
TIME	LABEL	16:10:34	Time
NOTES	NOTES	3	&Notes...
	supercap test cell
	0.6mg
	6M KOH
PSTAT	PSTAT	IFC5000-01520	Potentiostat
CAPACITY	QUANT	1.00000E-003	Capacity (A-hr)
CELLTYPE	SELECTOR	1	&Cell Type
WORKINGCONNECTION	SELECTOR	0	&Working Lead
MAXCHARGETIME	VARIABLEANDUNITS	1.00000E+002	s	1.00000E+002	second(s)	Max &Charge Time
CHARGECURRENT	QUANT	6.00000E-003	&Charge Current (A)
VOLTAGEFINISH	TWOPARAM	F	1.00000E-003	3.60000E+003	&Voltage Finish	 I (A) < 	Max Time(s)
SAMPLETIME	QUANT	1.00000E-002	Sa&mple Period (s)
CHARGESTOPAT1	MULTIPARAM	4	1.00000E+000	Charge Stop At &1	Voltage > Limit	V
CHARGESTOPAT2	MULTIPARAM	0	0.00000E+000	Charge Stop At &2	None	N/A
AESBHCSELECTOR	TOGGLE	F	Save Both Half Cells
IRCOMP	TOGGLE	F	IR &Measure
EOC	QUANT	0	Open Circuit (V)
SEQUENCER	TOGGLE	TRUE	Run as Sequence
PSTATMODEL	IQUANT	53	Pstat Model
PSTATSECTION	LABEL	IFC5000-01520	Pstat Section
PSTATSERIALNO	LABEL	01520	Pstat Serial Number
CTRLMODE	IQUANT	0	Control Mode
ELECTROMETER	IQUANT	1	RE=0 or CS=1
IESTAB	IQUANT	0	I/E Stability
CASPEED	IQUANT	4	Control Amp Speed
CONVENTION	IQUANT	1	Current Convention
ICHRANGE	IQUANT	2	Ich Range
ICHRANGEMODE	TOGGLE	T	Ich Auto Range
ICHOFFSETENABLE	TOGGLE	F	Ich Offset Enable
ICHOFFSET	QUANT	0	Ich Offset (V)
ICHFILTER	IQUANT	1	Ich Filter
VCHRANGE	IQUANT	2	Vch Range
VCHRANGEMODE	TOGGLE	T	Vch Auto Range
VCHOFFSETENABLE	TOGGLE	F	Vch Offset Enable
VCHOFFSET	QUANT	0	Vch Offset (V)
VCHFILTER	IQUANT	1	Vch Filter
IERANGELOWERLIMIT	IQUANT	9	I/E Range Lower Limit
IERANGEMODE	TOGGLE	F	I/E AutoRange
IERANGE	IQUANT	10	I/E Range
ACHSELECT	IQUANT	1	Ach Select
ACHRANGE	IQUANT	2	Ach Range
ACHOFFSETENABLE	TOGGLE	F	Ach Offset Enable
ACHOFFSET	QUANT	0	Ach Offset (V)
ACHFILTER	IQUANT	1	Ach Filter
CABLEID	IQUANT	14	Cable ID
DCCALDATE	LABEL	20-10-2016	DC Calibration Date
ACCALDATE	LABEL	12/3/2015	AC Calibration Date
FRAMEWORKVERSION	QUANT	7.01	Framework Version
INSTRUMENTVERSION	LABEL	4.00	Instrument Version
CURVE	TABLE	53
	Pt	T	Vf	Im	Vu	Pwr	Sig	Ach	Temp	IERange	Over
	#	s	V	A	V	W	V	V	deg C	#	bits
	0	0.013333	6.56525E-001	5.99579E-003	0.00000E+000	3.93639E-003	3.59960E-001	-1.16114E+000	3.57780E+000	10	...........
	1	0.026667	6.65394E-001	5.98847E-003	0.00000E+000	3.98469E-003	3.59960E-001	-1.17191E+000	3.57780E+000	10	...........
	2	0.04	6.73733E-001	5.99464E-003	0.00000E+000	4.03879E-003	3.59960E-001	-1.16486E+000	3.57780E+000	10	...........
	3	0.053333	6.81640E-001	5.98792E-003	0.00000E+000	4.08161E-003	3.59960E-001	-1.16120E+000	3.57780E+000	10	...........
	4	0.066667	6.89339E-001	5.99464E-003	0.00000E+000	4.13234E-003	3.59960E-001	-1.17224E+000	3.57780E+000	10	...........
	5	0.08	6.96843E-001	5.99973E-003	0.00000E+000	4.18087E-003	3.59960E-001	-1.16460E+000	3.57780E+000	10	...........
	6	0.093333	7.04193E-001	5.99556E-003	0.00000E+000	4.22204E-003	3.59960E-001	-1.16110E+000	3.57780E+000	10	...........
	7	0.106667	7.11469E-001	5.99136E-003	0.00000E+000	4.26267E-003	3.59960E-001	-1.17198E+000	3.57780E+000	10	...........
	8	0.12	7.18696E-001	5.99332E-003	0.00000E+000	4.30738E-003	3.59960E-001	-1.16450E+000	3.57780E+000	10	...........
	9	0.133333	7.25826E-001	5.99138E-003	0.00000E+000	4.34870E-003	3.59960E-001	-1.16128E+000	3.57780E+000	10	...........
	10	0.146667	7.32874E-001	5.98680E-003	0.00000E+000	4.38757E-003	3.59960E-001	-1.17211E+000	3.57780E+000	10	...........
	11	0.16	7.39874E-001	5.99386E-003	0.00000E+000	4.43470E-003	3.59960E-001	-1.16436E+000	3.57780E+000	10	...........
	12	0.173333	7.46825E-001	5.99201E-003	0.00000E+000	4.47498E-003	3.59960E-001	-1.16125E+000	3.57780E+000	10	...........
	13	0.186667	7.53763E-001	5.99290E-003	0.00000E+000	4.51723E-003	3.59960E-001	-1.17252E+000	3.57780E+000	10	...........
	14	0.2	7.60654E-001	5.99466E-003	0.00000E+000	4.55986E-003	3.59960E-001	-1.16459E+000	3.57780E+000	10	...........
	15	0.213333	7.67508E-001	5.99096E-003	0.00000E+000	4.59811E-003	3.59960E-001	-1.16134E+000	3.57780E+000	10	...........
	16	0.226667	7.74361E-001	5.99254E-003	0.00000E+000	4.64039E-003	3.59960E-001	-1.17245E+000	3.57780E+000	10	...........
	17	0.24	7.81143E-001	5.99496E-003	0.00000E+000	4.68292E-003	3.59960E-001	-1.16434E+000	3.57780E+000	10	...........
	18	0.253333	7.87912E-001	5.99544E-003	0.00000E+000	4.72388E-003	3.59960E-001	-1.16123E+000	3.57780E+000	10	...........
	19	0.266667	7.94684E-001	5.99776E-003	0.00000E+000	4.76632E-003	3.59960E-001	-1.17242E+000	3.57780E+000	10	...........
	20	0.28	8.01411E-001	5.99088E-003	0.00000E+000	4.80116E-003	3.59960E-001	-1.16398E+000	3.57780E+000	10	...........
	21	0.293333	8.08063E-001	5.98827E-003	0.00000E+000	4.83890E-003	3.59960E-001	-1.16087E+000	3.57780E+000	10	...........
	22	0.306667	8.14747E-001	5.99516E-003	0.00000E+000	4.88454E-003	3.59960E-001	-1.17208E+000	3.57780E+000	10	...........
	23	0.32	8.21412E-001	5.99796E-003	0.00000E+000	4.92680E-003	3.59960E-001	-1.16398E+000	3.57780E+000	10	...........
	24	0.333333	8.28045E-001	5.99462E-003	0.00000E+000	4.96381E-003	3.59960E-001	-1.16105E+000	3.57780E+000	10	...........
	25	0.346667	8.34634E-001	5.99414E-003	0.00000E+000	5.00291E-003	3.59960E-001	-1.17216E+000	3.57780E+000	10	...........
	26	0.36	8.41190E-001	5.99117E-003	0.00000E+000	5.03972E-003	3.59960E-001	-1.16384E+000	3.57780E+000	10	...........
	27	0.373333	8.47791E-001	5.99398E-003	0.00000E+000	5.08164E-003	3.59960E-001	-1.16081E+000	3.57780E+000	10	...........
	28	0.386667	8.54295E-001	5.99319E-003	0.00000E+000	5.11995E-003	3.59960E-001	-1.17206E+000	3.57780E+000	10	...........
	29	0.4	8.60780E-001	5.99426E-003	0.00000E+000	5.15974E-003	3.59960E-001	-1.16374E+000	3.57780E+000	10	...........
	30	0.413333	8.67234E-001	5.99626E-003	0.00000E+000	5.20016E-003	3.59960E-001	-1.16090E+000	3.57780E+000	10	...........
	31	0.426667	8.73689E-001	5.99230E-003	0.00000E+000	5.23540E-003	3.59960E-001	-1.17193E+000	3.57780E+000	10	...........
	32	0.44	8.80107E-001	5.99656E-003	0.00000E+000	5.27761E-003	3.59960E-001	-1.16361E+000	3.57780E+000	10	...........
	33	0.453333	8.86487E-001	5.99216E-003	0.00000E+000	5.31198E-003	3.59960E-001	-1.16095E+000	3.57780E+000	10	...........
	34	0.466667	8.92821E-001	5.99376E-003	0.00000E+000	5.35135E-003	3.59960E-001	-1.17205E+000	3.57780E+000	10	...........
	35	0.48	8.99160E-001	5.98973E-003	0.00000E+000	5.38573E-003	3.59960E-001	-1.16335E+000	3.57780E+000	10	...........
	36	0.493333	9.05439E-001	5.99468E-003	0.00000E+000	5.42782E-003	3.59960E-001	-1.16066E+000	3.57780E+000	10	...........
	37	0.506667	9.11694E-001	5.99034E-003	0.00000E+000	5.46136E-003	3.59960E-001	-1.17209E+000	3.57780E+000	10	...........
	38	0.52	9.17904E-001	5.99572E-003	0.00000E+000	5.50349E-003	3.59960E-001	-1.16362E+000	3.57780E+000	10	...........
	39	0.533333	9.24126E-001	5.99352E-003	0.00000E+000	5.53877E-003	3.59960E-001	-1.16101E+000	3.57780E+000	10	...........
	40	0.546667	9.30196E-001	5.99176E-003	0.00000E+000	5.57351E-003	3.59960E-001	-1.17226E+000	3.57780E+000	10	...........
	41	0.56	9.36249E-001	5.99089E-003	0.00000E+000	5.60897E-003	3.59960E-001	-1.16340E+000	3.57780E+000	10	...........
	42	0.573333	9.42258E-001	5.99554E-003	0.00000E+000	5.64935E-003	3.59960E-001	-1.16099E+000	3.57780E+000	10	...........
	43	0.586667	9.48245E-001	5.99036E-003	0.00000E+000	5.68033E-003	3.59960E-001	-1.17237E+000	3.57780E+000	10	...........
	44	0.6	9.54137E-001	5.98788E-003	0.00000E+000	5.71326E-003	3.59960E-001	-1.16339E+000	3.57780E+000	10	...........
	45	0.613333	9.60060E-001	5.99732E-003	0.00000E+000	5.75779E-003	3.59960E-001	-1.16057E+000	3.57780E+000	10	...........
	46	0.626667	9.65863E-001	5.99005E-003	0.00000E+000	5.78556E-003	3.59960E-001	-1.17184E+000	3.57803E+000	10	...........
	47	0.64	9.71611E-001	5.99104E-003	0.00000E+000	5.82096E-003	3.59960E-001	-1.16312E+000	3.57930E+000	10	...........
	48	0.653333	9.77379E-001	5.99735E-003	0.00000E+000	5.86168E-003	3.59960E-001	-1.16087E+000	3.57930E+000	10	...........
	49	0.666667	9.83073E-001	5.99383E-003	0.00000E+000	5.89237E-003	3.59960E-001	-1.17218E+000	3.57930E+000	10	...........
	50	0.68	9.88687E-001	5.99418E-003	0.00000E+000	5.92637E-003	3.59960E-001	-1.16310E+000	3.57930E+000	10	...........
	51	0.693333	9.94254E-001	5.99361E-003	0.00000E+000	5.95918E-003	3.59960E-001	-1.16061E+000	3.57930E+000	10	...........
	52	0.701667	9.98749E-001	5.99403E-003	0.00000E+000	5.98653E-003	3.59960E-001	-1.17407E+000	3.57930E+000	10	...........
STARTTIMEOFFSET	QUANT	1430.594	Start Time Offset (s)