File: Data/CV_CRGO300517_1/PWRCCD_CRGO300517_1/CHARGE_DISCHARGE/CHARGE_#485.DTA
EXPLAIN
TAG	PWR800_CHARGE
TITLE	LABEL	PWR Cyclic Charge Discharge (Cell) - Charge Step	Test &Identifier
DATE	LABEL	22-6-2017	Date
TIME	LABEL	15:55:19	Time
NOTES	NOTES	3	&Notes...
	supercap test cell
	0.6mg
	6M KOH
PSTAT	PSTAT	IFC5000-01520	Potentiostat
CAPACITY	QUANT	1.00000E-003	Capacity (A-hr)
CELLTYPE	SELECTOR	1	&Cell Type
WORKINGCONNECTION	SELECTOR	0	&Working Lead
MAXCHARGETIME	VARIABLEANDUNITS	1.00000E+002	s	1.00000E+002	second(s)	Max &Charge Time
CHARGECURRENT	QUANT	6.00000E-003	&Charge Current (A)
VOLTAGEFINISH	TWOPARAM	F	1.00000E-003	3.60000E+003	&Voltage Finish	 I (A) < 	Max Time(s)
SAMPLETIME	QUANT	1.00000E-002	Sa&mple Period (s)
CHARGESTOPAT1	MULTIPARAM	4	1.00000E+000	Charge Stop At &1	Voltage > Limit	V
CHARGESTOPAT2	MULTIPARAM	0	0.00000E+000	Charge Stop At &2	None	N/A
AESBHCSELECTOR	TOGGLE	F	Save Both Half Cells
IRCOMP	TOGGLE	F	IR &Measure
EOC	QUANT	0	Open Circuit (V)
SEQUENCER	TOGGLE	TRUE	Run as Sequence
PSTATMODEL	IQUANT	53	Pstat Model
PSTATSECTION	LABEL	IFC5000-01520	Pstat Section
PSTATSERIALNO	LABEL	01520	Pstat Serial Number
CTRLMODE	IQUANT	0	Control Mode
ELECTROMETER	IQUANT	1	RE=0 or CS=1
IESTAB	IQUANT	0	I/E Stability
CASPEED	IQUANT	4	Control Amp Speed
CONVENTION	IQUANT	1	Current Convention
ICHRANGE	IQUANT	2	Ich Range
ICHRANGEMODE	TOGGLE	T	Ich Auto Range
ICHOFFSETENABLE	TOGGLE	F	Ich Offset Enable
ICHOFFSET	QUANT	0	Ich Offset (V)
ICHFILTER	IQUANT	1	Ich Filter
VCHRANGE	IQUANT	2	Vch Range
VCHRANGEMODE	TOGGLE	T	Vch Auto Range
VCHOFFSETENABLE	TOGGLE	F	Vch Offset Enable
VCHOFFSET	QUANT	0	Vch Offset (V)
VCHFILTER	IQUANT	1	Vch Filter
IERANGELOWERLIMIT	IQUANT	9	I/E Range Lower Limit
IERANGEMODE	TOGGLE	F	I/E AutoRange
IERANGE	IQUANT	10	I/E Range
ACHSELECT	IQUANT	1	Ach Select
ACHRANGE	IQUANT	2	Ach Range
ACHOFFSETENABLE	TOGGLE	F	Ach Offset Enable
ACHOFFSET	QUANT	0	Ach Offset (V)
ACHFILTER	IQUANT	1	Ach Filter
CABLEID	IQUANT	14	Cable ID
DCCALDATE	LABEL	20-10-2016	DC Calibration Date
ACCALDATE	LABEL	12/3/2015	AC Calibration Date
FRAMEWORKVERSION	QUANT	7.01	Framework Version
INSTRUMENTVERSION	LABEL	4.00	Instrument Version
CURVE	TABLE	59
	Pt	T	Vf	Im	Vu	Pwr	Sig	Ach	Temp	IERange	Over
	#	s	V	A	V	W	V	V	deg C	#	bits
	0	0.013333	6.30611E-001	5.99493E-003	0.00000E+000	3.78047E-003	3.59960E-001	-1.14496E+000	3.57640E+000	10	...........
	1	0.026667	6.39493E-001	5.99705E-003	0.00000E+000	3.83507E-003	3.59960E-001	-1.14693E+000	3.57640E+000	10	...........
	2	0.04	6.47674E-001	5.99422E-003	0.00000E+000	3.88230E-003	3.59960E-001	-1.13908E+000	3.57640E+000	10	...........
	3	0.053333	6.55427E-001	5.99312E-003	0.00000E+000	3.92805E-003	3.59960E-001	-1.14467E+000	3.57640E+000	10	...........
	4	0.066667	6.62866E-001	5.99547E-003	0.00000E+000	3.97419E-003	3.59960E-001	-1.14672E+000	3.57640E+000	10	...........
	5	0.08	6.70175E-001	5.99562E-003	0.00000E+000	4.01811E-003	3.59960E-001	-1.13892E+000	3.57640E+000	10	...........
	6	0.093333	6.77275E-001	5.99427E-003	0.00000E+000	4.05977E-003	3.59960E-001	-1.14482E+000	3.57640E+000	10	...........
	7	0.106667	6.84257E-001	5.99154E-003	0.00000E+000	4.09975E-003	3.59960E-001	-1.14651E+000	3.57640E+000	10	...........
	8	0.12	6.91177E-001	5.98963E-003	0.00000E+000	4.13990E-003	3.59960E-001	-1.13857E+000	3.57640E+000	10	...........
	9	0.133333	6.98009E-001	5.99476E-003	0.00000E+000	4.18440E-003	3.59960E-001	-1.14471E+000	3.57640E+000	10	...........
	10	0.146667	7.04786E-001	5.99426E-003	0.00000E+000	4.22467E-003	3.59960E-001	-1.14601E+000	3.57640E+000	10	...........
	11	0.16	7.11531E-001	5.99746E-003	0.00000E+000	4.26738E-003	3.59960E-001	-1.13835E+000	3.57640E+000	10	...........
	12	0.173333	7.18259E-001	5.99466E-003	0.00000E+000	4.30571E-003	3.59960E-001	-1.14455E+000	3.57640E+000	10	...........
	13	0.186667	7.24860E-001	5.99269E-003	0.00000E+000	4.34386E-003	3.59960E-001	-1.14588E+000	3.57640E+000	10	...........
	14	0.2	7.31488E-001	5.99711E-003	0.00000E+000	4.38682E-003	3.59960E-001	-1.13796E+000	3.57640E+000	10	...........
	15	0.213333	7.38092E-001	5.99528E-003	0.00000E+000	4.42507E-003	3.59960E-001	-1.14452E+000	3.57640E+000	10	...........
	16	0.226667	7.44685E-001	5.99361E-003	0.00000E+000	4.46335E-003	3.59960E-001	-1.14541E+000	3.57640E+000	10	...........
	17	0.24	7.51196E-001	5.99333E-003	0.00000E+000	4.50217E-003	3.59960E-001	-1.13779E+000	3.57640E+000	10	...........
	18	0.253333	7.57778E-001	5.99325E-003	0.00000E+000	4.54155E-003	3.59960E-001	-1.14418E+000	3.57640E+000	10	...........
	19	0.266667	7.64269E-001	5.99466E-003	0.00000E+000	4.58153E-003	3.59960E-001	-1.14521E+000	3.57650E+000	10	...........
	20	0.28	7.70781E-001	5.99262E-003	0.00000E+000	4.61900E-003	3.59960E-001	-1.13797E+000	3.57660E+000	10	...........
	21	0.293333	7.77290E-001	5.99623E-003	0.00000E+000	4.66081E-003	3.59960E-001	-1.14417E+000	3.57660E+000	10	...........
	22	0.306667	7.83774E-001	5.99271E-003	0.00000E+000	4.69693E-003	3.59960E-001	-1.14495E+000	3.57660E+000	10	...........
	23	0.32	7.90189E-001	5.98992E-003	0.00000E+000	4.73317E-003	3.59960E-001	-1.13757E+000	3.57660E+000	10	...........
	24	0.333333	7.96633E-001	5.99629E-003	0.00000E+000	4.77684E-003	3.59960E-001	-1.14420E+000	3.57660E+000	10	...........
	25	0.346667	8.03042E-001	5.99637E-003	0.00000E+000	4.81534E-003	3.59960E-001	-1.14493E+000	3.57660E+000	10	...........
	26	0.36	8.09401E-001	5.99226E-003	0.00000E+000	4.85014E-003	3.59960E-001	-1.13757E+000	3.57660E+000	10	...........
	27	0.373333	8.15763E-001	5.99263E-003	0.00000E+000	4.88857E-003	3.59960E-001	-1.14414E+000	3.57660E+000	10	...........
	28	0.386667	8.22168E-001	5.99704E-003	0.00000E+000	4.93057E-003	3.59960E-001	-1.14479E+000	3.57660E+000	10	...........
	29	0.4	8.28489E-001	5.99191E-003	0.00000E+000	4.96424E-003	3.59960E-001	-1.13723E+000	3.57660E+000	10	...........
	30	0.413333	8.34839E-001	5.99459E-003	0.00000E+000	5.00452E-003	3.59960E-001	-1.14412E+000	3.57660E+000	10	...........
	31	0.426667	8.41130E-001	5.99327E-003	0.00000E+000	5.04112E-003	3.59960E-001	-1.14472E+000	3.57660E+000	10	...........
	32	0.44	8.47496E-001	5.99343E-003	0.00000E+000	5.07941E-003	3.59960E-001	-1.13720E+000	3.57660E+000	10	...........
	33	0.453333	8.53766E-001	5.99184E-003	0.00000E+000	5.11563E-003	3.59960E-001	-1.14389E+000	3.57660E+000	10	...........
	34	0.466667	8.60012E-001	5.99148E-003	0.00000E+000	5.15274E-003	3.59960E-001	-1.14405E+000	3.57660E+000	10	...........
	35	0.48	8.66267E-001	5.99549E-003	0.00000E+000	5.19370E-003	3.59960E-001	-1.13672E+000	3.57660E+000	10	...........
	36	0.493333	8.72541E-001	5.99212E-003	0.00000E+000	5.22837E-003	3.59960E-001	-1.14373E+000	3.57660E+000	10	...........
	37	0.506667	8.78728E-001	5.99536E-003	0.00000E+000	5.26829E-003	3.59960E-001	-1.14391E+000	3.57660E+000	10	...........
	38	0.52	8.84938E-001	5.99808E-003	0.00000E+000	5.30793E-003	3.59960E-001	-1.13656E+000	3.57660E+000	10	...........
	39	0.533333	8.91070E-001	5.99375E-003	0.00000E+000	5.34085E-003	3.59960E-001	-1.14372E+000	3.57660E+000	10	...........
	40	0.546667	8.97220E-001	5.99771E-003	0.00000E+000	5.38127E-003	3.59960E-001	-1.14392E+000	3.57660E+000	10	...........
	41	0.56	9.03323E-001	5.99312E-003	0.00000E+000	5.41373E-003	3.59960E-001	-1.13675E+000	3.57660E+000	10	...........
	42	0.573333	9.09383E-001	5.98926E-003	0.00000E+000	5.44654E-003	3.59960E-001	-1.14379E+000	3.57660E+000	10	...........
	43	0.586667	9.15426E-001	5.99776E-003	0.00000E+000	5.49050E-003	3.59960E-001	-1.14380E+000	3.57660E+000	10	...........
	44	0.6	9.21522E-001	5.99621E-003	0.00000E+000	5.52564E-003	3.59960E-001	-1.13674E+000	3.57660E+000	10	...........
	45	0.613333	9.27496E-001	5.99458E-003	0.00000E+000	5.55995E-003	3.59960E-001	-1.14401E+000	3.57660E+000	10	...........
	46	0.626667	9.33442E-001	5.99502E-003	0.00000E+000	5.59600E-003	3.59960E-001	-1.14370E+000	3.57660E+000	10	...........
	47	0.64	9.39348E-001	5.99636E-003	0.00000E+000	5.63267E-003	3.59960E-001	-1.13667E+000	3.57660E+000	10	...........
	48	0.653333	9.45224E-001	5.99254E-003	0.00000E+000	5.66429E-003	3.59960E-001	-1.14393E+000	3.57660E+000	10	...........
	49	0.666667	9.51068E-001	5.99467E-003	0.00000E+000	5.70134E-003	3.59960E-001	-1.14359E+000	3.57660E+000	10	...........
	50	0.68	9.56884E-001	5.99234E-003	0.00000E+000	5.73398E-003	3.59960E-001	-1.13699E+000	3.57660E+000	10	...........
	51	0.693333	9.62600E-001	5.99252E-003	0.00000E+000	5.76840E-003	3.59960E-001	-1.14428E+000	3.57660E+000	10	...........
	52	0.706667	9.68288E-001	5.99552E-003	0.00000E+000	5.80540E-003	3.59960E-001	-1.14379E+000	3.57660E+000	10	...........
	53	0.72	9.74004E-001	5.99757E-003	0.00000E+000	5.84166E-003	3.59960E-001	-1.13704E+000	3.57660E+000	10	...........
	54	0.733333	9.79620E-001	5.99331E-003	0.00000E+000	5.87117E-003	3.59960E-001	-1.14450E+000	3.57660E+000	10	...........
	55	0.746667	9.85245E-001	6.00028E-003	0.00000E+000	5.91174E-003	3.59960E-001	-1.14384E+000	3.57660E+000	10	...........
	56	0.76	9.90757E-001	5.99317E-003	0.00000E+000	5.93777E-003	3.59960E-001	-1.13719E+000	3.57660E+000	10	...........
	57	0.773333	9.96258E-001	5.99598E-003	0.00000E+000	5.97354E-003	3.59960E-001	-1.14413E+000	3.57660E+000	10	...........
	58	0.778333	1.00000E+000	5.99056E-003	0.00000E+000	5.99059E-003	3.59960E-001	-1.13186E+000	3.57660E+000	10	...........
STARTTIMEOFFSET	QUANT	835.8836	Start Time Offset (s)