File: Data/CV_CRGO300517_1/PWRCCD_CRGO300517_1/CHARGE_DISCHARGE/CHARGE_#450.DTA
EXPLAIN
TAG	PWR800_CHARGE
TITLE	LABEL	PWR Cyclic Charge Discharge (Cell) - Charge Step	Test &Identifier
DATE	LABEL	22-6-2017	Date
TIME	LABEL	15:53:57	Time
NOTES	NOTES	3	&Notes...
	supercap test cell
	0.6mg
	6M KOH
PSTAT	PSTAT	IFC5000-01520	Potentiostat
CAPACITY	QUANT	1.00000E-003	Capacity (A-hr)
CELLTYPE	SELECTOR	1	&Cell Type
WORKINGCONNECTION	SELECTOR	0	&Working Lead
MAXCHARGETIME	VARIABLEANDUNITS	1.00000E+002	s	1.00000E+002	second(s)	Max &Charge Time
CHARGECURRENT	QUANT	6.00000E-003	&Charge Current (A)
VOLTAGEFINISH	TWOPARAM	F	1.00000E-003	3.60000E+003	&Voltage Finish	 I (A) < 	Max Time(s)
SAMPLETIME	QUANT	1.00000E-002	Sa&mple Period (s)
CHARGESTOPAT1	MULTIPARAM	4	1.00000E+000	Charge Stop At &1	Voltage > Limit	V
CHARGESTOPAT2	MULTIPARAM	0	0.00000E+000	Charge Stop At &2	None	N/A
AESBHCSELECTOR	TOGGLE	F	Save Both Half Cells
IRCOMP	TOGGLE	F	IR &Measure
EOC	QUANT	0	Open Circuit (V)
SEQUENCER	TOGGLE	TRUE	Run as Sequence
PSTATMODEL	IQUANT	53	Pstat Model
PSTATSECTION	LABEL	IFC5000-01520	Pstat Section
PSTATSERIALNO	LABEL	01520	Pstat Serial Number
CTRLMODE	IQUANT	0	Control Mode
ELECTROMETER	IQUANT	1	RE=0 or CS=1
IESTAB	IQUANT	0	I/E Stability
CASPEED	IQUANT	4	Control Amp Speed
CONVENTION	IQUANT	1	Current Convention
ICHRANGE	IQUANT	2	Ich Range
ICHRANGEMODE	TOGGLE	T	Ich Auto Range
ICHOFFSETENABLE	TOGGLE	F	Ich Offset Enable
ICHOFFSET	QUANT	0	Ich Offset (V)
ICHFILTER	IQUANT	1	Ich Filter
VCHRANGE	IQUANT	2	Vch Range
VCHRANGEMODE	TOGGLE	T	Vch Auto Range
VCHOFFSETENABLE	TOGGLE	F	Vch Offset Enable
VCHOFFSET	QUANT	0	Vch Offset (V)
VCHFILTER	IQUANT	1	Vch Filter
IERANGELOWERLIMIT	IQUANT	9	I/E Range Lower Limit
IERANGEMODE	TOGGLE	F	I/E AutoRange
IERANGE	IQUANT	10	I/E Range
ACHSELECT	IQUANT	1	Ach Select
ACHRANGE	IQUANT	2	Ach Range
ACHOFFSETENABLE	TOGGLE	F	Ach Offset Enable
ACHOFFSET	QUANT	0	Ach Offset (V)
ACHFILTER	IQUANT	1	Ach Filter
CABLEID	IQUANT	14	Cable ID
DCCALDATE	LABEL	20-10-2016	DC Calibration Date
ACCALDATE	LABEL	12/3/2015	AC Calibration Date
FRAMEWORKVERSION	QUANT	7.01	Framework Version
INSTRUMENTVERSION	LABEL	4.00	Instrument Version
CURVE	TABLE	59
	Pt	T	Vf	Im	Vu	Pwr	Sig	Ach	Temp	IERange	Over
	#	s	V	A	V	W	V	V	deg C	#	bits
	0	0.013333	6.28114E-001	5.99564E-003	0.00000E+000	3.76594E-003	3.59960E-001	-1.13897E+000	3.57650E+000	10	...........
	1	0.026667	6.36918E-001	5.99891E-003	0.00000E+000	3.82082E-003	3.59960E-001	-1.14149E+000	3.57650E+000	10	...........
	2	0.04	6.45072E-001	5.99429E-003	0.00000E+000	3.86675E-003	3.59960E-001	-1.13303E+000	3.57650E+000	10	...........
	3	0.053333	6.52694E-001	5.99592E-003	0.00000E+000	3.91350E-003	3.59960E-001	-1.13871E+000	3.57650E+000	10	...........
	4	0.066667	6.60113E-001	5.99269E-003	0.00000E+000	3.95585E-003	3.59960E-001	-1.14134E+000	3.57650E+000	10	...........
	5	0.08	6.67365E-001	5.99553E-003	0.00000E+000	4.00121E-003	3.59960E-001	-1.13322E+000	3.57650E+000	10	...........
	6	0.093333	6.74466E-001	5.99004E-003	0.00000E+000	4.04008E-003	3.59960E-001	-1.13875E+000	3.57650E+000	10	...........
	7	0.106667	6.81396E-001	5.99640E-003	0.00000E+000	4.08592E-003	3.59960E-001	-1.14106E+000	3.57650E+000	10	...........
	8	0.12	6.88235E-001	5.99595E-003	0.00000E+000	4.12662E-003	3.59960E-001	-1.13292E+000	3.57650E+000	10	...........
	9	0.133333	6.95037E-001	5.99787E-003	0.00000E+000	4.16874E-003	3.59960E-001	-1.13880E+000	3.57650E+000	10	...........
	10	0.146667	7.01771E-001	5.99292E-003	0.00000E+000	4.20566E-003	3.59960E-001	-1.14094E+000	3.57668E+000	10	...........
	11	0.16	7.08427E-001	5.99394E-003	0.00000E+000	4.24627E-003	3.59960E-001	-1.13264E+000	3.57670E+000	10	...........
	12	0.173333	7.15092E-001	5.99564E-003	0.00000E+000	4.28744E-003	3.59960E-001	-1.13860E+000	3.57670E+000	10	...........
	13	0.186667	7.21737E-001	5.99506E-003	0.00000E+000	4.32686E-003	3.59960E-001	-1.14103E+000	3.57670E+000	10	...........
	14	0.2	7.28326E-001	5.99385E-003	0.00000E+000	4.36548E-003	3.59960E-001	-1.13298E+000	3.57670E+000	10	...........
	15	0.213333	7.34862E-001	5.99513E-003	0.00000E+000	4.40559E-003	3.59960E-001	-1.13877E+000	3.57670E+000	10	...........
	16	0.226667	7.41435E-001	5.99500E-003	0.00000E+000	4.44490E-003	3.59960E-001	-1.14062E+000	3.57670E+000	10	...........
	17	0.24	7.47966E-001	5.99710E-003	0.00000E+000	4.48562E-003	3.59960E-001	-1.13260E+000	3.57670E+000	10	...........
	18	0.253333	7.54432E-001	5.99155E-003	0.00000E+000	4.52022E-003	3.59960E-001	-1.13880E+000	3.57670E+000	10	...........
	19	0.266667	7.60887E-001	5.99178E-003	0.00000E+000	4.55907E-003	3.59960E-001	-1.14092E+000	3.57670E+000	10	...........
	20	0.28	7.67367E-001	5.99579E-003	0.00000E+000	4.60097E-003	3.59960E-001	-1.13254E+000	3.57670E+000	10	...........
	21	0.293333	7.73812E-001	5.99078E-003	0.00000E+000	4.63573E-003	3.59960E-001	-1.13823E+000	3.57670E+000	10	...........
	22	0.306667	7.80250E-001	5.99692E-003	0.00000E+000	4.67910E-003	3.59960E-001	-1.14015E+000	3.57670E+000	10	...........
	23	0.32	7.86670E-001	5.99341E-003	0.00000E+000	4.71483E-003	3.59960E-001	-1.13207E+000	3.57670E+000	10	...........
	24	0.333333	7.93124E-001	5.99297E-003	0.00000E+000	4.75316E-003	3.59960E-001	-1.13832E+000	3.57670E+000	10	...........
	25	0.346667	7.99535E-001	5.99538E-003	0.00000E+000	4.79351E-003	3.59960E-001	-1.14019E+000	3.57670E+000	10	...........
	26	0.36	8.05893E-001	5.99414E-003	0.00000E+000	4.83063E-003	3.59960E-001	-1.13198E+000	3.57670E+000	10	...........
	27	0.373333	8.12257E-001	5.99342E-003	0.00000E+000	4.86819E-003	3.59960E-001	-1.13820E+000	3.57670E+000	10	...........
	28	0.386667	8.18646E-001	5.99512E-003	0.00000E+000	4.90788E-003	3.59960E-001	-1.14009E+000	3.57670E+000	10	...........
	29	0.4	8.24942E-001	5.99159E-003	0.00000E+000	4.94271E-003	3.59960E-001	-1.13217E+000	3.57670E+000	10	...........
	30	0.413333	8.31263E-001	5.99869E-003	0.00000E+000	4.98649E-003	3.59960E-001	-1.13846E+000	3.57670E+000	10	...........
	31	0.426667	8.37560E-001	6.00150E-003	0.00000E+000	5.02662E-003	3.59960E-001	-1.13977E+000	3.57670E+000	10	...........
	32	0.44	8.43804E-001	5.99857E-003	0.00000E+000	5.06161E-003	3.59960E-001	-1.13200E+000	3.57670E+000	10	...........
	33	0.453333	8.50074E-001	5.99487E-003	0.00000E+000	5.09608E-003	3.59960E-001	-1.13841E+000	3.57670E+000	10	...........
	34	0.466667	8.56372E-001	5.99123E-003	0.00000E+000	5.13072E-003	3.59960E-001	-1.13995E+000	3.57670E+000	10	...........
	35	0.48	8.62583E-001	5.99438E-003	0.00000E+000	5.17065E-003	3.59960E-001	-1.13193E+000	3.57670E+000	10	...........
	36	0.493333	8.68823E-001	5.99348E-003	0.00000E+000	5.20727E-003	3.59960E-001	-1.13841E+000	3.57670E+000	10	...........
	37	0.506667	8.75025E-001	5.99202E-003	0.00000E+000	5.24317E-003	3.59960E-001	-1.13977E+000	3.57670E+000	10	...........
	38	0.52	8.81213E-001	5.99408E-003	0.00000E+000	5.28206E-003	3.59960E-001	-1.13202E+000	3.57670E+000	10	...........
	39	0.533333	8.87377E-001	5.99670E-003	0.00000E+000	5.32134E-003	3.59960E-001	-1.13852E+000	3.57670E+000	10	...........
	40	0.546667	8.93485E-001	5.99874E-003	0.00000E+000	5.35978E-003	3.59960E-001	-1.14003E+000	3.57670E+000	10	...........
	41	0.56	8.99584E-001	5.99956E-003	0.00000E+000	5.39711E-003	3.59960E-001	-1.13202E+000	3.57670E+000	10	...........
	42	0.573333	9.05658E-001	5.99308E-003	0.00000E+000	5.42768E-003	3.59960E-001	-1.13843E+000	3.57670E+000	10	...........
	43	0.586667	9.11690E-001	5.99384E-003	0.00000E+000	5.46453E-003	3.59960E-001	-1.13992E+000	3.57670E+000	10	...........
	44	0.6	9.17686E-001	5.99785E-003	0.00000E+000	5.50414E-003	3.59960E-001	-1.13199E+000	3.57670E+000	10	...........
	45	0.613333	9.23712E-001	5.99316E-003	0.00000E+000	5.53595E-003	3.59960E-001	-1.13816E+000	3.57670E+000	10	...........
	46	0.626667	9.29668E-001	5.99489E-003	0.00000E+000	5.57325E-003	3.59960E-001	-1.13920E+000	3.57670E+000	10	...........
	47	0.64	9.35591E-001	5.99418E-003	0.00000E+000	5.60810E-003	3.59960E-001	-1.13153E+000	3.57670E+000	10	...........
	48	0.653333	9.41465E-001	5.99196E-003	0.00000E+000	5.64122E-003	3.59960E-001	-1.13809E+000	3.57670E+000	10	...........
	49	0.666667	9.47313E-001	5.99724E-003	0.00000E+000	5.68127E-003	3.59960E-001	-1.13957E+000	3.57670E+000	10	...........
	50	0.68	9.53078E-001	5.98891E-003	0.00000E+000	5.70790E-003	3.59960E-001	-1.13158E+000	3.57670E+000	10	...........
	51	0.693333	9.58870E-001	5.99255E-003	0.00000E+000	5.74608E-003	3.59960E-001	-1.13825E+000	3.57670E+000	10	...........
	52	0.706667	9.64587E-001	5.99513E-003	0.00000E+000	5.78282E-003	3.59960E-001	-1.13919E+000	3.57670E+000	10	...........
	53	0.72	9.70262E-001	5.99263E-003	0.00000E+000	5.81442E-003	3.59960E-001	-1.13142E+000	3.57670E+000	10	...........
	54	0.733333	9.75976E-001	5.99229E-003	0.00000E+000	5.84833E-003	3.59960E-001	-1.13840E+000	3.57670E+000	10	...........
	55	0.746667	9.81537E-001	5.99038E-003	0.00000E+000	5.87978E-003	3.59960E-001	-1.13914E+000	3.57670E+000	10	...........
	56	0.76	9.87104E-001	5.99616E-003	0.00000E+000	5.91883E-003	3.59960E-001	-1.13150E+000	3.57670E+000	10	...........
	57	0.773333	9.92616E-001	5.99419E-003	0.00000E+000	5.94993E-003	3.59960E-001	-1.13820E+000	3.57670E+000	10	...........
	58	0.786667	9.98070E-001	5.99006E-003	0.00000E+000	5.97849E-003	3.59960E-001	-1.13913E+000	3.57670E+000	10	...........
STARTTIMEOFFSET	QUANT	781.4485	Start Time Offset (s)