File: Data/CV_CRGO300517_1/PWRCCD_CRGO300517_1/CHARGE_DISCHARGE/CHARGE_#598.DTA
EXPLAIN
TAG	PWR800_CHARGE
TITLE	LABEL	PWR Cyclic Charge Discharge (Cell) - Charge Step	Test &Identifier
DATE	LABEL	22-6-2017	Date
TIME	LABEL	15:59:41	Time
NOTES	NOTES	3	&Notes...
	supercap test cell
	0.6mg
	6M KOH
PSTAT	PSTAT	IFC5000-01520	Potentiostat
CAPACITY	QUANT	1.00000E-003	Capacity (A-hr)
CELLTYPE	SELECTOR	1	&Cell Type
WORKINGCONNECTION	SELECTOR	0	&Working Lead
MAXCHARGETIME	VARIABLEANDUNITS	1.00000E+002	s	1.00000E+002	second(s)	Max &Charge Time
CHARGECURRENT	QUANT	6.00000E-003	&Charge Current (A)
VOLTAGEFINISH	TWOPARAM	F	1.00000E-003	3.60000E+003	&Voltage Finish	 I (A) < 	Max Time(s)
SAMPLETIME	QUANT	1.00000E-002	Sa&mple Period (s)
CHARGESTOPAT1	MULTIPARAM	4	1.00000E+000	Charge Stop At &1	Voltage > Limit	V
CHARGESTOPAT2	MULTIPARAM	0	0.00000E+000	Charge Stop At &2	None	N/A
AESBHCSELECTOR	TOGGLE	F	Save Both Half Cells
IRCOMP	TOGGLE	F	IR &Measure
EOC	QUANT	0	Open Circuit (V)
SEQUENCER	TOGGLE	TRUE	Run as Sequence
PSTATMODEL	IQUANT	53	Pstat Model
PSTATSECTION	LABEL	IFC5000-01520	Pstat Section
PSTATSERIALNO	LABEL	01520	Pstat Serial Number
CTRLMODE	IQUANT	0	Control Mode
ELECTROMETER	IQUANT	1	RE=0 or CS=1
IESTAB	IQUANT	0	I/E Stability
CASPEED	IQUANT	4	Control Amp Speed
CONVENTION	IQUANT	1	Current Convention
ICHRANGE	IQUANT	2	Ich Range
ICHRANGEMODE	TOGGLE	T	Ich Auto Range
ICHOFFSETENABLE	TOGGLE	F	Ich Offset Enable
ICHOFFSET	QUANT	0	Ich Offset (V)
ICHFILTER	IQUANT	1	Ich Filter
VCHRANGE	IQUANT	2	Vch Range
VCHRANGEMODE	TOGGLE	T	Vch Auto Range
VCHOFFSETENABLE	TOGGLE	F	Vch Offset Enable
VCHOFFSET	QUANT	0	Vch Offset (V)
VCHFILTER	IQUANT	1	Vch Filter
IERANGELOWERLIMIT	IQUANT	9	I/E Range Lower Limit
IERANGEMODE	TOGGLE	F	I/E AutoRange
IERANGE	IQUANT	10	I/E Range
ACHSELECT	IQUANT	1	Ach Select
ACHRANGE	IQUANT	2	Ach Range
ACHOFFSETENABLE	TOGGLE	F	Ach Offset Enable
ACHOFFSET	QUANT	0	Ach Offset (V)
ACHFILTER	IQUANT	1	Ach Filter
CABLEID	IQUANT	14	Cable ID
DCCALDATE	LABEL	20-10-2016	DC Calibration Date
ACCALDATE	LABEL	12/3/2015	AC Calibration Date
FRAMEWORKVERSION	QUANT	7.01	Framework Version
INSTRUMENTVERSION	LABEL	4.00	Instrument Version
CURVE	TABLE	57
	Pt	T	Vf	Im	Vu	Pwr	Sig	Ach	Temp	IERange	Over
	#	s	V	A	V	W	V	V	deg C	#	bits
	0	0.013333	6.38168E-001	5.99307E-003	0.00000E+000	3.82458E-003	3.59960E-001	-1.15352E+000	3.57880E+000	10	...........
	1	0.026667	6.47144E-001	5.99230E-003	0.00000E+000	3.87788E-003	3.59960E-001	-1.15217E+000	3.57880E+000	10	...........
	2	0.04	6.55415E-001	5.99770E-003	0.00000E+000	3.93099E-003	3.59960E-001	-1.14534E+000	3.57880E+000	10	...........
	3	0.053333	6.63253E-001	5.99321E-003	0.00000E+000	3.97501E-003	3.59960E-001	-1.15348E+000	3.57880E+000	10	...........
	4	0.066667	6.70870E-001	5.99331E-003	0.00000E+000	4.02073E-003	3.59960E-001	-1.15213E+000	3.57880E+000	10	...........
	5	0.08	6.78206E-001	5.99520E-003	0.00000E+000	4.06598E-003	3.59960E-001	-1.14545E+000	3.57880E+000	10	...........
	6	0.093333	6.85400E-001	5.99458E-003	0.00000E+000	4.10869E-003	3.59960E-001	-1.15330E+000	3.57880E+000	10	...........
	7	0.106667	6.92530E-001	5.99571E-003	0.00000E+000	4.15221E-003	3.59960E-001	-1.15194E+000	3.57880E+000	10	...........
	8	0.12	6.99579E-001	5.99380E-003	0.00000E+000	4.19314E-003	3.59960E-001	-1.14538E+000	3.57880E+000	10	...........
	9	0.133333	7.06500E-001	5.99142E-003	0.00000E+000	4.23294E-003	3.59960E-001	-1.15342E+000	3.57880E+000	10	...........
	10	0.146667	7.13367E-001	5.99439E-003	0.00000E+000	4.27620E-003	3.59960E-001	-1.15197E+000	3.57880E+000	10	...........
	11	0.16	7.20259E-001	5.99186E-003	0.00000E+000	4.31569E-003	3.59960E-001	-1.14533E+000	3.57880E+000	10	...........
	12	0.173333	7.27032E-001	5.99657E-003	0.00000E+000	4.35969E-003	3.59960E-001	-1.15314E+000	3.57880E+000	10	...........
	13	0.186667	7.33742E-001	5.99492E-003	0.00000E+000	4.39872E-003	3.59960E-001	-1.15196E+000	3.57880E+000	10	...........
	14	0.2	7.40468E-001	5.99197E-003	0.00000E+000	4.43686E-003	3.59960E-001	-1.14543E+000	3.57880E+000	10	...........
	15	0.213333	7.47188E-001	5.99316E-003	0.00000E+000	4.47801E-003	3.59960E-001	-1.15322E+000	3.57880E+000	10	...........
	16	0.226667	7.53879E-001	5.99113E-003	0.00000E+000	4.51659E-003	3.59960E-001	-1.15201E+000	3.57880E+000	10	...........
	17	0.24	7.60498E-001	5.99175E-003	0.00000E+000	4.55671E-003	3.59960E-001	-1.14541E+000	3.57880E+000	10	...........
	18	0.253333	7.67164E-001	5.99240E-003	0.00000E+000	4.59716E-003	3.59960E-001	-1.15317E+000	3.57880E+000	10	...........
	19	0.266667	7.73767E-001	5.99451E-003	0.00000E+000	4.63835E-003	3.59960E-001	-1.15206E+000	3.57880E+000	10	...........
	20	0.28	7.80374E-001	5.99355E-003	0.00000E+000	4.67721E-003	3.59960E-001	-1.14536E+000	3.57880E+000	10	...........
	21	0.293333	7.86915E-001	5.99248E-003	0.00000E+000	4.71557E-003	3.59960E-001	-1.15316E+000	3.57880E+000	10	...........
	22	0.306667	7.93428E-001	5.99752E-003	0.00000E+000	4.75859E-003	3.59960E-001	-1.15179E+000	3.57880E+000	10	...........
	23	0.32	7.99911E-001	5.99365E-003	0.00000E+000	4.79438E-003	3.59960E-001	-1.14517E+000	3.57880E+000	10	...........
	24	0.333333	8.06420E-001	5.99324E-003	0.00000E+000	4.83307E-003	3.59960E-001	-1.15270E+000	3.57880E+000	10	...........
	25	0.346667	8.12909E-001	5.99739E-003	0.00000E+000	4.87533E-003	3.59960E-001	-1.15155E+000	3.57880E+000	10	...........
	26	0.36	8.19395E-001	5.99700E-003	0.00000E+000	4.91391E-003	3.59960E-001	-1.14498E+000	3.57880E+000	10	...........
	27	0.373333	8.25820E-001	5.99250E-003	0.00000E+000	4.94872E-003	3.59960E-001	-1.15256E+000	3.57880E+000	10	...........
	28	0.386667	8.32254E-001	5.99191E-003	0.00000E+000	4.98680E-003	3.59960E-001	-1.15145E+000	3.57880E+000	10	...........
	29	0.4	8.38673E-001	5.99374E-003	0.00000E+000	5.02679E-003	3.59960E-001	-1.14497E+000	3.57880E+000	10	...........
	30	0.413333	8.45117E-001	5.99700E-003	0.00000E+000	5.06817E-003	3.59960E-001	-1.15281E+000	3.57880E+000	10	...........
	31	0.426667	8.51502E-001	5.99679E-003	0.00000E+000	5.10627E-003	3.59960E-001	-1.15137E+000	3.57880E+000	10	...........
	32	0.44	8.57843E-001	5.99518E-003	0.00000E+000	5.14292E-003	3.59960E-001	-1.14465E+000	3.57880E+000	10	...........
	33	0.453333	8.64184E-001	5.99244E-003	0.00000E+000	5.17857E-003	3.59960E-001	-1.15271E+000	3.57880E+000	10	...........
	34	0.466667	8.70520E-001	5.99206E-003	0.00000E+000	5.21621E-003	3.59960E-001	-1.15130E+000	3.57880E+000	10	...........
	35	0.48	8.76775E-001	5.99127E-003	0.00000E+000	5.25299E-003	3.59960E-001	-1.14474E+000	3.57880E+000	10	...........
	36	0.493333	8.82993E-001	5.99537E-003	0.00000E+000	5.29387E-003	3.59960E-001	-1.15261E+000	3.57880E+000	10	...........
	37	0.506667	8.89234E-001	5.99569E-003	0.00000E+000	5.33157E-003	3.59960E-001	-1.15126E+000	3.57850E+000	10	...........
	38	0.52	8.95412E-001	5.99138E-003	0.00000E+000	5.36475E-003	3.59960E-001	-1.14474E+000	3.57760E+000	10	...........
	39	0.533333	9.01588E-001	5.99507E-003	0.00000E+000	5.40508E-003	3.59960E-001	-1.15274E+000	3.57760E+000	10	...........
	40	0.546667	9.07771E-001	5.98919E-003	0.00000E+000	5.43682E-003	3.59960E-001	-1.15156E+000	3.57760E+000	10	...........
	41	0.56	9.13907E-001	5.99148E-003	0.00000E+000	5.47565E-003	3.59960E-001	-1.14477E+000	3.57760E+000	10	...........
	42	0.573333	9.20026E-001	5.99237E-003	0.00000E+000	5.51314E-003	3.59960E-001	-1.15278E+000	3.57760E+000	10	...........
	43	0.586667	9.26103E-001	5.99419E-003	0.00000E+000	5.55123E-003	3.59960E-001	-1.15138E+000	3.57760E+000	10	...........
	44	0.6	9.32071E-001	5.99138E-003	0.00000E+000	5.58440E-003	3.59960E-001	-1.14488E+000	3.57760E+000	10	...........
	45	0.613333	9.38054E-001	5.99248E-003	0.00000E+000	5.62127E-003	3.59960E-001	-1.15253E+000	3.57760E+000	10	...........
	46	0.626667	9.43963E-001	5.99414E-003	0.00000E+000	5.65824E-003	3.59960E-001	-1.15129E+000	3.57760E+000	10	...........
	47	0.64	9.49868E-001	5.98932E-003	0.00000E+000	5.68906E-003	3.59960E-001	-1.14475E+000	3.57760E+000	10	...........
	48	0.653333	9.55719E-001	5.99398E-003	0.00000E+000	5.72856E-003	3.59960E-001	-1.15233E+000	3.57760E+000	10	...........
	49	0.666667	9.61498E-001	5.99427E-003	0.00000E+000	5.76348E-003	3.59960E-001	-1.15105E+000	3.57760E+000	10	...........
	50	0.68	9.67231E-001	5.99616E-003	0.00000E+000	5.79967E-003	3.59960E-001	-1.14458E+000	3.57760E+000	10	...........
	51	0.693333	9.72948E-001	5.99422E-003	0.00000E+000	5.83206E-003	3.59960E-001	-1.15249E+000	3.57760E+000	10	...........
	52	0.706667	9.78587E-001	5.99548E-003	0.00000E+000	5.86710E-003	3.59960E-001	-1.15108E+000	3.57760E+000	10	...........
	53	0.72	9.84194E-001	5.99439E-003	0.00000E+000	5.89964E-003	3.59960E-001	-1.14448E+000	3.57760E+000	10	...........
	54	0.733333	9.89764E-001	5.99504E-003	0.00000E+000	5.93368E-003	3.59960E-001	-1.15238E+000	3.57760E+000	10	...........
	55	0.746667	9.95287E-001	5.99643E-003	0.00000E+000	5.96817E-003	3.59960E-001	-1.15106E+000	3.57760E+000	10	...........
	56	0.753333	9.99376E-001	6.00147E-003	0.00000E+000	5.99773E-003	3.59960E-001	-1.14596E+000	3.57760E+000	10	...........
STARTTIMEOFFSET	QUANT	1007.939	Start Time Offset (s)