File: Data/CV_CRGO300517_1/PWRCCD_CRGO300517_1/CHARGE_DISCHARGE/CHARGE_#622.DTA
EXPLAIN
TAG	PWR800_CHARGE
TITLE	LABEL	PWR Cyclic Charge Discharge (Cell) - Charge Step	Test &Identifier
DATE	LABEL	22-6-2017	Date
TIME	LABEL	16:00:36	Time
NOTES	NOTES	3	&Notes...
	supercap test cell
	0.6mg
	6M KOH
PSTAT	PSTAT	IFC5000-01520	Potentiostat
CAPACITY	QUANT	1.00000E-003	Capacity (A-hr)
CELLTYPE	SELECTOR	1	&Cell Type
WORKINGCONNECTION	SELECTOR	0	&Working Lead
MAXCHARGETIME	VARIABLEANDUNITS	1.00000E+002	s	1.00000E+002	second(s)	Max &Charge Time
CHARGECURRENT	QUANT	6.00000E-003	&Charge Current (A)
VOLTAGEFINISH	TWOPARAM	F	1.00000E-003	3.60000E+003	&Voltage Finish	 I (A) < 	Max Time(s)
SAMPLETIME	QUANT	1.00000E-002	Sa&mple Period (s)
CHARGESTOPAT1	MULTIPARAM	4	1.00000E+000	Charge Stop At &1	Voltage > Limit	V
CHARGESTOPAT2	MULTIPARAM	0	0.00000E+000	Charge Stop At &2	None	N/A
AESBHCSELECTOR	TOGGLE	F	Save Both Half Cells
IRCOMP	TOGGLE	F	IR &Measure
EOC	QUANT	0	Open Circuit (V)
SEQUENCER	TOGGLE	TRUE	Run as Sequence
PSTATMODEL	IQUANT	53	Pstat Model
PSTATSECTION	LABEL	IFC5000-01520	Pstat Section
PSTATSERIALNO	LABEL	01520	Pstat Serial Number
CTRLMODE	IQUANT	0	Control Mode
ELECTROMETER	IQUANT	1	RE=0 or CS=1
IESTAB	IQUANT	0	I/E Stability
CASPEED	IQUANT	4	Control Amp Speed
CONVENTION	IQUANT	1	Current Convention
ICHRANGE	IQUANT	2	Ich Range
ICHRANGEMODE	TOGGLE	T	Ich Auto Range
ICHOFFSETENABLE	TOGGLE	F	Ich Offset Enable
ICHOFFSET	QUANT	0	Ich Offset (V)
ICHFILTER	IQUANT	1	Ich Filter
VCHRANGE	IQUANT	2	Vch Range
VCHRANGEMODE	TOGGLE	T	Vch Auto Range
VCHOFFSETENABLE	TOGGLE	F	Vch Offset Enable
VCHOFFSET	QUANT	0	Vch Offset (V)
VCHFILTER	IQUANT	1	Vch Filter
IERANGELOWERLIMIT	IQUANT	9	I/E Range Lower Limit
IERANGEMODE	TOGGLE	F	I/E AutoRange
IERANGE	IQUANT	10	I/E Range
ACHSELECT	IQUANT	1	Ach Select
ACHRANGE	IQUANT	2	Ach Range
ACHOFFSETENABLE	TOGGLE	F	Ach Offset Enable
ACHOFFSET	QUANT	0	Ach Offset (V)
ACHFILTER	IQUANT	1	Ach Filter
CABLEID	IQUANT	14	Cable ID
DCCALDATE	LABEL	20-10-2016	DC Calibration Date
ACCALDATE	LABEL	12/3/2015	AC Calibration Date
FRAMEWORKVERSION	QUANT	7.01	Framework Version
INSTRUMENTVERSION	LABEL	4.00	Instrument Version
CURVE	TABLE	57
	Pt	T	Vf	Im	Vu	Pwr	Sig	Ach	Temp	IERange	Over
	#	s	V	A	V	W	V	V	deg C	#	bits
	0	0.013333	6.39334E-001	5.99515E-003	0.00000E+000	3.83290E-003	3.59960E-001	-1.15824E+000	3.57780E+000	10	...........
	1	0.026667	6.48284E-001	5.98893E-003	0.00000E+000	3.88253E-003	3.59960E-001	-1.14759E+000	3.57780E+000	10	...........
	2	0.04	6.56575E-001	5.99617E-003	0.00000E+000	3.93693E-003	3.59960E-001	-1.14911E+000	3.57780E+000	10	...........
	3	0.053333	6.64444E-001	5.99733E-003	0.00000E+000	3.98489E-003	3.59960E-001	-1.15812E+000	3.57780E+000	10	...........
	4	0.066667	6.72022E-001	5.99309E-003	0.00000E+000	4.02749E-003	3.59960E-001	-1.14745E+000	3.57780E+000	10	...........
	5	0.08	6.79387E-001	5.99294E-003	0.00000E+000	4.07152E-003	3.59960E-001	-1.14876E+000	3.57780E+000	10	...........
	6	0.093333	6.86618E-001	5.99361E-003	0.00000E+000	4.11532E-003	3.59960E-001	-1.15818E+000	3.57780E+000	10	...........
	7	0.106667	6.93717E-001	5.99463E-003	0.00000E+000	4.15857E-003	3.59960E-001	-1.14755E+000	3.57780E+000	10	...........
	8	0.12	7.00753E-001	5.99324E-003	0.00000E+000	4.19978E-003	3.59960E-001	-1.14910E+000	3.57780E+000	10	...........
	9	0.133333	7.07742E-001	5.99350E-003	0.00000E+000	4.24185E-003	3.59960E-001	-1.15790E+000	3.57780E+000	10	...........
	10	0.146667	7.14552E-001	5.99009E-003	0.00000E+000	4.28023E-003	3.59960E-001	-1.14743E+000	3.57780E+000	10	...........
	11	0.16	7.21416E-001	5.99649E-003	0.00000E+000	4.32597E-003	3.59960E-001	-1.14892E+000	3.57780E+000	10	...........
	12	0.173333	7.28210E-001	5.99269E-003	0.00000E+000	4.36393E-003	3.59960E-001	-1.15780E+000	3.57780E+000	10	...........
	13	0.186667	7.34948E-001	5.99222E-003	0.00000E+000	4.40397E-003	3.59960E-001	-1.14680E+000	3.57780E+000	10	...........
	14	0.2	7.41683E-001	5.99400E-003	0.00000E+000	4.44565E-003	3.59960E-001	-1.14801E+000	3.57780E+000	10	...........
	15	0.213333	7.48393E-001	5.99174E-003	0.00000E+000	4.48418E-003	3.59960E-001	-1.15708E+000	3.57780E+000	10	...........
	16	0.226667	7.55018E-001	5.98877E-003	0.00000E+000	4.52163E-003	3.59960E-001	-1.14672E+000	3.57780E+000	10	...........
	17	0.24	7.61675E-001	5.99417E-003	0.00000E+000	4.56560E-003	3.59960E-001	-1.14789E+000	3.57780E+000	10	...........
	18	0.253333	7.68347E-001	5.99580E-003	0.00000E+000	4.60686E-003	3.59960E-001	-1.15665E+000	3.57780E+000	10	...........
	19	0.266667	7.74945E-001	5.99240E-003	0.00000E+000	4.64378E-003	3.59960E-001	-1.14598E+000	3.57780E+000	10	...........
	20	0.28	7.81598E-001	5.99850E-003	0.00000E+000	4.68841E-003	3.59960E-001	-1.14754E+000	3.57780E+000	10	...........
	21	0.293333	7.88122E-001	5.99548E-003	0.00000E+000	4.72517E-003	3.59960E-001	-1.15665E+000	3.57780E+000	10	...........
	22	0.306667	7.94681E-001	5.98927E-003	0.00000E+000	4.75956E-003	3.59960E-001	-1.14617E+000	3.57780E+000	10	...........
	23	0.32	8.01214E-001	5.99440E-003	0.00000E+000	4.80280E-003	3.59960E-001	-1.14750E+000	3.57780E+000	10	...........
	24	0.333333	8.07720E-001	5.99379E-003	0.00000E+000	4.84131E-003	3.59960E-001	-1.15632E+000	3.57780E+000	10	...........
	25	0.346667	8.14197E-001	5.98875E-003	0.00000E+000	4.87602E-003	3.59960E-001	-1.14617E+000	3.57780E+000	10	...........
	26	0.36	8.20690E-001	5.99231E-003	0.00000E+000	4.91783E-003	3.59960E-001	-1.14811E+000	3.57780E+000	10	...........
	27	0.373333	8.27161E-001	5.99160E-003	0.00000E+000	4.95602E-003	3.59960E-001	-1.15704E+000	3.57780E+000	10	...........
	28	0.386667	8.33591E-001	5.98862E-003	0.00000E+000	4.99206E-003	3.59960E-001	-1.14622E+000	3.57780E+000	10	...........
	29	0.4	8.39982E-001	5.99521E-003	0.00000E+000	5.03587E-003	3.59960E-001	-1.14808E+000	3.57780E+000	10	...........
	30	0.413333	8.46370E-001	5.99206E-003	0.00000E+000	5.07150E-003	3.59960E-001	-1.15687E+000	3.57780E+000	10	...........
	31	0.426667	8.52798E-001	5.99599E-003	0.00000E+000	5.11337E-003	3.59960E-001	-1.14630E+000	3.57780E+000	10	...........
	32	0.44	8.59133E-001	5.98921E-003	0.00000E+000	5.14553E-003	3.59960E-001	-1.14826E+000	3.57780E+000	10	...........
	33	0.453333	8.65437E-001	5.99847E-003	0.00000E+000	5.19130E-003	3.59960E-001	-1.15694E+000	3.57780E+000	10	...........
	34	0.466667	8.71815E-001	5.99287E-003	0.00000E+000	5.22468E-003	3.59960E-001	-1.14626E+000	3.57780E+000	10	...........
	35	0.48	8.78100E-001	5.99052E-003	0.00000E+000	5.26027E-003	3.59960E-001	-1.14795E+000	3.57780E+000	10	...........
	36	0.493333	8.84352E-001	5.99445E-003	0.00000E+000	5.30120E-003	3.59960E-001	-1.15679E+000	3.57780E+000	10	...........
	37	0.506667	8.90540E-001	5.99004E-003	0.00000E+000	5.33437E-003	3.59960E-001	-1.14622E+000	3.57780E+000	10	...........
	38	0.52	8.96783E-001	5.99299E-003	0.00000E+000	5.37441E-003	3.59960E-001	-1.14782E+000	3.57780E+000	10	...........
	39	0.533333	9.02929E-001	5.99462E-003	0.00000E+000	5.41271E-003	3.59960E-001	-1.15636E+000	3.57780E+000	10	...........
	40	0.546667	9.09078E-001	5.99293E-003	0.00000E+000	5.44804E-003	3.59960E-001	-1.14585E+000	3.57780E+000	10	...........
	41	0.56	9.15168E-001	5.99392E-003	0.00000E+000	5.48544E-003	3.59960E-001	-1.14754E+000	3.57780E+000	10	...........
	42	0.573333	9.21290E-001	5.99444E-003	0.00000E+000	5.52262E-003	3.59960E-001	-1.15625E+000	3.57780E+000	10	...........
	43	0.586667	9.27332E-001	5.99021E-003	0.00000E+000	5.55492E-003	3.59960E-001	-1.14573E+000	3.57780E+000	10	...........
	44	0.6	9.33354E-001	5.99438E-003	0.00000E+000	5.59488E-003	3.59960E-001	-1.14737E+000	3.57850E+000	10	...........
	45	0.613333	9.39287E-001	5.99817E-003	0.00000E+000	5.63400E-003	3.59960E-001	-1.15629E+000	3.57850E+000	10	...........
	46	0.626667	9.45238E-001	5.99718E-003	0.00000E+000	5.66876E-003	3.59960E-001	-1.14598E+000	3.57850E+000	10	...........
	47	0.64	9.51108E-001	5.99248E-003	0.00000E+000	5.69949E-003	3.59960E-001	-1.14773E+000	3.57850E+000	10	...........
	48	0.653333	9.56987E-001	5.99854E-003	0.00000E+000	5.74052E-003	3.59960E-001	-1.15617E+000	3.57850E+000	10	...........
	49	0.666667	9.62766E-001	5.99517E-003	0.00000E+000	5.77195E-003	3.59960E-001	-1.14558E+000	3.57850E+000	10	...........
	50	0.68	9.68447E-001	5.98774E-003	0.00000E+000	5.79881E-003	3.59960E-001	-1.14740E+000	3.57850E+000	10	...........
	51	0.693333	9.74184E-001	5.99595E-003	0.00000E+000	5.84116E-003	3.59960E-001	-1.15609E+000	3.57850E+000	10	...........
	52	0.706667	9.79830E-001	6.00021E-003	0.00000E+000	5.87918E-003	3.59960E-001	-1.14594E+000	3.57850E+000	10	...........
	53	0.72	9.85447E-001	5.99263E-003	0.00000E+000	5.90543E-003	3.59960E-001	-1.14759E+000	3.57850E+000	10	...........
	54	0.733333	9.91087E-001	5.99607E-003	0.00000E+000	5.94262E-003	3.59960E-001	-1.15579E+000	3.57850E+000	10	...........
	55	0.746667	9.96609E-001	5.99256E-003	0.00000E+000	5.97224E-003	3.59960E-001	-1.14546E+000	3.57850E+000	10	...........
	56	0.75	1.00003E+000	5.98299E-003	0.00000E+000	5.98319E-003	3.59960E-001	-1.15902E+000	3.57850E+000	10	...........
STARTTIMEOFFSET	QUANT	1043.84	Start Time Offset (s)