File: Data/CV_CRGO300517_1/PWRCCD_CRGO300517_1/CHARGE_DISCHARGE/CHARGE_#456.DTA
EXPLAIN
TAG	PWR800_CHARGE
TITLE	LABEL	PWR Cyclic Charge Discharge (Cell) - Charge Step	Test &Identifier
DATE	LABEL	22-6-2017	Date
TIME	LABEL	15:54:11	Time
NOTES	NOTES	3	&Notes...
	supercap test cell
	0.6mg
	6M KOH
PSTAT	PSTAT	IFC5000-01520	Potentiostat
CAPACITY	QUANT	1.00000E-003	Capacity (A-hr)
CELLTYPE	SELECTOR	1	&Cell Type
WORKINGCONNECTION	SELECTOR	0	&Working Lead
MAXCHARGETIME	VARIABLEANDUNITS	1.00000E+002	s	1.00000E+002	second(s)	Max &Charge Time
CHARGECURRENT	QUANT	6.00000E-003	&Charge Current (A)
VOLTAGEFINISH	TWOPARAM	F	1.00000E-003	3.60000E+003	&Voltage Finish	 I (A) < 	Max Time(s)
SAMPLETIME	QUANT	1.00000E-002	Sa&mple Period (s)
CHARGESTOPAT1	MULTIPARAM	4	1.00000E+000	Charge Stop At &1	Voltage > Limit	V
CHARGESTOPAT2	MULTIPARAM	0	0.00000E+000	Charge Stop At &2	None	N/A
AESBHCSELECTOR	TOGGLE	F	Save Both Half Cells
IRCOMP	TOGGLE	F	IR &Measure
EOC	QUANT	0	Open Circuit (V)
SEQUENCER	TOGGLE	TRUE	Run as Sequence
PSTATMODEL	IQUANT	53	Pstat Model
PSTATSECTION	LABEL	IFC5000-01520	Pstat Section
PSTATSERIALNO	LABEL	01520	Pstat Serial Number
CTRLMODE	IQUANT	0	Control Mode
ELECTROMETER	IQUANT	1	RE=0 or CS=1
IESTAB	IQUANT	0	I/E Stability
CASPEED	IQUANT	4	Control Amp Speed
CONVENTION	IQUANT	1	Current Convention
ICHRANGE	IQUANT	2	Ich Range
ICHRANGEMODE	TOGGLE	T	Ich Auto Range
ICHOFFSETENABLE	TOGGLE	F	Ich Offset Enable
ICHOFFSET	QUANT	0	Ich Offset (V)
ICHFILTER	IQUANT	1	Ich Filter
VCHRANGE	IQUANT	2	Vch Range
VCHRANGEMODE	TOGGLE	T	Vch Auto Range
VCHOFFSETENABLE	TOGGLE	F	Vch Offset Enable
VCHOFFSET	QUANT	0	Vch Offset (V)
VCHFILTER	IQUANT	1	Vch Filter
IERANGELOWERLIMIT	IQUANT	9	I/E Range Lower Limit
IERANGEMODE	TOGGLE	F	I/E AutoRange
IERANGE	IQUANT	10	I/E Range
ACHSELECT	IQUANT	1	Ach Select
ACHRANGE	IQUANT	2	Ach Range
ACHOFFSETENABLE	TOGGLE	F	Ach Offset Enable
ACHOFFSET	QUANT	0	Ach Offset (V)
ACHFILTER	IQUANT	1	Ach Filter
CABLEID	IQUANT	14	Cable ID
DCCALDATE	LABEL	20-10-2016	DC Calibration Date
ACCALDATE	LABEL	12/3/2015	AC Calibration Date
FRAMEWORKVERSION	QUANT	7.01	Framework Version
INSTRUMENTVERSION	LABEL	4.00	Instrument Version
CURVE	TABLE	59
	Pt	T	Vf	Im	Vu	Pwr	Sig	Ach	Temp	IERange	Over
	#	s	V	A	V	W	V	V	deg C	#	bits
	0	0.013333	6.37056E-001	5.99406E-003	0.00000E+000	3.81855E-003	3.59960E-001	-1.11684E+000	3.57670E+000	10	...........
	1	0.026667	6.45670E-001	5.99370E-003	0.00000E+000	3.86995E-003	3.59960E-001	-1.10631E+000	3.57670E+000	10	...........
	2	0.04	6.53627E-001	5.99702E-003	0.00000E+000	3.91982E-003	3.59960E-001	-1.10831E+000	3.57670E+000	10	...........
	3	0.053333	6.61137E-001	5.99670E-003	0.00000E+000	3.96464E-003	3.59960E-001	-1.11728E+000	3.57670E+000	10	...........
	4	0.066667	6.68439E-001	5.99483E-003	0.00000E+000	4.00718E-003	3.59960E-001	-1.10696E+000	3.57670E+000	10	...........
	5	0.08	6.75473E-001	5.99447E-003	0.00000E+000	4.04910E-003	3.59960E-001	-1.10922E+000	3.57670E+000	10	...........
	6	0.093333	6.82398E-001	5.99621E-003	0.00000E+000	4.09180E-003	3.59960E-001	-1.11806E+000	3.57670E+000	10	...........
	7	0.106667	6.89250E-001	5.99648E-003	0.00000E+000	4.13308E-003	3.59960E-001	-1.10777E+000	3.57670E+000	10	...........
	8	0.12	6.95997E-001	5.99216E-003	0.00000E+000	4.17053E-003	3.59960E-001	-1.10983E+000	3.57670E+000	10	...........
	9	0.133333	7.02700E-001	5.99308E-003	0.00000E+000	4.21134E-003	3.59960E-001	-1.11887E+000	3.57670E+000	10	...........
	10	0.146667	7.09297E-001	5.99723E-003	0.00000E+000	4.25382E-003	3.59960E-001	-1.10851E+000	3.57670E+000	10	...........
	11	0.16	7.15876E-001	5.99600E-003	0.00000E+000	4.29240E-003	3.59960E-001	-1.11028E+000	3.57670E+000	10	...........
	12	0.173333	7.22453E-001	5.99174E-003	0.00000E+000	4.32875E-003	3.59960E-001	-1.11903E+000	3.57670E+000	10	...........
	13	0.186667	7.28980E-001	5.99135E-003	0.00000E+000	4.36758E-003	3.59960E-001	-1.10872E+000	3.57670E+000	10	...........
	14	0.2	7.35430E-001	5.99574E-003	0.00000E+000	4.40945E-003	3.59960E-001	-1.11055E+000	3.57670E+000	10	...........
	15	0.213333	7.41886E-001	5.99955E-003	0.00000E+000	4.45098E-003	3.59960E-001	-1.11944E+000	3.57670E+000	10	...........
	16	0.226667	7.48345E-001	5.99299E-003	0.00000E+000	4.48482E-003	3.59960E-001	-1.10902E+000	3.57670E+000	10	...........
	17	0.24	7.54746E-001	5.99337E-003	0.00000E+000	4.52347E-003	3.59960E-001	-1.11128E+000	3.57670E+000	10	...........
	18	0.253333	7.61138E-001	5.99238E-003	0.00000E+000	4.56103E-003	3.59960E-001	-1.11989E+000	3.57670E+000	10	...........
	19	0.266667	7.67539E-001	5.99200E-003	0.00000E+000	4.59909E-003	3.59960E-001	-1.10976E+000	3.57670E+000	10	...........
	20	0.28	7.73923E-001	5.99496E-003	0.00000E+000	4.63964E-003	3.59960E-001	-1.11190E+000	3.57670E+000	10	...........
	21	0.293333	7.80274E-001	5.99667E-003	0.00000E+000	4.67905E-003	3.59960E-001	-1.12048E+000	3.57670E+000	10	...........
	22	0.306667	7.86574E-001	5.99700E-003	0.00000E+000	4.71709E-003	3.59960E-001	-1.11032E+000	3.57967E+000	10	...........
	23	0.32	7.92869E-001	5.99557E-003	0.00000E+000	4.75370E-003	3.59960E-001	-1.11254E+000	3.58010E+000	10	...........
	24	0.333333	7.99191E-001	5.99710E-003	0.00000E+000	4.79283E-003	3.59960E-001	-1.12112E+000	3.58010E+000	10	...........
	25	0.346667	8.05462E-001	5.99384E-003	0.00000E+000	4.82781E-003	3.59960E-001	-1.11097E+000	3.58010E+000	10	...........
	26	0.36	8.11716E-001	5.99414E-003	0.00000E+000	4.86553E-003	3.59960E-001	-1.11317E+000	3.58010E+000	10	...........
	27	0.373333	8.18019E-001	5.99583E-003	0.00000E+000	4.90470E-003	3.59960E-001	-1.12171E+000	3.58010E+000	10	...........
	28	0.386667	8.24337E-001	5.99192E-003	0.00000E+000	4.93936E-003	3.59960E-001	-1.11119E+000	3.58010E+000	10	...........
	29	0.4	8.30543E-001	6.00123E-003	0.00000E+000	4.98428E-003	3.59960E-001	-1.11368E+000	3.58010E+000	10	...........
	30	0.413333	8.36726E-001	5.99802E-003	0.00000E+000	5.01870E-003	3.59960E-001	-1.12244E+000	3.58010E+000	10	...........
	31	0.426667	8.42957E-001	5.99879E-003	0.00000E+000	5.05672E-003	3.59960E-001	-1.11205E+000	3.58010E+000	10	...........
	32	0.44	8.49152E-001	5.98606E-003	0.00000E+000	5.08308E-003	3.59960E-001	-1.11402E+000	3.58010E+000	10	...........
	33	0.453333	8.55334E-001	5.99555E-003	0.00000E+000	5.12820E-003	3.59960E-001	-1.12275E+000	3.58010E+000	10	...........
	34	0.466667	8.61510E-001	5.99414E-003	0.00000E+000	5.16401E-003	3.59960E-001	-1.11248E+000	3.58010E+000	10	...........
	35	0.48	8.67668E-001	5.99425E-003	0.00000E+000	5.20102E-003	3.59960E-001	-1.11475E+000	3.58010E+000	10	...........
	36	0.493333	8.73817E-001	5.99354E-003	0.00000E+000	5.23726E-003	3.59960E-001	-1.12333E+000	3.58010E+000	10	...........
	37	0.506667	8.79913E-001	5.99372E-003	0.00000E+000	5.27395E-003	3.59960E-001	-1.11275E+000	3.58010E+000	10	...........
	38	0.52	8.86018E-001	5.99771E-003	0.00000E+000	5.31408E-003	3.59960E-001	-1.11475E+000	3.58010E+000	10	...........
	39	0.533333	8.92069E-001	5.99349E-003	0.00000E+000	5.34661E-003	3.59960E-001	-1.12348E+000	3.58010E+000	10	...........
	40	0.546667	8.98111E-001	6.00006E-003	0.00000E+000	5.38872E-003	3.59960E-001	-1.11310E+000	3.58010E+000	10	...........
	41	0.56	9.04114E-001	5.99584E-003	0.00000E+000	5.42092E-003	3.59960E-001	-1.11535E+000	3.58010E+000	10	...........
	42	0.573333	9.10171E-001	5.99368E-003	0.00000E+000	5.45527E-003	3.59960E-001	-1.12375E+000	3.58010E+000	10	...........
	43	0.586667	9.16085E-001	5.99213E-003	0.00000E+000	5.48931E-003	3.59960E-001	-1.11326E+000	3.58010E+000	10	...........
	44	0.6	9.22049E-001	5.99626E-003	0.00000E+000	5.52885E-003	3.59960E-001	-1.11582E+000	3.58010E+000	10	...........
	45	0.613333	9.27962E-001	5.99141E-003	0.00000E+000	5.55981E-003	3.59960E-001	-1.12451E+000	3.58010E+000	10	...........
	46	0.626667	9.33784E-001	5.99350E-003	0.00000E+000	5.59664E-003	3.59960E-001	-1.11406E+000	3.58010E+000	10	...........
	47	0.64	9.39613E-001	5.99354E-003	0.00000E+000	5.63161E-003	3.59960E-001	-1.11613E+000	3.58010E+000	10	...........
	48	0.653333	9.45416E-001	5.98960E-003	0.00000E+000	5.66266E-003	3.59960E-001	-1.12458E+000	3.58010E+000	10	...........
	49	0.666667	9.51198E-001	5.99280E-003	0.00000E+000	5.70034E-003	3.59960E-001	-1.11457E+000	3.58010E+000	10	...........
	50	0.68	9.56927E-001	5.99571E-003	0.00000E+000	5.73746E-003	3.59960E-001	-1.11674E+000	3.58010E+000	10	...........
	51	0.693333	9.62576E-001	5.99604E-003	0.00000E+000	5.77165E-003	3.59960E-001	-1.12504E+000	3.58010E+000	10	...........
	52	0.706667	9.68231E-001	5.99147E-003	0.00000E+000	5.80112E-003	3.59960E-001	-1.11452E+000	3.58010E+000	10	...........
	53	0.72	9.73852E-001	5.99409E-003	0.00000E+000	5.83736E-003	3.59960E-001	-1.11704E+000	3.58010E+000	10	...........
	54	0.733333	9.79434E-001	5.99219E-003	0.00000E+000	5.86895E-003	3.59960E-001	-1.12559E+000	3.58010E+000	10	...........
	55	0.746667	9.84940E-001	5.99148E-003	0.00000E+000	5.90124E-003	3.59960E-001	-1.11523E+000	3.58010E+000	10	...........
	56	0.76	9.90429E-001	5.99589E-003	0.00000E+000	5.93850E-003	3.59960E-001	-1.11747E+000	3.58010E+000	10	...........
	57	0.773333	9.95867E-001	5.99812E-003	0.00000E+000	5.97333E-003	3.59960E-001	-1.12584E+000	3.58010E+000	10	...........
	58	0.778333	9.99650E-001	5.99201E-003	0.00000E+000	5.98992E-003	3.59960E-001	-1.10795E+000	3.58010E+000	10	...........
STARTTIMEOFFSET	QUANT	790.8268	Start Time Offset (s)