File: Data/CV_CRGO300517_1/PWRCCD_CRGO300517_1/CHARGE_DISCHARGE/CHARGE_#392.DTA
EXPLAIN
TAG	PWR800_CHARGE
TITLE	LABEL	PWR Cyclic Charge Discharge (Cell) - Charge Step	Test &Identifier
DATE	LABEL	22-6-2017	Date
TIME	LABEL	15:51:39	Time
NOTES	NOTES	3	&Notes...
	supercap test cell
	0.6mg
	6M KOH
PSTAT	PSTAT	IFC5000-01520	Potentiostat
CAPACITY	QUANT	1.00000E-003	Capacity (A-hr)
CELLTYPE	SELECTOR	1	&Cell Type
WORKINGCONNECTION	SELECTOR	0	&Working Lead
MAXCHARGETIME	VARIABLEANDUNITS	1.00000E+002	s	1.00000E+002	second(s)	Max &Charge Time
CHARGECURRENT	QUANT	6.00000E-003	&Charge Current (A)
VOLTAGEFINISH	TWOPARAM	F	1.00000E-003	3.60000E+003	&Voltage Finish	 I (A) < 	Max Time(s)
SAMPLETIME	QUANT	1.00000E-002	Sa&mple Period (s)
CHARGESTOPAT1	MULTIPARAM	4	1.00000E+000	Charge Stop At &1	Voltage > Limit	V
CHARGESTOPAT2	MULTIPARAM	0	0.00000E+000	Charge Stop At &2	None	N/A
AESBHCSELECTOR	TOGGLE	F	Save Both Half Cells
IRCOMP	TOGGLE	F	IR &Measure
EOC	QUANT	0	Open Circuit (V)
SEQUENCER	TOGGLE	TRUE	Run as Sequence
PSTATMODEL	IQUANT	53	Pstat Model
PSTATSECTION	LABEL	IFC5000-01520	Pstat Section
PSTATSERIALNO	LABEL	01520	Pstat Serial Number
CTRLMODE	IQUANT	0	Control Mode
ELECTROMETER	IQUANT	1	RE=0 or CS=1
IESTAB	IQUANT	0	I/E Stability
CASPEED	IQUANT	4	Control Amp Speed
CONVENTION	IQUANT	1	Current Convention
ICHRANGE	IQUANT	2	Ich Range
ICHRANGEMODE	TOGGLE	T	Ich Auto Range
ICHOFFSETENABLE	TOGGLE	F	Ich Offset Enable
ICHOFFSET	QUANT	0	Ich Offset (V)
ICHFILTER	IQUANT	1	Ich Filter
VCHRANGE	IQUANT	2	Vch Range
VCHRANGEMODE	TOGGLE	T	Vch Auto Range
VCHOFFSETENABLE	TOGGLE	F	Vch Offset Enable
VCHOFFSET	QUANT	0	Vch Offset (V)
VCHFILTER	IQUANT	1	Vch Filter
IERANGELOWERLIMIT	IQUANT	9	I/E Range Lower Limit
IERANGEMODE	TOGGLE	F	I/E AutoRange
IERANGE	IQUANT	10	I/E Range
ACHSELECT	IQUANT	1	Ach Select
ACHRANGE	IQUANT	2	Ach Range
ACHOFFSETENABLE	TOGGLE	F	Ach Offset Enable
ACHOFFSET	QUANT	0	Ach Offset (V)
ACHFILTER	IQUANT	1	Ach Filter
CABLEID	IQUANT	14	Cable ID
DCCALDATE	LABEL	20-10-2016	DC Calibration Date
ACCALDATE	LABEL	12/3/2015	AC Calibration Date
FRAMEWORKVERSION	QUANT	7.01	Framework Version
INSTRUMENTVERSION	LABEL	4.00	Instrument Version
CURVE	TABLE	60
	Pt	T	Vf	Im	Vu	Pwr	Sig	Ach	Temp	IERange	Over
	#	s	V	A	V	W	V	V	deg C	#	bits
	0	0.013333	6.24605E-001	5.99664E-003	0.00000E+000	3.74553E-003	3.59960E-001	-1.12030E+000	3.57800E+000	10	...........
	1	0.026667	6.33340E-001	5.99495E-003	0.00000E+000	3.79684E-003	3.59960E-001	-1.12527E+000	3.57800E+000	10	...........
	2	0.04	6.41361E-001	5.99819E-003	0.00000E+000	3.84701E-003	3.59960E-001	-1.12902E+000	3.57800E+000	10	...........
	3	0.053333	6.48980E-001	5.99464E-003	0.00000E+000	3.89040E-003	3.59960E-001	-1.12039E+000	3.57800E+000	10	...........
	4	0.066667	6.56327E-001	5.99191E-003	0.00000E+000	3.93265E-003	3.59960E-001	-1.12532E+000	3.57800E+000	10	...........
	5	0.08	6.63470E-001	5.98914E-003	0.00000E+000	3.97361E-003	3.59960E-001	-1.12848E+000	3.57800E+000	10	...........
	6	0.093333	6.70491E-001	5.99363E-003	0.00000E+000	4.01868E-003	3.59960E-001	-1.12031E+000	3.57800E+000	10	...........
	7	0.106667	6.77375E-001	5.99212E-003	0.00000E+000	4.05891E-003	3.59960E-001	-1.12540E+000	3.57800E+000	10	...........
	8	0.12	6.84183E-001	5.99543E-003	0.00000E+000	4.10197E-003	3.59960E-001	-1.12875E+000	3.57800E+000	10	...........
	9	0.133333	6.90900E-001	5.98924E-003	0.00000E+000	4.13797E-003	3.59960E-001	-1.12016E+000	3.57800E+000	10	...........
	10	0.146667	6.97636E-001	5.98861E-003	0.00000E+000	4.17787E-003	3.59960E-001	-1.12518E+000	3.57800E+000	10	...........
	11	0.16	7.04250E-001	5.99285E-003	0.00000E+000	4.22046E-003	3.59960E-001	-1.12856E+000	3.57800E+000	10	...........
	12	0.173333	7.10852E-001	5.99516E-003	0.00000E+000	4.26167E-003	3.59960E-001	-1.12020E+000	3.57800E+000	10	...........
	13	0.186667	7.17465E-001	5.99815E-003	0.00000E+000	4.30346E-003	3.59960E-001	-1.12540E+000	3.57800E+000	10	...........
	14	0.2	7.23991E-001	5.99091E-003	0.00000E+000	4.33736E-003	3.59960E-001	-1.12812E+000	3.57800E+000	10	...........
	15	0.213333	7.30483E-001	5.99672E-003	0.00000E+000	4.38050E-003	3.59960E-001	-1.11962E+000	3.57800E+000	10	...........
	16	0.226667	7.36941E-001	5.99670E-003	0.00000E+000	4.41921E-003	3.59960E-001	-1.12490E+000	3.57800E+000	10	...........
	17	0.24	7.43378E-001	5.99240E-003	0.00000E+000	4.45462E-003	3.59960E-001	-1.12806E+000	3.57800E+000	10	...........
	18	0.253333	7.49840E-001	5.99935E-003	0.00000E+000	4.49855E-003	3.59960E-001	-1.11961E+000	3.57800E+000	10	...........
	19	0.266667	7.56298E-001	5.99446E-003	0.00000E+000	4.53360E-003	3.59960E-001	-1.12499E+000	3.57800E+000	10	...........
	20	0.28	7.62681E-001	5.99483E-003	0.00000E+000	4.57215E-003	3.59960E-001	-1.12786E+000	3.57800E+000	10	...........
	21	0.293333	7.69084E-001	5.99382E-003	0.00000E+000	4.60975E-003	3.59960E-001	-1.11937E+000	3.57800E+000	10	...........
	22	0.306667	7.75476E-001	5.99827E-003	0.00000E+000	4.65151E-003	3.59960E-001	-1.12497E+000	3.57800E+000	10	...........
	23	0.32	7.81867E-001	5.99144E-003	0.00000E+000	4.68451E-003	3.59960E-001	-1.12808E+000	3.57800E+000	10	...........
	24	0.333333	7.88242E-001	5.99356E-003	0.00000E+000	4.72438E-003	3.59960E-001	-1.11954E+000	3.57800E+000	10	...........
	25	0.346667	7.94644E-001	5.99766E-003	0.00000E+000	4.76601E-003	3.59960E-001	-1.12462E+000	3.57800E+000	10	...........
	26	0.36	8.00942E-001	5.99412E-003	0.00000E+000	4.80094E-003	3.59960E-001	-1.12797E+000	3.57800E+000	10	...........
	27	0.373333	8.07245E-001	5.99399E-003	0.00000E+000	4.83862E-003	3.59960E-001	-1.11947E+000	3.57800E+000	10	...........
	28	0.386667	8.13549E-001	5.99254E-003	0.00000E+000	4.87522E-003	3.59960E-001	-1.12483E+000	3.57800E+000	10	...........
	29	0.4	8.19836E-001	5.99474E-003	0.00000E+000	4.91471E-003	3.59960E-001	-1.12780E+000	3.57800E+000	10	...........
	30	0.413333	8.26112E-001	5.99112E-003	0.00000E+000	4.94934E-003	3.59960E-001	-1.11945E+000	3.57800E+000	10	...........
	31	0.426667	8.32368E-001	5.99399E-003	0.00000E+000	4.98921E-003	3.59960E-001	-1.12491E+000	3.57800E+000	10	...........
	32	0.44	8.38637E-001	5.99331E-003	0.00000E+000	5.02621E-003	3.59960E-001	-1.12818E+000	3.57800E+000	10	...........
	33	0.453333	8.44872E-001	5.99498E-003	0.00000E+000	5.06499E-003	3.59960E-001	-1.11971E+000	3.57800E+000	10	...........
	34	0.466667	8.51078E-001	5.99270E-003	0.00000E+000	5.10025E-003	3.59960E-001	-1.12499E+000	3.57800E+000	10	...........
	35	0.48	8.57259E-001	5.99274E-003	0.00000E+000	5.13733E-003	3.59960E-001	-1.12798E+000	3.57800E+000	10	...........
	36	0.493333	8.63417E-001	5.99571E-003	0.00000E+000	5.17680E-003	3.59960E-001	-1.11953E+000	3.57800E+000	10	...........
	37	0.506667	8.69646E-001	5.99534E-003	0.00000E+000	5.21382E-003	3.59960E-001	-1.12511E+000	3.57800E+000	10	...........
	38	0.52	8.75823E-001	5.99651E-003	0.00000E+000	5.25188E-003	3.59960E-001	-1.12754E+000	3.57800E+000	10	...........
	39	0.533333	8.81949E-001	5.99591E-003	0.00000E+000	5.28809E-003	3.59960E-001	-1.11925E+000	3.57800E+000	10	...........
	40	0.546667	8.88029E-001	5.99377E-003	0.00000E+000	5.32264E-003	3.59960E-001	-1.12463E+000	3.57800E+000	10	...........
	41	0.56	8.94126E-001	5.99597E-003	0.00000E+000	5.36115E-003	3.59960E-001	-1.12751E+000	3.57800E+000	10	...........
	42	0.573333	9.00157E-001	5.99402E-003	0.00000E+000	5.39556E-003	3.59960E-001	-1.11935E+000	3.57800E+000	10	...........
	43	0.586667	9.06201E-001	5.99419E-003	0.00000E+000	5.43194E-003	3.59960E-001	-1.12497E+000	3.57800E+000	10	...........
	44	0.6	9.12242E-001	5.99434E-003	0.00000E+000	5.46829E-003	3.59960E-001	-1.12759E+000	3.57800E+000	10	...........
	45	0.613333	9.18182E-001	5.99368E-003	0.00000E+000	5.50329E-003	3.59960E-001	-1.11924E+000	3.57830E+000	10	...........
	46	0.626667	9.24177E-001	5.99094E-003	0.00000E+000	5.53669E-003	3.59960E-001	-1.12465E+000	3.57930E+000	10	...........
	47	0.64	9.30142E-001	5.99381E-003	0.00000E+000	5.57510E-003	3.59960E-001	-1.12750E+000	3.57930E+000	10	...........
	48	0.653333	9.36008E-001	5.99432E-003	0.00000E+000	5.61073E-003	3.59960E-001	-1.11936E+000	3.57930E+000	10	...........
	49	0.666667	9.41832E-001	5.99605E-003	0.00000E+000	5.64728E-003	3.59960E-001	-1.12483E+000	3.57930E+000	10	...........
	50	0.68	9.47655E-001	5.99671E-003	0.00000E+000	5.68281E-003	3.59960E-001	-1.12719E+000	3.57930E+000	10	...........
	51	0.693333	9.53423E-001	5.99351E-003	0.00000E+000	5.71435E-003	3.59960E-001	-1.11880E+000	3.57930E+000	10	...........
	52	0.706667	9.59179E-001	5.99061E-003	0.00000E+000	5.74607E-003	3.59960E-001	-1.12463E+000	3.57930E+000	10	...........
	53	0.72	9.64868E-001	5.99414E-003	0.00000E+000	5.78355E-003	3.59960E-001	-1.12745E+000	3.57930E+000	10	...........
	54	0.733333	9.70524E-001	5.99503E-003	0.00000E+000	5.81833E-003	3.59960E-001	-1.11901E+000	3.57930E+000	10	...........
	55	0.746667	9.76170E-001	5.99664E-003	0.00000E+000	5.85374E-003	3.59960E-001	-1.12456E+000	3.57930E+000	10	...........
	56	0.76	9.81741E-001	5.99847E-003	0.00000E+000	5.88895E-003	3.59960E-001	-1.12753E+000	3.57930E+000	10	...........
	57	0.773333	9.87249E-001	5.99473E-003	0.00000E+000	5.91829E-003	3.59960E-001	-1.11938E+000	3.57930E+000	10	...........
	58	0.786667	9.92744E-001	5.99581E-003	0.00000E+000	5.95231E-003	3.59960E-001	-1.12489E+000	3.57930E+000	10	...........
	59	0.8	9.98262E-001	5.99482E-003	0.00000E+000	5.98441E-003	3.59960E-001	-1.12756E+000	3.57930E+000	10	...........
STARTTIMEOFFSET	QUANT	689.9517	Start Time Offset (s)