File: Data/CV_CRGO300517_1/PWRCCD_CRGO300517_1/CHARGE_DISCHARGE/CHARGE_#162.DTA
EXPLAIN
TAG	PWR800_CHARGE
TITLE	LABEL	PWR Cyclic Charge Discharge (Cell) - Charge Step	Test &Identifier
DATE	LABEL	22-6-2017	Date
TIME	LABEL	15:42:12	Time
NOTES	NOTES	3	&Notes...
	supercap test cell
	0.6mg
	6M KOH
PSTAT	PSTAT	IFC5000-01520	Potentiostat
CAPACITY	QUANT	1.00000E-003	Capacity (A-hr)
CELLTYPE	SELECTOR	1	&Cell Type
WORKINGCONNECTION	SELECTOR	0	&Working Lead
MAXCHARGETIME	VARIABLEANDUNITS	1.00000E+002	s	1.00000E+002	second(s)	Max &Charge Time
CHARGECURRENT	QUANT	6.00000E-003	&Charge Current (A)
VOLTAGEFINISH	TWOPARAM	F	1.00000E-003	3.60000E+003	&Voltage Finish	 I (A) < 	Max Time(s)
SAMPLETIME	QUANT	1.00000E-002	Sa&mple Period (s)
CHARGESTOPAT1	MULTIPARAM	4	1.00000E+000	Charge Stop At &1	Voltage > Limit	V
CHARGESTOPAT2	MULTIPARAM	0	0.00000E+000	Charge Stop At &2	None	N/A
AESBHCSELECTOR	TOGGLE	F	Save Both Half Cells
IRCOMP	TOGGLE	F	IR &Measure
EOC	QUANT	0	Open Circuit (V)
SEQUENCER	TOGGLE	TRUE	Run as Sequence
PSTATMODEL	IQUANT	53	Pstat Model
PSTATSECTION	LABEL	IFC5000-01520	Pstat Section
PSTATSERIALNO	LABEL	01520	Pstat Serial Number
CTRLMODE	IQUANT	0	Control Mode
ELECTROMETER	IQUANT	1	RE=0 or CS=1
IESTAB	IQUANT	0	I/E Stability
CASPEED	IQUANT	4	Control Amp Speed
CONVENTION	IQUANT	1	Current Convention
ICHRANGE	IQUANT	2	Ich Range
ICHRANGEMODE	TOGGLE	T	Ich Auto Range
ICHOFFSETENABLE	TOGGLE	F	Ich Offset Enable
ICHOFFSET	QUANT	0	Ich Offset (V)
ICHFILTER	IQUANT	1	Ich Filter
VCHRANGE	IQUANT	2	Vch Range
VCHRANGEMODE	TOGGLE	T	Vch Auto Range
VCHOFFSETENABLE	TOGGLE	F	Vch Offset Enable
VCHOFFSET	QUANT	0	Vch Offset (V)
VCHFILTER	IQUANT	1	Vch Filter
IERANGELOWERLIMIT	IQUANT	9	I/E Range Lower Limit
IERANGEMODE	TOGGLE	F	I/E AutoRange
IERANGE	IQUANT	10	I/E Range
ACHSELECT	IQUANT	1	Ach Select
ACHRANGE	IQUANT	2	Ach Range
ACHOFFSETENABLE	TOGGLE	F	Ach Offset Enable
ACHOFFSET	QUANT	0	Ach Offset (V)
ACHFILTER	IQUANT	1	Ach Filter
CABLEID	IQUANT	14	Cable ID
DCCALDATE	LABEL	20-10-2016	DC Calibration Date
ACCALDATE	LABEL	12/3/2015	AC Calibration Date
FRAMEWORKVERSION	QUANT	7.01	Framework Version
INSTRUMENTVERSION	LABEL	4.00	Instrument Version
CURVE	TABLE	67
	Pt	T	Vf	Im	Vu	Pwr	Sig	Ach	Temp	IERange	Over
	#	s	V	A	V	W	V	V	deg C	#	bits
	0	0.013333	5.99871E-001	5.99293E-003	0.00000E+000	3.59498E-003	3.59960E-001	-1.07964E+000	3.57690E+000	10	...........
	1	0.026667	6.08229E-001	5.99472E-003	0.00000E+000	3.64616E-003	3.59960E-001	-1.07728E+000	3.57690E+000	10	...........
	2	0.04	6.16000E-001	5.99335E-003	0.00000E+000	3.69190E-003	3.59960E-001	-1.08871E+000	3.57690E+000	10	...........
	3	0.053333	6.23282E-001	5.99540E-003	0.00000E+000	3.73682E-003	3.59960E-001	-1.07953E+000	3.57690E+000	10	...........
	4	0.066667	6.30319E-001	5.99241E-003	0.00000E+000	3.77713E-003	3.59960E-001	-1.07724E+000	3.57690E+000	10	...........
	5	0.08	6.37166E-001	5.99177E-003	0.00000E+000	3.81775E-003	3.59960E-001	-1.08884E+000	3.57690E+000	10	...........
	6	0.093333	6.43885E-001	5.99550E-003	0.00000E+000	3.86041E-003	3.59960E-001	-1.07978E+000	3.57690E+000	10	...........
	7	0.106667	6.50449E-001	5.99445E-003	0.00000E+000	3.89908E-003	3.59960E-001	-1.07743E+000	3.57690E+000	10	...........
	8	0.12	6.56931E-001	5.99435E-003	0.00000E+000	3.93788E-003	3.59960E-001	-1.08890E+000	3.57690E+000	10	...........
	9	0.133333	6.63385E-001	5.99568E-003	0.00000E+000	3.97744E-003	3.59960E-001	-1.07997E+000	3.57720E+000	10	...........
	10	0.146667	6.69759E-001	5.99208E-003	0.00000E+000	4.01325E-003	3.59960E-001	-1.07757E+000	3.57730E+000	10	...........
	11	0.16	6.76097E-001	5.99329E-003	0.00000E+000	4.05204E-003	3.59960E-001	-1.08891E+000	3.57730E+000	10	...........
	12	0.173333	6.82378E-001	5.99941E-003	0.00000E+000	4.09387E-003	3.59960E-001	-1.07976E+000	3.57730E+000	10	...........
	13	0.186667	6.88614E-001	5.99239E-003	0.00000E+000	4.12645E-003	3.59960E-001	-1.07736E+000	3.57730E+000	10	...........
	14	0.2	6.94854E-001	5.99201E-003	0.00000E+000	4.16357E-003	3.59960E-001	-1.08894E+000	3.57730E+000	10	...........
	15	0.213333	7.01078E-001	5.99443E-003	0.00000E+000	4.20256E-003	3.59960E-001	-1.07939E+000	3.57730E+000	10	...........
	16	0.226667	7.07282E-001	5.99595E-003	0.00000E+000	4.24083E-003	3.59960E-001	-1.07702E+000	3.57730E+000	10	...........
	17	0.24	7.13392E-001	5.98803E-003	0.00000E+000	4.27181E-003	3.59960E-001	-1.08839E+000	3.57730E+000	10	...........
	18	0.253333	7.19584E-001	5.99348E-003	0.00000E+000	4.31281E-003	3.59960E-001	-1.07928E+000	3.57730E+000	10	...........
	19	0.266667	7.25710E-001	5.99513E-003	0.00000E+000	4.35072E-003	3.59960E-001	-1.07683E+000	3.57730E+000	10	...........
	20	0.28	7.31807E-001	5.99457E-003	0.00000E+000	4.38687E-003	3.59960E-001	-1.08832E+000	3.57730E+000	10	...........
	21	0.293333	7.37860E-001	5.99586E-003	0.00000E+000	4.42410E-003	3.59960E-001	-1.07912E+000	3.57730E+000	10	...........
	22	0.306667	7.43977E-001	5.99120E-003	0.00000E+000	4.45732E-003	3.59960E-001	-1.07653E+000	3.57730E+000	10	...........
	23	0.32	7.50024E-001	5.99515E-003	0.00000E+000	4.49650E-003	3.59960E-001	-1.08793E+000	3.57730E+000	10	...........
	24	0.333333	7.56124E-001	5.99206E-003	0.00000E+000	4.53074E-003	3.59960E-001	-1.07891E+000	3.57730E+000	10	...........
	25	0.346667	7.62184E-001	5.99214E-003	0.00000E+000	4.56711E-003	3.59960E-001	-1.07630E+000	3.57730E+000	10	...........
	26	0.36	7.68261E-001	5.99434E-003	0.00000E+000	4.60522E-003	3.59960E-001	-1.08790E+000	3.57730E+000	10	...........
	27	0.373333	7.74287E-001	5.99482E-003	0.00000E+000	4.64171E-003	3.59960E-001	-1.07874E+000	3.57730E+000	10	...........
	28	0.386667	7.80368E-001	5.99322E-003	0.00000E+000	4.67691E-003	3.59960E-001	-1.07618E+000	3.57730E+000	10	...........
	29	0.4	7.86409E-001	5.99288E-003	0.00000E+000	4.71286E-003	3.59960E-001	-1.08793E+000	3.57730E+000	10	...........
	30	0.413333	7.92439E-001	5.99711E-003	0.00000E+000	4.75234E-003	3.59960E-001	-1.07916E+000	3.57730E+000	10	...........
	31	0.426667	7.98452E-001	5.99314E-003	0.00000E+000	4.78524E-003	3.59960E-001	-1.07652E+000	3.57730E+000	10	...........
	32	0.44	8.04448E-001	5.99452E-003	0.00000E+000	4.82228E-003	3.59960E-001	-1.08798E+000	3.57730E+000	10	...........
	33	0.453333	8.10469E-001	5.99233E-003	0.00000E+000	4.85660E-003	3.59960E-001	-1.07903E+000	3.57730E+000	10	...........
	34	0.466667	8.16470E-001	5.99644E-003	0.00000E+000	4.89591E-003	3.59960E-001	-1.07674E+000	3.57730E+000	10	...........
	35	0.48	8.22477E-001	5.99401E-003	0.00000E+000	4.92994E-003	3.59960E-001	-1.08844E+000	3.57730E+000	10	...........
	36	0.493333	8.28444E-001	5.99623E-003	0.00000E+000	4.96754E-003	3.59960E-001	-1.07946E+000	3.57730E+000	10	...........
	37	0.506667	8.34417E-001	5.99196E-003	0.00000E+000	4.99979E-003	3.59960E-001	-1.07667E+000	3.57730E+000	10	...........
	38	0.52	8.40382E-001	5.99362E-003	0.00000E+000	5.03694E-003	3.59960E-001	-1.08775E+000	3.57730E+000	10	...........
	39	0.533333	8.46366E-001	5.99192E-003	0.00000E+000	5.07136E-003	3.59960E-001	-1.07860E+000	3.57730E+000	10	...........
	40	0.546667	8.52313E-001	5.99229E-003	0.00000E+000	5.10731E-003	3.59960E-001	-1.07610E+000	3.57730E+000	10	...........
	41	0.56	8.58259E-001	5.99631E-003	0.00000E+000	5.14638E-003	3.59960E-001	-1.08772E+000	3.57730E+000	10	...........
	42	0.573333	8.64211E-001	5.99338E-003	0.00000E+000	5.17955E-003	3.59960E-001	-1.07859E+000	3.57730E+000	10	...........
	43	0.586667	8.70157E-001	5.99595E-003	0.00000E+000	5.21742E-003	3.59960E-001	-1.07596E+000	3.57730E+000	10	...........
	44	0.6	8.76082E-001	5.99450E-003	0.00000E+000	5.25167E-003	3.59960E-001	-1.08758E+000	3.57730E+000	10	...........
	45	0.613333	8.82007E-001	5.99249E-003	0.00000E+000	5.28541E-003	3.59960E-001	-1.07871E+000	3.57730E+000	10	...........
	46	0.626667	8.87900E-001	5.99462E-003	0.00000E+000	5.32262E-003	3.59960E-001	-1.07626E+000	3.57730E+000	10	...........
	47	0.64	8.93766E-001	5.99347E-003	0.00000E+000	5.35676E-003	3.59960E-001	-1.08791E+000	3.57730E+000	10	...........
	48	0.653333	8.99658E-001	5.99586E-003	0.00000E+000	5.39422E-003	3.59960E-001	-1.07885E+000	3.57730E+000	10	...........
	49	0.666667	9.05464E-001	5.99236E-003	0.00000E+000	5.42587E-003	3.59960E-001	-1.07613E+000	3.57730E+000	10	...........
	50	0.68	9.11256E-001	5.99237E-003	0.00000E+000	5.46059E-003	3.59960E-001	-1.08761E+000	3.57730E+000	10	...........
	51	0.693333	9.17042E-001	5.99486E-003	0.00000E+000	5.49753E-003	3.59960E-001	-1.07889E+000	3.57730E+000	10	...........
	52	0.706667	9.22934E-001	5.99287E-003	0.00000E+000	5.53103E-003	3.59960E-001	-1.07597E+000	3.57730E+000	10	...........
	53	0.72	9.28645E-001	5.99497E-003	0.00000E+000	5.56720E-003	3.59960E-001	-1.08761E+000	3.57730E+000	10	...........
	54	0.733333	9.34378E-001	5.99434E-003	0.00000E+000	5.60099E-003	3.59960E-001	-1.07877E+000	3.57730E+000	10	...........
	55	0.746667	9.40069E-001	5.99432E-003	0.00000E+000	5.63508E-003	3.59960E-001	-1.07622E+000	3.57730E+000	10	...........
	56	0.76	9.45756E-001	5.99417E-003	0.00000E+000	5.66902E-003	3.59960E-001	-1.08775E+000	3.57730E+000	10	...........
	57	0.773333	9.51420E-001	5.99520E-003	0.00000E+000	5.70395E-003	3.59960E-001	-1.07921E+000	3.57730E+000	10	...........
	58	0.786667	9.57044E-001	5.99258E-003	0.00000E+000	5.73517E-003	3.59960E-001	-1.07601E+000	3.57730E+000	10	...........
	59	0.8	9.62614E-001	5.99141E-003	0.00000E+000	5.76742E-003	3.59960E-001	-1.08764E+000	3.57730E+000	10	...........
	60	0.813333	9.68168E-001	5.99275E-003	0.00000E+000	5.80199E-003	3.59960E-001	-1.07915E+000	3.57730E+000	10	...........
	61	0.826667	9.73736E-001	5.99539E-003	0.00000E+000	5.83792E-003	3.59960E-001	-1.07630E+000	3.57730E+000	10	...........
	62	0.84	9.79201E-001	5.99333E-003	0.00000E+000	5.86868E-003	3.59960E-001	-1.08758E+000	3.57730E+000	10	...........
	63	0.853333	9.84638E-001	5.99236E-003	0.00000E+000	5.90031E-003	3.59960E-001	-1.07847E+000	3.57730E+000	10	...........
	64	0.866667	9.90054E-001	5.99373E-003	0.00000E+000	5.93412E-003	3.59960E-001	-1.07570E+000	3.57730E+000	10	...........
	65	0.88	9.95419E-001	5.99210E-003	0.00000E+000	5.96465E-003	3.59960E-001	-1.08734E+000	3.57730E+000	10	...........
	66	0.886667	9.99411E-001	5.99392E-003	0.00000E+000	5.99039E-003	3.59960E-001	-1.06738E+000	3.57730E+000	10	...........
STARTTIMEOFFSET	QUANT	306.8217	Start Time Offset (s)