File: Data/CV_CRGO300517_1/PWRCCD_CRGO300517_1/CHARGE_DISCHARGE/CHARGE_#613.DTA
EXPLAIN
TAG	PWR800_CHARGE
TITLE	LABEL	PWR Cyclic Charge Discharge (Cell) - Charge Step	Test &Identifier
DATE	LABEL	22-6-2017	Date
TIME	LABEL	16:00:16	Time
NOTES	NOTES	3	&Notes...
	supercap test cell
	0.6mg
	6M KOH
PSTAT	PSTAT	IFC5000-01520	Potentiostat
CAPACITY	QUANT	1.00000E-003	Capacity (A-hr)
CELLTYPE	SELECTOR	1	&Cell Type
WORKINGCONNECTION	SELECTOR	0	&Working Lead
MAXCHARGETIME	VARIABLEANDUNITS	1.00000E+002	s	1.00000E+002	second(s)	Max &Charge Time
CHARGECURRENT	QUANT	6.00000E-003	&Charge Current (A)
VOLTAGEFINISH	TWOPARAM	F	1.00000E-003	3.60000E+003	&Voltage Finish	 I (A) < 	Max Time(s)
SAMPLETIME	QUANT	1.00000E-002	Sa&mple Period (s)
CHARGESTOPAT1	MULTIPARAM	4	1.00000E+000	Charge Stop At &1	Voltage > Limit	V
CHARGESTOPAT2	MULTIPARAM	0	0.00000E+000	Charge Stop At &2	None	N/A
AESBHCSELECTOR	TOGGLE	F	Save Both Half Cells
IRCOMP	TOGGLE	F	IR &Measure
EOC	QUANT	0	Open Circuit (V)
SEQUENCER	TOGGLE	TRUE	Run as Sequence
PSTATMODEL	IQUANT	53	Pstat Model
PSTATSECTION	LABEL	IFC5000-01520	Pstat Section
PSTATSERIALNO	LABEL	01520	Pstat Serial Number
CTRLMODE	IQUANT	0	Control Mode
ELECTROMETER	IQUANT	1	RE=0 or CS=1
IESTAB	IQUANT	0	I/E Stability
CASPEED	IQUANT	4	Control Amp Speed
CONVENTION	IQUANT	1	Current Convention
ICHRANGE	IQUANT	2	Ich Range
ICHRANGEMODE	TOGGLE	T	Ich Auto Range
ICHOFFSETENABLE	TOGGLE	F	Ich Offset Enable
ICHOFFSET	QUANT	0	Ich Offset (V)
ICHFILTER	IQUANT	1	Ich Filter
VCHRANGE	IQUANT	2	Vch Range
VCHRANGEMODE	TOGGLE	T	Vch Auto Range
VCHOFFSETENABLE	TOGGLE	F	Vch Offset Enable
VCHOFFSET	QUANT	0	Vch Offset (V)
VCHFILTER	IQUANT	1	Vch Filter
IERANGELOWERLIMIT	IQUANT	9	I/E Range Lower Limit
IERANGEMODE	TOGGLE	F	I/E AutoRange
IERANGE	IQUANT	10	I/E Range
ACHSELECT	IQUANT	1	Ach Select
ACHRANGE	IQUANT	2	Ach Range
ACHOFFSETENABLE	TOGGLE	F	Ach Offset Enable
ACHOFFSET	QUANT	0	Ach Offset (V)
ACHFILTER	IQUANT	1	Ach Filter
CABLEID	IQUANT	14	Cable ID
DCCALDATE	LABEL	20-10-2016	DC Calibration Date
ACCALDATE	LABEL	12/3/2015	AC Calibration Date
FRAMEWORKVERSION	QUANT	7.01	Framework Version
INSTRUMENTVERSION	LABEL	4.00	Instrument Version
CURVE	TABLE	57
	Pt	T	Vf	Im	Vu	Pwr	Sig	Ach	Temp	IERange	Over
	#	s	V	A	V	W	V	V	deg C	#	bits
	0	0.013333	6.39358E-001	5.99141E-003	0.00000E+000	3.83066E-003	3.59960E-001	-1.14988E+000	3.57680E+000	10	...........
	1	0.026667	6.48346E-001	5.99086E-003	0.00000E+000	3.88415E-003	3.59960E-001	-1.15758E+000	3.57680E+000	10	...........
	2	0.04	6.56618E-001	5.99658E-003	0.00000E+000	3.93746E-003	3.59960E-001	-1.14719E+000	3.57680E+000	10	...........
	3	0.053333	6.64416E-001	5.98848E-003	0.00000E+000	3.97884E-003	3.59960E-001	-1.14966E+000	3.57680E+000	10	...........
	4	0.066667	6.72008E-001	5.99424E-003	0.00000E+000	4.02818E-003	3.59960E-001	-1.15722E+000	3.57680E+000	10	...........
	5	0.08	6.79372E-001	5.99577E-003	0.00000E+000	4.07336E-003	3.59960E-001	-1.14685E+000	3.57680E+000	10	...........
	6	0.093333	6.86546E-001	5.99120E-003	0.00000E+000	4.11324E-003	3.59960E-001	-1.14972E+000	3.57680E+000	10	...........
	7	0.106667	6.93683E-001	5.99150E-003	0.00000E+000	4.15620E-003	3.59960E-001	-1.15724E+000	3.57680E+000	10	...........
	8	0.12	7.00713E-001	5.99143E-003	0.00000E+000	4.19828E-003	3.59960E-001	-1.14665E+000	3.57680E+000	10	...........
	9	0.133333	7.07638E-001	5.99449E-003	0.00000E+000	4.24193E-003	3.59960E-001	-1.14960E+000	3.57680E+000	10	...........
	10	0.146667	7.14512E-001	5.99634E-003	0.00000E+000	4.28446E-003	3.59960E-001	-1.15709E+000	3.57680E+000	10	...........
	11	0.16	7.21397E-001	5.99823E-003	0.00000E+000	4.32711E-003	3.59960E-001	-1.14689E+000	3.57680E+000	10	...........
	12	0.173333	7.28165E-001	5.99438E-003	0.00000E+000	4.36489E-003	3.59960E-001	-1.14969E+000	3.57706E+000	10	...........
	13	0.186667	7.34900E-001	5.99798E-003	0.00000E+000	4.40792E-003	3.59960E-001	-1.15714E+000	3.57750E+000	10	...........
	14	0.2	7.41625E-001	5.99353E-003	0.00000E+000	4.44495E-003	3.59960E-001	-1.14685E+000	3.57750E+000	10	...........
	15	0.213333	7.48346E-001	5.99103E-003	0.00000E+000	4.48336E-003	3.59960E-001	-1.14990E+000	3.57750E+000	10	...........
	16	0.226667	7.55031E-001	5.99717E-003	0.00000E+000	4.52805E-003	3.59960E-001	-1.15731E+000	3.57750E+000	10	...........
	17	0.24	7.61655E-001	5.99591E-003	0.00000E+000	4.56681E-003	3.59960E-001	-1.14690E+000	3.57750E+000	10	...........
	18	0.253333	7.68288E-001	5.98840E-003	0.00000E+000	4.60082E-003	3.59960E-001	-1.14977E+000	3.57750E+000	10	...........
	19	0.266667	7.74936E-001	5.99862E-003	0.00000E+000	4.64855E-003	3.59960E-001	-1.15678E+000	3.57750E+000	10	...........
	20	0.28	7.81489E-001	5.99126E-003	0.00000E+000	4.68210E-003	3.59960E-001	-1.14677E+000	3.57750E+000	10	...........
	21	0.293333	7.88024E-001	5.99083E-003	0.00000E+000	4.72092E-003	3.59960E-001	-1.14979E+000	3.57750E+000	10	...........
	22	0.306667	7.94603E-001	5.99231E-003	0.00000E+000	4.76151E-003	3.59960E-001	-1.15664E+000	3.57750E+000	10	...........
	23	0.32	8.01134E-001	5.99645E-003	0.00000E+000	4.80396E-003	3.59960E-001	-1.14624E+000	3.57750E+000	10	...........
	24	0.333333	8.07608E-001	5.99498E-003	0.00000E+000	4.84159E-003	3.59960E-001	-1.14934E+000	3.57750E+000	10	...........
	25	0.346667	8.14115E-001	5.99067E-003	0.00000E+000	4.87710E-003	3.59960E-001	-1.15639E+000	3.57750E+000	10	...........
	26	0.36	8.20628E-001	5.98990E-003	0.00000E+000	4.91548E-003	3.59960E-001	-1.14652E+000	3.57750E+000	10	...........
	27	0.373333	8.27105E-001	5.99601E-003	0.00000E+000	4.95933E-003	3.59960E-001	-1.14963E+000	3.57750E+000	10	...........
	28	0.386667	8.33487E-001	5.99053E-003	0.00000E+000	4.99303E-003	3.59960E-001	-1.15654E+000	3.57750E+000	10	...........
	29	0.4	8.39899E-001	5.99392E-003	0.00000E+000	5.03428E-003	3.59960E-001	-1.14613E+000	3.57750E+000	10	...........
	30	0.413333	8.46322E-001	6.00079E-003	0.00000E+000	5.07860E-003	3.59960E-001	-1.14943E+000	3.57750E+000	10	...........
	31	0.426667	8.52697E-001	5.99614E-003	0.00000E+000	5.11289E-003	3.59960E-001	-1.15639E+000	3.57750E+000	10	...........
	32	0.44	8.59036E-001	5.99458E-003	0.00000E+000	5.14956E-003	3.59960E-001	-1.14631E+000	3.57750E+000	10	...........
	33	0.453333	8.65390E-001	5.99258E-003	0.00000E+000	5.18592E-003	3.59960E-001	-1.14929E+000	3.57750E+000	10	...........
	34	0.466667	8.71679E-001	5.99353E-003	0.00000E+000	5.22443E-003	3.59960E-001	-1.15615E+000	3.57750E+000	10	...........
	35	0.48	8.77970E-001	5.99348E-003	0.00000E+000	5.26210E-003	3.59960E-001	-1.14613E+000	3.57750E+000	10	...........
	36	0.493333	8.84221E-001	5.99562E-003	0.00000E+000	5.30145E-003	3.59960E-001	-1.14944E+000	3.57750E+000	10	...........
	37	0.506667	8.90390E-001	5.99247E-003	0.00000E+000	5.33563E-003	3.59960E-001	-1.15638E+000	3.57750E+000	10	...........
	38	0.52	8.96630E-001	5.99307E-003	0.00000E+000	5.37357E-003	3.59960E-001	-1.14611E+000	3.57750E+000	10	...........
	39	0.533333	9.02798E-001	5.99549E-003	0.00000E+000	5.41272E-003	3.59960E-001	-1.14935E+000	3.57750E+000	10	...........
	40	0.546667	9.08905E-001	5.99188E-003	0.00000E+000	5.44605E-003	3.59960E-001	-1.15613E+000	3.57750E+000	10	...........
	41	0.56	9.15051E-001	5.99014E-003	0.00000E+000	5.48129E-003	3.59960E-001	-1.14629E+000	3.57750E+000	10	...........
	42	0.573333	9.21164E-001	5.98933E-003	0.00000E+000	5.51715E-003	3.59960E-001	-1.14956E+000	3.57750E+000	10	...........
	43	0.586667	9.27202E-001	5.99865E-003	0.00000E+000	5.56196E-003	3.59960E-001	-1.15605E+000	3.57750E+000	10	...........
	44	0.6	9.33172E-001	5.99412E-003	0.00000E+000	5.59354E-003	3.59960E-001	-1.14610E+000	3.57750E+000	10	...........
	45	0.613333	9.39150E-001	5.99367E-003	0.00000E+000	5.62895E-003	3.59960E-001	-1.14948E+000	3.57750E+000	10	...........
	46	0.626667	9.45066E-001	5.98998E-003	0.00000E+000	5.66093E-003	3.59960E-001	-1.15584E+000	3.57750E+000	10	...........
	47	0.64	9.50976E-001	5.99444E-003	0.00000E+000	5.70057E-003	3.59960E-001	-1.14601E+000	3.57750E+000	10	...........
	48	0.653333	9.56812E-001	5.99154E-003	0.00000E+000	5.73277E-003	3.59960E-001	-1.14917E+000	3.57750E+000	10	...........
	49	0.666667	9.62609E-001	5.99260E-003	0.00000E+000	5.76853E-003	3.59960E-001	-1.15564E+000	3.57750E+000	10	...........
	50	0.68	9.68324E-001	5.99069E-003	0.00000E+000	5.80093E-003	3.59960E-001	-1.14578E+000	3.57750E+000	10	...........
	51	0.693333	9.74077E-001	5.99810E-003	0.00000E+000	5.84261E-003	3.59960E-001	-1.14949E+000	3.57750E+000	10	...........
	52	0.706667	9.79741E-001	5.99508E-003	0.00000E+000	5.87363E-003	3.59960E-001	-1.15569E+000	3.57750E+000	10	...........
	53	0.72	9.85356E-001	5.99080E-003	0.00000E+000	5.90307E-003	3.59960E-001	-1.14570E+000	3.57750E+000	10	...........
	54	0.733333	9.90921E-001	5.99138E-003	0.00000E+000	5.93698E-003	3.59960E-001	-1.14928E+000	3.57750E+000	10	...........
	55	0.746667	9.96435E-001	5.99565E-003	0.00000E+000	5.97428E-003	3.59960E-001	-1.15557E+000	3.57750E+000	10	...........
	56	0.75	9.99894E-001	6.00360E-003	0.00000E+000	6.00296E-003	3.59960E-001	-1.14618E+000	3.57750E+000	10	...........
STARTTIMEOFFSET	QUANT	1030.399	Start Time Offset (s)