File: Data/CV_CRGO300517_1/PWRCCD_CRGO300517_1/CHARGE_DISCHARGE/CHARGE_#323.DTA
EXPLAIN
TAG	PWR800_CHARGE
TITLE	LABEL	PWR Cyclic Charge Discharge (Cell) - Charge Step	Test &Identifier
DATE	LABEL	22-6-2017	Date
TIME	LABEL	15:48:52	Time
NOTES	NOTES	3	&Notes...
	supercap test cell
	0.6mg
	6M KOH
PSTAT	PSTAT	IFC5000-01520	Potentiostat
CAPACITY	QUANT	1.00000E-003	Capacity (A-hr)
CELLTYPE	SELECTOR	1	&Cell Type
WORKINGCONNECTION	SELECTOR	0	&Working Lead
MAXCHARGETIME	VARIABLEANDUNITS	1.00000E+002	s	1.00000E+002	second(s)	Max &Charge Time
CHARGECURRENT	QUANT	6.00000E-003	&Charge Current (A)
VOLTAGEFINISH	TWOPARAM	F	1.00000E-003	3.60000E+003	&Voltage Finish	 I (A) < 	Max Time(s)
SAMPLETIME	QUANT	1.00000E-002	Sa&mple Period (s)
CHARGESTOPAT1	MULTIPARAM	4	1.00000E+000	Charge Stop At &1	Voltage > Limit	V
CHARGESTOPAT2	MULTIPARAM	0	0.00000E+000	Charge Stop At &2	None	N/A
AESBHCSELECTOR	TOGGLE	F	Save Both Half Cells
IRCOMP	TOGGLE	F	IR &Measure
EOC	QUANT	0	Open Circuit (V)
SEQUENCER	TOGGLE	TRUE	Run as Sequence
PSTATMODEL	IQUANT	53	Pstat Model
PSTATSECTION	LABEL	IFC5000-01520	Pstat Section
PSTATSERIALNO	LABEL	01520	Pstat Serial Number
CTRLMODE	IQUANT	0	Control Mode
ELECTROMETER	IQUANT	1	RE=0 or CS=1
IESTAB	IQUANT	0	I/E Stability
CASPEED	IQUANT	4	Control Amp Speed
CONVENTION	IQUANT	1	Current Convention
ICHRANGE	IQUANT	2	Ich Range
ICHRANGEMODE	TOGGLE	T	Ich Auto Range
ICHOFFSETENABLE	TOGGLE	F	Ich Offset Enable
ICHOFFSET	QUANT	0	Ich Offset (V)
ICHFILTER	IQUANT	1	Ich Filter
VCHRANGE	IQUANT	2	Vch Range
VCHRANGEMODE	TOGGLE	T	Vch Auto Range
VCHOFFSETENABLE	TOGGLE	F	Vch Offset Enable
VCHOFFSET	QUANT	0	Vch Offset (V)
VCHFILTER	IQUANT	1	Vch Filter
IERANGELOWERLIMIT	IQUANT	9	I/E Range Lower Limit
IERANGEMODE	TOGGLE	F	I/E AutoRange
IERANGE	IQUANT	10	I/E Range
ACHSELECT	IQUANT	1	Ach Select
ACHRANGE	IQUANT	2	Ach Range
ACHOFFSETENABLE	TOGGLE	F	Ach Offset Enable
ACHOFFSET	QUANT	0	Ach Offset (V)
ACHFILTER	IQUANT	1	Ach Filter
CABLEID	IQUANT	14	Cable ID
DCCALDATE	LABEL	20-10-2016	DC Calibration Date
ACCALDATE	LABEL	12/3/2015	AC Calibration Date
FRAMEWORKVERSION	QUANT	7.01	Framework Version
INSTRUMENTVERSION	LABEL	4.00	Instrument Version
CURVE	TABLE	62
	Pt	T	Vf	Im	Vu	Pwr	Sig	Ach	Temp	IERange	Over
	#	s	V	A	V	W	V	V	deg C	#	bits
	0	0.013333	6.18826E-001	5.99152E-003	0.00000E+000	3.70770E-003	3.59960E-001	-1.11986E+000	3.57700E+000	10	...........
	1	0.026667	6.27433E-001	5.99155E-003	0.00000E+000	3.75929E-003	3.59960E-001	-1.11127E+000	3.57700E+000	10	...........
	2	0.04	6.35359E-001	5.99446E-003	0.00000E+000	3.80863E-003	3.59960E-001	-1.11604E+000	3.57700E+000	10	...........
	3	0.053333	6.42894E-001	5.99180E-003	0.00000E+000	3.85209E-003	3.59960E-001	-1.11991E+000	3.57704E+000	10	...........
	4	0.066667	6.50102E-001	5.99680E-003	0.00000E+000	3.89853E-003	3.59960E-001	-1.11160E+000	3.57710E+000	10	...........
	5	0.08	6.57198E-001	5.99437E-003	0.00000E+000	3.93949E-003	3.59960E-001	-1.11562E+000	3.57710E+000	10	...........
	6	0.093333	6.64102E-001	5.99281E-003	0.00000E+000	3.97984E-003	3.59960E-001	-1.11967E+000	3.57710E+000	10	...........
	7	0.106667	6.70940E-001	5.99531E-003	0.00000E+000	4.02250E-003	3.59960E-001	-1.11114E+000	3.57710E+000	10	...........
	8	0.12	6.77680E-001	5.99305E-003	0.00000E+000	4.06137E-003	3.59960E-001	-1.11591E+000	3.57710E+000	10	...........
	9	0.133333	6.84337E-001	5.99454E-003	0.00000E+000	4.10229E-003	3.59960E-001	-1.11982E+000	3.57710E+000	10	...........
	10	0.146667	6.90958E-001	5.99426E-003	0.00000E+000	4.14179E-003	3.59960E-001	-1.11129E+000	3.57710E+000	10	...........
	11	0.16	6.97520E-001	5.99168E-003	0.00000E+000	4.17932E-003	3.59960E-001	-1.11532E+000	3.57710E+000	10	...........
	12	0.173333	7.04068E-001	5.99522E-003	0.00000E+000	4.22104E-003	3.59960E-001	-1.11992E+000	3.57710E+000	10	...........
	13	0.186667	7.10513E-001	5.99689E-003	0.00000E+000	4.26087E-003	3.59960E-001	-1.11161E+000	3.57710E+000	10	...........
	14	0.2	7.16972E-001	5.99500E-003	0.00000E+000	4.29825E-003	3.59960E-001	-1.11548E+000	3.57710E+000	10	...........
	15	0.213333	7.23417E-001	5.99263E-003	0.00000E+000	4.33517E-003	3.59960E-001	-1.11993E+000	3.57710E+000	10	...........
	16	0.226667	7.29808E-001	5.99184E-003	0.00000E+000	4.37289E-003	3.59960E-001	-1.11124E+000	3.57710E+000	10	...........
	17	0.24	7.36184E-001	5.99133E-003	0.00000E+000	4.41072E-003	3.59960E-001	-1.11524E+000	3.57710E+000	10	...........
	18	0.253333	7.42558E-001	5.99310E-003	0.00000E+000	4.45022E-003	3.59960E-001	-1.12029E+000	3.57710E+000	10	...........
	19	0.266667	7.48927E-001	5.99292E-003	0.00000E+000	4.48826E-003	3.59960E-001	-1.11095E+000	3.57710E+000	10	...........
	20	0.28	7.55277E-001	5.99271E-003	0.00000E+000	4.52616E-003	3.59960E-001	-1.11460E+000	3.57710E+000	10	...........
	21	0.293333	7.61617E-001	5.99187E-003	0.00000E+000	4.56351E-003	3.59960E-001	-1.11978E+000	3.57710E+000	10	...........
	22	0.306667	7.67946E-001	5.99761E-003	0.00000E+000	4.60584E-003	3.59960E-001	-1.11115E+000	3.57710E+000	10	...........
	23	0.32	7.74228E-001	5.99569E-003	0.00000E+000	4.64203E-003	3.59960E-001	-1.11490E+000	3.57710E+000	10	...........
	24	0.333333	7.80500E-001	5.99317E-003	0.00000E+000	4.67767E-003	3.59960E-001	-1.12012E+000	3.57710E+000	10	...........
	25	0.346667	7.86775E-001	5.99131E-003	0.00000E+000	4.71381E-003	3.59960E-001	-1.11101E+000	3.57710E+000	10	...........
	26	0.36	7.93084E-001	5.99948E-003	0.00000E+000	4.75809E-003	3.59960E-001	-1.11503E+000	3.57710E+000	10	...........
	27	0.373333	7.99342E-001	5.99554E-003	0.00000E+000	4.79249E-003	3.59960E-001	-1.12046E+000	3.57710E+000	10	...........
	28	0.386667	8.05546E-001	5.99036E-003	0.00000E+000	4.82551E-003	3.59960E-001	-1.11151E+000	3.57710E+000	10	...........
	29	0.4	8.11814E-001	5.99638E-003	0.00000E+000	4.86795E-003	3.59960E-001	-1.11543E+000	3.57710E+000	10	...........
	30	0.413333	8.18058E-001	5.99634E-003	0.00000E+000	4.90535E-003	3.59960E-001	-1.12104E+000	3.57710E+000	10	...........
	31	0.426667	8.24270E-001	5.99434E-003	0.00000E+000	4.94096E-003	3.59960E-001	-1.11211E+000	3.57710E+000	10	...........
	32	0.44	8.30438E-001	5.99844E-003	0.00000E+000	4.98133E-003	3.59960E-001	-1.11576E+000	3.57710E+000	10	...........
	33	0.453333	8.36602E-001	5.99252E-003	0.00000E+000	5.01336E-003	3.59960E-001	-1.12178E+000	3.57710E+000	10	...........
	34	0.466667	8.42793E-001	5.99440E-003	0.00000E+000	5.05204E-003	3.59960E-001	-1.11296E+000	3.57710E+000	10	...........
	35	0.48	8.48994E-001	5.99148E-003	0.00000E+000	5.08673E-003	3.59960E-001	-1.11647E+000	3.57710E+000	10	...........
	36	0.493333	8.55138E-001	5.99409E-003	0.00000E+000	5.12578E-003	3.59960E-001	-1.12291E+000	3.57710E+000	10	...........
	37	0.506667	8.61321E-001	5.99246E-003	0.00000E+000	5.16143E-003	3.59960E-001	-1.11371E+000	3.57710E+000	10	...........
	38	0.52	8.67410E-001	5.99628E-003	0.00000E+000	5.20124E-003	3.59960E-001	-1.11727E+000	3.57710E+000	10	...........
	39	0.533333	8.73546E-001	5.99476E-003	0.00000E+000	5.23670E-003	3.59960E-001	-1.12356E+000	3.57710E+000	10	...........
	40	0.546667	8.79643E-001	5.99672E-003	0.00000E+000	5.27498E-003	3.59960E-001	-1.11404E+000	3.57710E+000	10	...........
	41	0.56	8.85659E-001	5.99472E-003	0.00000E+000	5.30928E-003	3.59960E-001	-1.11711E+000	3.57710E+000	10	...........
	42	0.573333	8.91729E-001	5.98969E-003	0.00000E+000	5.34118E-003	3.59960E-001	-1.12368E+000	3.57710E+000	10	...........
	43	0.586667	8.97775E-001	5.99689E-003	0.00000E+000	5.38386E-003	3.59960E-001	-1.11418E+000	3.57710E+000	10	...........
	44	0.6	9.03755E-001	5.99112E-003	0.00000E+000	5.41450E-003	3.59960E-001	-1.11720E+000	3.57710E+000	10	...........
	45	0.613333	9.09729E-001	5.99868E-003	0.00000E+000	5.45718E-003	3.59960E-001	-1.12354E+000	3.57710E+000	10	...........
	46	0.626667	9.15658E-001	5.99593E-003	0.00000E+000	5.49022E-003	3.59960E-001	-1.11398E+000	3.57710E+000	10	...........
	47	0.64	9.21606E-001	5.99531E-003	0.00000E+000	5.52532E-003	3.59960E-001	-1.11698E+000	3.57710E+000	10	...........
	48	0.653333	9.27530E-001	5.99415E-003	0.00000E+000	5.55975E-003	3.59960E-001	-1.12400E+000	3.57710E+000	10	...........
	49	0.666667	9.33392E-001	5.99521E-003	0.00000E+000	5.59588E-003	3.59960E-001	-1.11431E+000	3.57710E+000	10	...........
	50	0.68	9.39222E-001	5.99384E-003	0.00000E+000	5.62955E-003	3.59960E-001	-1.11684E+000	3.57710E+000	10	...........
	51	0.693333	9.45007E-001	5.99391E-003	0.00000E+000	5.66429E-003	3.59960E-001	-1.12369E+000	3.57710E+000	10	...........
	52	0.706667	9.50767E-001	5.99329E-003	0.00000E+000	5.69822E-003	3.59960E-001	-1.11446E+000	3.57710E+000	10	...........
	53	0.72	9.56504E-001	5.98972E-003	0.00000E+000	5.72920E-003	3.59960E-001	-1.11690E+000	3.57710E+000	10	...........
	54	0.733333	9.62168E-001	5.99508E-003	0.00000E+000	5.76828E-003	3.59960E-001	-1.12410E+000	3.57710E+000	10	...........
	55	0.746667	9.67815E-001	5.99328E-003	0.00000E+000	5.80038E-003	3.59960E-001	-1.11440E+000	3.57710E+000	10	...........
	56	0.76	9.73453E-001	5.99249E-003	0.00000E+000	5.83340E-003	3.59960E-001	-1.11686E+000	3.57710E+000	10	...........
	57	0.773333	9.79049E-001	5.99754E-003	0.00000E+000	5.87188E-003	3.59960E-001	-1.12414E+000	3.57710E+000	10	...........
	58	0.786667	9.84562E-001	5.99489E-003	0.00000E+000	5.90234E-003	3.59960E-001	-1.11439E+000	3.57710E+000	10	...........
	59	0.8	9.90055E-001	5.99368E-003	0.00000E+000	5.93407E-003	3.59960E-001	-1.11675E+000	3.57710E+000	10	...........
	60	0.813333	9.95486E-001	5.99400E-003	0.00000E+000	5.96694E-003	3.59960E-001	-1.12406E+000	3.57710E+000	10	...........
	61	0.82	9.99589E-001	5.99187E-003	0.00000E+000	5.98941E-003	3.59960E-001	-1.10678E+000	3.57710E+000	10	...........
STARTTIMEOFFSET	QUANT	578.8348	Start Time Offset (s)