File: Data/CV_CRGO300517_1/PWRCCD_CRGO300517_1/CHARGE_DISCHARGE/CHARGE_#504.DTA
EXPLAIN
TAG	PWR800_CHARGE
TITLE	LABEL	PWR Cyclic Charge Discharge (Cell) - Charge Step	Test &Identifier
DATE	LABEL	22-6-2017	Date
TIME	LABEL	15:56:04	Time
NOTES	NOTES	3	&Notes...
	supercap test cell
	0.6mg
	6M KOH
PSTAT	PSTAT	IFC5000-01520	Potentiostat
CAPACITY	QUANT	1.00000E-003	Capacity (A-hr)
CELLTYPE	SELECTOR	1	&Cell Type
WORKINGCONNECTION	SELECTOR	0	&Working Lead
MAXCHARGETIME	VARIABLEANDUNITS	1.00000E+002	s	1.00000E+002	second(s)	Max &Charge Time
CHARGECURRENT	QUANT	6.00000E-003	&Charge Current (A)
VOLTAGEFINISH	TWOPARAM	F	1.00000E-003	3.60000E+003	&Voltage Finish	 I (A) < 	Max Time(s)
SAMPLETIME	QUANT	1.00000E-002	Sa&mple Period (s)
CHARGESTOPAT1	MULTIPARAM	4	1.00000E+000	Charge Stop At &1	Voltage > Limit	V
CHARGESTOPAT2	MULTIPARAM	0	0.00000E+000	Charge Stop At &2	None	N/A
AESBHCSELECTOR	TOGGLE	F	Save Both Half Cells
IRCOMP	TOGGLE	F	IR &Measure
EOC	QUANT	0	Open Circuit (V)
SEQUENCER	TOGGLE	TRUE	Run as Sequence
PSTATMODEL	IQUANT	53	Pstat Model
PSTATSECTION	LABEL	IFC5000-01520	Pstat Section
PSTATSERIALNO	LABEL	01520	Pstat Serial Number
CTRLMODE	IQUANT	0	Control Mode
ELECTROMETER	IQUANT	1	RE=0 or CS=1
IESTAB	IQUANT	0	I/E Stability
CASPEED	IQUANT	4	Control Amp Speed
CONVENTION	IQUANT	1	Current Convention
ICHRANGE	IQUANT	2	Ich Range
ICHRANGEMODE	TOGGLE	T	Ich Auto Range
ICHOFFSETENABLE	TOGGLE	F	Ich Offset Enable
ICHOFFSET	QUANT	0	Ich Offset (V)
ICHFILTER	IQUANT	1	Ich Filter
VCHRANGE	IQUANT	2	Vch Range
VCHRANGEMODE	TOGGLE	T	Vch Auto Range
VCHOFFSETENABLE	TOGGLE	F	Vch Offset Enable
VCHOFFSET	QUANT	0	Vch Offset (V)
VCHFILTER	IQUANT	1	Vch Filter
IERANGELOWERLIMIT	IQUANT	9	I/E Range Lower Limit
IERANGEMODE	TOGGLE	F	I/E AutoRange
IERANGE	IQUANT	10	I/E Range
ACHSELECT	IQUANT	1	Ach Select
ACHRANGE	IQUANT	2	Ach Range
ACHOFFSETENABLE	TOGGLE	F	Ach Offset Enable
ACHOFFSET	QUANT	0	Ach Offset (V)
ACHFILTER	IQUANT	1	Ach Filter
CABLEID	IQUANT	14	Cable ID
DCCALDATE	LABEL	20-10-2016	DC Calibration Date
ACCALDATE	LABEL	12/3/2015	AC Calibration Date
FRAMEWORKVERSION	QUANT	7.01	Framework Version
INSTRUMENTVERSION	LABEL	4.00	Instrument Version
CURVE	TABLE	58
	Pt	T	Vf	Im	Vu	Pwr	Sig	Ach	Temp	IERange	Over
	#	s	V	A	V	W	V	V	deg C	#	bits
	0	0.013333	6.32015E-001	5.99660E-003	0.00000E+000	3.78994E-003	3.59960E-001	-1.13070E+000	3.57640E+000	10	...........
	1	0.026667	6.40902E-001	5.99548E-003	0.00000E+000	3.84252E-003	3.59960E-001	-1.13867E+000	3.57640E+000	10	...........
	2	0.04	6.49053E-001	5.99128E-003	0.00000E+000	3.88866E-003	3.59960E-001	-1.12833E+000	3.57640E+000	10	...........
	3	0.053333	6.56855E-001	5.99131E-003	0.00000E+000	3.93542E-003	3.59960E-001	-1.13058E+000	3.57640E+000	10	...........
	4	0.066667	6.64355E-001	5.99103E-003	0.00000E+000	3.98017E-003	3.59960E-001	-1.13904E+000	3.57640E+000	10	...........
	5	0.08	6.71691E-001	5.99236E-003	0.00000E+000	4.02502E-003	3.59960E-001	-1.12849E+000	3.57640E+000	10	...........
	6	0.093333	6.78797E-001	5.99482E-003	0.00000E+000	4.06927E-003	3.59960E-001	-1.13070E+000	3.57640E+000	10	...........
	7	0.106667	6.85828E-001	5.98955E-003	0.00000E+000	4.10780E-003	3.59960E-001	-1.13901E+000	3.57640E+000	10	...........
	8	0.12	6.92795E-001	5.99418E-003	0.00000E+000	4.15274E-003	3.59960E-001	-1.12870E+000	3.57640E+000	10	...........
	9	0.133333	6.99655E-001	5.99251E-003	0.00000E+000	4.19269E-003	3.59960E-001	-1.13094E+000	3.57640E+000	10	...........
	10	0.146667	7.06444E-001	5.99455E-003	0.00000E+000	4.23482E-003	3.59960E-001	-1.13885E+000	3.57640E+000	10	...........
	11	0.16	7.13205E-001	5.99225E-003	0.00000E+000	4.27370E-003	3.59960E-001	-1.12836E+000	3.57640E+000	10	...........
	12	0.173333	7.19993E-001	5.99469E-003	0.00000E+000	4.31613E-003	3.59960E-001	-1.13071E+000	3.57640E+000	10	...........
	13	0.186667	7.26652E-001	5.99534E-003	0.00000E+000	4.35652E-003	3.59960E-001	-1.13855E+000	3.57640E+000	10	...........
	14	0.2	7.33255E-001	5.99739E-003	0.00000E+000	4.39762E-003	3.59960E-001	-1.12843E+000	3.57640E+000	10	...........
	15	0.213333	7.39872E-001	5.99741E-003	0.00000E+000	4.43731E-003	3.59960E-001	-1.13078E+000	3.57640E+000	10	...........
	16	0.226667	7.46477E-001	5.99361E-003	0.00000E+000	4.47409E-003	3.59960E-001	-1.13831E+000	3.57640E+000	10	...........
	17	0.24	7.53075E-001	5.99140E-003	0.00000E+000	4.51198E-003	3.59960E-001	-1.12803E+000	3.57640E+000	10	...........
	18	0.253333	7.59635E-001	5.99290E-003	0.00000E+000	4.55242E-003	3.59960E-001	-1.13074E+000	3.57640E+000	10	...........
	19	0.266667	7.66135E-001	5.99757E-003	0.00000E+000	4.59495E-003	3.59960E-001	-1.13857E+000	3.57665E+000	10	...........
	20	0.28	7.72615E-001	5.99521E-003	0.00000E+000	4.63199E-003	3.59960E-001	-1.12807E+000	3.57680E+000	10	...........
	21	0.293333	7.79132E-001	5.99366E-003	0.00000E+000	4.66985E-003	3.59960E-001	-1.13048E+000	3.57680E+000	10	...........
	22	0.306667	7.85640E-001	5.99413E-003	0.00000E+000	4.70922E-003	3.59960E-001	-1.13763E+000	3.57680E+000	10	...........
	23	0.32	7.92125E-001	5.99507E-003	0.00000E+000	4.74885E-003	3.59960E-001	-1.12715E+000	3.57680E+000	10	...........
	24	0.333333	7.98542E-001	5.99420E-003	0.00000E+000	4.78662E-003	3.59960E-001	-1.13013E+000	3.57680E+000	10	...........
	25	0.346667	8.04967E-001	6.00079E-003	0.00000E+000	4.83044E-003	3.59960E-001	-1.13654E+000	3.57680E+000	10	...........
	26	0.36	8.11374E-001	5.99006E-003	0.00000E+000	4.86018E-003	3.59960E-001	-1.12607E+000	3.57680E+000	10	...........
	27	0.373333	8.17748E-001	5.99358E-003	0.00000E+000	4.90124E-003	3.59960E-001	-1.12875E+000	3.57680E+000	10	...........
	28	0.386667	8.24188E-001	5.99496E-003	0.00000E+000	4.94097E-003	3.59960E-001	-1.13573E+000	3.57680E+000	10	...........
	29	0.4	8.30539E-001	5.99601E-003	0.00000E+000	4.97992E-003	3.59960E-001	-1.12551E+000	3.57680E+000	10	...........
	30	0.413333	8.36917E-001	5.99421E-003	0.00000E+000	5.01666E-003	3.59960E-001	-1.12861E+000	3.57680E+000	10	...........
	31	0.426667	8.43234E-001	5.99739E-003	0.00000E+000	5.05720E-003	3.59960E-001	-1.13543E+000	3.57680E+000	10	...........
	32	0.44	8.49533E-001	5.99052E-003	0.00000E+000	5.08914E-003	3.59960E-001	-1.12492E+000	3.57680E+000	10	...........
	33	0.453333	8.55824E-001	5.99598E-003	0.00000E+000	5.13151E-003	3.59960E-001	-1.12826E+000	3.57680E+000	10	...........
	34	0.466667	8.62105E-001	5.99440E-003	0.00000E+000	5.16780E-003	3.59960E-001	-1.13484E+000	3.57680E+000	10	...........
	35	0.48	8.68372E-001	5.99278E-003	0.00000E+000	5.20396E-003	3.59960E-001	-1.12473E+000	3.57680E+000	10	...........
	36	0.493333	8.74638E-001	5.99243E-003	0.00000E+000	5.24120E-003	3.59960E-001	-1.12770E+000	3.57680E+000	10	...........
	37	0.506667	8.80842E-001	5.99623E-003	0.00000E+000	5.28174E-003	3.59960E-001	-1.13424E+000	3.57680E+000	10	...........
	38	0.52	8.87053E-001	5.99890E-003	0.00000E+000	5.32135E-003	3.59960E-001	-1.12434E+000	3.57680E+000	10	...........
	39	0.533333	8.93157E-001	5.99424E-003	0.00000E+000	5.35380E-003	3.59960E-001	-1.12767E+000	3.57680E+000	10	...........
	40	0.546667	8.99289E-001	5.99353E-003	0.00000E+000	5.38992E-003	3.59960E-001	-1.13363E+000	3.57680E+000	10	...........
	41	0.56	9.05368E-001	5.99428E-003	0.00000E+000	5.42703E-003	3.59960E-001	-1.12358E+000	3.57680E+000	10	...........
	42	0.573333	9.11462E-001	5.99210E-003	0.00000E+000	5.46158E-003	3.59960E-001	-1.12692E+000	3.57680E+000	10	...........
	43	0.586667	9.17498E-001	5.99947E-003	0.00000E+000	5.50450E-003	3.59960E-001	-1.13343E+000	3.57680E+000	10	...........
	44	0.6	9.23579E-001	5.99875E-003	0.00000E+000	5.54032E-003	3.59960E-001	-1.12348E+000	3.57680E+000	10	...........
	45	0.613333	9.29497E-001	5.99046E-003	0.00000E+000	5.56812E-003	3.59960E-001	-1.12679E+000	3.57680E+000	10	...........
	46	0.626667	9.35464E-001	5.99356E-003	0.00000E+000	5.60676E-003	3.59960E-001	-1.13263E+000	3.57680E+000	10	...........
	47	0.64	9.41404E-001	5.99132E-003	0.00000E+000	5.64025E-003	3.59960E-001	-1.12262E+000	3.57680E+000	10	...........
	48	0.653333	9.47293E-001	5.99107E-003	0.00000E+000	5.67530E-003	3.59960E-001	-1.12690E+000	3.57680E+000	10	...........
	49	0.666667	9.53148E-001	5.99310E-003	0.00000E+000	5.71231E-003	3.59960E-001	-1.13184E+000	3.57680E+000	10	...........
	50	0.68	9.58926E-001	5.99476E-003	0.00000E+000	5.74853E-003	3.59960E-001	-1.12199E+000	3.57680E+000	10	...........
	51	0.693333	9.64648E-001	5.99410E-003	0.00000E+000	5.78220E-003	3.59960E-001	-1.12546E+000	3.57680E+000	10	...........
	52	0.706667	9.70322E-001	5.98975E-003	0.00000E+000	5.81199E-003	3.59960E-001	-1.13076E+000	3.57680E+000	10	...........
	53	0.72	9.76048E-001	5.99564E-003	0.00000E+000	5.85203E-003	3.59960E-001	-1.12160E+000	3.57680E+000	10	...........
	54	0.733333	9.81665E-001	5.99563E-003	0.00000E+000	5.88570E-003	3.59960E-001	-1.12558E+000	3.57680E+000	10	...........
	55	0.746667	9.87251E-001	5.99998E-003	0.00000E+000	5.92348E-003	3.59960E-001	-1.13053E+000	3.57680E+000	10	...........
	56	0.76	9.92760E-001	5.99445E-003	0.00000E+000	5.95105E-003	3.59960E-001	-1.12076E+000	3.57680E+000	10	...........
	57	0.773333	9.98272E-001	5.99522E-003	0.00000E+000	5.98486E-003	3.59960E-001	-1.12482E+000	3.57680E+000	10	...........
STARTTIMEOFFSET	QUANT	865.1837	Start Time Offset (s)