File: Data/CV_CRGO300517_1/PWRCCD_CRGO300517_1/CHARGE_DISCHARGE/CHARGE_#147.DTA
EXPLAIN
TAG	PWR800_CHARGE
TITLE	LABEL	PWR Cyclic Charge Discharge (Cell) - Charge Step	Test &Identifier
DATE	LABEL	22-6-2017	Date
TIME	LABEL	15:41:33	Time
NOTES	NOTES	3	&Notes...
	supercap test cell
	0.6mg
	6M KOH
PSTAT	PSTAT	IFC5000-01520	Potentiostat
CAPACITY	QUANT	1.00000E-003	Capacity (A-hr)
CELLTYPE	SELECTOR	1	&Cell Type
WORKINGCONNECTION	SELECTOR	0	&Working Lead
MAXCHARGETIME	VARIABLEANDUNITS	1.00000E+002	s	1.00000E+002	second(s)	Max &Charge Time
CHARGECURRENT	QUANT	6.00000E-003	&Charge Current (A)
VOLTAGEFINISH	TWOPARAM	F	1.00000E-003	3.60000E+003	&Voltage Finish	 I (A) < 	Max Time(s)
SAMPLETIME	QUANT	1.00000E-002	Sa&mple Period (s)
CHARGESTOPAT1	MULTIPARAM	4	1.00000E+000	Charge Stop At &1	Voltage > Limit	V
CHARGESTOPAT2	MULTIPARAM	0	0.00000E+000	Charge Stop At &2	None	N/A
AESBHCSELECTOR	TOGGLE	F	Save Both Half Cells
IRCOMP	TOGGLE	F	IR &Measure
EOC	QUANT	0	Open Circuit (V)
SEQUENCER	TOGGLE	TRUE	Run as Sequence
PSTATMODEL	IQUANT	53	Pstat Model
PSTATSECTION	LABEL	IFC5000-01520	Pstat Section
PSTATSERIALNO	LABEL	01520	Pstat Serial Number
CTRLMODE	IQUANT	0	Control Mode
ELECTROMETER	IQUANT	1	RE=0 or CS=1
IESTAB	IQUANT	0	I/E Stability
CASPEED	IQUANT	4	Control Amp Speed
CONVENTION	IQUANT	1	Current Convention
ICHRANGE	IQUANT	2	Ich Range
ICHRANGEMODE	TOGGLE	T	Ich Auto Range
ICHOFFSETENABLE	TOGGLE	F	Ich Offset Enable
ICHOFFSET	QUANT	0	Ich Offset (V)
ICHFILTER	IQUANT	1	Ich Filter
VCHRANGE	IQUANT	2	Vch Range
VCHRANGEMODE	TOGGLE	T	Vch Auto Range
VCHOFFSETENABLE	TOGGLE	F	Vch Offset Enable
VCHOFFSET	QUANT	0	Vch Offset (V)
VCHFILTER	IQUANT	1	Vch Filter
IERANGELOWERLIMIT	IQUANT	9	I/E Range Lower Limit
IERANGEMODE	TOGGLE	F	I/E AutoRange
IERANGE	IQUANT	10	I/E Range
ACHSELECT	IQUANT	1	Ach Select
ACHRANGE	IQUANT	2	Ach Range
ACHOFFSETENABLE	TOGGLE	F	Ach Offset Enable
ACHOFFSET	QUANT	0	Ach Offset (V)
ACHFILTER	IQUANT	1	Ach Filter
CABLEID	IQUANT	14	Cable ID
DCCALDATE	LABEL	20-10-2016	DC Calibration Date
ACCALDATE	LABEL	12/3/2015	AC Calibration Date
FRAMEWORKVERSION	QUANT	7.01	Framework Version
INSTRUMENTVERSION	LABEL	4.00	Instrument Version
CURVE	TABLE	68
	Pt	T	Vf	Im	Vu	Pwr	Sig	Ach	Temp	IERange	Over
	#	s	V	A	V	W	V	V	deg C	#	bits
	0	0.013333	5.96995E-001	5.99266E-003	0.00000E+000	3.57759E-003	3.59960E-001	-1.07276E+000	3.57830E+000	10	...........
	1	0.026667	6.05323E-001	5.99310E-003	0.00000E+000	3.62776E-003	3.59960E-001	-1.07108E+000	3.57830E+000	10	...........
	2	0.04	6.12995E-001	5.99468E-003	0.00000E+000	3.67471E-003	3.59960E-001	-1.08270E+000	3.57830E+000	10	...........
	3	0.053333	6.20307E-001	5.99180E-003	0.00000E+000	3.71676E-003	3.59960E-001	-1.07184E+000	3.57830E+000	10	...........
	4	0.066667	6.27302E-001	5.99603E-003	0.00000E+000	3.76133E-003	3.59960E-001	-1.07055E+000	3.57830E+000	10	...........
	5	0.08	6.34122E-001	5.99137E-003	0.00000E+000	3.79926E-003	3.59960E-001	-1.08238E+000	3.57830E+000	10	...........
	6	0.093333	6.40806E-001	5.99526E-003	0.00000E+000	3.84180E-003	3.59960E-001	-1.07165E+000	3.57830E+000	10	...........
	7	0.106667	6.47381E-001	5.99220E-003	0.00000E+000	3.87923E-003	3.59960E-001	-1.07055E+000	3.57830E+000	10	...........
	8	0.12	6.53894E-001	5.99240E-003	0.00000E+000	3.91839E-003	3.59960E-001	-1.08162E+000	3.57830E+000	10	...........
	9	0.133333	6.60320E-001	5.99693E-003	0.00000E+000	3.95989E-003	3.59960E-001	-1.07181E+000	3.57830E+000	10	...........
	10	0.146667	6.66697E-001	5.99729E-003	0.00000E+000	3.99837E-003	3.59960E-001	-1.07066E+000	3.57830E+000	10	...........
	11	0.16	6.72978E-001	5.99182E-003	0.00000E+000	4.03236E-003	3.59960E-001	-1.08182E+000	3.57830E+000	10	...........
	12	0.173333	6.79242E-001	5.99327E-003	0.00000E+000	4.07088E-003	3.59960E-001	-1.07173E+000	3.57830E+000	10	...........
	13	0.186667	6.85453E-001	5.99548E-003	0.00000E+000	4.10962E-003	3.59960E-001	-1.07041E+000	3.57830E+000	10	...........
	14	0.2	6.91696E-001	5.99938E-003	0.00000E+000	4.14975E-003	3.59960E-001	-1.08214E+000	3.57830E+000	10	...........
	15	0.213333	6.97832E-001	5.99413E-003	0.00000E+000	4.18289E-003	3.59960E-001	-1.07161E+000	3.57830E+000	10	...........
	16	0.226667	7.03946E-001	5.99642E-003	0.00000E+000	4.22115E-003	3.59960E-001	-1.07076E+000	3.57830E+000	10	...........
	17	0.24	7.10058E-001	5.99219E-003	0.00000E+000	4.25480E-003	3.59960E-001	-1.08181E+000	3.57830E+000	10	...........
	18	0.253333	7.16205E-001	5.99653E-003	0.00000E+000	4.29475E-003	3.59960E-001	-1.07149E+000	3.57830E+000	10	...........
	19	0.266667	7.22343E-001	5.99529E-003	0.00000E+000	4.33066E-003	3.59960E-001	-1.07091E+000	3.57830E+000	10	...........
	20	0.28	7.28394E-001	5.99551E-003	0.00000E+000	4.36709E-003	3.59960E-001	-1.08213E+000	3.57830E+000	10	...........
	21	0.293333	7.34447E-001	5.99410E-003	0.00000E+000	4.40235E-003	3.59960E-001	-1.07188E+000	3.57830E+000	10	...........
	22	0.306667	7.40533E-001	5.98778E-003	0.00000E+000	4.43415E-003	3.59960E-001	-1.07068E+000	3.57830E+000	10	...........
	23	0.32	7.46588E-001	5.99399E-003	0.00000E+000	4.47504E-003	3.59960E-001	-1.08205E+000	3.57830E+000	10	...........
	24	0.333333	7.52670E-001	5.99986E-003	0.00000E+000	4.51592E-003	3.59960E-001	-1.07177E+000	3.57830E+000	10	...........
	25	0.346667	7.58692E-001	5.99489E-003	0.00000E+000	4.54827E-003	3.59960E-001	-1.07113E+000	3.57830E+000	10	...........
	26	0.36	7.64687E-001	5.99360E-003	0.00000E+000	4.58323E-003	3.59960E-001	-1.08239E+000	3.57830E+000	10	...........
	27	0.373333	7.70752E-001	5.99640E-003	0.00000E+000	4.62173E-003	3.59960E-001	-1.07129E+000	3.57830E+000	10	...........
	28	0.386667	7.76741E-001	5.99146E-003	0.00000E+000	4.65381E-003	3.59960E-001	-1.07062E+000	3.57830E+000	10	...........
	29	0.4	7.82772E-001	5.99215E-003	0.00000E+000	4.69049E-003	3.59960E-001	-1.08203E+000	3.57830E+000	10	...........
	30	0.413333	7.88765E-001	5.99373E-003	0.00000E+000	4.72764E-003	3.59960E-001	-1.07149E+000	3.57830E+000	10	...........
	31	0.426667	7.94786E-001	5.99515E-003	0.00000E+000	4.76486E-003	3.59960E-001	-1.07077E+000	3.57830E+000	10	...........
	32	0.44	8.00759E-001	5.99704E-003	0.00000E+000	4.80218E-003	3.59960E-001	-1.08189E+000	3.57828E+000	10	...........
	33	0.453333	8.06750E-001	5.99347E-003	0.00000E+000	4.83523E-003	3.59960E-001	-1.07149E+000	3.57710E+000	10	...........
	34	0.466667	8.12722E-001	5.99789E-003	0.00000E+000	4.87462E-003	3.59960E-001	-1.07103E+000	3.57710E+000	10	...........
	35	0.48	8.18717E-001	5.99831E-003	0.00000E+000	4.91092E-003	3.59960E-001	-1.08225E+000	3.57710E+000	10	...........
	36	0.493333	8.24693E-001	5.99166E-003	0.00000E+000	4.94128E-003	3.59960E-001	-1.07150E+000	3.57710E+000	10	...........
	37	0.506667	8.30664E-001	5.99027E-003	0.00000E+000	4.97590E-003	3.59960E-001	-1.07088E+000	3.57710E+000	10	...........
	38	0.52	8.36620E-001	5.99210E-003	0.00000E+000	5.01311E-003	3.59960E-001	-1.08195E+000	3.57710E+000	10	...........
	39	0.533333	8.42582E-001	5.99397E-003	0.00000E+000	5.05041E-003	3.59960E-001	-1.07156E+000	3.57710E+000	10	...........
	40	0.546667	8.48538E-001	5.99066E-003	0.00000E+000	5.08330E-003	3.59960E-001	-1.07099E+000	3.57710E+000	10	...........
	41	0.56	8.54520E-001	5.99580E-003	0.00000E+000	5.12354E-003	3.59960E-001	-1.08211E+000	3.57710E+000	10	...........
	42	0.573333	8.60434E-001	5.99127E-003	0.00000E+000	5.15509E-003	3.59960E-001	-1.07152E+000	3.57710E+000	10	...........
	43	0.586667	8.66335E-001	5.99277E-003	0.00000E+000	5.19174E-003	3.59960E-001	-1.07102E+000	3.57710E+000	10	...........
	44	0.6	8.72267E-001	5.99734E-003	0.00000E+000	5.23128E-003	3.59960E-001	-1.08220E+000	3.57710E+000	10	...........
	45	0.613333	8.78165E-001	5.99466E-003	0.00000E+000	5.26430E-003	3.59960E-001	-1.07158E+000	3.57710E+000	10	...........
	46	0.626667	8.84031E-001	5.99305E-003	0.00000E+000	5.29804E-003	3.59960E-001	-1.07084E+000	3.57710E+000	10	...........
	47	0.64	8.89917E-001	5.99305E-003	0.00000E+000	5.33332E-003	3.59960E-001	-1.08182E+000	3.57710E+000	10	...........
	48	0.653333	8.95794E-001	5.99695E-003	0.00000E+000	5.37203E-003	3.59960E-001	-1.07137E+000	3.57710E+000	10	...........
	49	0.666667	9.01621E-001	5.99284E-003	0.00000E+000	5.40327E-003	3.59960E-001	-1.07086E+000	3.57710E+000	10	...........
	50	0.68	9.07413E-001	5.99564E-003	0.00000E+000	5.44052E-003	3.59960E-001	-1.08184E+000	3.57710E+000	10	...........
	51	0.693333	9.13232E-001	5.99210E-003	0.00000E+000	5.47218E-003	3.59960E-001	-1.07092E+000	3.57710E+000	10	...........
	52	0.706667	9.19059E-001	5.99382E-003	0.00000E+000	5.50868E-003	3.59960E-001	-1.07030E+000	3.57710E+000	10	...........
	53	0.72	9.24826E-001	5.99265E-003	0.00000E+000	5.54216E-003	3.59960E-001	-1.08117E+000	3.57710E+000	10	...........
	54	0.733333	9.30576E-001	5.99396E-003	0.00000E+000	5.57783E-003	3.59960E-001	-1.07070E+000	3.57710E+000	10	...........
	55	0.746667	9.36254E-001	5.99559E-003	0.00000E+000	5.61339E-003	3.59960E-001	-1.07105E+000	3.57710E+000	10	...........
	56	0.76	9.41936E-001	5.99486E-003	0.00000E+000	5.64677E-003	3.59960E-001	-1.08134E+000	3.57710E+000	10	...........
	57	0.773333	9.47598E-001	5.99313E-003	0.00000E+000	5.67908E-003	3.59960E-001	-1.07036E+000	3.57710E+000	10	...........
	58	0.786667	9.53245E-001	5.99348E-003	0.00000E+000	5.71326E-003	3.59960E-001	-1.07051E+000	3.57710E+000	10	...........
	59	0.8	9.58833E-001	5.99511E-003	0.00000E+000	5.74830E-003	3.59960E-001	-1.08130E+000	3.57710E+000	10	...........
	60	0.813333	9.64371E-001	5.99239E-003	0.00000E+000	5.77889E-003	3.59960E-001	-1.07085E+000	3.57710E+000	10	...........
	61	0.826667	9.69877E-001	5.99469E-003	0.00000E+000	5.81411E-003	3.59960E-001	-1.07047E+000	3.57710E+000	10	...........
	62	0.84	9.75441E-001	5.99660E-003	0.00000E+000	5.84933E-003	3.59960E-001	-1.08143E+000	3.57710E+000	10	...........
	63	0.853333	9.80894E-001	5.99738E-003	0.00000E+000	5.88280E-003	3.59960E-001	-1.07052E+000	3.57710E+000	10	...........
	64	0.866667	9.86321E-001	5.99321E-003	0.00000E+000	5.91123E-003	3.59960E-001	-1.07082E+000	3.57710E+000	10	...........
	65	0.88	9.91737E-001	5.99663E-003	0.00000E+000	5.94708E-003	3.59960E-001	-1.08182E+000	3.57710E+000	10	...........
	66	0.893333	9.97110E-001	5.99382E-003	0.00000E+000	5.97650E-003	3.59960E-001	-1.07119E+000	3.57710E+000	10	...........
	67	0.895	1.00014E+000	5.99604E-003	0.00000E+000	5.99691E-003	3.59960E-001	-1.08475E+000	3.57710E+000	10	...........
STARTTIMEOFFSET	QUANT	280.2751	Start Time Offset (s)