File: Data/CV_CRGO300517_1/PWRCCD_CRGO300517_1/CHARGE_DISCHARGE/CHARGE_#816.DTA
EXPLAIN
TAG	PWR800_CHARGE
TITLE	LABEL	PWR Cyclic Charge Discharge (Cell) - Charge Step	Test &Identifier
DATE	LABEL	22-6-2017	Date
TIME	LABEL	16:07:53	Time
NOTES	NOTES	3	&Notes...
	supercap test cell
	0.6mg
	6M KOH
PSTAT	PSTAT	IFC5000-01520	Potentiostat
CAPACITY	QUANT	1.00000E-003	Capacity (A-hr)
CELLTYPE	SELECTOR	1	&Cell Type
WORKINGCONNECTION	SELECTOR	0	&Working Lead
MAXCHARGETIME	VARIABLEANDUNITS	1.00000E+002	s	1.00000E+002	second(s)	Max &Charge Time
CHARGECURRENT	QUANT	6.00000E-003	&Charge Current (A)
VOLTAGEFINISH	TWOPARAM	F	1.00000E-003	3.60000E+003	&Voltage Finish	 I (A) < 	Max Time(s)
SAMPLETIME	QUANT	1.00000E-002	Sa&mple Period (s)
CHARGESTOPAT1	MULTIPARAM	4	1.00000E+000	Charge Stop At &1	Voltage > Limit	V
CHARGESTOPAT2	MULTIPARAM	0	0.00000E+000	Charge Stop At &2	None	N/A
AESBHCSELECTOR	TOGGLE	F	Save Both Half Cells
IRCOMP	TOGGLE	F	IR &Measure
EOC	QUANT	0	Open Circuit (V)
SEQUENCER	TOGGLE	TRUE	Run as Sequence
PSTATMODEL	IQUANT	53	Pstat Model
PSTATSECTION	LABEL	IFC5000-01520	Pstat Section
PSTATSERIALNO	LABEL	01520	Pstat Serial Number
CTRLMODE	IQUANT	0	Control Mode
ELECTROMETER	IQUANT	1	RE=0 or CS=1
IESTAB	IQUANT	0	I/E Stability
CASPEED	IQUANT	4	Control Amp Speed
CONVENTION	IQUANT	1	Current Convention
ICHRANGE	IQUANT	2	Ich Range
ICHRANGEMODE	TOGGLE	T	Ich Auto Range
ICHOFFSETENABLE	TOGGLE	F	Ich Offset Enable
ICHOFFSET	QUANT	0	Ich Offset (V)
ICHFILTER	IQUANT	1	Ich Filter
VCHRANGE	IQUANT	2	Vch Range
VCHRANGEMODE	TOGGLE	T	Vch Auto Range
VCHOFFSETENABLE	TOGGLE	F	Vch Offset Enable
VCHOFFSET	QUANT	0	Vch Offset (V)
VCHFILTER	IQUANT	1	Vch Filter
IERANGELOWERLIMIT	IQUANT	9	I/E Range Lower Limit
IERANGEMODE	TOGGLE	F	I/E AutoRange
IERANGE	IQUANT	10	I/E Range
ACHSELECT	IQUANT	1	Ach Select
ACHRANGE	IQUANT	2	Ach Range
ACHOFFSETENABLE	TOGGLE	F	Ach Offset Enable
ACHOFFSET	QUANT	0	Ach Offset (V)
ACHFILTER	IQUANT	1	Ach Filter
CABLEID	IQUANT	14	Cable ID
DCCALDATE	LABEL	20-10-2016	DC Calibration Date
ACCALDATE	LABEL	12/3/2015	AC Calibration Date
FRAMEWORKVERSION	QUANT	7.01	Framework Version
INSTRUMENTVERSION	LABEL	4.00	Instrument Version
CURVE	TABLE	54
	Pt	T	Vf	Im	Vu	Pwr	Sig	Ach	Temp	IERange	Over
	#	s	V	A	V	W	V	V	deg C	#	bits
	0	0.013333	6.49357E-001	5.99595E-003	0.00000E+000	3.89351E-003	3.59960E-001	-1.16119E+000	3.57640E+000	10	...........
	1	0.026667	6.58559E-001	5.99174E-003	0.00000E+000	3.94591E-003	3.59960E-001	-1.17089E+000	3.57640E+000	10	...........
	2	0.04	6.67048E-001	5.99455E-003	0.00000E+000	3.99866E-003	3.59960E-001	-1.16029E+000	3.57640E+000	10	...........
	3	0.053333	6.75073E-001	5.99019E-003	0.00000E+000	4.04382E-003	3.59960E-001	-1.16118E+000	3.57640E+000	10	...........
	4	0.066667	6.82773E-001	5.99234E-003	0.00000E+000	4.09141E-003	3.59960E-001	-1.17089E+000	3.57640E+000	10	...........
	5	0.08	6.90342E-001	5.99427E-003	0.00000E+000	4.13810E-003	3.59960E-001	-1.16017E+000	3.57640E+000	10	...........
	6	0.093333	6.97721E-001	5.99365E-003	0.00000E+000	4.18189E-003	3.59960E-001	-1.16119E+000	3.57640E+000	10	...........
	7	0.106667	7.04986E-001	5.99623E-003	0.00000E+000	4.22726E-003	3.59960E-001	-1.17098E+000	3.57640E+000	10	...........
	8	0.12	7.12171E-001	5.99450E-003	0.00000E+000	4.26911E-003	3.59960E-001	-1.16034E+000	3.57640E+000	10	...........
	9	0.133333	7.19311E-001	5.99644E-003	0.00000E+000	4.31331E-003	3.59960E-001	-1.16140E+000	3.57640E+000	10	...........
	10	0.146667	7.26352E-001	5.99813E-003	0.00000E+000	4.35675E-003	3.59960E-001	-1.17086E+000	3.57640E+000	10	...........
	11	0.16	7.33305E-001	5.99262E-003	0.00000E+000	4.39442E-003	3.59960E-001	-1.16006E+000	3.57645E+000	10	...........
	12	0.173333	7.40238E-001	5.99221E-003	0.00000E+000	4.43566E-003	3.59960E-001	-1.16143E+000	3.57660E+000	10	...........
	13	0.186667	7.47173E-001	5.99089E-003	0.00000E+000	4.47623E-003	3.59960E-001	-1.17091E+000	3.57660E+000	10	...........
	14	0.2	7.54033E-001	5.99114E-003	0.00000E+000	4.51752E-003	3.59960E-001	-1.16015E+000	3.57660E+000	10	...........
	15	0.213333	7.60872E-001	5.99590E-003	0.00000E+000	4.56211E-003	3.59960E-001	-1.16109E+000	3.57660E+000	10	...........
	16	0.226667	7.67659E-001	5.99428E-003	0.00000E+000	4.60157E-003	3.59960E-001	-1.17060E+000	3.57660E+000	10	...........
	17	0.24	7.74446E-001	5.99415E-003	0.00000E+000	4.64214E-003	3.59960E-001	-1.16016E+000	3.57660E+000	10	...........
	18	0.253333	7.81224E-001	5.99246E-003	0.00000E+000	4.68145E-003	3.59960E-001	-1.16098E+000	3.57660E+000	10	...........
	19	0.266667	7.87931E-001	5.99155E-003	0.00000E+000	4.72092E-003	3.59960E-001	-1.17052E+000	3.57660E+000	10	...........
	20	0.28	7.94639E-001	5.99262E-003	0.00000E+000	4.76197E-003	3.59960E-001	-1.15997E+000	3.57660E+000	10	...........
	21	0.293333	8.01317E-001	5.99846E-003	0.00000E+000	4.80667E-003	3.59960E-001	-1.16118E+000	3.57660E+000	10	...........
	22	0.306667	8.07947E-001	5.99079E-003	0.00000E+000	4.84024E-003	3.59960E-001	-1.17065E+000	3.57660E+000	10	...........
	23	0.32	8.14572E-001	5.99795E-003	0.00000E+000	4.88576E-003	3.59960E-001	-1.15977E+000	3.57660E+000	10	...........
	24	0.333333	8.21227E-001	5.99458E-003	0.00000E+000	4.92291E-003	3.59960E-001	-1.16103E+000	3.57660E+000	10	...........
	25	0.346667	8.27778E-001	5.99314E-003	0.00000E+000	4.96099E-003	3.59960E-001	-1.17053E+000	3.57660E+000	10	...........
	26	0.36	8.34279E-001	5.99052E-003	0.00000E+000	4.99776E-003	3.59960E-001	-1.15977E+000	3.57660E+000	10	...........
	27	0.373333	8.40829E-001	5.99418E-003	0.00000E+000	5.04008E-003	3.59960E-001	-1.16086E+000	3.57660E+000	10	...........
	28	0.386667	8.47370E-001	5.99075E-003	0.00000E+000	5.07638E-003	3.59960E-001	-1.17045E+000	3.57660E+000	10	...........
	29	0.4	8.53846E-001	5.99319E-003	0.00000E+000	5.11726E-003	3.59960E-001	-1.15980E+000	3.57660E+000	10	...........
	30	0.413333	8.60295E-001	5.99573E-003	0.00000E+000	5.15810E-003	3.59960E-001	-1.16104E+000	3.57660E+000	10	...........
	31	0.426667	8.66733E-001	5.99592E-003	0.00000E+000	5.19686E-003	3.59960E-001	-1.17072E+000	3.57660E+000	10	...........
	32	0.44	8.73210E-001	5.99189E-003	0.00000E+000	5.23218E-003	3.59960E-001	-1.15983E+000	3.57660E+000	10	...........
	33	0.453333	8.79583E-001	5.99454E-003	0.00000E+000	5.27270E-003	3.59960E-001	-1.16130E+000	3.57660E+000	10	...........
	34	0.466667	8.85924E-001	5.99198E-003	0.00000E+000	5.30844E-003	3.59960E-001	-1.17070E+000	3.57660E+000	10	...........
	35	0.48	8.92243E-001	5.99175E-003	0.00000E+000	5.34609E-003	3.59960E-001	-1.16003E+000	3.57660E+000	10	...........
	36	0.493333	8.98495E-001	5.99592E-003	0.00000E+000	5.38730E-003	3.59960E-001	-1.16133E+000	3.57660E+000	10	...........
	37	0.506667	9.04712E-001	5.99207E-003	0.00000E+000	5.42110E-003	3.59960E-001	-1.17066E+000	3.57660E+000	10	...........
	38	0.52	9.10982E-001	5.99564E-003	0.00000E+000	5.46192E-003	3.59960E-001	-1.15989E+000	3.57660E+000	10	...........
	39	0.533333	9.17196E-001	5.99365E-003	0.00000E+000	5.49735E-003	3.59960E-001	-1.16073E+000	3.57660E+000	10	...........
	40	0.546667	9.23332E-001	5.99730E-003	0.00000E+000	5.53749E-003	3.59960E-001	-1.17049E+000	3.57660E+000	10	...........
	41	0.56	9.29423E-001	5.99023E-003	0.00000E+000	5.56746E-003	3.59960E-001	-1.15969E+000	3.57660E+000	10	...........
	42	0.573333	9.35525E-001	5.99261E-003	0.00000E+000	5.60624E-003	3.59960E-001	-1.16116E+000	3.57660E+000	10	...........
	43	0.586667	9.41484E-001	5.99247E-003	0.00000E+000	5.64181E-003	3.59960E-001	-1.17025E+000	3.57660E+000	10	...........
	44	0.6	9.47468E-001	5.99496E-003	0.00000E+000	5.68003E-003	3.59960E-001	-1.15968E+000	3.57660E+000	10	...........
	45	0.613333	9.53413E-001	5.99472E-003	0.00000E+000	5.71544E-003	3.59960E-001	-1.16096E+000	3.57660E+000	10	...........
	46	0.626667	9.59278E-001	5.99185E-003	0.00000E+000	5.74785E-003	3.59960E-001	-1.17055E+000	3.57660E+000	10	...........
	47	0.64	9.65080E-001	5.99766E-003	0.00000E+000	5.78822E-003	3.59960E-001	-1.15992E+000	3.57660E+000	10	...........
	48	0.653333	9.70897E-001	5.99310E-003	0.00000E+000	5.81869E-003	3.59960E-001	-1.16101E+000	3.57660E+000	10	...........
	49	0.666667	9.76658E-001	5.99777E-003	0.00000E+000	5.85776E-003	3.59960E-001	-1.17039E+000	3.57660E+000	10	...........
	50	0.68	9.82340E-001	5.99562E-003	0.00000E+000	5.88973E-003	3.59960E-001	-1.15982E+000	3.57660E+000	10	...........
	51	0.693333	9.87963E-001	5.99731E-003	0.00000E+000	5.92512E-003	3.59960E-001	-1.16109E+000	3.57660E+000	10	...........
	52	0.706667	9.93539E-001	5.99840E-003	0.00000E+000	5.95965E-003	3.59960E-001	-1.17043E+000	3.57660E+000	10	...........
	53	0.716667	9.98387E-001	5.99681E-003	0.00000E+000	5.98713E-003	3.59960E-001	-1.15513E+000	3.57660E+000	10	...........
STARTTIMEOFFSET	QUANT	1327.029	Start Time Offset (s)