File: Data/CV_CRGO300517_1/PWRCCD_CRGO300517_1/CHARGE_DISCHARGE/CHARGE_#677.DTA
EXPLAIN
TAG	PWR800_CHARGE
TITLE	LABEL	PWR Cyclic Charge Discharge (Cell) - Charge Step	Test &Identifier
DATE	LABEL	22-6-2017	Date
TIME	LABEL	16:02:41	Time
NOTES	NOTES	3	&Notes...
	supercap test cell
	0.6mg
	6M KOH
PSTAT	PSTAT	IFC5000-01520	Potentiostat
CAPACITY	QUANT	1.00000E-003	Capacity (A-hr)
CELLTYPE	SELECTOR	1	&Cell Type
WORKINGCONNECTION	SELECTOR	0	&Working Lead
MAXCHARGETIME	VARIABLEANDUNITS	1.00000E+002	s	1.00000E+002	second(s)	Max &Charge Time
CHARGECURRENT	QUANT	6.00000E-003	&Charge Current (A)
VOLTAGEFINISH	TWOPARAM	F	1.00000E-003	3.60000E+003	&Voltage Finish	 I (A) < 	Max Time(s)
SAMPLETIME	QUANT	1.00000E-002	Sa&mple Period (s)
CHARGESTOPAT1	MULTIPARAM	4	1.00000E+000	Charge Stop At &1	Voltage > Limit	V
CHARGESTOPAT2	MULTIPARAM	0	0.00000E+000	Charge Stop At &2	None	N/A
AESBHCSELECTOR	TOGGLE	F	Save Both Half Cells
IRCOMP	TOGGLE	F	IR &Measure
EOC	QUANT	0	Open Circuit (V)
SEQUENCER	TOGGLE	TRUE	Run as Sequence
PSTATMODEL	IQUANT	53	Pstat Model
PSTATSECTION	LABEL	IFC5000-01520	Pstat Section
PSTATSERIALNO	LABEL	01520	Pstat Serial Number
CTRLMODE	IQUANT	0	Control Mode
ELECTROMETER	IQUANT	1	RE=0 or CS=1
IESTAB	IQUANT	0	I/E Stability
CASPEED	IQUANT	4	Control Amp Speed
CONVENTION	IQUANT	1	Current Convention
ICHRANGE	IQUANT	2	Ich Range
ICHRANGEMODE	TOGGLE	T	Ich Auto Range
ICHOFFSETENABLE	TOGGLE	F	Ich Offset Enable
ICHOFFSET	QUANT	0	Ich Offset (V)
ICHFILTER	IQUANT	1	Ich Filter
VCHRANGE	IQUANT	2	Vch Range
VCHRANGEMODE	TOGGLE	T	Vch Auto Range
VCHOFFSETENABLE	TOGGLE	F	Vch Offset Enable
VCHOFFSET	QUANT	0	Vch Offset (V)
VCHFILTER	IQUANT	1	Vch Filter
IERANGELOWERLIMIT	IQUANT	9	I/E Range Lower Limit
IERANGEMODE	TOGGLE	F	I/E AutoRange
IERANGE	IQUANT	10	I/E Range
ACHSELECT	IQUANT	1	Ach Select
ACHRANGE	IQUANT	2	Ach Range
ACHOFFSETENABLE	TOGGLE	F	Ach Offset Enable
ACHOFFSET	QUANT	0	Ach Offset (V)
ACHFILTER	IQUANT	1	Ach Filter
CABLEID	IQUANT	14	Cable ID
DCCALDATE	LABEL	20-10-2016	DC Calibration Date
ACCALDATE	LABEL	12/3/2015	AC Calibration Date
FRAMEWORKVERSION	QUANT	7.01	Framework Version
INSTRUMENTVERSION	LABEL	4.00	Instrument Version
CURVE	TABLE	56
	Pt	T	Vf	Im	Vu	Pwr	Sig	Ach	Temp	IERange	Over
	#	s	V	A	V	W	V	V	deg C	#	bits
	0	0.013333	6.42393E-001	5.99738E-003	0.00000E+000	3.85267E-003	3.59960E-001	-1.15193E+000	3.57660E+000	10	...........
	1	0.026667	6.51416E-001	5.99549E-003	0.00000E+000	3.90556E-003	3.59960E-001	-1.16030E+000	3.57660E+000	10	...........
	2	0.04	6.59731E-001	5.99929E-003	0.00000E+000	3.95791E-003	3.59960E-001	-1.15779E+000	3.57660E+000	10	...........
	3	0.053333	6.67679E-001	5.99313E-003	0.00000E+000	4.00149E-003	3.59960E-001	-1.15190E+000	3.57660E+000	10	...........
	4	0.066667	6.75319E-001	5.98992E-003	0.00000E+000	4.04511E-003	3.59960E-001	-1.16047E+000	3.57660E+000	10	...........
	5	0.08	6.82745E-001	5.99205E-003	0.00000E+000	4.09104E-003	3.59960E-001	-1.15762E+000	3.57660E+000	10	...........
	6	0.093333	6.89998E-001	5.99698E-003	0.00000E+000	4.13791E-003	3.59960E-001	-1.15178E+000	3.57660E+000	10	...........
	7	0.106667	6.97212E-001	5.99023E-003	0.00000E+000	4.17646E-003	3.59960E-001	-1.16033E+000	3.57660E+000	10	...........
	8	0.12	7.04258E-001	5.99417E-003	0.00000E+000	4.22144E-003	3.59960E-001	-1.15758E+000	3.57660E+000	10	...........
	9	0.133333	7.11241E-001	6.00035E-003	0.00000E+000	4.26770E-003	3.59960E-001	-1.15189E+000	3.57660E+000	10	...........
	10	0.146667	7.18212E-001	5.99467E-003	0.00000E+000	4.30544E-003	3.59960E-001	-1.16037E+000	3.57660E+000	10	...........
	11	0.16	7.25084E-001	5.99350E-003	0.00000E+000	4.34579E-003	3.59960E-001	-1.15693E+000	3.57660E+000	10	...........
	12	0.173333	7.31922E-001	5.99305E-003	0.00000E+000	4.38645E-003	3.59960E-001	-1.15131E+000	3.57660E+000	10	...........
	13	0.186667	7.38722E-001	5.99213E-003	0.00000E+000	4.42652E-003	3.59960E-001	-1.16004E+000	3.57660E+000	10	...........
	14	0.2	7.45537E-001	5.99310E-003	0.00000E+000	4.46808E-003	3.59960E-001	-1.15696E+000	3.57660E+000	10	...........
	15	0.213333	7.52269E-001	5.99917E-003	0.00000E+000	4.51299E-003	3.59960E-001	-1.15115E+000	3.57660E+000	10	...........
	16	0.226667	7.58989E-001	5.99245E-003	0.00000E+000	4.54820E-003	3.59960E-001	-1.15990E+000	3.57660E+000	10	...........
	17	0.24	7.65657E-001	5.99594E-003	0.00000E+000	4.59084E-003	3.59960E-001	-1.15647E+000	3.57660E+000	10	...........
	18	0.253333	7.72356E-001	5.99313E-003	0.00000E+000	4.62883E-003	3.59960E-001	-1.15091E+000	3.57660E+000	10	...........
	19	0.266667	7.78995E-001	5.99722E-003	0.00000E+000	4.67181E-003	3.59960E-001	-1.16009E+000	3.57660E+000	10	...........
	20	0.28	7.85600E-001	5.99503E-003	0.00000E+000	4.70970E-003	3.59960E-001	-1.15671E+000	3.57660E+000	10	...........
	21	0.293333	7.92220E-001	5.98744E-003	0.00000E+000	4.74337E-003	3.59960E-001	-1.15118E+000	3.57660E+000	10	...........
	22	0.306667	7.98837E-001	5.99085E-003	0.00000E+000	4.78571E-003	3.59960E-001	-1.16011E+000	3.57660E+000	10	...........
	23	0.32	8.05398E-001	5.99112E-003	0.00000E+000	4.82524E-003	3.59960E-001	-1.15663E+000	3.57660E+000	10	...........
	24	0.333333	8.11936E-001	5.99586E-003	0.00000E+000	4.86825E-003	3.59960E-001	-1.15135E+000	3.57660E+000	10	...........
	25	0.346667	8.18486E-001	5.99663E-003	0.00000E+000	4.90815E-003	3.59960E-001	-1.16042E+000	3.57660E+000	10	...........
	26	0.36	8.24998E-001	5.99960E-003	0.00000E+000	4.94966E-003	3.59960E-001	-1.15636E+000	3.57660E+000	10	...........
	27	0.373333	8.31468E-001	5.98803E-003	0.00000E+000	4.97886E-003	3.59960E-001	-1.15117E+000	3.57660E+000	10	...........
	28	0.386667	8.37904E-001	5.99063E-003	0.00000E+000	5.01957E-003	3.59960E-001	-1.16039E+000	3.57660E+000	10	...........
	29	0.4	8.44379E-001	5.99477E-003	0.00000E+000	5.06186E-003	3.59960E-001	-1.15652E+000	3.57660E+000	10	...........
	30	0.413333	8.50796E-001	5.99660E-003	0.00000E+000	5.10188E-003	3.59960E-001	-1.15102E+000	3.57660E+000	10	...........
	31	0.426667	8.57220E-001	5.99576E-003	0.00000E+000	5.13969E-003	3.59960E-001	-1.15990E+000	3.57660E+000	10	...........
	32	0.44	8.63565E-001	5.99440E-003	0.00000E+000	5.17655E-003	3.59960E-001	-1.15559E+000	3.57660E+000	10	...........
	33	0.453333	8.69922E-001	5.99709E-003	0.00000E+000	5.21700E-003	3.59960E-001	-1.15049E+000	3.57665E+000	10	...........
	34	0.466667	8.76221E-001	5.99693E-003	0.00000E+000	5.25464E-003	3.59960E-001	-1.16001E+000	3.57680E+000	10	...........
	35	0.48	8.82531E-001	5.99040E-003	0.00000E+000	5.28671E-003	3.59960E-001	-1.15521E+000	3.57680E+000	10	...........
	36	0.493333	8.88815E-001	5.99836E-003	0.00000E+000	5.33143E-003	3.59960E-001	-1.14993E+000	3.57680E+000	10	...........
	37	0.506667	8.95026E-001	5.98677E-003	0.00000E+000	5.35832E-003	3.59960E-001	-1.15946E+000	3.57680E+000	10	...........
	38	0.52	9.01280E-001	5.99334E-003	0.00000E+000	5.40168E-003	3.59960E-001	-1.15498E+000	3.57680E+000	10	...........
	39	0.533333	9.07455E-001	5.99324E-003	0.00000E+000	5.43859E-003	3.59960E-001	-1.15013E+000	3.57680E+000	10	...........
	40	0.546667	9.13576E-001	5.99373E-003	0.00000E+000	5.47573E-003	3.59960E-001	-1.15959E+000	3.57680E+000	10	...........
	41	0.56	9.19721E-001	5.99456E-003	0.00000E+000	5.51332E-003	3.59960E-001	-1.15466E+000	3.57680E+000	10	...........
	42	0.573333	9.25794E-001	5.99176E-003	0.00000E+000	5.54713E-003	3.59960E-001	-1.14982E+000	3.57680E+000	10	...........
	43	0.586667	9.31816E-001	5.99166E-003	0.00000E+000	5.58313E-003	3.59960E-001	-1.15958E+000	3.57680E+000	10	...........
	44	0.6	9.37811E-001	5.99656E-003	0.00000E+000	5.62364E-003	3.59960E-001	-1.15461E+000	3.57680E+000	10	...........
	45	0.613333	9.43744E-001	5.98931E-003	0.00000E+000	5.65237E-003	3.59960E-001	-1.14993E+000	3.57680E+000	10	...........
	46	0.626667	9.49685E-001	5.99428E-003	0.00000E+000	5.69268E-003	3.59960E-001	-1.15954E+000	3.57680E+000	10	...........
	47	0.64	9.55564E-001	5.99335E-003	0.00000E+000	5.72703E-003	3.59960E-001	-1.15425E+000	3.57680E+000	10	...........
	48	0.653333	9.61326E-001	5.99732E-003	0.00000E+000	5.76538E-003	3.59960E-001	-1.14962E+000	3.57680E+000	10	...........
	49	0.666667	9.67082E-001	5.99297E-003	0.00000E+000	5.79569E-003	3.59960E-001	-1.15959E+000	3.57680E+000	10	...........
	50	0.68	9.72823E-001	5.99234E-003	0.00000E+000	5.82949E-003	3.59960E-001	-1.15434E+000	3.57680E+000	10	...........
	51	0.693333	9.78565E-001	5.98854E-003	0.00000E+000	5.86018E-003	3.59960E-001	-1.14963E+000	3.57680E+000	10	...........
	52	0.706667	9.84233E-001	5.99588E-003	0.00000E+000	5.90134E-003	3.59960E-001	-1.15983E+000	3.57680E+000	10	...........
	53	0.72	9.89795E-001	5.99137E-003	0.00000E+000	5.93023E-003	3.59960E-001	-1.15450E+000	3.57680E+000	10	...........
	54	0.733333	9.95290E-001	5.99540E-003	0.00000E+000	5.96716E-003	3.59960E-001	-1.14985E+000	3.57680E+000	10	...........
	55	0.74	9.99429E-001	5.99229E-003	0.00000E+000	5.98887E-003	3.59960E-001	-1.16457E+000	3.57680E+000	10	...........
STARTTIMEOFFSET	QUANT	1125.388	Start Time Offset (s)