File: Data/CV_CRGO300517_1/PWRCCD_CRGO300517_1/CHARGE_DISCHARGE/CHARGE_#208.DTA
EXPLAIN
TAG	PWR800_CHARGE
TITLE	LABEL	PWR Cyclic Charge Discharge (Cell) - Charge Step	Test &Identifier
DATE	LABEL	22-6-2017	Date
TIME	LABEL	15:44:08	Time
NOTES	NOTES	3	&Notes...
	supercap test cell
	0.6mg
	6M KOH
PSTAT	PSTAT	IFC5000-01520	Potentiostat
CAPACITY	QUANT	1.00000E-003	Capacity (A-hr)
CELLTYPE	SELECTOR	1	&Cell Type
WORKINGCONNECTION	SELECTOR	0	&Working Lead
MAXCHARGETIME	VARIABLEANDUNITS	1.00000E+002	s	1.00000E+002	second(s)	Max &Charge Time
CHARGECURRENT	QUANT	6.00000E-003	&Charge Current (A)
VOLTAGEFINISH	TWOPARAM	F	1.00000E-003	3.60000E+003	&Voltage Finish	 I (A) < 	Max Time(s)
SAMPLETIME	QUANT	1.00000E-002	Sa&mple Period (s)
CHARGESTOPAT1	MULTIPARAM	4	1.00000E+000	Charge Stop At &1	Voltage > Limit	V
CHARGESTOPAT2	MULTIPARAM	0	0.00000E+000	Charge Stop At &2	None	N/A
AESBHCSELECTOR	TOGGLE	F	Save Both Half Cells
IRCOMP	TOGGLE	F	IR &Measure
EOC	QUANT	0	Open Circuit (V)
SEQUENCER	TOGGLE	TRUE	Run as Sequence
PSTATMODEL	IQUANT	53	Pstat Model
PSTATSECTION	LABEL	IFC5000-01520	Pstat Section
PSTATSERIALNO	LABEL	01520	Pstat Serial Number
CTRLMODE	IQUANT	0	Control Mode
ELECTROMETER	IQUANT	1	RE=0 or CS=1
IESTAB	IQUANT	0	I/E Stability
CASPEED	IQUANT	4	Control Amp Speed
CONVENTION	IQUANT	1	Current Convention
ICHRANGE	IQUANT	2	Ich Range
ICHRANGEMODE	TOGGLE	T	Ich Auto Range
ICHOFFSETENABLE	TOGGLE	F	Ich Offset Enable
ICHOFFSET	QUANT	0	Ich Offset (V)
ICHFILTER	IQUANT	1	Ich Filter
VCHRANGE	IQUANT	2	Vch Range
VCHRANGEMODE	TOGGLE	T	Vch Auto Range
VCHOFFSETENABLE	TOGGLE	F	Vch Offset Enable
VCHOFFSET	QUANT	0	Vch Offset (V)
VCHFILTER	IQUANT	1	Vch Filter
IERANGELOWERLIMIT	IQUANT	9	I/E Range Lower Limit
IERANGEMODE	TOGGLE	F	I/E AutoRange
IERANGE	IQUANT	10	I/E Range
ACHSELECT	IQUANT	1	Ach Select
ACHRANGE	IQUANT	2	Ach Range
ACHOFFSETENABLE	TOGGLE	F	Ach Offset Enable
ACHOFFSET	QUANT	0	Ach Offset (V)
ACHFILTER	IQUANT	1	Ach Filter
CABLEID	IQUANT	14	Cable ID
DCCALDATE	LABEL	20-10-2016	DC Calibration Date
ACCALDATE	LABEL	12/3/2015	AC Calibration Date
FRAMEWORKVERSION	QUANT	7.01	Framework Version
INSTRUMENTVERSION	LABEL	4.00	Instrument Version
CURVE	TABLE	65
	Pt	T	Vf	Im	Vu	Pwr	Sig	Ach	Temp	IERange	Over
	#	s	V	A	V	W	V	V	deg C	#	bits
	0	0.013333	6.07350E-001	5.99377E-003	0.00000E+000	3.64032E-003	3.59960E-001	-1.09351E+000	3.57820E+000	10	...........
	1	0.026667	6.15858E-001	5.99765E-003	0.00000E+000	3.69370E-003	3.59960E-001	-1.08594E+000	3.57820E+000	10	...........
	2	0.04	6.23651E-001	5.99220E-003	0.00000E+000	3.73704E-003	3.59960E-001	-1.08391E+000	3.57820E+000	10	...........
	3	0.053333	6.30999E-001	5.99578E-003	0.00000E+000	3.78333E-003	3.59960E-001	-1.09378E+000	3.57820E+000	10	...........
	4	0.066667	6.38101E-001	5.99445E-003	0.00000E+000	3.82507E-003	3.59960E-001	-1.08601E+000	3.57820E+000	10	...........
	5	0.08	6.45009E-001	5.99380E-003	0.00000E+000	3.86606E-003	3.59960E-001	-1.08365E+000	3.57820E+000	10	...........
	6	0.093333	6.51770E-001	5.99223E-003	0.00000E+000	3.90556E-003	3.59960E-001	-1.09348E+000	3.57820E+000	10	...........
	7	0.106667	6.58423E-001	5.99576E-003	0.00000E+000	3.94775E-003	3.59960E-001	-1.08601E+000	3.57820E+000	10	...........
	8	0.12	6.64994E-001	5.99252E-003	0.00000E+000	3.98499E-003	3.59960E-001	-1.08367E+000	3.57820E+000	10	...........
	9	0.133333	6.71530E-001	5.99273E-003	0.00000E+000	4.02430E-003	3.59960E-001	-1.09337E+000	3.57820E+000	10	...........
	10	0.146667	6.77947E-001	5.99209E-003	0.00000E+000	4.06232E-003	3.59960E-001	-1.08589E+000	3.57820E+000	10	...........
	11	0.16	6.84309E-001	5.99632E-003	0.00000E+000	4.10333E-003	3.59960E-001	-1.08348E+000	3.57820E+000	10	...........
	12	0.173333	6.90645E-001	5.99198E-003	0.00000E+000	4.13833E-003	3.59960E-001	-1.09336E+000	3.57820E+000	10	...........
	13	0.186667	6.96976E-001	5.98990E-003	0.00000E+000	4.17482E-003	3.59960E-001	-1.08591E+000	3.57820E+000	10	...........
	14	0.2	7.03248E-001	5.99471E-003	0.00000E+000	4.21577E-003	3.59960E-001	-1.08342E+000	3.57820E+000	10	...........
	15	0.213333	7.09522E-001	5.99724E-003	0.00000E+000	4.25517E-003	3.59960E-001	-1.09318E+000	3.57820E+000	10	...........
	16	0.226667	7.15754E-001	5.99524E-003	0.00000E+000	4.29112E-003	3.59960E-001	-1.08617E+000	3.57820E+000	10	...........
	17	0.24	7.22032E-001	5.99212E-003	0.00000E+000	4.32651E-003	3.59960E-001	-1.08342E+000	3.57820E+000	10	...........
	18	0.253333	7.28206E-001	5.99430E-003	0.00000E+000	4.36509E-003	3.59960E-001	-1.09343E+000	3.57820E+000	10	...........
	19	0.266667	7.34426E-001	5.99231E-003	0.00000E+000	4.40091E-003	3.59960E-001	-1.08608E+000	3.57820E+000	10	...........
	20	0.28	7.40584E-001	5.99664E-003	0.00000E+000	4.44102E-003	3.59960E-001	-1.08328E+000	3.57820E+000	10	...........
	21	0.293333	7.46785E-001	5.99803E-003	0.00000E+000	4.47924E-003	3.59960E-001	-1.09320E+000	3.57820E+000	10	...........
	22	0.306667	7.52935E-001	5.99136E-003	0.00000E+000	4.51111E-003	3.59960E-001	-1.08618E+000	3.57820E+000	10	...........
	23	0.32	7.59097E-001	5.99223E-003	0.00000E+000	4.54868E-003	3.59960E-001	-1.08319E+000	3.57820E+000	10	...........
	24	0.333333	7.65255E-001	5.99691E-003	0.00000E+000	4.58916E-003	3.59960E-001	-1.09259E+000	3.57820E+000	10	...........
	25	0.346667	7.71413E-001	6.00114E-003	0.00000E+000	4.62936E-003	3.59960E-001	-1.08589E+000	3.57820E+000	10	...........
	26	0.36	7.77542E-001	5.99355E-003	0.00000E+000	4.66024E-003	3.59960E-001	-1.08291E+000	3.57820E+000	10	...........
	27	0.373333	7.83670E-001	5.99507E-003	0.00000E+000	4.69816E-003	3.59960E-001	-1.09282E+000	3.57820E+000	10	...........
	28	0.386667	7.89768E-001	5.99556E-003	0.00000E+000	4.73510E-003	3.59960E-001	-1.08597E+000	3.57820E+000	10	...........
	29	0.4	7.95905E-001	5.99552E-003	0.00000E+000	4.77186E-003	3.59960E-001	-1.08275E+000	3.57820E+000	10	...........
	30	0.413333	8.02011E-001	5.99306E-003	0.00000E+000	4.80650E-003	3.59960E-001	-1.09255E+000	3.57820E+000	10	...........
	31	0.426667	8.08063E-001	5.99401E-003	0.00000E+000	4.84354E-003	3.59960E-001	-1.08599E+000	3.57820E+000	10	...........
	32	0.44	8.14124E-001	5.99645E-003	0.00000E+000	4.88186E-003	3.59960E-001	-1.08293E+000	3.57820E+000	10	...........
	33	0.453333	8.20240E-001	5.99270E-003	0.00000E+000	4.91545E-003	3.59960E-001	-1.09243E+000	3.57820E+000	10	...........
	34	0.466667	8.26263E-001	5.99562E-003	0.00000E+000	4.95396E-003	3.59960E-001	-1.08599E+000	3.57820E+000	10	...........
	35	0.48	8.32311E-001	5.99387E-003	0.00000E+000	4.98877E-003	3.59960E-001	-1.08295E+000	3.57820E+000	10	...........
	36	0.493333	8.38353E-001	5.99895E-003	0.00000E+000	5.02924E-003	3.59960E-001	-1.09227E+000	3.57820E+000	10	...........
	37	0.506667	8.44381E-001	5.99885E-003	0.00000E+000	5.06532E-003	3.59960E-001	-1.08613E+000	3.57820E+000	10	...........
	38	0.52	8.50404E-001	5.99293E-003	0.00000E+000	5.09641E-003	3.59960E-001	-1.08283E+000	3.57820E+000	10	...........
	39	0.533333	8.56375E-001	5.99157E-003	0.00000E+000	5.13103E-003	3.59960E-001	-1.09223E+000	3.57780E+000	10	...........
	40	0.546667	8.62393E-001	5.99280E-003	0.00000E+000	5.16815E-003	3.59960E-001	-1.08611E+000	3.57740E+000	10	...........
	41	0.56	8.68389E-001	5.99440E-003	0.00000E+000	5.20547E-003	3.59960E-001	-1.08287E+000	3.57740E+000	10	...........
	42	0.573333	8.74310E-001	5.99248E-003	0.00000E+000	5.23928E-003	3.59960E-001	-1.09245E+000	3.57740E+000	10	...........
	43	0.586667	8.80290E-001	5.99108E-003	0.00000E+000	5.27389E-003	3.59960E-001	-1.08645E+000	3.57740E+000	10	...........
	44	0.6	8.86282E-001	5.99369E-003	0.00000E+000	5.31210E-003	3.59960E-001	-1.08250E+000	3.57740E+000	10	...........
	45	0.613333	8.92215E-001	5.99705E-003	0.00000E+000	5.35066E-003	3.59960E-001	-1.09206E+000	3.57740E+000	10	...........
	46	0.626667	8.98149E-001	5.99152E-003	0.00000E+000	5.38127E-003	3.59960E-001	-1.08626E+000	3.57740E+000	10	...........
	47	0.64	9.04027E-001	5.99784E-003	0.00000E+000	5.42221E-003	3.59960E-001	-1.08261E+000	3.57740E+000	10	...........
	48	0.653333	9.09951E-001	5.99546E-003	0.00000E+000	5.45557E-003	3.59960E-001	-1.09183E+000	3.57740E+000	10	...........
	49	0.666667	9.15802E-001	5.99277E-003	0.00000E+000	5.48819E-003	3.59960E-001	-1.08617E+000	3.57740E+000	10	...........
	50	0.68	9.21639E-001	5.98885E-003	0.00000E+000	5.51955E-003	3.59960E-001	-1.08215E+000	3.57740E+000	10	...........
	51	0.693333	9.27423E-001	5.99221E-003	0.00000E+000	5.55731E-003	3.59960E-001	-1.09171E+000	3.57740E+000	10	...........
	52	0.706667	9.33212E-001	5.99279E-003	0.00000E+000	5.59254E-003	3.59960E-001	-1.08629E+000	3.57740E+000	10	...........
	53	0.72	9.38985E-001	5.99293E-003	0.00000E+000	5.62727E-003	3.59960E-001	-1.08251E+000	3.57740E+000	10	...........
	54	0.733333	9.44656E-001	5.99294E-003	0.00000E+000	5.66126E-003	3.59960E-001	-1.09176E+000	3.57740E+000	10	...........
	55	0.746667	9.50383E-001	5.99134E-003	0.00000E+000	5.69407E-003	3.59960E-001	-1.08629E+000	3.57740E+000	10	...........
	56	0.76	9.56063E-001	5.99714E-003	0.00000E+000	5.73364E-003	3.59960E-001	-1.08247E+000	3.57740E+000	10	...........
	57	0.773333	9.61677E-001	5.99545E-003	0.00000E+000	5.76569E-003	3.59960E-001	-1.09169E+000	3.57740E+000	10	...........
	58	0.786667	9.67262E-001	5.99117E-003	0.00000E+000	5.79503E-003	3.59960E-001	-1.08639E+000	3.57740E+000	10	...........
	59	0.8	9.72839E-001	5.99326E-003	0.00000E+000	5.83048E-003	3.59960E-001	-1.08244E+000	3.57740E+000	10	...........
	60	0.813333	9.78352E-001	5.99774E-003	0.00000E+000	5.86791E-003	3.59960E-001	-1.09145E+000	3.57740E+000	10	...........
	61	0.826667	9.83840E-001	5.99236E-003	0.00000E+000	5.89553E-003	3.59960E-001	-1.08661E+000	3.57740E+000	10	...........
	62	0.84	9.89277E-001	5.99369E-003	0.00000E+000	5.92942E-003	3.59960E-001	-1.08242E+000	3.57740E+000	10	...........
	63	0.853333	9.94686E-001	5.99924E-003	0.00000E+000	5.96735E-003	3.59960E-001	-1.09165E+000	3.57740E+000	10	...........
	64	0.861667	9.99098E-001	5.98882E-003	0.00000E+000	5.98341E-003	3.59960E-001	-1.08106E+000	3.57740E+000	10	...........
STARTTIMEOFFSET	QUANT	386.705	Start Time Offset (s)