File: Data/CV_CRGO300517_1/PWRCCD_CRGO300517_1/CHARGE_DISCHARGE/CHARGE_#367.DTA
EXPLAIN
TAG	PWR800_CHARGE
TITLE	LABEL	PWR Cyclic Charge Discharge (Cell) - Charge Step	Test &Identifier
DATE	LABEL	22-6-2017	Date
TIME	LABEL	15:50:39	Time
NOTES	NOTES	3	&Notes...
	supercap test cell
	0.6mg
	6M KOH
PSTAT	PSTAT	IFC5000-01520	Potentiostat
CAPACITY	QUANT	1.00000E-003	Capacity (A-hr)
CELLTYPE	SELECTOR	1	&Cell Type
WORKINGCONNECTION	SELECTOR	0	&Working Lead
MAXCHARGETIME	VARIABLEANDUNITS	1.00000E+002	s	1.00000E+002	second(s)	Max &Charge Time
CHARGECURRENT	QUANT	6.00000E-003	&Charge Current (A)
VOLTAGEFINISH	TWOPARAM	F	1.00000E-003	3.60000E+003	&Voltage Finish	 I (A) < 	Max Time(s)
SAMPLETIME	QUANT	1.00000E-002	Sa&mple Period (s)
CHARGESTOPAT1	MULTIPARAM	4	1.00000E+000	Charge Stop At &1	Voltage > Limit	V
CHARGESTOPAT2	MULTIPARAM	0	0.00000E+000	Charge Stop At &2	None	N/A
AESBHCSELECTOR	TOGGLE	F	Save Both Half Cells
IRCOMP	TOGGLE	F	IR &Measure
EOC	QUANT	0	Open Circuit (V)
SEQUENCER	TOGGLE	TRUE	Run as Sequence
PSTATMODEL	IQUANT	53	Pstat Model
PSTATSECTION	LABEL	IFC5000-01520	Pstat Section
PSTATSERIALNO	LABEL	01520	Pstat Serial Number
CTRLMODE	IQUANT	0	Control Mode
ELECTROMETER	IQUANT	1	RE=0 or CS=1
IESTAB	IQUANT	0	I/E Stability
CASPEED	IQUANT	4	Control Amp Speed
CONVENTION	IQUANT	1	Current Convention
ICHRANGE	IQUANT	2	Ich Range
ICHRANGEMODE	TOGGLE	T	Ich Auto Range
ICHOFFSETENABLE	TOGGLE	F	Ich Offset Enable
ICHOFFSET	QUANT	0	Ich Offset (V)
ICHFILTER	IQUANT	1	Ich Filter
VCHRANGE	IQUANT	2	Vch Range
VCHRANGEMODE	TOGGLE	T	Vch Auto Range
VCHOFFSETENABLE	TOGGLE	F	Vch Offset Enable
VCHOFFSET	QUANT	0	Vch Offset (V)
VCHFILTER	IQUANT	1	Vch Filter
IERANGELOWERLIMIT	IQUANT	9	I/E Range Lower Limit
IERANGEMODE	TOGGLE	F	I/E AutoRange
IERANGE	IQUANT	10	I/E Range
ACHSELECT	IQUANT	1	Ach Select
ACHRANGE	IQUANT	2	Ach Range
ACHOFFSETENABLE	TOGGLE	F	Ach Offset Enable
ACHOFFSET	QUANT	0	Ach Offset (V)
ACHFILTER	IQUANT	1	Ach Filter
CABLEID	IQUANT	14	Cable ID
DCCALDATE	LABEL	20-10-2016	DC Calibration Date
ACCALDATE	LABEL	12/3/2015	AC Calibration Date
FRAMEWORKVERSION	QUANT	7.01	Framework Version
INSTRUMENTVERSION	LABEL	4.00	Instrument Version
CURVE	TABLE	61
	Pt	T	Vf	Im	Vu	Pwr	Sig	Ach	Temp	IERange	Over
	#	s	V	A	V	W	V	V	deg C	#	bits
	0	0.013333	6.22528E-001	5.99420E-003	0.00000E+000	3.73156E-003	3.59960E-001	-1.11869E+000	3.57830E+000	10	...........
	1	0.026667	6.31179E-001	5.99505E-003	0.00000E+000	3.78395E-003	3.59960E-001	-1.12564E+000	3.57830E+000	10	...........
	2	0.04	6.39232E-001	5.99085E-003	0.00000E+000	3.82954E-003	3.59960E-001	-1.12589E+000	3.57830E+000	10	...........
	3	0.053333	6.46836E-001	5.99662E-003	0.00000E+000	3.87883E-003	3.59960E-001	-1.11821E+000	3.57830E+000	10	...........
	4	0.066667	6.54150E-001	5.99460E-003	0.00000E+000	3.92137E-003	3.59960E-001	-1.12550E+000	3.57830E+000	10	...........
	5	0.08	6.61301E-001	5.99519E-003	0.00000E+000	3.96463E-003	3.59960E-001	-1.12612E+000	3.57830E+000	10	...........
	6	0.093333	6.68295E-001	5.99290E-003	0.00000E+000	4.00503E-003	3.59960E-001	-1.11821E+000	3.57830E+000	10	...........
	7	0.106667	6.75141E-001	5.99215E-003	0.00000E+000	4.04555E-003	3.59960E-001	-1.12547E+000	3.57830E+000	10	...........
	8	0.12	6.81916E-001	5.99360E-003	0.00000E+000	4.08714E-003	3.59960E-001	-1.12586E+000	3.57830E+000	10	...........
	9	0.133333	6.88629E-001	5.99433E-003	0.00000E+000	4.12787E-003	3.59960E-001	-1.11840E+000	3.57830E+000	10	...........
	10	0.146667	6.95319E-001	5.99422E-003	0.00000E+000	4.16789E-003	3.59960E-001	-1.12565E+000	3.57830E+000	10	...........
	11	0.16	7.01948E-001	5.99598E-003	0.00000E+000	4.20886E-003	3.59960E-001	-1.12589E+000	3.57830E+000	10	...........
	12	0.173333	7.08494E-001	5.99419E-003	0.00000E+000	4.24684E-003	3.59960E-001	-1.11826E+000	3.57830E+000	10	...........
	13	0.186667	7.15030E-001	5.99651E-003	0.00000E+000	4.28769E-003	3.59960E-001	-1.12567E+000	3.57830E+000	10	...........
	14	0.2	7.21560E-001	5.99560E-003	0.00000E+000	4.32618E-003	3.59960E-001	-1.12589E+000	3.57830E+000	10	...........
	15	0.213333	7.28032E-001	5.99988E-003	0.00000E+000	4.36811E-003	3.59960E-001	-1.11825E+000	3.57830E+000	10	...........
	16	0.226667	7.34496E-001	5.99439E-003	0.00000E+000	4.40285E-003	3.59960E-001	-1.12543E+000	3.57830E+000	10	...........
	17	0.24	7.40916E-001	5.99434E-003	0.00000E+000	4.44130E-003	3.59960E-001	-1.12591E+000	3.57830E+000	10	...........
	18	0.253333	7.47327E-001	5.99642E-003	0.00000E+000	4.48129E-003	3.59960E-001	-1.11845E+000	3.57830E+000	10	...........
	19	0.266667	7.53747E-001	5.99449E-003	0.00000E+000	4.51833E-003	3.59960E-001	-1.12552E+000	3.57830E+000	10	...........
	20	0.28	7.60132E-001	5.99164E-003	0.00000E+000	4.55444E-003	3.59960E-001	-1.12589E+000	3.57830E+000	10	...........
	21	0.293333	7.66534E-001	5.99328E-003	0.00000E+000	4.59405E-003	3.59960E-001	-1.11835E+000	3.57830E+000	10	...........
	22	0.306667	7.72860E-001	5.99443E-003	0.00000E+000	4.63285E-003	3.59960E-001	-1.12566E+000	3.57830E+000	10	...........
	23	0.32	7.79197E-001	5.99250E-003	0.00000E+000	4.66934E-003	3.59960E-001	-1.12602E+000	3.57830E+000	10	...........
	24	0.333333	7.85546E-001	5.99759E-003	0.00000E+000	4.71138E-003	3.59960E-001	-1.11828E+000	3.57830E+000	10	...........
	25	0.346667	7.91849E-001	5.99245E-003	0.00000E+000	4.74512E-003	3.59960E-001	-1.12546E+000	3.57830E+000	10	...........
	26	0.36	7.98216E-001	5.99457E-003	0.00000E+000	4.78496E-003	3.59960E-001	-1.12547E+000	3.57830E+000	10	...........
	27	0.373333	8.04450E-001	5.99549E-003	0.00000E+000	4.82308E-003	3.59960E-001	-1.11770E+000	3.57830E+000	10	...........
	28	0.386667	8.10720E-001	5.99849E-003	0.00000E+000	4.86309E-003	3.59960E-001	-1.12533E+000	3.57830E+000	10	...........
	29	0.4	8.17030E-001	5.99425E-003	0.00000E+000	4.89748E-003	3.59960E-001	-1.12558E+000	3.57830E+000	10	...........
	30	0.413333	8.23281E-001	5.98911E-003	0.00000E+000	4.93072E-003	3.59960E-001	-1.11777E+000	3.57770E+000	10	...........
	31	0.426667	8.29571E-001	5.99237E-003	0.00000E+000	4.97110E-003	3.59960E-001	-1.12503E+000	3.57750E+000	10	...........
	32	0.44	8.35805E-001	5.99491E-003	0.00000E+000	5.01057E-003	3.59960E-001	-1.12527E+000	3.57750E+000	10	...........
	33	0.453333	8.42047E-001	5.99479E-003	0.00000E+000	5.04790E-003	3.59960E-001	-1.11792E+000	3.57750E+000	10	...........
	34	0.466667	8.48254E-001	5.99778E-003	0.00000E+000	5.08764E-003	3.59960E-001	-1.12512E+000	3.57750E+000	10	...........
	35	0.48	8.54448E-001	5.99478E-003	0.00000E+000	5.12223E-003	3.59960E-001	-1.12532E+000	3.57750E+000	10	...........
	36	0.493333	8.60611E-001	5.99512E-003	0.00000E+000	5.15946E-003	3.59960E-001	-1.11776E+000	3.57750E+000	10	...........
	37	0.506667	8.66792E-001	5.99803E-003	0.00000E+000	5.19904E-003	3.59960E-001	-1.12531E+000	3.57750E+000	10	...........
	38	0.52	8.72941E-001	5.99622E-003	0.00000E+000	5.23435E-003	3.59960E-001	-1.12534E+000	3.57750E+000	10	...........
	39	0.533333	8.79063E-001	5.99228E-003	0.00000E+000	5.26759E-003	3.59960E-001	-1.11774E+000	3.57750E+000	10	...........
	40	0.546667	8.85169E-001	5.99542E-003	0.00000E+000	5.30696E-003	3.59960E-001	-1.12516E+000	3.57750E+000	10	...........
	41	0.56	8.91250E-001	5.98919E-003	0.00000E+000	5.33787E-003	3.59960E-001	-1.12516E+000	3.57750E+000	10	...........
	42	0.573333	8.97322E-001	5.98717E-003	0.00000E+000	5.37242E-003	3.59960E-001	-1.11777E+000	3.57750E+000	10	...........
	43	0.586667	9.03362E-001	5.99168E-003	0.00000E+000	5.41266E-003	3.59960E-001	-1.12534E+000	3.57750E+000	10	...........
	44	0.6	9.09373E-001	5.99213E-003	0.00000E+000	5.44908E-003	3.59960E-001	-1.12527E+000	3.57750E+000	10	...........
	45	0.613333	9.15346E-001	5.99716E-003	0.00000E+000	5.48948E-003	3.59960E-001	-1.11772E+000	3.57750E+000	10	...........
	46	0.626667	9.21354E-001	5.99644E-003	0.00000E+000	5.52484E-003	3.59960E-001	-1.12520E+000	3.57750E+000	10	...........
	47	0.64	9.27300E-001	5.99565E-003	0.00000E+000	5.55976E-003	3.59960E-001	-1.12513E+000	3.57750E+000	10	...........
	48	0.653333	9.33137E-001	5.99531E-003	0.00000E+000	5.59445E-003	3.59960E-001	-1.11790E+000	3.57750E+000	10	...........
	49	0.666667	9.39011E-001	5.99157E-003	0.00000E+000	5.62615E-003	3.59960E-001	-1.12527E+000	3.57750E+000	10	...........
	50	0.68	9.44846E-001	5.99410E-003	0.00000E+000	5.66351E-003	3.59960E-001	-1.12474E+000	3.57750E+000	10	...........
	51	0.693333	9.50691E-001	5.99313E-003	0.00000E+000	5.69762E-003	3.59960E-001	-1.11726E+000	3.57750E+000	10	...........
	52	0.706667	9.56438E-001	5.99426E-003	0.00000E+000	5.73314E-003	3.59960E-001	-1.12512E+000	3.57750E+000	10	...........
	53	0.72	9.62159E-001	5.99115E-003	0.00000E+000	5.76444E-003	3.59960E-001	-1.12493E+000	3.57750E+000	10	...........
	54	0.733333	9.67810E-001	5.99281E-003	0.00000E+000	5.79990E-003	3.59960E-001	-1.11764E+000	3.57750E+000	10	...........
	55	0.746667	9.73509E-001	5.99193E-003	0.00000E+000	5.83320E-003	3.59960E-001	-1.12533E+000	3.57750E+000	10	...........
	56	0.76	9.79071E-001	5.99450E-003	0.00000E+000	5.86904E-003	3.59960E-001	-1.12468E+000	3.57750E+000	10	...........
	57	0.773333	9.84616E-001	5.99574E-003	0.00000E+000	5.90350E-003	3.59960E-001	-1.11754E+000	3.57750E+000	10	...........
	58	0.786667	9.90120E-001	5.99464E-003	0.00000E+000	5.93541E-003	3.59960E-001	-1.12521E+000	3.57750E+000	10	...........
	59	0.8	9.95582E-001	5.99346E-003	0.00000E+000	5.96698E-003	3.59960E-001	-1.12478E+000	3.57750E+000	10	...........
	60	0.806667	9.99684E-001	5.99575E-003	0.00000E+000	5.99386E-003	3.59960E-001	-1.11771E+000	3.57750E+000	10	...........
STARTTIMEOFFSET	QUANT	650.0215	Start Time Offset (s)