File: Data/CV_CRGO300517_1/PWRCCD_CRGO300517_1/CHARGE_DISCHARGE/CHARGE_#969.DTA
EXPLAIN
TAG	PWR800_CHARGE
TITLE	LABEL	PWR Cyclic Charge Discharge (Cell) - Charge Step	Test &Identifier
DATE	LABEL	22-6-2017	Date
TIME	LABEL	16:13:30	Time
NOTES	NOTES	3	&Notes...
	supercap test cell
	0.6mg
	6M KOH
PSTAT	PSTAT	IFC5000-01520	Potentiostat
CAPACITY	QUANT	1.00000E-003	Capacity (A-hr)
CELLTYPE	SELECTOR	1	&Cell Type
WORKINGCONNECTION	SELECTOR	0	&Working Lead
MAXCHARGETIME	VARIABLEANDUNITS	1.00000E+002	s	1.00000E+002	second(s)	Max &Charge Time
CHARGECURRENT	QUANT	6.00000E-003	&Charge Current (A)
VOLTAGEFINISH	TWOPARAM	F	1.00000E-003	3.60000E+003	&Voltage Finish	 I (A) < 	Max Time(s)
SAMPLETIME	QUANT	1.00000E-002	Sa&mple Period (s)
CHARGESTOPAT1	MULTIPARAM	4	1.00000E+000	Charge Stop At &1	Voltage > Limit	V
CHARGESTOPAT2	MULTIPARAM	0	0.00000E+000	Charge Stop At &2	None	N/A
AESBHCSELECTOR	TOGGLE	F	Save Both Half Cells
IRCOMP	TOGGLE	F	IR &Measure
EOC	QUANT	0	Open Circuit (V)
SEQUENCER	TOGGLE	TRUE	Run as Sequence
PSTATMODEL	IQUANT	53	Pstat Model
PSTATSECTION	LABEL	IFC5000-01520	Pstat Section
PSTATSERIALNO	LABEL	01520	Pstat Serial Number
CTRLMODE	IQUANT	0	Control Mode
ELECTROMETER	IQUANT	1	RE=0 or CS=1
IESTAB	IQUANT	0	I/E Stability
CASPEED	IQUANT	4	Control Amp Speed
CONVENTION	IQUANT	1	Current Convention
ICHRANGE	IQUANT	2	Ich Range
ICHRANGEMODE	TOGGLE	T	Ich Auto Range
ICHOFFSETENABLE	TOGGLE	F	Ich Offset Enable
ICHOFFSET	QUANT	0	Ich Offset (V)
ICHFILTER	IQUANT	1	Ich Filter
VCHRANGE	IQUANT	2	Vch Range
VCHRANGEMODE	TOGGLE	T	Vch Auto Range
VCHOFFSETENABLE	TOGGLE	F	Vch Offset Enable
VCHOFFSET	QUANT	0	Vch Offset (V)
VCHFILTER	IQUANT	1	Vch Filter
IERANGELOWERLIMIT	IQUANT	9	I/E Range Lower Limit
IERANGEMODE	TOGGLE	F	I/E AutoRange
IERANGE	IQUANT	10	I/E Range
ACHSELECT	IQUANT	1	Ach Select
ACHRANGE	IQUANT	2	Ach Range
ACHOFFSETENABLE	TOGGLE	F	Ach Offset Enable
ACHOFFSET	QUANT	0	Ach Offset (V)
ACHFILTER	IQUANT	1	Ach Filter
CABLEID	IQUANT	14	Cable ID
DCCALDATE	LABEL	20-10-2016	DC Calibration Date
ACCALDATE	LABEL	12/3/2015	AC Calibration Date
FRAMEWORKVERSION	QUANT	7.01	Framework Version
INSTRUMENTVERSION	LABEL	4.00	Instrument Version
CURVE	TABLE	53
	Pt	T	Vf	Im	Vu	Pwr	Sig	Ach	Temp	IERange	Over
	#	s	V	A	V	W	V	V	deg C	#	bits
	0	0.013333	6.56173E-001	5.99302E-003	0.00000E+000	3.93246E-003	3.59960E-001	-1.18286E+000	3.57640E+000	10	...........
	1	0.026667	6.65473E-001	5.99438E-003	0.00000E+000	3.98909E-003	3.59960E-001	-1.17202E+000	3.57640E+000	10	...........
	2	0.04	6.74036E-001	5.99452E-003	0.00000E+000	4.04052E-003	3.59960E-001	-1.17418E+000	3.57640E+000	10	...........
	3	0.053333	6.82245E-001	5.99314E-003	0.00000E+000	4.08879E-003	3.59960E-001	-1.18242E+000	3.57640E+000	10	...........
	4	0.066667	6.90109E-001	5.99498E-003	0.00000E+000	4.13719E-003	3.59960E-001	-1.17188E+000	3.57640E+000	10	...........
	5	0.08	6.97767E-001	5.98719E-003	0.00000E+000	4.17766E-003	3.59960E-001	-1.17411E+000	3.57640E+000	10	...........
	6	0.093333	7.05230E-001	5.99239E-003	0.00000E+000	4.22602E-003	3.59960E-001	-1.18207E+000	3.57640E+000	10	...........
	7	0.106667	7.12585E-001	5.99297E-003	0.00000E+000	4.27050E-003	3.59960E-001	-1.17154E+000	3.57640E+000	10	...........
	8	0.12	7.19930E-001	5.99527E-003	0.00000E+000	4.31618E-003	3.59960E-001	-1.17378E+000	3.57640E+000	10	...........
	9	0.133333	7.27134E-001	5.99741E-003	0.00000E+000	4.36092E-003	3.59960E-001	-1.18242E+000	3.57640E+000	10	...........
	10	0.146667	7.34287E-001	5.99042E-003	0.00000E+000	4.39869E-003	3.59960E-001	-1.17120E+000	3.57640E+000	10	...........
	11	0.16	7.41376E-001	5.99596E-003	0.00000E+000	4.44526E-003	3.59960E-001	-1.17321E+000	3.57640E+000	10	...........
	12	0.173333	7.48376E-001	5.99307E-003	0.00000E+000	4.48507E-003	3.59960E-001	-1.18106E+000	3.57640E+000	10	...........
	13	0.186667	7.55366E-001	5.99359E-003	0.00000E+000	4.52736E-003	3.59960E-001	-1.17030E+000	3.57640E+000	10	...........
	14	0.2	7.62281E-001	5.99694E-003	0.00000E+000	4.57136E-003	3.59960E-001	-1.17264E+000	3.57640E+000	10	...........
	15	0.213333	7.69202E-001	5.99304E-003	0.00000E+000	4.60986E-003	3.59960E-001	-1.18102E+000	3.57640E+000	10	...........
	16	0.226667	7.76085E-001	5.99399E-003	0.00000E+000	4.65184E-003	3.59960E-001	-1.17028E+000	3.57640E+000	10	...........
	17	0.24	7.82975E-001	5.99789E-003	0.00000E+000	4.69620E-003	3.59960E-001	-1.17228E+000	3.57640E+000	10	...........
	18	0.253333	7.89789E-001	5.99007E-003	0.00000E+000	4.73089E-003	3.59960E-001	-1.18056E+000	3.57640E+000	10	...........
	19	0.266667	7.96586E-001	5.99120E-003	0.00000E+000	4.77251E-003	3.59960E-001	-1.17013E+000	3.57640E+000	10	...........
	20	0.28	8.03365E-001	5.99104E-003	0.00000E+000	4.81299E-003	3.59960E-001	-1.17229E+000	3.57647E+000	10	...........
	21	0.293333	8.10095E-001	5.99677E-003	0.00000E+000	4.85796E-003	3.59960E-001	-1.17988E+000	3.57660E+000	10	...........
	22	0.306667	8.16811E-001	5.99389E-003	0.00000E+000	4.89587E-003	3.59960E-001	-1.16928E+000	3.57660E+000	10	...........
	23	0.32	8.23531E-001	5.99694E-003	0.00000E+000	4.93867E-003	3.59960E-001	-1.17182E+000	3.57660E+000	10	...........
	24	0.333333	8.30165E-001	5.99250E-003	0.00000E+000	4.97476E-003	3.59960E-001	-1.18020E+000	3.57660E+000	10	...........
	25	0.346667	8.36810E-001	5.99410E-003	0.00000E+000	5.01593E-003	3.59960E-001	-1.16928E+000	3.57660E+000	10	...........
	26	0.36	8.43435E-001	5.99541E-003	0.00000E+000	5.05674E-003	3.59960E-001	-1.17141E+000	3.57660E+000	10	...........
	27	0.373333	8.50012E-001	5.99203E-003	0.00000E+000	5.09330E-003	3.59960E-001	-1.17973E+000	3.57660E+000	10	...........
	28	0.386667	8.56533E-001	5.99207E-003	0.00000E+000	5.13241E-003	3.59960E-001	-1.16910E+000	3.57660E+000	10	...........
	29	0.4	8.63097E-001	5.99139E-003	0.00000E+000	5.17115E-003	3.59960E-001	-1.17151E+000	3.57660E+000	10	...........
	30	0.413333	8.69616E-001	5.99504E-003	0.00000E+000	5.21338E-003	3.59960E-001	-1.17984E+000	3.57660E+000	10	...........
	31	0.426667	8.76073E-001	5.99346E-003	0.00000E+000	5.25071E-003	3.59960E-001	-1.16894E+000	3.57660E+000	10	...........
	32	0.44	8.82497E-001	5.99335E-003	0.00000E+000	5.28912E-003	3.59960E-001	-1.17115E+000	3.57660E+000	10	...........
	33	0.453333	8.88940E-001	5.99611E-003	0.00000E+000	5.33018E-003	3.59960E-001	-1.17974E+000	3.57660E+000	10	...........
	34	0.466667	8.95253E-001	5.99208E-003	0.00000E+000	5.36443E-003	3.59960E-001	-1.16897E+000	3.57660E+000	10	...........
	35	0.48	9.01578E-001	5.99141E-003	0.00000E+000	5.40172E-003	3.59960E-001	-1.17124E+000	3.57660E+000	10	...........
	36	0.493333	9.07867E-001	5.99437E-003	0.00000E+000	5.44209E-003	3.59960E-001	-1.17948E+000	3.57660E+000	10	...........
	37	0.506667	9.14127E-001	5.99100E-003	0.00000E+000	5.47653E-003	3.59960E-001	-1.16888E+000	3.57660E+000	10	...........
	38	0.52	9.20401E-001	5.99256E-003	0.00000E+000	5.51556E-003	3.59960E-001	-1.17127E+000	3.57660E+000	10	...........
	39	0.533333	9.26556E-001	5.98906E-003	0.00000E+000	5.54919E-003	3.59960E-001	-1.17977E+000	3.57660E+000	10	...........
	40	0.546667	9.32658E-001	5.99151E-003	0.00000E+000	5.58803E-003	3.59960E-001	-1.16894E+000	3.57660E+000	10	...........
	41	0.56	9.38750E-001	5.99151E-003	0.00000E+000	5.62453E-003	3.59960E-001	-1.17115E+000	3.57660E+000	10	...........
	42	0.573333	9.44790E-001	5.98988E-003	0.00000E+000	5.65918E-003	3.59960E-001	-1.17921E+000	3.57660E+000	10	...........
	43	0.586667	9.50846E-001	5.99478E-003	0.00000E+000	5.70011E-003	3.59960E-001	-1.16879E+000	3.57660E+000	10	...........
	44	0.6	9.56744E-001	5.99655E-003	0.00000E+000	5.73716E-003	3.59960E-001	-1.17141E+000	3.57660E+000	10	...........
	45	0.613333	9.62584E-001	5.99377E-003	0.00000E+000	5.76951E-003	3.59960E-001	-1.17924E+000	3.57660E+000	10	...........
	46	0.626667	9.68392E-001	5.99149E-003	0.00000E+000	5.80211E-003	3.59960E-001	-1.16840E+000	3.57660E+000	10	...........
	47	0.64	9.74153E-001	5.99336E-003	0.00000E+000	5.83845E-003	3.59960E-001	-1.17074E+000	3.57660E+000	10	...........
	48	0.653333	9.79908E-001	5.99044E-003	0.00000E+000	5.87008E-003	3.59960E-001	-1.17926E+000	3.57660E+000	10	...........
	49	0.666667	9.85544E-001	5.99372E-003	0.00000E+000	5.90707E-003	3.59960E-001	-1.16852E+000	3.57660E+000	10	...........
	50	0.68	9.91164E-001	5.99679E-003	0.00000E+000	5.94380E-003	3.59960E-001	-1.17092E+000	3.57660E+000	10	...........
	51	0.693333	9.96714E-001	5.99262E-003	0.00000E+000	5.97293E-003	3.59960E-001	-1.17903E+000	3.57660E+000	10	...........
	52	0.696667	1.00012E+000	5.99183E-003	0.00000E+000	5.99257E-003	3.59960E-001	-1.16508E+000	3.57660E+000	10	...........
STARTTIMEOFFSET	QUANT	1542.381	Start Time Offset (s)