File: Data/CV_CRGO300517_1/PWRCCD_CRGO300517_1/CHARGE_DISCHARGE/CHARGE_#199.DTA
EXPLAIN
TAG	PWR800_CHARGE
TITLE	LABEL	PWR Cyclic Charge Discharge (Cell) - Charge Step	Test &Identifier
DATE	LABEL	22-6-2017	Date
TIME	LABEL	15:43:46	Time
NOTES	NOTES	3	&Notes...
	supercap test cell
	0.6mg
	6M KOH
PSTAT	PSTAT	IFC5000-01520	Potentiostat
CAPACITY	QUANT	1.00000E-003	Capacity (A-hr)
CELLTYPE	SELECTOR	1	&Cell Type
WORKINGCONNECTION	SELECTOR	0	&Working Lead
MAXCHARGETIME	VARIABLEANDUNITS	1.00000E+002	s	1.00000E+002	second(s)	Max &Charge Time
CHARGECURRENT	QUANT	6.00000E-003	&Charge Current (A)
VOLTAGEFINISH	TWOPARAM	F	1.00000E-003	3.60000E+003	&Voltage Finish	 I (A) < 	Max Time(s)
SAMPLETIME	QUANT	1.00000E-002	Sa&mple Period (s)
CHARGESTOPAT1	MULTIPARAM	4	1.00000E+000	Charge Stop At &1	Voltage > Limit	V
CHARGESTOPAT2	MULTIPARAM	0	0.00000E+000	Charge Stop At &2	None	N/A
AESBHCSELECTOR	TOGGLE	F	Save Both Half Cells
IRCOMP	TOGGLE	F	IR &Measure
EOC	QUANT	0	Open Circuit (V)
SEQUENCER	TOGGLE	TRUE	Run as Sequence
PSTATMODEL	IQUANT	53	Pstat Model
PSTATSECTION	LABEL	IFC5000-01520	Pstat Section
PSTATSERIALNO	LABEL	01520	Pstat Serial Number
CTRLMODE	IQUANT	0	Control Mode
ELECTROMETER	IQUANT	1	RE=0 or CS=1
IESTAB	IQUANT	0	I/E Stability
CASPEED	IQUANT	4	Control Amp Speed
CONVENTION	IQUANT	1	Current Convention
ICHRANGE	IQUANT	2	Ich Range
ICHRANGEMODE	TOGGLE	T	Ich Auto Range
ICHOFFSETENABLE	TOGGLE	F	Ich Offset Enable
ICHOFFSET	QUANT	0	Ich Offset (V)
ICHFILTER	IQUANT	1	Ich Filter
VCHRANGE	IQUANT	2	Vch Range
VCHRANGEMODE	TOGGLE	T	Vch Auto Range
VCHOFFSETENABLE	TOGGLE	F	Vch Offset Enable
VCHOFFSET	QUANT	0	Vch Offset (V)
VCHFILTER	IQUANT	1	Vch Filter
IERANGELOWERLIMIT	IQUANT	9	I/E Range Lower Limit
IERANGEMODE	TOGGLE	F	I/E AutoRange
IERANGE	IQUANT	10	I/E Range
ACHSELECT	IQUANT	1	Ach Select
ACHRANGE	IQUANT	2	Ach Range
ACHOFFSETENABLE	TOGGLE	F	Ach Offset Enable
ACHOFFSET	QUANT	0	Ach Offset (V)
ACHFILTER	IQUANT	1	Ach Filter
CABLEID	IQUANT	14	Cable ID
DCCALDATE	LABEL	20-10-2016	DC Calibration Date
ACCALDATE	LABEL	12/3/2015	AC Calibration Date
FRAMEWORKVERSION	QUANT	7.01	Framework Version
INSTRUMENTVERSION	LABEL	4.00	Instrument Version
CURVE	TABLE	65
	Pt	T	Vf	Im	Vu	Pwr	Sig	Ach	Temp	IERange	Over
	#	s	V	A	V	W	V	V	deg C	#	bits
	0	0.013333	6.05506E-001	5.99477E-003	0.00000E+000	3.62987E-003	3.59960E-001	-1.09065E+000	3.57680E+000	10	...........
	1	0.026667	6.14005E-001	5.99751E-003	0.00000E+000	3.68250E-003	3.59960E-001	-1.09217E+000	3.57680E+000	10	...........
	2	0.04	6.21802E-001	5.99903E-003	0.00000E+000	3.73021E-003	3.59960E-001	-1.10053E+000	3.57680E+000	10	...........
	3	0.053333	6.29124E-001	5.99376E-003	0.00000E+000	3.77082E-003	3.59960E-001	-1.08992E+000	3.57680E+000	10	...........
	4	0.066667	6.36246E-001	5.99407E-003	0.00000E+000	3.81370E-003	3.59960E-001	-1.09147E+000	3.57680E+000	10	...........
	5	0.08	6.43153E-001	5.99641E-003	0.00000E+000	3.85661E-003	3.59960E-001	-1.09929E+000	3.57680E+000	10	...........
	6	0.093333	6.49910E-001	5.99616E-003	0.00000E+000	3.89696E-003	3.59960E-001	-1.08874E+000	3.57680E+000	10	...........
	7	0.106667	6.56548E-001	5.99636E-003	0.00000E+000	3.93690E-003	3.59960E-001	-1.08967E+000	3.57680E+000	10	...........
	8	0.12	6.63124E-001	5.99454E-003	0.00000E+000	3.97513E-003	3.59960E-001	-1.09728E+000	3.57680E+000	10	...........
	9	0.133333	6.69651E-001	5.99407E-003	0.00000E+000	4.01393E-003	3.59960E-001	-1.08640E+000	3.57680E+000	10	...........
	10	0.146667	6.76065E-001	5.99407E-003	0.00000E+000	4.05239E-003	3.59960E-001	-1.08666E+000	3.57700E+000	10	...........
	11	0.16	6.82432E-001	5.99523E-003	0.00000E+000	4.09133E-003	3.59960E-001	-1.09324E+000	3.57700E+000	10	...........
	12	0.173333	6.88760E-001	5.99007E-003	0.00000E+000	4.12572E-003	3.59960E-001	-1.08198E+000	3.57700E+000	10	...........
	13	0.186667	6.95128E-001	5.99598E-003	0.00000E+000	4.16797E-003	3.59960E-001	-1.08203E+000	3.57700E+000	10	...........
	14	0.2	7.01419E-001	5.99261E-003	0.00000E+000	4.20333E-003	3.59960E-001	-1.08903E+000	3.57700E+000	10	...........
	15	0.213333	7.07683E-001	5.99384E-003	0.00000E+000	4.24174E-003	3.59960E-001	-1.07844E+000	3.57700E+000	10	...........
	16	0.226667	7.13889E-001	5.99386E-003	0.00000E+000	4.27896E-003	3.59960E-001	-1.07871E+000	3.57700E+000	10	...........
	17	0.24	7.20139E-001	5.99612E-003	0.00000E+000	4.31804E-003	3.59960E-001	-1.08608E+000	3.57700E+000	10	...........
	18	0.253333	7.26322E-001	5.99480E-003	0.00000E+000	4.35416E-003	3.59960E-001	-1.07555E+000	3.57700E+000	10	...........
	19	0.266667	7.32511E-001	5.99504E-003	0.00000E+000	4.39144E-003	3.59960E-001	-1.07580E+000	3.57700E+000	10	...........
	20	0.28	7.38684E-001	5.99511E-003	0.00000E+000	4.42849E-003	3.59960E-001	-1.08376E+000	3.57700E+000	10	...........
	21	0.293333	7.44830E-001	5.99195E-003	0.00000E+000	4.46298E-003	3.59960E-001	-1.07433E+000	3.57700E+000	10	...........
	22	0.306667	7.50967E-001	5.99528E-003	0.00000E+000	4.50226E-003	3.59960E-001	-1.07557E+000	3.57700E+000	10	...........
	23	0.32	7.57134E-001	5.99221E-003	0.00000E+000	4.53690E-003	3.59960E-001	-1.08385E+000	3.57700E+000	10	...........
	24	0.333333	7.63223E-001	5.99052E-003	0.00000E+000	4.57210E-003	3.59960E-001	-1.07431E+000	3.57700E+000	10	...........
	25	0.346667	7.69354E-001	5.99372E-003	0.00000E+000	4.61129E-003	3.59960E-001	-1.07563E+000	3.57700E+000	10	...........
	26	0.36	7.75486E-001	5.99607E-003	0.00000E+000	4.64986E-003	3.59960E-001	-1.08438E+000	3.57700E+000	10	...........
	27	0.373333	7.81573E-001	5.98869E-003	0.00000E+000	4.68060E-003	3.59960E-001	-1.07509E+000	3.57700E+000	10	...........
	28	0.386667	7.87703E-001	5.99413E-003	0.00000E+000	4.72159E-003	3.59960E-001	-1.07629E+000	3.57700E+000	10	...........
	29	0.4	7.93818E-001	5.99649E-003	0.00000E+000	4.76012E-003	3.59960E-001	-1.08457E+000	3.57700E+000	10	...........
	30	0.413333	7.99904E-001	5.99272E-003	0.00000E+000	4.79360E-003	3.59960E-001	-1.07510E+000	3.57700E+000	10	...........
	31	0.426667	8.05931E-001	5.99913E-003	0.00000E+000	4.83489E-003	3.59960E-001	-1.07595E+000	3.57700E+000	10	...........
	32	0.44	8.11992E-001	5.98994E-003	0.00000E+000	4.86379E-003	3.59960E-001	-1.08455E+000	3.57700E+000	10	...........
	33	0.453333	8.18044E-001	5.99740E-003	0.00000E+000	4.90614E-003	3.59960E-001	-1.07545E+000	3.57700E+000	10	...........
	34	0.466667	8.24124E-001	5.99362E-003	0.00000E+000	4.93949E-003	3.59960E-001	-1.07649E+000	3.57700E+000	10	...........
	35	0.48	8.30169E-001	5.99441E-003	0.00000E+000	4.97637E-003	3.59960E-001	-1.08499E+000	3.57700E+000	10	...........
	36	0.493333	8.36175E-001	5.99397E-003	0.00000E+000	5.01201E-003	3.59960E-001	-1.07579E+000	3.57700E+000	10	...........
	37	0.506667	8.42218E-001	5.99342E-003	0.00000E+000	5.04776E-003	3.59960E-001	-1.07684E+000	3.57700E+000	10	...........
	38	0.52	8.48273E-001	5.99196E-003	0.00000E+000	5.08281E-003	3.59960E-001	-1.08576E+000	3.57700E+000	10	...........
	39	0.533333	8.54271E-001	5.99564E-003	0.00000E+000	5.12190E-003	3.59960E-001	-1.07685E+000	3.57700E+000	10	...........
	40	0.546667	8.60261E-001	5.99696E-003	0.00000E+000	5.15895E-003	3.59960E-001	-1.07766E+000	3.57700E+000	10	...........
	41	0.56	8.66240E-001	5.99107E-003	0.00000E+000	5.18970E-003	3.59960E-001	-1.08701E+000	3.57700E+000	10	...........
	42	0.573333	8.72264E-001	5.99125E-003	0.00000E+000	5.22595E-003	3.59960E-001	-1.07803E+000	3.57700E+000	10	...........
	43	0.586667	8.78236E-001	5.99378E-003	0.00000E+000	5.26396E-003	3.59960E-001	-1.07883E+000	3.57700E+000	10	...........
	44	0.6	8.84192E-001	5.99125E-003	0.00000E+000	5.29741E-003	3.59960E-001	-1.08783E+000	3.57700E+000	10	...........
	45	0.613333	8.90111E-001	5.99085E-003	0.00000E+000	5.33252E-003	3.59960E-001	-1.07846E+000	3.57700E+000	10	...........
	46	0.626667	8.96047E-001	5.99056E-003	0.00000E+000	5.36782E-003	3.59960E-001	-1.07932E+000	3.57700E+000	10	...........
	47	0.64	9.01916E-001	5.99220E-003	0.00000E+000	5.40446E-003	3.59960E-001	-1.08857E+000	3.57700E+000	10	...........
	48	0.653333	9.07767E-001	5.99405E-003	0.00000E+000	5.44121E-003	3.59960E-001	-1.07947E+000	3.57700E+000	10	...........
	49	0.666667	9.13606E-001	5.99448E-003	0.00000E+000	5.47659E-003	3.59960E-001	-1.08007E+000	3.57700E+000	10	...........
	50	0.68	9.19458E-001	5.99741E-003	0.00000E+000	5.51437E-003	3.59960E-001	-1.08912E+000	3.57700E+000	10	...........
	51	0.693333	9.25309E-001	5.99731E-003	0.00000E+000	5.54936E-003	3.59960E-001	-1.08020E+000	3.57700E+000	10	...........
	52	0.706667	9.31051E-001	5.99128E-003	0.00000E+000	5.57818E-003	3.59960E-001	-1.08060E+000	3.57700E+000	10	...........
	53	0.72	9.36779E-001	5.99398E-003	0.00000E+000	5.61504E-003	3.59960E-001	-1.08982E+000	3.57700E+000	10	...........
	54	0.733333	9.42499E-001	5.99054E-003	0.00000E+000	5.64607E-003	3.59960E-001	-1.08054E+000	3.57700E+000	10	...........
	55	0.746667	9.48229E-001	5.99002E-003	0.00000E+000	5.67990E-003	3.59960E-001	-1.08078E+000	3.57700E+000	10	...........
	56	0.76	9.53844E-001	5.99647E-003	0.00000E+000	5.71970E-003	3.59960E-001	-1.08991E+000	3.57700E+000	10	...........
	57	0.773333	9.59471E-001	5.98999E-003	0.00000E+000	5.74723E-003	3.59960E-001	-1.08120E+000	3.57700E+000	10	...........
	58	0.786667	9.65106E-001	5.99092E-003	0.00000E+000	5.78188E-003	3.59960E-001	-1.08138E+000	3.57700E+000	10	...........
	59	0.8	9.70666E-001	5.98989E-003	0.00000E+000	5.81418E-003	3.59960E-001	-1.09017E+000	3.57700E+000	10	...........
	60	0.813333	9.76228E-001	5.99127E-003	0.00000E+000	5.84884E-003	3.59960E-001	-1.08103E+000	3.57700E+000	10	...........
	61	0.826667	9.81681E-001	5.99432E-003	0.00000E+000	5.88451E-003	3.59960E-001	-1.08111E+000	3.57700E+000	10	...........
	62	0.84	9.87153E-001	5.99529E-003	0.00000E+000	5.91827E-003	3.59960E-001	-1.09052E+000	3.57700E+000	10	...........
	63	0.853333	9.92520E-001	5.99594E-003	0.00000E+000	5.95109E-003	3.59960E-001	-1.08142E+000	3.57700E+000	10	...........
	64	0.866667	9.97923E-001	5.99253E-003	0.00000E+000	5.98008E-003	3.59960E-001	-1.08158E+000	3.57700E+000	10	...........
STARTTIMEOFFSET	QUANT	371.24	Start Time Offset (s)