File: Data/CV_CRGO300517_1/PWRCCD_CRGO300517_1/CHARGE_DISCHARGE/CHARGE_#137.DTA
EXPLAIN
TAG	PWR800_CHARGE
TITLE	LABEL	PWR Cyclic Charge Discharge (Cell) - Charge Step	Test &Identifier
DATE	LABEL	22-6-2017	Date
TIME	LABEL	15:41:08	Time
NOTES	NOTES	3	&Notes...
	supercap test cell
	0.6mg
	6M KOH
PSTAT	PSTAT	IFC5000-01520	Potentiostat
CAPACITY	QUANT	1.00000E-003	Capacity (A-hr)
CELLTYPE	SELECTOR	1	&Cell Type
WORKINGCONNECTION	SELECTOR	0	&Working Lead
MAXCHARGETIME	VARIABLEANDUNITS	1.00000E+002	s	1.00000E+002	second(s)	Max &Charge Time
CHARGECURRENT	QUANT	6.00000E-003	&Charge Current (A)
VOLTAGEFINISH	TWOPARAM	F	1.00000E-003	3.60000E+003	&Voltage Finish	 I (A) < 	Max Time(s)
SAMPLETIME	QUANT	1.00000E-002	Sa&mple Period (s)
CHARGESTOPAT1	MULTIPARAM	4	1.00000E+000	Charge Stop At &1	Voltage > Limit	V
CHARGESTOPAT2	MULTIPARAM	0	0.00000E+000	Charge Stop At &2	None	N/A
AESBHCSELECTOR	TOGGLE	F	Save Both Half Cells
IRCOMP	TOGGLE	F	IR &Measure
EOC	QUANT	0	Open Circuit (V)
SEQUENCER	TOGGLE	TRUE	Run as Sequence
PSTATMODEL	IQUANT	53	Pstat Model
PSTATSECTION	LABEL	IFC5000-01520	Pstat Section
PSTATSERIALNO	LABEL	01520	Pstat Serial Number
CTRLMODE	IQUANT	0	Control Mode
ELECTROMETER	IQUANT	1	RE=0 or CS=1
IESTAB	IQUANT	0	I/E Stability
CASPEED	IQUANT	4	Control Amp Speed
CONVENTION	IQUANT	1	Current Convention
ICHRANGE	IQUANT	2	Ich Range
ICHRANGEMODE	TOGGLE	T	Ich Auto Range
ICHOFFSETENABLE	TOGGLE	F	Ich Offset Enable
ICHOFFSET	QUANT	0	Ich Offset (V)
ICHFILTER	IQUANT	1	Ich Filter
VCHRANGE	IQUANT	2	Vch Range
VCHRANGEMODE	TOGGLE	T	Vch Auto Range
VCHOFFSETENABLE	TOGGLE	F	Vch Offset Enable
VCHOFFSET	QUANT	0	Vch Offset (V)
VCHFILTER	IQUANT	1	Vch Filter
IERANGELOWERLIMIT	IQUANT	9	I/E Range Lower Limit
IERANGEMODE	TOGGLE	F	I/E AutoRange
IERANGE	IQUANT	10	I/E Range
ACHSELECT	IQUANT	1	Ach Select
ACHRANGE	IQUANT	2	Ach Range
ACHOFFSETENABLE	TOGGLE	F	Ach Offset Enable
ACHOFFSET	QUANT	0	Ach Offset (V)
ACHFILTER	IQUANT	1	Ach Filter
CABLEID	IQUANT	14	Cable ID
DCCALDATE	LABEL	20-10-2016	DC Calibration Date
ACCALDATE	LABEL	12/3/2015	AC Calibration Date
FRAMEWORKVERSION	QUANT	7.01	Framework Version
INSTRUMENTVERSION	LABEL	4.00	Instrument Version
CURVE	TABLE	68
	Pt	T	Vf	Im	Vu	Pwr	Sig	Ach	Temp	IERange	Over
	#	s	V	A	V	W	V	V	deg C	#	bits
	0	0.013333	5.95815E-001	5.98934E-003	0.00000E+000	3.56853E-003	3.59960E-001	-1.07942E+000	3.57690E+000	10	...........
	1	0.026667	6.04159E-001	5.99466E-003	0.00000E+000	3.62173E-003	3.59960E-001	-1.07123E+000	3.57690E+000	10	...........
	2	0.04	6.11809E-001	5.99363E-003	0.00000E+000	3.66696E-003	3.59960E-001	-1.06868E+000	3.57690E+000	10	...........
	3	0.053333	6.19081E-001	5.99132E-003	0.00000E+000	3.70911E-003	3.59960E-001	-1.07925E+000	3.57690E+000	10	...........
	4	0.066667	6.26078E-001	5.99997E-003	0.00000E+000	3.75645E-003	3.59960E-001	-1.07092E+000	3.57690E+000	10	...........
	5	0.08	6.32807E-001	5.99158E-003	0.00000E+000	3.79151E-003	3.59960E-001	-1.06860E+000	3.57690E+000	10	...........
	6	0.093333	6.39486E-001	5.99390E-003	0.00000E+000	3.83301E-003	3.59960E-001	-1.07920E+000	3.57690E+000	10	...........
	7	0.106667	6.46041E-001	5.99386E-003	0.00000E+000	3.87228E-003	3.59960E-001	-1.07068E+000	3.57690E+000	10	...........
	8	0.12	6.52509E-001	5.99815E-003	0.00000E+000	3.91385E-003	3.59960E-001	-1.06796E+000	3.57690E+000	10	...........
	9	0.133333	6.58908E-001	5.99225E-003	0.00000E+000	3.94834E-003	3.59960E-001	-1.07862E+000	3.57690E+000	10	...........
	10	0.146667	6.65244E-001	5.99608E-003	0.00000E+000	3.98885E-003	3.59960E-001	-1.07061E+000	3.57700E+000	10	...........
	11	0.16	6.71551E-001	5.99408E-003	0.00000E+000	4.02533E-003	3.59960E-001	-1.06800E+000	3.57710E+000	10	...........
	12	0.173333	6.77754E-001	5.99576E-003	0.00000E+000	4.06365E-003	3.59960E-001	-1.07874E+000	3.57710E+000	10	...........
	13	0.186667	6.83927E-001	5.99643E-003	0.00000E+000	4.10112E-003	3.59960E-001	-1.07074E+000	3.57710E+000	10	...........
	14	0.2	6.90086E-001	5.99338E-003	0.00000E+000	4.13595E-003	3.59960E-001	-1.06786E+000	3.57710E+000	10	...........
	15	0.213333	6.96240E-001	5.99475E-003	0.00000E+000	4.17379E-003	3.59960E-001	-1.07862E+000	3.57710E+000	10	...........
	16	0.226667	7.02351E-001	5.99631E-003	0.00000E+000	4.21151E-003	3.59960E-001	-1.07081E+000	3.57710E+000	10	...........
	17	0.24	7.08426E-001	5.99607E-003	0.00000E+000	4.24777E-003	3.59960E-001	-1.06790E+000	3.57710E+000	10	...........
	18	0.253333	7.14522E-001	5.99783E-003	0.00000E+000	4.28558E-003	3.59960E-001	-1.07846E+000	3.57710E+000	10	...........
	19	0.266667	7.20641E-001	5.99301E-003	0.00000E+000	4.31881E-003	3.59960E-001	-1.07045E+000	3.57710E+000	10	...........
	20	0.28	7.26698E-001	5.99454E-003	0.00000E+000	4.35622E-003	3.59960E-001	-1.06772E+000	3.57710E+000	10	...........
	21	0.293333	7.32745E-001	5.99320E-003	0.00000E+000	4.39149E-003	3.59960E-001	-1.07826E+000	3.57710E+000	10	...........
	22	0.306667	7.38817E-001	5.99353E-003	0.00000E+000	4.42812E-003	3.59960E-001	-1.07066E+000	3.57710E+000	10	...........
	23	0.32	7.44888E-001	5.99321E-003	0.00000E+000	4.46427E-003	3.59960E-001	-1.06758E+000	3.57710E+000	10	...........
	24	0.333333	7.50881E-001	5.99452E-003	0.00000E+000	4.50117E-003	3.59960E-001	-1.07830E+000	3.57710E+000	10	...........
	25	0.346667	7.56853E-001	5.98742E-003	0.00000E+000	4.53159E-003	3.59960E-001	-1.07054E+000	3.57710E+000	10	...........
	26	0.36	7.62865E-001	5.99869E-003	0.00000E+000	4.57619E-003	3.59960E-001	-1.06790E+000	3.57710E+000	10	...........
	27	0.373333	7.68835E-001	5.99446E-003	0.00000E+000	4.60875E-003	3.59960E-001	-1.07840E+000	3.57710E+000	10	...........
	28	0.386667	7.74870E-001	5.99508E-003	0.00000E+000	4.64541E-003	3.59960E-001	-1.07087E+000	3.57710E+000	10	...........
	29	0.4	7.80819E-001	5.99650E-003	0.00000E+000	4.68218E-003	3.59960E-001	-1.06764E+000	3.57710E+000	10	...........
	30	0.413333	7.86836E-001	5.99391E-003	0.00000E+000	4.71622E-003	3.59960E-001	-1.07820E+000	3.57710E+000	10	...........
	31	0.426667	7.92841E-001	5.99368E-003	0.00000E+000	4.75203E-003	3.59960E-001	-1.07028E+000	3.57710E+000	10	...........
	32	0.44	7.98863E-001	5.99379E-003	0.00000E+000	4.78822E-003	3.59960E-001	-1.06741E+000	3.57710E+000	10	...........
	33	0.453333	8.04841E-001	5.99514E-003	0.00000E+000	4.82513E-003	3.59960E-001	-1.07795E+000	3.57710E+000	10	...........
	34	0.466667	8.10768E-001	5.99293E-003	0.00000E+000	4.85887E-003	3.59960E-001	-1.07026E+000	3.57710E+000	10	...........
	35	0.48	8.16779E-001	5.99995E-003	0.00000E+000	4.90063E-003	3.59960E-001	-1.06739E+000	3.57710E+000	10	...........
	36	0.493333	8.22735E-001	5.99310E-003	0.00000E+000	4.93073E-003	3.59960E-001	-1.07789E+000	3.57710E+000	10	...........
	37	0.506667	8.28644E-001	5.99474E-003	0.00000E+000	4.96751E-003	3.59960E-001	-1.07052E+000	3.57710E+000	10	...........
	38	0.52	8.34600E-001	5.99609E-003	0.00000E+000	5.00434E-003	3.59960E-001	-1.06729E+000	3.57710E+000	10	...........
	39	0.533333	8.40546E-001	5.99276E-003	0.00000E+000	5.03719E-003	3.59960E-001	-1.07762E+000	3.57710E+000	10	...........
	40	0.546667	8.46507E-001	5.99279E-003	0.00000E+000	5.07294E-003	3.59960E-001	-1.07024E+000	3.57710E+000	10	...........
	41	0.56	8.52429E-001	5.99230E-003	0.00000E+000	5.10801E-003	3.59960E-001	-1.06727E+000	3.57710E+000	10	...........
	42	0.573333	8.58294E-001	5.99406E-003	0.00000E+000	5.14467E-003	3.59960E-001	-1.07752E+000	3.57710E+000	10	...........
	43	0.586667	8.64181E-001	5.99498E-003	0.00000E+000	5.18075E-003	3.59960E-001	-1.07043E+000	3.57710E+000	10	...........
	44	0.6	8.70151E-001	5.99579E-003	0.00000E+000	5.21725E-003	3.59960E-001	-1.06717E+000	3.57710E+000	10	...........
	45	0.613333	8.76037E-001	5.99450E-003	0.00000E+000	5.25140E-003	3.59960E-001	-1.07761E+000	3.57710E+000	10	...........
	46	0.626667	8.81923E-001	5.99479E-003	0.00000E+000	5.28694E-003	3.59960E-001	-1.07058E+000	3.57710E+000	10	...........
	47	0.64	8.87776E-001	5.99536E-003	0.00000E+000	5.32253E-003	3.59960E-001	-1.06722E+000	3.57710E+000	10	...........
	48	0.653333	8.93605E-001	5.99441E-003	0.00000E+000	5.35663E-003	3.59960E-001	-1.07753E+000	3.57710E+000	10	...........
	49	0.666667	8.99491E-001	5.99589E-003	0.00000E+000	5.39325E-003	3.59960E-001	-1.07038E+000	3.57710E+000	10	...........
	50	0.68	9.05261E-001	5.99382E-003	0.00000E+000	5.42598E-003	3.59960E-001	-1.06716E+000	3.57710E+000	10	...........
	51	0.693333	9.11081E-001	5.99655E-003	0.00000E+000	5.46334E-003	3.59960E-001	-1.07750E+000	3.57710E+000	10	...........
	52	0.706667	9.16814E-001	5.98880E-003	0.00000E+000	5.49061E-003	3.59960E-001	-1.07052E+000	3.57710E+000	10	...........
	53	0.72	9.22605E-001	5.99598E-003	0.00000E+000	5.53193E-003	3.59960E-001	-1.06692E+000	3.57710E+000	10	...........
	54	0.733333	9.28360E-001	5.99309E-003	0.00000E+000	5.56375E-003	3.59960E-001	-1.07717E+000	3.57710E+000	10	...........
	55	0.746667	9.34067E-001	5.99165E-003	0.00000E+000	5.59661E-003	3.59960E-001	-1.07004E+000	3.57710E+000	10	...........
	56	0.76	9.39768E-001	5.99491E-003	0.00000E+000	5.63382E-003	3.59960E-001	-1.06659E+000	3.57710E+000	10	...........
	57	0.773333	9.45431E-001	5.99258E-003	0.00000E+000	5.66557E-003	3.59960E-001	-1.07716E+000	3.57710E+000	10	...........
	58	0.786667	9.51086E-001	5.99180E-003	0.00000E+000	5.69872E-003	3.59960E-001	-1.07023E+000	3.57710E+000	10	...........
	59	0.8	9.56660E-001	5.99740E-003	0.00000E+000	5.73748E-003	3.59960E-001	-1.06643E+000	3.57710E+000	10	...........
	60	0.813333	9.62215E-001	5.99368E-003	0.00000E+000	5.76721E-003	3.59960E-001	-1.07676E+000	3.57710E+000	10	...........
	61	0.826667	9.67745E-001	5.99006E-003	0.00000E+000	5.79685E-003	3.59960E-001	-1.07025E+000	3.57710E+000	10	...........
	62	0.84	9.73260E-001	5.99275E-003	0.00000E+000	5.83250E-003	3.59960E-001	-1.06666E+000	3.57710E+000	10	...........
	63	0.853333	9.78790E-001	5.99900E-003	0.00000E+000	5.87176E-003	3.59960E-001	-1.07674E+000	3.57710E+000	10	...........
	64	0.866667	9.84204E-001	5.99404E-003	0.00000E+000	5.89936E-003	3.59960E-001	-1.07030E+000	3.57710E+000	10	...........
	65	0.88	9.89628E-001	5.99372E-003	0.00000E+000	5.93155E-003	3.59960E-001	-1.06663E+000	3.57710E+000	10	...........
	66	0.893333	9.94990E-001	6.00028E-003	0.00000E+000	5.97021E-003	3.59960E-001	-1.07691E+000	3.57710E+000	10	...........
	67	0.901667	9.99324E-001	5.99404E-003	0.00000E+000	5.98999E-003	3.59960E-001	-1.06394E+000	3.57710E+000	10	...........
STARTTIMEOFFSET	QUANT	262.42	Start Time Offset (s)