File: Data/CV_CRGO300517_1/PWRCCD_CRGO300517_1/CHARGE_DISCHARGE/CHARGE_#687.DTA
EXPLAIN
TAG	PWR800_CHARGE
TITLE	LABEL	PWR Cyclic Charge Discharge (Cell) - Charge Step	Test &Identifier
DATE	LABEL	22-6-2017	Date
TIME	LABEL	16:03:04	Time
NOTES	NOTES	3	&Notes...
	supercap test cell
	0.6mg
	6M KOH
PSTAT	PSTAT	IFC5000-01520	Potentiostat
CAPACITY	QUANT	1.00000E-003	Capacity (A-hr)
CELLTYPE	SELECTOR	1	&Cell Type
WORKINGCONNECTION	SELECTOR	0	&Working Lead
MAXCHARGETIME	VARIABLEANDUNITS	1.00000E+002	s	1.00000E+002	second(s)	Max &Charge Time
CHARGECURRENT	QUANT	6.00000E-003	&Charge Current (A)
VOLTAGEFINISH	TWOPARAM	F	1.00000E-003	3.60000E+003	&Voltage Finish	 I (A) < 	Max Time(s)
SAMPLETIME	QUANT	1.00000E-002	Sa&mple Period (s)
CHARGESTOPAT1	MULTIPARAM	4	1.00000E+000	Charge Stop At &1	Voltage > Limit	V
CHARGESTOPAT2	MULTIPARAM	0	0.00000E+000	Charge Stop At &2	None	N/A
AESBHCSELECTOR	TOGGLE	F	Save Both Half Cells
IRCOMP	TOGGLE	F	IR &Measure
EOC	QUANT	0	Open Circuit (V)
SEQUENCER	TOGGLE	TRUE	Run as Sequence
PSTATMODEL	IQUANT	53	Pstat Model
PSTATSECTION	LABEL	IFC5000-01520	Pstat Section
PSTATSERIALNO	LABEL	01520	Pstat Serial Number
CTRLMODE	IQUANT	0	Control Mode
ELECTROMETER	IQUANT	1	RE=0 or CS=1
IESTAB	IQUANT	0	I/E Stability
CASPEED	IQUANT	4	Control Amp Speed
CONVENTION	IQUANT	1	Current Convention
ICHRANGE	IQUANT	2	Ich Range
ICHRANGEMODE	TOGGLE	T	Ich Auto Range
ICHOFFSETENABLE	TOGGLE	F	Ich Offset Enable
ICHOFFSET	QUANT	0	Ich Offset (V)
ICHFILTER	IQUANT	1	Ich Filter
VCHRANGE	IQUANT	2	Vch Range
VCHRANGEMODE	TOGGLE	T	Vch Auto Range
VCHOFFSETENABLE	TOGGLE	F	Vch Offset Enable
VCHOFFSET	QUANT	0	Vch Offset (V)
VCHFILTER	IQUANT	1	Vch Filter
IERANGELOWERLIMIT	IQUANT	9	I/E Range Lower Limit
IERANGEMODE	TOGGLE	F	I/E AutoRange
IERANGE	IQUANT	10	I/E Range
ACHSELECT	IQUANT	1	Ach Select
ACHRANGE	IQUANT	2	Ach Range
ACHOFFSETENABLE	TOGGLE	F	Ach Offset Enable
ACHOFFSET	QUANT	0	Ach Offset (V)
ACHFILTER	IQUANT	1	Ach Filter
CABLEID	IQUANT	14	Cable ID
DCCALDATE	LABEL	20-10-2016	DC Calibration Date
ACCALDATE	LABEL	12/3/2015	AC Calibration Date
FRAMEWORKVERSION	QUANT	7.01	Framework Version
INSTRUMENTVERSION	LABEL	4.00	Instrument Version
CURVE	TABLE	56
	Pt	T	Vf	Im	Vu	Pwr	Sig	Ach	Temp	IERange	Over
	#	s	V	A	V	W	V	V	deg C	#	bits
	0	0.013333	6.41638E-001	5.99414E-003	0.00000E+000	3.84606E-003	3.59960E-001	-1.15552E+000	3.57750E+000	10	...........
	1	0.026667	6.50769E-001	5.99584E-003	0.00000E+000	3.90190E-003	3.59960E-001	-1.16506E+000	3.57750E+000	10	...........
	2	0.04	6.59144E-001	5.99599E-003	0.00000E+000	3.95222E-003	3.59960E-001	-1.15423E+000	3.57750E+000	10	...........
	3	0.053333	6.67050E-001	5.99221E-003	0.00000E+000	3.99710E-003	3.59960E-001	-1.15511E+000	3.57750E+000	10	...........
	4	0.066667	6.74686E-001	5.99255E-003	0.00000E+000	4.04309E-003	3.59960E-001	-1.16473E+000	3.57750E+000	10	...........
	5	0.08	6.82108E-001	5.99886E-003	0.00000E+000	4.09187E-003	3.59960E-001	-1.15377E+000	3.57750E+000	10	...........
	6	0.093333	6.89357E-001	5.99731E-003	0.00000E+000	4.13428E-003	3.59960E-001	-1.15496E+000	3.57750E+000	10	...........
	7	0.106667	6.96573E-001	5.99826E-003	0.00000E+000	4.17822E-003	3.59960E-001	-1.16431E+000	3.57750E+000	10	...........
	8	0.12	7.03684E-001	5.99239E-003	0.00000E+000	4.21675E-003	3.59960E-001	-1.15365E+000	3.57750E+000	10	...........
	9	0.133333	7.10681E-001	5.99483E-003	0.00000E+000	4.26041E-003	3.59960E-001	-1.15486E+000	3.57750E+000	10	...........
	10	0.146667	7.17633E-001	5.99520E-003	0.00000E+000	4.30236E-003	3.59960E-001	-1.16429E+000	3.57750E+000	10	...........
	11	0.16	7.24522E-001	5.99244E-003	0.00000E+000	4.34165E-003	3.59960E-001	-1.15379E+000	3.57750E+000	10	...........
	12	0.173333	7.31368E-001	5.99246E-003	0.00000E+000	4.38269E-003	3.59960E-001	-1.15480E+000	3.57750E+000	10	...........
	13	0.186667	7.38155E-001	5.99298E-003	0.00000E+000	4.42374E-003	3.59960E-001	-1.16403E+000	3.57750E+000	10	...........
	14	0.2	7.44976E-001	5.98920E-003	0.00000E+000	4.46181E-003	3.59960E-001	-1.15354E+000	3.57750E+000	10	...........
	15	0.213333	7.51738E-001	5.99272E-003	0.00000E+000	4.50496E-003	3.59960E-001	-1.15521E+000	3.57750E+000	10	...........
	16	0.226667	7.58470E-001	5.99281E-003	0.00000E+000	4.54537E-003	3.59960E-001	-1.16417E+000	3.57750E+000	10	...........
	17	0.24	7.65180E-001	5.99425E-003	0.00000E+000	4.58668E-003	3.59960E-001	-1.15353E+000	3.57750E+000	10	...........
	18	0.253333	7.71857E-001	5.99724E-003	0.00000E+000	4.62902E-003	3.59960E-001	-1.15503E+000	3.57750E+000	10	...........
	19	0.266667	7.78500E-001	5.99406E-003	0.00000E+000	4.66637E-003	3.59960E-001	-1.16419E+000	3.57750E+000	10	...........
	20	0.28	7.85173E-001	5.98847E-003	0.00000E+000	4.70199E-003	3.59960E-001	-1.15344E+000	3.57750E+000	10	...........
	21	0.293333	7.91778E-001	5.99105E-003	0.00000E+000	4.74358E-003	3.59960E-001	-1.15521E+000	3.57750E+000	10	...........
	22	0.306667	7.98387E-001	5.99651E-003	0.00000E+000	4.78754E-003	3.59960E-001	-1.16415E+000	3.57750E+000	10	...........
	23	0.32	8.04974E-001	5.99543E-003	0.00000E+000	4.82617E-003	3.59960E-001	-1.15349E+000	3.57750E+000	10	...........
	24	0.333333	8.11499E-001	5.99248E-003	0.00000E+000	4.86289E-003	3.59960E-001	-1.15517E+000	3.57750E+000	10	...........
	25	0.346667	8.18017E-001	5.99385E-003	0.00000E+000	4.90307E-003	3.59960E-001	-1.16417E+000	3.57750E+000	10	...........
	26	0.36	8.24562E-001	5.99021E-003	0.00000E+000	4.93930E-003	3.59960E-001	-1.15340E+000	3.57750E+000	10	...........
	27	0.373333	8.31047E-001	5.99494E-003	0.00000E+000	4.98207E-003	3.59960E-001	-1.15521E+000	3.57750E+000	10	...........
	28	0.386667	8.37510E-001	5.99802E-003	0.00000E+000	5.02340E-003	3.59960E-001	-1.16406E+000	3.57750E+000	10	...........
	29	0.4	8.43939E-001	5.99358E-003	0.00000E+000	5.05822E-003	3.59960E-001	-1.15313E+000	3.57750E+000	10	...........
	30	0.413333	8.50394E-001	5.99425E-003	0.00000E+000	5.09747E-003	3.59960E-001	-1.15505E+000	3.57750E+000	10	...........
	31	0.426667	8.56820E-001	5.99614E-003	0.00000E+000	5.13761E-003	3.59960E-001	-1.16337E+000	3.57750E+000	10	...........
	32	0.44	8.63241E-001	5.99007E-003	0.00000E+000	5.17087E-003	3.59960E-001	-1.15293E+000	3.57750E+000	10	...........
	33	0.453333	8.69603E-001	5.99162E-003	0.00000E+000	5.21033E-003	3.59960E-001	-1.15503E+000	3.57750E+000	10	...........
	34	0.466667	8.75938E-001	5.99764E-003	0.00000E+000	5.25356E-003	3.59960E-001	-1.16365E+000	3.57750E+000	10	...........
	35	0.48	8.82239E-001	5.99441E-003	0.00000E+000	5.28850E-003	3.59960E-001	-1.15315E+000	3.57750E+000	10	...........
	36	0.493333	8.88474E-001	5.98880E-003	0.00000E+000	5.32089E-003	3.59960E-001	-1.15498E+000	3.57750E+000	10	...........
	37	0.506667	8.94764E-001	5.98897E-003	0.00000E+000	5.35872E-003	3.59960E-001	-1.16356E+000	3.57750E+000	10	...........
	38	0.52	9.00985E-001	5.99222E-003	0.00000E+000	5.39890E-003	3.59960E-001	-1.15264E+000	3.57750E+000	10	...........
	39	0.533333	9.07140E-001	5.99452E-003	0.00000E+000	5.43787E-003	3.59960E-001	-1.15503E+000	3.57750E+000	10	...........
	40	0.546667	9.13292E-001	5.99614E-003	0.00000E+000	5.47622E-003	3.59960E-001	-1.16357E+000	3.57750E+000	10	...........
	41	0.56	9.19383E-001	5.99392E-003	0.00000E+000	5.51070E-003	3.59960E-001	-1.15295E+000	3.57750E+000	10	...........
	42	0.573333	9.25491E-001	5.99545E-003	0.00000E+000	5.54874E-003	3.59960E-001	-1.15486E+000	3.57750E+000	10	...........
	43	0.586667	9.31527E-001	5.99219E-003	0.00000E+000	5.58188E-003	3.59960E-001	-1.16307E+000	3.57750E+000	10	...........
	44	0.6	9.37543E-001	5.99566E-003	0.00000E+000	5.62119E-003	3.59960E-001	-1.15274E+000	3.57750E+000	10	...........
	45	0.613333	9.43464E-001	5.99615E-003	0.00000E+000	5.65715E-003	3.59960E-001	-1.15492E+000	3.57750E+000	10	...........
	46	0.626667	9.49438E-001	5.99698E-003	0.00000E+000	5.69376E-003	3.59960E-001	-1.16308E+000	3.57750E+000	10	...........
	47	0.64	9.55269E-001	5.99148E-003	0.00000E+000	5.72347E-003	3.59960E-001	-1.15245E+000	3.57750E+000	10	...........
	48	0.653333	9.61070E-001	5.99311E-003	0.00000E+000	5.75980E-003	3.59960E-001	-1.15501E+000	3.57750E+000	10	...........
	49	0.666667	9.66889E-001	5.99115E-003	0.00000E+000	5.79278E-003	3.59960E-001	-1.16293E+000	3.57750E+000	10	...........
	50	0.68	9.72668E-001	5.99784E-003	0.00000E+000	5.83390E-003	3.59960E-001	-1.15264E+000	3.57750E+000	10	...........
	51	0.693333	9.78360E-001	5.99486E-003	0.00000E+000	5.86512E-003	3.59960E-001	-1.15509E+000	3.57750E+000	10	...........
	52	0.706667	9.83971E-001	5.99662E-003	0.00000E+000	5.90050E-003	3.59960E-001	-1.16283E+000	3.57750E+000	10	...........
	53	0.72	9.89534E-001	5.99209E-003	0.00000E+000	5.92938E-003	3.59960E-001	-1.15204E+000	3.57750E+000	10	...........
	54	0.733333	9.95037E-001	5.99489E-003	0.00000E+000	5.96514E-003	3.59960E-001	-1.15480E+000	3.57750E+000	10	...........
	55	0.74	9.99241E-001	5.99657E-003	0.00000E+000	5.99202E-003	3.59960E-001	-1.16008E+000	3.57750E+000	10	...........
STARTTIMEOFFSET	QUANT	1140.121	Start Time Offset (s)