File: Data/CV_CRGO300517_1/PWRCCD_CRGO300517_1/CHARGE_DISCHARGE/CHARGE_#229.DTA
EXPLAIN
TAG	PWR800_CHARGE
TITLE	LABEL	PWR Cyclic Charge Discharge (Cell) - Charge Step	Test &Identifier
DATE	LABEL	22-6-2017	Date
TIME	LABEL	15:45:01	Time
NOTES	NOTES	3	&Notes...
	supercap test cell
	0.6mg
	6M KOH
PSTAT	PSTAT	IFC5000-01520	Potentiostat
CAPACITY	QUANT	1.00000E-003	Capacity (A-hr)
CELLTYPE	SELECTOR	1	&Cell Type
WORKINGCONNECTION	SELECTOR	0	&Working Lead
MAXCHARGETIME	VARIABLEANDUNITS	1.00000E+002	s	1.00000E+002	second(s)	Max &Charge Time
CHARGECURRENT	QUANT	6.00000E-003	&Charge Current (A)
VOLTAGEFINISH	TWOPARAM	F	1.00000E-003	3.60000E+003	&Voltage Finish	 I (A) < 	Max Time(s)
SAMPLETIME	QUANT	1.00000E-002	Sa&mple Period (s)
CHARGESTOPAT1	MULTIPARAM	4	1.00000E+000	Charge Stop At &1	Voltage > Limit	V
CHARGESTOPAT2	MULTIPARAM	0	0.00000E+000	Charge Stop At &2	None	N/A
AESBHCSELECTOR	TOGGLE	F	Save Both Half Cells
IRCOMP	TOGGLE	F	IR &Measure
EOC	QUANT	0	Open Circuit (V)
SEQUENCER	TOGGLE	TRUE	Run as Sequence
PSTATMODEL	IQUANT	53	Pstat Model
PSTATSECTION	LABEL	IFC5000-01520	Pstat Section
PSTATSERIALNO	LABEL	01520	Pstat Serial Number
CTRLMODE	IQUANT	0	Control Mode
ELECTROMETER	IQUANT	1	RE=0 or CS=1
IESTAB	IQUANT	0	I/E Stability
CASPEED	IQUANT	4	Control Amp Speed
CONVENTION	IQUANT	1	Current Convention
ICHRANGE	IQUANT	2	Ich Range
ICHRANGEMODE	TOGGLE	T	Ich Auto Range
ICHOFFSETENABLE	TOGGLE	F	Ich Offset Enable
ICHOFFSET	QUANT	0	Ich Offset (V)
ICHFILTER	IQUANT	1	Ich Filter
VCHRANGE	IQUANT	2	Vch Range
VCHRANGEMODE	TOGGLE	T	Vch Auto Range
VCHOFFSETENABLE	TOGGLE	F	Vch Offset Enable
VCHOFFSET	QUANT	0	Vch Offset (V)
VCHFILTER	IQUANT	1	Vch Filter
IERANGELOWERLIMIT	IQUANT	9	I/E Range Lower Limit
IERANGEMODE	TOGGLE	F	I/E AutoRange
IERANGE	IQUANT	10	I/E Range
ACHSELECT	IQUANT	1	Ach Select
ACHRANGE	IQUANT	2	Ach Range
ACHOFFSETENABLE	TOGGLE	F	Ach Offset Enable
ACHOFFSET	QUANT	0	Ach Offset (V)
ACHFILTER	IQUANT	1	Ach Filter
CABLEID	IQUANT	14	Cable ID
DCCALDATE	LABEL	20-10-2016	DC Calibration Date
ACCALDATE	LABEL	12/3/2015	AC Calibration Date
FRAMEWORKVERSION	QUANT	7.01	Framework Version
INSTRUMENTVERSION	LABEL	4.00	Instrument Version
CURVE	TABLE	64
	Pt	T	Vf	Im	Vu	Pwr	Sig	Ach	Temp	IERange	Over
	#	s	V	A	V	W	V	V	deg C	#	bits
	0	0.013333	6.09127E-001	5.99013E-003	0.00000E+000	3.64875E-003	3.59960E-001	-1.09676E+000	3.57720E+000	10	...........
	1	0.026667	6.17736E-001	5.99657E-003	0.00000E+000	3.70430E-003	3.59960E-001	-1.09244E+000	3.57720E+000	10	...........
	2	0.04	6.25478E-001	5.99399E-003	0.00000E+000	3.74911E-003	3.59960E-001	-1.08795E+000	3.57720E+000	10	...........
	3	0.053333	6.32885E-001	5.99229E-003	0.00000E+000	3.79243E-003	3.59960E-001	-1.09641E+000	3.57720E+000	10	...........
	4	0.066667	6.40031E-001	5.99418E-003	0.00000E+000	3.83646E-003	3.59960E-001	-1.09252E+000	3.57720E+000	10	...........
	5	0.08	6.46981E-001	5.99114E-003	0.00000E+000	3.87616E-003	3.59960E-001	-1.08749E+000	3.57720E+000	10	...........
	6	0.093333	6.53823E-001	5.99246E-003	0.00000E+000	3.91801E-003	3.59960E-001	-1.09569E+000	3.57720E+000	10	...........
	7	0.106667	6.60518E-001	5.99384E-003	0.00000E+000	3.95904E-003	3.59960E-001	-1.09219E+000	3.57720E+000	10	...........
	8	0.12	6.67168E-001	5.99381E-003	0.00000E+000	3.99888E-003	3.59960E-001	-1.08773E+000	3.57720E+000	10	...........
	9	0.133333	6.73727E-001	5.99312E-003	0.00000E+000	4.03773E-003	3.59960E-001	-1.09575E+000	3.57720E+000	10	...........
	10	0.146667	6.80203E-001	5.99460E-003	0.00000E+000	4.07755E-003	3.59960E-001	-1.09224E+000	3.57720E+000	10	...........
	11	0.16	6.86601E-001	5.99003E-003	0.00000E+000	4.11276E-003	3.59960E-001	-1.08741E+000	3.57720E+000	10	...........
	12	0.173333	6.93027E-001	5.99523E-003	0.00000E+000	4.15486E-003	3.59960E-001	-1.09576E+000	3.57720E+000	10	...........
	13	0.186667	6.99372E-001	5.99368E-003	0.00000E+000	4.19181E-003	3.59960E-001	-1.09262E+000	3.57720E+000	10	...........
	14	0.2	7.05710E-001	5.99602E-003	0.00000E+000	4.23145E-003	3.59960E-001	-1.08758E+000	3.57720E+000	10	...........
	15	0.213333	7.12008E-001	5.99345E-003	0.00000E+000	4.26738E-003	3.59960E-001	-1.09513E+000	3.57720E+000	10	...........
	16	0.226667	7.18345E-001	5.99580E-003	0.00000E+000	4.30706E-003	3.59960E-001	-1.09209E+000	3.57720E+000	10	...........
	17	0.24	7.24631E-001	5.99651E-003	0.00000E+000	4.34526E-003	3.59960E-001	-1.08743E+000	3.57720E+000	10	...........
	18	0.253333	7.30861E-001	5.99704E-003	0.00000E+000	4.38300E-003	3.59960E-001	-1.09530E+000	3.57720E+000	10	...........
	19	0.266667	7.37073E-001	5.99216E-003	0.00000E+000	4.41666E-003	3.59960E-001	-1.09231E+000	3.57720E+000	10	...........
	20	0.28	7.43315E-001	5.99408E-003	0.00000E+000	4.45549E-003	3.59960E-001	-1.08702E+000	3.57720E+000	10	...........
	21	0.293333	7.49489E-001	5.99061E-003	0.00000E+000	4.48990E-003	3.59960E-001	-1.09485E+000	3.57720E+000	10	...........
	22	0.306667	7.55690E-001	5.99249E-003	0.00000E+000	4.52846E-003	3.59960E-001	-1.09237E+000	3.57720E+000	10	...........
	23	0.32	7.61867E-001	5.98841E-003	0.00000E+000	4.56237E-003	3.59960E-001	-1.08726E+000	3.57720E+000	10	...........
	24	0.333333	7.68054E-001	5.99423E-003	0.00000E+000	4.60389E-003	3.59960E-001	-1.09470E+000	3.57720E+000	10	...........
	25	0.346667	7.74247E-001	5.99601E-003	0.00000E+000	4.64239E-003	3.59960E-001	-1.09216E+000	3.57720E+000	10	...........
	26	0.36	7.80392E-001	5.99157E-003	0.00000E+000	4.67577E-003	3.59960E-001	-1.08680E+000	3.57720E+000	10	...........
	27	0.373333	7.86551E-001	5.98934E-003	0.00000E+000	4.71092E-003	3.59960E-001	-1.09444E+000	3.57720E+000	10	...........
	28	0.386667	7.92706E-001	5.99318E-003	0.00000E+000	4.75083E-003	3.59960E-001	-1.09224E+000	3.57720E+000	10	...........
	29	0.4	7.98856E-001	5.99124E-003	0.00000E+000	4.78613E-003	3.59960E-001	-1.08686E+000	3.57720E+000	10	...........
	30	0.413333	8.04982E-001	5.99236E-003	0.00000E+000	4.82374E-003	3.59960E-001	-1.09411E+000	3.57720E+000	10	...........
	31	0.426667	8.11097E-001	5.99191E-003	0.00000E+000	4.86002E-003	3.59960E-001	-1.09225E+000	3.57720E+000	10	...........
	32	0.44	8.17193E-001	5.99371E-003	0.00000E+000	4.89801E-003	3.59960E-001	-1.08681E+000	3.57720E+000	10	...........
	33	0.453333	8.23281E-001	5.99240E-003	0.00000E+000	4.93343E-003	3.59960E-001	-1.09426E+000	3.57720E+000	10	...........
	34	0.466667	8.29402E-001	5.99285E-003	0.00000E+000	4.97049E-003	3.59960E-001	-1.09250E+000	3.57720E+000	10	...........
	35	0.48	8.35443E-001	5.99069E-003	0.00000E+000	5.00488E-003	3.59960E-001	-1.08679E+000	3.57720E+000	10	...........
	36	0.493333	8.41505E-001	5.98959E-003	0.00000E+000	5.04027E-003	3.59960E-001	-1.09396E+000	3.57720E+000	10	...........
	37	0.506667	8.47585E-001	5.99175E-003	0.00000E+000	5.07852E-003	3.59960E-001	-1.09256E+000	3.57720E+000	10	...........
	38	0.52	8.53629E-001	5.99342E-003	0.00000E+000	5.11615E-003	3.59960E-001	-1.08674E+000	3.57720E+000	10	...........
	39	0.533333	8.59663E-001	5.99507E-003	0.00000E+000	5.15375E-003	3.59960E-001	-1.09369E+000	3.57720E+000	10	...........
	40	0.546667	8.65676E-001	5.99601E-003	0.00000E+000	5.19060E-003	3.59960E-001	-1.09215E+000	3.57720E+000	10	...........
	41	0.56	8.71729E-001	5.99376E-003	0.00000E+000	5.22493E-003	3.59960E-001	-1.08626E+000	3.57720E+000	10	...........
	42	0.573333	8.77714E-001	5.99173E-003	0.00000E+000	5.25902E-003	3.59960E-001	-1.09343E+000	3.57720E+000	10	...........
	43	0.586667	8.83685E-001	5.99889E-003	0.00000E+000	5.30113E-003	3.59960E-001	-1.09226E+000	3.57720E+000	10	...........
	44	0.6	8.89669E-001	5.99430E-003	0.00000E+000	5.33295E-003	3.59960E-001	-1.08596E+000	3.57720E+000	10	...........
	45	0.613333	8.95603E-001	5.99079E-003	0.00000E+000	5.36537E-003	3.59960E-001	-1.09296E+000	3.57720E+000	10	...........
	46	0.626667	9.01551E-001	5.99146E-003	0.00000E+000	5.40160E-003	3.59960E-001	-1.09231E+000	3.57720E+000	10	...........
	47	0.64	9.07451E-001	5.99544E-003	0.00000E+000	5.44057E-003	3.59960E-001	-1.08613E+000	3.57720E+000	10	...........
	48	0.653333	9.13333E-001	5.99275E-003	0.00000E+000	5.47338E-003	3.59960E-001	-1.09309E+000	3.57720E+000	10	...........
	49	0.666667	9.19187E-001	5.99323E-003	0.00000E+000	5.50889E-003	3.59960E-001	-1.09215E+000	3.57720E+000	10	...........
	50	0.68	9.25066E-001	5.99701E-003	0.00000E+000	5.54764E-003	3.59960E-001	-1.08598E+000	3.57720E+000	10	...........
	51	0.693333	9.30852E-001	5.99125E-003	0.00000E+000	5.57696E-003	3.59960E-001	-1.09280E+000	3.57720E+000	10	...........
	52	0.706667	9.36622E-001	5.99685E-003	0.00000E+000	5.61678E-003	3.59960E-001	-1.09241E+000	3.57720E+000	10	...........
	53	0.72	9.42341E-001	5.99626E-003	0.00000E+000	5.65053E-003	3.59960E-001	-1.08607E+000	3.57720E+000	10	...........
	54	0.733333	9.48071E-001	5.99017E-003	0.00000E+000	5.67911E-003	3.59960E-001	-1.09293E+000	3.57720E+000	10	...........
	55	0.746667	9.53803E-001	5.99689E-003	0.00000E+000	5.71985E-003	3.59960E-001	-1.09273E+000	3.57720E+000	10	...........
	56	0.76	9.59446E-001	5.99192E-003	0.00000E+000	5.74893E-003	3.59960E-001	-1.08615E+000	3.57720E+000	10	...........
	57	0.773333	9.65060E-001	5.99521E-003	0.00000E+000	5.78574E-003	3.59960E-001	-1.09288E+000	3.57720E+000	10	...........
	58	0.786667	9.70638E-001	5.99489E-003	0.00000E+000	5.81887E-003	3.59960E-001	-1.09290E+000	3.57720E+000	10	...........
	59	0.8	9.76250E-001	5.99481E-003	0.00000E+000	5.85244E-003	3.59960E-001	-1.08631E+000	3.57720E+000	10	...........
	60	0.813333	9.81727E-001	5.99697E-003	0.00000E+000	5.88739E-003	3.59960E-001	-1.09274E+000	3.57720E+000	10	...........
	61	0.826667	9.87187E-001	5.99083E-003	0.00000E+000	5.91407E-003	3.59960E-001	-1.09281E+000	3.57720E+000	10	...........
	62	0.84	9.92575E-001	5.99284E-003	0.00000E+000	5.94835E-003	3.59960E-001	-1.08621E+000	3.57720E+000	10	...........
	63	0.853333	9.97992E-001	5.99790E-003	0.00000E+000	5.98586E-003	3.59960E-001	-1.09240E+000	3.57720E+000	10	...........
STARTTIMEOFFSET	QUANT	422.51	Start Time Offset (s)