File: Data/CV_CRGO300517_1/PWRCCD_CRGO300517_1/CHARGE_DISCHARGE/CHARGE_#986.DTA
EXPLAIN
TAG	PWR800_CHARGE
TITLE	LABEL	PWR Cyclic Charge Discharge (Cell) - Charge Step	Test &Identifier
DATE	LABEL	22-6-2017	Date
TIME	LABEL	16:14:07	Time
NOTES	NOTES	3	&Notes...
	supercap test cell
	0.6mg
	6M KOH
PSTAT	PSTAT	IFC5000-01520	Potentiostat
CAPACITY	QUANT	1.00000E-003	Capacity (A-hr)
CELLTYPE	SELECTOR	1	&Cell Type
WORKINGCONNECTION	SELECTOR	0	&Working Lead
MAXCHARGETIME	VARIABLEANDUNITS	1.00000E+002	s	1.00000E+002	second(s)	Max &Charge Time
CHARGECURRENT	QUANT	6.00000E-003	&Charge Current (A)
VOLTAGEFINISH	TWOPARAM	F	1.00000E-003	3.60000E+003	&Voltage Finish	 I (A) < 	Max Time(s)
SAMPLETIME	QUANT	1.00000E-002	Sa&mple Period (s)
CHARGESTOPAT1	MULTIPARAM	4	1.00000E+000	Charge Stop At &1	Voltage > Limit	V
CHARGESTOPAT2	MULTIPARAM	0	0.00000E+000	Charge Stop At &2	None	N/A
AESBHCSELECTOR	TOGGLE	F	Save Both Half Cells
IRCOMP	TOGGLE	F	IR &Measure
EOC	QUANT	0	Open Circuit (V)
SEQUENCER	TOGGLE	TRUE	Run as Sequence
PSTATMODEL	IQUANT	53	Pstat Model
PSTATSECTION	LABEL	IFC5000-01520	Pstat Section
PSTATSERIALNO	LABEL	01520	Pstat Serial Number
CTRLMODE	IQUANT	0	Control Mode
ELECTROMETER	IQUANT	1	RE=0 or CS=1
IESTAB	IQUANT	0	I/E Stability
CASPEED	IQUANT	4	Control Amp Speed
CONVENTION	IQUANT	1	Current Convention
ICHRANGE	IQUANT	2	Ich Range
ICHRANGEMODE	TOGGLE	T	Ich Auto Range
ICHOFFSETENABLE	TOGGLE	F	Ich Offset Enable
ICHOFFSET	QUANT	0	Ich Offset (V)
ICHFILTER	IQUANT	1	Ich Filter
VCHRANGE	IQUANT	2	Vch Range
VCHRANGEMODE	TOGGLE	T	Vch Auto Range
VCHOFFSETENABLE	TOGGLE	F	Vch Offset Enable
VCHOFFSET	QUANT	0	Vch Offset (V)
VCHFILTER	IQUANT	1	Vch Filter
IERANGELOWERLIMIT	IQUANT	9	I/E Range Lower Limit
IERANGEMODE	TOGGLE	F	I/E AutoRange
IERANGE	IQUANT	10	I/E Range
ACHSELECT	IQUANT	1	Ach Select
ACHRANGE	IQUANT	2	Ach Range
ACHOFFSETENABLE	TOGGLE	F	Ach Offset Enable
ACHOFFSET	QUANT	0	Ach Offset (V)
ACHFILTER	IQUANT	1	Ach Filter
CABLEID	IQUANT	14	Cable ID
DCCALDATE	LABEL	20-10-2016	DC Calibration Date
ACCALDATE	LABEL	12/3/2015	AC Calibration Date
FRAMEWORKVERSION	QUANT	7.01	Framework Version
INSTRUMENTVERSION	LABEL	4.00	Instrument Version
CURVE	TABLE	53
	Pt	T	Vf	Im	Vu	Pwr	Sig	Ach	Temp	IERange	Over
	#	s	V	A	V	W	V	V	deg C	#	bits
	0	0.013333	6.56667E-001	5.99387E-003	0.00000E+000	3.93598E-003	3.59960E-001	-1.18217E+000	3.57630E+000	10	...........
	1	0.026667	6.66024E-001	5.99185E-003	0.00000E+000	3.99072E-003	3.59960E-001	-1.17441E+000	3.57630E+000	10	...........
	2	0.04	6.74642E-001	5.99801E-003	0.00000E+000	4.04651E-003	3.59960E-001	-1.18127E+000	3.57630E+000	10	...........
	3	0.053333	6.82782E-001	5.99780E-003	0.00000E+000	4.09519E-003	3.59960E-001	-1.18167E+000	3.57630E+000	10	...........
	4	0.066667	6.90647E-001	5.98829E-003	0.00000E+000	4.13580E-003	3.59960E-001	-1.17446E+000	3.57630E+000	10	...........
	5	0.08	6.98315E-001	5.99349E-003	0.00000E+000	4.18534E-003	3.59960E-001	-1.18160E+000	3.57630E+000	10	...........
	6	0.093333	7.05818E-001	5.99406E-003	0.00000E+000	4.23072E-003	3.59960E-001	-1.18163E+000	3.57630E+000	10	...........
	7	0.106667	7.13203E-001	5.99283E-003	0.00000E+000	4.27411E-003	3.59960E-001	-1.17401E+000	3.57630E+000	10	...........
	8	0.12	7.20531E-001	5.99146E-003	0.00000E+000	4.31703E-003	3.59960E-001	-1.18080E+000	3.57630E+000	10	...........
	9	0.133333	7.27753E-001	5.99340E-003	0.00000E+000	4.36171E-003	3.59960E-001	-1.18095E+000	3.57630E+000	10	...........
	10	0.146667	7.34895E-001	5.99648E-003	0.00000E+000	4.40678E-003	3.59960E-001	-1.17374E+000	3.57630E+000	10	...........
	11	0.16	7.42006E-001	5.99015E-003	0.00000E+000	4.44473E-003	3.59960E-001	-1.18107E+000	3.57630E+000	10	...........
	12	0.173333	7.49032E-001	5.98693E-003	0.00000E+000	4.48440E-003	3.59960E-001	-1.18084E+000	3.57630E+000	10	...........
	13	0.186667	7.56081E-001	5.99371E-003	0.00000E+000	4.53173E-003	3.59960E-001	-1.17334E+000	3.57630E+000	10	...........
	14	0.2	7.63050E-001	5.99245E-003	0.00000E+000	4.57254E-003	3.59960E-001	-1.18101E+000	3.57630E+000	10	...........
	15	0.213333	7.69956E-001	5.99500E-003	0.00000E+000	4.61589E-003	3.59960E-001	-1.18074E+000	3.57630E+000	10	...........
	16	0.226667	7.76856E-001	5.99855E-003	0.00000E+000	4.66001E-003	3.59960E-001	-1.17360E+000	3.57638E+000	10	...........
	17	0.24	7.83687E-001	5.99197E-003	0.00000E+000	4.69582E-003	3.59960E-001	-1.18088E+000	3.57650E+000	10	...........
	18	0.253333	7.90515E-001	5.98982E-003	0.00000E+000	4.73504E-003	3.59960E-001	-1.18039E+000	3.57650E+000	10	...........
	19	0.266667	7.97370E-001	5.99287E-003	0.00000E+000	4.77854E-003	3.59960E-001	-1.17350E+000	3.57650E+000	10	...........
	20	0.28	8.04142E-001	5.98950E-003	0.00000E+000	4.81641E-003	3.59960E-001	-1.18114E+000	3.57650E+000	10	...........
	21	0.293333	8.10880E-001	5.99454E-003	0.00000E+000	4.86086E-003	3.59960E-001	-1.18013E+000	3.57650E+000	10	...........
	22	0.306667	8.17628E-001	5.99200E-003	0.00000E+000	4.89922E-003	3.59960E-001	-1.17341E+000	3.57650E+000	10	...........
	23	0.32	8.24328E-001	5.99862E-003	0.00000E+000	4.94483E-003	3.59960E-001	-1.18106E+000	3.57650E+000	10	...........
	24	0.333333	8.30945E-001	5.99224E-003	0.00000E+000	4.97922E-003	3.59960E-001	-1.18013E+000	3.57650E+000	10	...........
	25	0.346667	8.37585E-001	5.99333E-003	0.00000E+000	5.01993E-003	3.59960E-001	-1.17349E+000	3.57650E+000	10	...........
	26	0.36	8.44200E-001	5.98938E-003	0.00000E+000	5.05623E-003	3.59960E-001	-1.18125E+000	3.57650E+000	10	...........
	27	0.373333	8.50799E-001	5.99532E-003	0.00000E+000	5.10082E-003	3.59960E-001	-1.17999E+000	3.57650E+000	10	...........
	28	0.386667	8.57330E-001	5.99159E-003	0.00000E+000	5.13677E-003	3.59960E-001	-1.17334E+000	3.57650E+000	10	...........
	29	0.4	8.63847E-001	5.99659E-003	0.00000E+000	5.18014E-003	3.59960E-001	-1.18131E+000	3.57650E+000	10	...........
	30	0.413333	8.70361E-001	5.99862E-003	0.00000E+000	5.22097E-003	3.59960E-001	-1.17996E+000	3.57650E+000	10	...........
	31	0.426667	8.76818E-001	5.98887E-003	0.00000E+000	5.25115E-003	3.59960E-001	-1.17329E+000	3.57650E+000	10	...........
	32	0.44	8.83291E-001	5.99320E-003	0.00000E+000	5.29374E-003	3.59960E-001	-1.18098E+000	3.57650E+000	10	...........
	33	0.453333	8.89706E-001	5.99071E-003	0.00000E+000	5.32997E-003	3.59960E-001	-1.17933E+000	3.57650E+000	10	...........
	34	0.466667	8.96079E-001	5.99487E-003	0.00000E+000	5.37188E-003	3.59960E-001	-1.17314E+000	3.57650E+000	10	...........
	35	0.48	9.02359E-001	5.99235E-003	0.00000E+000	5.40725E-003	3.59960E-001	-1.18119E+000	3.57650E+000	10	...........
	36	0.493333	9.08671E-001	5.99592E-003	0.00000E+000	5.44832E-003	3.59960E-001	-1.17930E+000	3.57650E+000	10	...........
	37	0.506667	9.14930E-001	5.99424E-003	0.00000E+000	5.48431E-003	3.59960E-001	-1.17286E+000	3.57650E+000	10	...........
	38	0.52	9.21202E-001	5.99547E-003	0.00000E+000	5.52304E-003	3.59960E-001	-1.18111E+000	3.57650E+000	10	...........
	39	0.533333	9.27393E-001	5.99462E-003	0.00000E+000	5.55937E-003	3.59960E-001	-1.17924E+000	3.57650E+000	10	...........
	40	0.546667	9.33476E-001	5.99679E-003	0.00000E+000	5.59785E-003	3.59960E-001	-1.17308E+000	3.57650E+000	10	...........
	41	0.56	9.39529E-001	5.99502E-003	0.00000E+000	5.63250E-003	3.59960E-001	-1.18126E+000	3.57650E+000	10	...........
	42	0.573333	9.45591E-001	5.99711E-003	0.00000E+000	5.67081E-003	3.59960E-001	-1.17876E+000	3.57650E+000	10	...........
	43	0.586667	9.51582E-001	5.99298E-003	0.00000E+000	5.70281E-003	3.59960E-001	-1.17281E+000	3.57650E+000	10	...........
	44	0.6	9.57459E-001	5.99597E-003	0.00000E+000	5.74090E-003	3.59960E-001	-1.18151E+000	3.57650E+000	10	...........
	45	0.613333	9.63319E-001	5.99417E-003	0.00000E+000	5.77430E-003	3.59960E-001	-1.17884E+000	3.57650E+000	10	...........
	46	0.626667	9.69100E-001	5.99206E-003	0.00000E+000	5.80691E-003	3.59960E-001	-1.17292E+000	3.57650E+000	10	...........
	47	0.64	9.74956E-001	5.99088E-003	0.00000E+000	5.84085E-003	3.59960E-001	-1.18142E+000	3.57650E+000	10	...........
	48	0.653333	9.80669E-001	5.99245E-003	0.00000E+000	5.87661E-003	3.59960E-001	-1.17864E+000	3.57650E+000	10	...........
	49	0.666667	9.86313E-001	5.99564E-003	0.00000E+000	5.91357E-003	3.59960E-001	-1.17317E+000	3.57650E+000	10	...........
	50	0.68	9.91888E-001	5.98970E-003	0.00000E+000	5.94112E-003	3.59960E-001	-1.18169E+000	3.57650E+000	10	...........
	51	0.693333	9.97492E-001	5.99441E-003	0.00000E+000	5.97937E-003	3.59960E-001	-1.17866E+000	3.57650E+000	10	...........
	52	0.695	1.00056E+000	5.99037E-003	0.00000E+000	5.99375E-003	3.59960E-001	-1.18487E+000	3.57650E+000	10	...........
STARTTIMEOFFSET	QUANT	1565.927	Start Time Offset (s)