File: Data/CV_CRGO300517_1/PWRCCD_CRGO300517_1/CHARGE_DISCHARGE/CHARGE_#338.DTA
EXPLAIN
TAG	PWR800_CHARGE
TITLE	LABEL	PWR Cyclic Charge Discharge (Cell) - Charge Step	Test &Identifier
DATE	LABEL	22-6-2017	Date
TIME	LABEL	15:49:28	Time
NOTES	NOTES	3	&Notes...
	supercap test cell
	0.6mg
	6M KOH
PSTAT	PSTAT	IFC5000-01520	Potentiostat
CAPACITY	QUANT	1.00000E-003	Capacity (A-hr)
CELLTYPE	SELECTOR	1	&Cell Type
WORKINGCONNECTION	SELECTOR	0	&Working Lead
MAXCHARGETIME	VARIABLEANDUNITS	1.00000E+002	s	1.00000E+002	second(s)	Max &Charge Time
CHARGECURRENT	QUANT	6.00000E-003	&Charge Current (A)
VOLTAGEFINISH	TWOPARAM	F	1.00000E-003	3.60000E+003	&Voltage Finish	 I (A) < 	Max Time(s)
SAMPLETIME	QUANT	1.00000E-002	Sa&mple Period (s)
CHARGESTOPAT1	MULTIPARAM	4	1.00000E+000	Charge Stop At &1	Voltage > Limit	V
CHARGESTOPAT2	MULTIPARAM	0	0.00000E+000	Charge Stop At &2	None	N/A
AESBHCSELECTOR	TOGGLE	F	Save Both Half Cells
IRCOMP	TOGGLE	F	IR &Measure
EOC	QUANT	0	Open Circuit (V)
SEQUENCER	TOGGLE	TRUE	Run as Sequence
PSTATMODEL	IQUANT	53	Pstat Model
PSTATSECTION	LABEL	IFC5000-01520	Pstat Section
PSTATSERIALNO	LABEL	01520	Pstat Serial Number
CTRLMODE	IQUANT	0	Control Mode
ELECTROMETER	IQUANT	1	RE=0 or CS=1
IESTAB	IQUANT	0	I/E Stability
CASPEED	IQUANT	4	Control Amp Speed
CONVENTION	IQUANT	1	Current Convention
ICHRANGE	IQUANT	2	Ich Range
ICHRANGEMODE	TOGGLE	T	Ich Auto Range
ICHOFFSETENABLE	TOGGLE	F	Ich Offset Enable
ICHOFFSET	QUANT	0	Ich Offset (V)
ICHFILTER	IQUANT	1	Ich Filter
VCHRANGE	IQUANT	2	Vch Range
VCHRANGEMODE	TOGGLE	T	Vch Auto Range
VCHOFFSETENABLE	TOGGLE	F	Vch Offset Enable
VCHOFFSET	QUANT	0	Vch Offset (V)
VCHFILTER	IQUANT	1	Vch Filter
IERANGELOWERLIMIT	IQUANT	9	I/E Range Lower Limit
IERANGEMODE	TOGGLE	F	I/E AutoRange
IERANGE	IQUANT	10	I/E Range
ACHSELECT	IQUANT	1	Ach Select
ACHRANGE	IQUANT	2	Ach Range
ACHOFFSETENABLE	TOGGLE	F	Ach Offset Enable
ACHOFFSET	QUANT	0	Ach Offset (V)
ACHFILTER	IQUANT	1	Ach Filter
CABLEID	IQUANT	14	Cable ID
DCCALDATE	LABEL	20-10-2016	DC Calibration Date
ACCALDATE	LABEL	12/3/2015	AC Calibration Date
FRAMEWORKVERSION	QUANT	7.01	Framework Version
INSTRUMENTVERSION	LABEL	4.00	Instrument Version
CURVE	TABLE	62
	Pt	T	Vf	Im	Vu	Pwr	Sig	Ach	Temp	IERange	Over
	#	s	V	A	V	W	V	V	deg C	#	bits
	0	0.013333	6.20179E-001	5.99400E-003	0.00000E+000	3.71735E-003	3.59960E-001	-1.11552E+000	3.57810E+000	10	...........
	1	0.026667	6.28808E-001	5.99403E-003	0.00000E+000	3.76909E-003	3.59960E-001	-1.11783E+000	3.57810E+000	10	...........
	2	0.04	6.36742E-001	5.99023E-003	0.00000E+000	3.81424E-003	3.59960E-001	-1.12490E+000	3.57810E+000	10	...........
	3	0.053333	6.44332E-001	5.99403E-003	0.00000E+000	3.86215E-003	3.59960E-001	-1.11484E+000	3.57810E+000	10	...........
	4	0.066667	6.51599E-001	5.99701E-003	0.00000E+000	3.90765E-003	3.59960E-001	-1.11722E+000	3.57810E+000	10	...........
	5	0.08	6.58714E-001	5.99246E-003	0.00000E+000	3.94732E-003	3.59960E-001	-1.12474E+000	3.57810E+000	10	...........
	6	0.093333	6.65644E-001	5.99446E-003	0.00000E+000	3.99018E-003	3.59960E-001	-1.11499E+000	3.57810E+000	10	...........
	7	0.106667	6.72514E-001	5.98833E-003	0.00000E+000	4.02723E-003	3.59960E-001	-1.11718E+000	3.57810E+000	10	...........
	8	0.12	6.79278E-001	5.99532E-003	0.00000E+000	4.07249E-003	3.59960E-001	-1.12460E+000	3.57810E+000	10	...........
	9	0.133333	6.85917E-001	5.99581E-003	0.00000E+000	4.11263E-003	3.59960E-001	-1.11470E+000	3.57810E+000	10	...........
	10	0.146667	6.92522E-001	5.99494E-003	0.00000E+000	4.15162E-003	3.59960E-001	-1.11736E+000	3.57810E+000	10	...........
	11	0.16	6.99102E-001	5.99299E-003	0.00000E+000	4.18971E-003	3.59960E-001	-1.12467E+000	3.57810E+000	10	...........
	12	0.173333	7.05625E-001	5.99662E-003	0.00000E+000	4.23136E-003	3.59960E-001	-1.11451E+000	3.57810E+000	10	...........
	13	0.186667	7.12116E-001	5.99444E-003	0.00000E+000	4.26874E-003	3.59960E-001	-1.11687E+000	3.57810E+000	10	...........
	14	0.2	7.18615E-001	5.99831E-003	0.00000E+000	4.31047E-003	3.59960E-001	-1.12458E+000	3.57810E+000	10	...........
	15	0.213333	7.25080E-001	5.99039E-003	0.00000E+000	4.34351E-003	3.59960E-001	-1.11472E+000	3.57810E+000	10	...........
	16	0.226667	7.31457E-001	5.99589E-003	0.00000E+000	4.38574E-003	3.59960E-001	-1.11680E+000	3.57810E+000	10	...........
	17	0.24	7.37858E-001	5.99325E-003	0.00000E+000	4.42217E-003	3.59960E-001	-1.12437E+000	3.57810E+000	10	...........
	18	0.253333	7.44249E-001	5.98964E-003	0.00000E+000	4.45779E-003	3.59960E-001	-1.11438E+000	3.57810E+000	10	...........
	19	0.266667	7.50613E-001	5.99309E-003	0.00000E+000	4.49849E-003	3.59960E-001	-1.11677E+000	3.57810E+000	10	...........
	20	0.28	7.56935E-001	5.99191E-003	0.00000E+000	4.53549E-003	3.59960E-001	-1.12462E+000	3.57810E+000	10	...........
	21	0.293333	7.63279E-001	5.98934E-003	0.00000E+000	4.57154E-003	3.59960E-001	-1.11462E+000	3.57810E+000	10	...........
	22	0.306667	7.69608E-001	5.99548E-003	0.00000E+000	4.61417E-003	3.59960E-001	-1.11643E+000	3.57810E+000	10	...........
	23	0.32	7.75916E-001	5.99476E-003	0.00000E+000	4.65143E-003	3.59960E-001	-1.12438E+000	3.57810E+000	10	...........
	24	0.333333	7.82213E-001	5.99516E-003	0.00000E+000	4.68949E-003	3.59960E-001	-1.11468E+000	3.57810E+000	10	...........
	25	0.346667	7.88518E-001	5.99341E-003	0.00000E+000	4.72591E-003	3.59960E-001	-1.11649E+000	3.57810E+000	10	...........
	26	0.36	7.94809E-001	5.99367E-003	0.00000E+000	4.76382E-003	3.59960E-001	-1.12452E+000	3.57810E+000	10	...........
	27	0.373333	8.01103E-001	5.99228E-003	0.00000E+000	4.80043E-003	3.59960E-001	-1.11428E+000	3.57810E+000	10	...........
	28	0.386667	8.07335E-001	5.99386E-003	0.00000E+000	4.83906E-003	3.59960E-001	-1.11597E+000	3.57810E+000	10	...........
	29	0.4	8.13590E-001	5.99607E-003	0.00000E+000	4.87834E-003	3.59960E-001	-1.12418E+000	3.57810E+000	10	...........
	30	0.413333	8.19876E-001	5.99480E-003	0.00000E+000	4.91500E-003	3.59960E-001	-1.11445E+000	3.57810E+000	10	...........
	31	0.426667	8.26137E-001	5.99708E-003	0.00000E+000	4.95441E-003	3.59960E-001	-1.11610E+000	3.57810E+000	10	...........
	32	0.44	8.32301E-001	5.98914E-003	0.00000E+000	4.98476E-003	3.59960E-001	-1.12452E+000	3.57810E+000	10	...........
	33	0.453333	8.38457E-001	5.99454E-003	0.00000E+000	5.02616E-003	3.59960E-001	-1.11431E+000	3.57810E+000	10	...........
	34	0.466667	8.44703E-001	5.99666E-003	0.00000E+000	5.06540E-003	3.59960E-001	-1.11642E+000	3.57810E+000	10	...........
	35	0.48	8.50864E-001	5.99201E-003	0.00000E+000	5.09838E-003	3.59960E-001	-1.12480E+000	3.57810E+000	10	...........
	36	0.493333	8.57057E-001	5.99312E-003	0.00000E+000	5.13645E-003	3.59960E-001	-1.11462E+000	3.57810E+000	10	...........
	37	0.506667	8.63205E-001	5.99556E-003	0.00000E+000	5.17540E-003	3.59960E-001	-1.11620E+000	3.57810E+000	10	...........
	38	0.52	8.69311E-001	5.99435E-003	0.00000E+000	5.21096E-003	3.59960E-001	-1.12460E+000	3.57810E+000	10	...........
	39	0.533333	8.75428E-001	5.99466E-003	0.00000E+000	5.24789E-003	3.59960E-001	-1.11466E+000	3.57810E+000	10	...........
	40	0.546667	8.81541E-001	5.99501E-003	0.00000E+000	5.28485E-003	3.59960E-001	-1.11597E+000	3.57810E+000	10	...........
	41	0.56	8.87585E-001	5.99379E-003	0.00000E+000	5.32000E-003	3.59960E-001	-1.12468E+000	3.57810E+000	10	...........
	42	0.573333	8.93603E-001	5.99149E-003	0.00000E+000	5.35401E-003	3.59960E-001	-1.11446E+000	3.57810E+000	10	...........
	43	0.586667	8.99632E-001	5.99354E-003	0.00000E+000	5.39198E-003	3.59960E-001	-1.11600E+000	3.57810E+000	10	...........
	44	0.6	9.05647E-001	5.99428E-003	0.00000E+000	5.42870E-003	3.59960E-001	-1.12468E+000	3.57822E+000	10	...........
	45	0.613333	9.11616E-001	5.99528E-003	0.00000E+000	5.46540E-003	3.59960E-001	-1.11442E+000	3.57860E+000	10	...........
	46	0.626667	9.17560E-001	5.99308E-003	0.00000E+000	5.49901E-003	3.59960E-001	-1.11584E+000	3.57860E+000	10	...........
	47	0.64	9.23539E-001	5.99791E-003	0.00000E+000	5.53931E-003	3.59960E-001	-1.12436E+000	3.57860E+000	10	...........
	48	0.653333	9.29437E-001	5.99180E-003	0.00000E+000	5.56900E-003	3.59960E-001	-1.11364E+000	3.57860E+000	10	...........
	49	0.666667	9.35283E-001	5.99282E-003	0.00000E+000	5.60498E-003	3.59960E-001	-1.11496E+000	3.57860E+000	10	...........
	50	0.68	9.41076E-001	5.99662E-003	0.00000E+000	5.64327E-003	3.59960E-001	-1.12338E+000	3.57860E+000	10	...........
	51	0.693333	9.46912E-001	5.99443E-003	0.00000E+000	5.67619E-003	3.59960E-001	-1.11280E+000	3.57860E+000	10	...........
	52	0.706667	9.52708E-001	5.99111E-003	0.00000E+000	5.70778E-003	3.59960E-001	-1.11347E+000	3.57860E+000	10	...........
	53	0.72	9.58405E-001	5.99446E-003	0.00000E+000	5.74512E-003	3.59960E-001	-1.12222E+000	3.57860E+000	10	...........
	54	0.733333	9.64069E-001	5.99299E-003	0.00000E+000	5.77766E-003	3.59960E-001	-1.11216E+000	3.57860E+000	10	...........
	55	0.746667	9.69683E-001	5.99001E-003	0.00000E+000	5.80840E-003	3.59960E-001	-1.11345E+000	3.57860E+000	10	...........
	56	0.76	9.75352E-001	5.99314E-003	0.00000E+000	5.84543E-003	3.59960E-001	-1.12252E+000	3.57860E+000	10	...........
	57	0.773333	9.80896E-001	5.99129E-003	0.00000E+000	5.87683E-003	3.59960E-001	-1.11254E+000	3.57860E+000	10	...........
	58	0.786667	9.86453E-001	5.99308E-003	0.00000E+000	5.91189E-003	3.59960E-001	-1.11353E+000	3.57860E+000	10	...........
	59	0.8	9.91933E-001	5.99188E-003	0.00000E+000	5.94355E-003	3.59960E-001	-1.12274E+000	3.57860E+000	10	...........
	60	0.813333	9.97357E-001	5.98976E-003	0.00000E+000	5.97392E-003	3.59960E-001	-1.11283E+000	3.57860E+000	10	...........
	61	0.815	1.00039E+000	5.99396E-003	0.00000E+000	5.99632E-003	3.59960E-001	-1.12580E+000	3.57860E+000	10	...........
STARTTIMEOFFSET	QUANT	603.2364	Start Time Offset (s)