File: Data/CV_CRGO300517_1/PWRCCD_CRGO300517_1/CHARGE_DISCHARGE/CHARGE_#496.DTA
EXPLAIN
TAG	PWR800_CHARGE
TITLE	LABEL	PWR Cyclic Charge Discharge (Cell) - Charge Step	Test &Identifier
DATE	LABEL	22-6-2017	Date
TIME	LABEL	15:55:46	Time
NOTES	NOTES	3	&Notes...
	supercap test cell
	0.6mg
	6M KOH
PSTAT	PSTAT	IFC5000-01520	Potentiostat
CAPACITY	QUANT	1.00000E-003	Capacity (A-hr)
CELLTYPE	SELECTOR	1	&Cell Type
WORKINGCONNECTION	SELECTOR	0	&Working Lead
MAXCHARGETIME	VARIABLEANDUNITS	1.00000E+002	s	1.00000E+002	second(s)	Max &Charge Time
CHARGECURRENT	QUANT	6.00000E-003	&Charge Current (A)
VOLTAGEFINISH	TWOPARAM	F	1.00000E-003	3.60000E+003	&Voltage Finish	 I (A) < 	Max Time(s)
SAMPLETIME	QUANT	1.00000E-002	Sa&mple Period (s)
CHARGESTOPAT1	MULTIPARAM	4	1.00000E+000	Charge Stop At &1	Voltage > Limit	V
CHARGESTOPAT2	MULTIPARAM	0	0.00000E+000	Charge Stop At &2	None	N/A
AESBHCSELECTOR	TOGGLE	F	Save Both Half Cells
IRCOMP	TOGGLE	F	IR &Measure
EOC	QUANT	0	Open Circuit (V)
SEQUENCER	TOGGLE	TRUE	Run as Sequence
PSTATMODEL	IQUANT	53	Pstat Model
PSTATSECTION	LABEL	IFC5000-01520	Pstat Section
PSTATSERIALNO	LABEL	01520	Pstat Serial Number
CTRLMODE	IQUANT	0	Control Mode
ELECTROMETER	IQUANT	1	RE=0 or CS=1
IESTAB	IQUANT	0	I/E Stability
CASPEED	IQUANT	4	Control Amp Speed
CONVENTION	IQUANT	1	Current Convention
ICHRANGE	IQUANT	2	Ich Range
ICHRANGEMODE	TOGGLE	T	Ich Auto Range
ICHOFFSETENABLE	TOGGLE	F	Ich Offset Enable
ICHOFFSET	QUANT	0	Ich Offset (V)
ICHFILTER	IQUANT	1	Ich Filter
VCHRANGE	IQUANT	2	Vch Range
VCHRANGEMODE	TOGGLE	T	Vch Auto Range
VCHOFFSETENABLE	TOGGLE	F	Vch Offset Enable
VCHOFFSET	QUANT	0	Vch Offset (V)
VCHFILTER	IQUANT	1	Vch Filter
IERANGELOWERLIMIT	IQUANT	9	I/E Range Lower Limit
IERANGEMODE	TOGGLE	F	I/E AutoRange
IERANGE	IQUANT	10	I/E Range
ACHSELECT	IQUANT	1	Ach Select
ACHRANGE	IQUANT	2	Ach Range
ACHOFFSETENABLE	TOGGLE	F	Ach Offset Enable
ACHOFFSET	QUANT	0	Ach Offset (V)
ACHFILTER	IQUANT	1	Ach Filter
CABLEID	IQUANT	14	Cable ID
DCCALDATE	LABEL	20-10-2016	DC Calibration Date
ACCALDATE	LABEL	12/3/2015	AC Calibration Date
FRAMEWORKVERSION	QUANT	7.01	Framework Version
INSTRUMENTVERSION	LABEL	4.00	Instrument Version
CURVE	TABLE	59
	Pt	T	Vf	Im	Vu	Pwr	Sig	Ach	Temp	IERange	Over
	#	s	V	A	V	W	V	V	deg C	#	bits
	0	0.013333	6.31320E-001	5.99135E-003	0.00000E+000	3.78246E-003	3.59960E-001	-1.13321E+000	3.57780E+000	10	...........
	1	0.026667	6.40227E-001	5.99684E-003	0.00000E+000	3.83934E-003	3.59960E-001	-1.13379E+000	3.57780E+000	10	...........
	2	0.04	6.48393E-001	5.99934E-003	0.00000E+000	3.88993E-003	3.59960E-001	-1.12646E+000	3.57780E+000	10	...........
	3	0.053333	6.56127E-001	5.99988E-003	0.00000E+000	3.93668E-003	3.59960E-001	-1.13331E+000	3.57780E+000	10	...........
	4	0.066667	6.63597E-001	5.99491E-003	0.00000E+000	3.97820E-003	3.59960E-001	-1.13442E+000	3.57780E+000	10	...........
	5	0.08	6.70894E-001	5.98797E-003	0.00000E+000	4.01729E-003	3.59960E-001	-1.12696E+000	3.57780E+000	10	...........
	6	0.093333	6.78020E-001	5.99687E-003	0.00000E+000	4.06600E-003	3.59960E-001	-1.13349E+000	3.57780E+000	10	...........
	7	0.106667	6.85008E-001	5.99188E-003	0.00000E+000	4.10448E-003	3.59960E-001	-1.13465E+000	3.57780E+000	10	...........
	8	0.12	6.91925E-001	5.99429E-003	0.00000E+000	4.14760E-003	3.59960E-001	-1.12738E+000	3.57780E+000	10	...........
	9	0.133333	6.98760E-001	5.99308E-003	0.00000E+000	4.18773E-003	3.59960E-001	-1.13390E+000	3.57780E+000	10	...........
	10	0.146667	7.05554E-001	5.99577E-003	0.00000E+000	4.23034E-003	3.59960E-001	-1.13505E+000	3.57780E+000	10	...........
	11	0.16	7.12243E-001	5.99368E-003	0.00000E+000	4.26895E-003	3.59960E-001	-1.12730E+000	3.57780E+000	10	...........
	12	0.173333	7.19011E-001	5.99262E-003	0.00000E+000	4.30876E-003	3.59960E-001	-1.13394E+000	3.57780E+000	10	...........
	13	0.186667	7.25696E-001	5.99293E-003	0.00000E+000	4.34904E-003	3.59960E-001	-1.13524E+000	3.57780E+000	10	...........
	14	0.2	7.32320E-001	5.99111E-003	0.00000E+000	4.38741E-003	3.59960E-001	-1.12761E+000	3.57780E+000	10	...........
	15	0.213333	7.38936E-001	5.99234E-003	0.00000E+000	4.42796E-003	3.59960E-001	-1.13428E+000	3.57780E+000	10	...........
	16	0.226667	7.45486E-001	5.99909E-003	0.00000E+000	4.47224E-003	3.59960E-001	-1.13539E+000	3.57780E+000	10	...........
	17	0.24	7.52057E-001	5.99757E-003	0.00000E+000	4.51051E-003	3.59960E-001	-1.12772E+000	3.57780E+000	10	...........
	18	0.253333	7.58600E-001	5.99370E-003	0.00000E+000	4.54682E-003	3.59960E-001	-1.13452E+000	3.57780E+000	10	...........
	19	0.266667	7.65095E-001	5.99355E-003	0.00000E+000	4.58563E-003	3.59960E-001	-1.13582E+000	3.57780E+000	10	...........
	20	0.28	7.71610E-001	5.99163E-003	0.00000E+000	4.62320E-003	3.59960E-001	-1.12816E+000	3.57780E+000	10	...........
	21	0.293333	7.78087E-001	5.99745E-003	0.00000E+000	4.66654E-003	3.59960E-001	-1.13461E+000	3.57780E+000	10	...........
	22	0.306667	7.84592E-001	5.99311E-003	0.00000E+000	4.70215E-003	3.59960E-001	-1.13583E+000	3.57780E+000	10	...........
	23	0.32	7.91064E-001	5.99564E-003	0.00000E+000	4.74293E-003	3.59960E-001	-1.12824E+000	3.57780E+000	10	...........
	24	0.333333	7.97535E-001	5.99650E-003	0.00000E+000	4.78242E-003	3.59960E-001	-1.13462E+000	3.57780E+000	10	...........
	25	0.346667	8.03941E-001	5.99495E-003	0.00000E+000	4.81959E-003	3.59960E-001	-1.13549E+000	3.57780E+000	10	...........
	26	0.36	8.10318E-001	5.99316E-003	0.00000E+000	4.85636E-003	3.59960E-001	-1.12794E+000	3.57780E+000	10	...........
	27	0.373333	8.16718E-001	5.99715E-003	0.00000E+000	4.89798E-003	3.59960E-001	-1.13421E+000	3.57780E+000	10	...........
	28	0.386667	8.23097E-001	5.99801E-003	0.00000E+000	4.93694E-003	3.59960E-001	-1.13565E+000	3.57780E+000	10	...........
	29	0.4	8.29465E-001	5.99632E-003	0.00000E+000	4.97373E-003	3.59960E-001	-1.12820E+000	3.57780E+000	10	...........
	30	0.413333	8.35822E-001	5.99131E-003	0.00000E+000	5.00767E-003	3.59960E-001	-1.13451E+000	3.57780E+000	10	...........
	31	0.426667	8.42151E-001	5.99389E-003	0.00000E+000	5.04775E-003	3.59960E-001	-1.13574E+000	3.57780E+000	10	...........
	32	0.44	8.48465E-001	5.99559E-003	0.00000E+000	5.08705E-003	3.59960E-001	-1.12801E+000	3.57780E+000	10	...........
	33	0.453333	8.54718E-001	5.99324E-003	0.00000E+000	5.12253E-003	3.59960E-001	-1.13454E+000	3.57780E+000	10	...........
	34	0.466667	8.60960E-001	5.99228E-003	0.00000E+000	5.15911E-003	3.59960E-001	-1.13585E+000	3.57780E+000	10	...........
	35	0.48	8.67215E-001	5.99469E-003	0.00000E+000	5.19868E-003	3.59960E-001	-1.12793E+000	3.57780E+000	10	...........
	36	0.493333	8.73498E-001	5.99503E-003	0.00000E+000	5.23665E-003	3.59960E-001	-1.13426E+000	3.57780E+000	10	...........
	37	0.506667	8.79693E-001	5.99314E-003	0.00000E+000	5.27213E-003	3.59960E-001	-1.13552E+000	3.57780E+000	10	...........
	38	0.52	8.85867E-001	5.99777E-003	0.00000E+000	5.31322E-003	3.59960E-001	-1.12798E+000	3.57780E+000	10	...........
	39	0.533333	8.91990E-001	5.98618E-003	0.00000E+000	5.33961E-003	3.59960E-001	-1.13412E+000	3.57780E+000	10	...........
	40	0.546667	8.98160E-001	5.99508E-003	0.00000E+000	5.38455E-003	3.59960E-001	-1.13545E+000	3.57780E+000	10	...........
	41	0.56	9.04266E-001	5.99344E-003	0.00000E+000	5.41966E-003	3.59960E-001	-1.12762E+000	3.57780E+000	10	...........
	42	0.573333	9.10381E-001	5.99479E-003	0.00000E+000	5.45754E-003	3.59960E-001	-1.13370E+000	3.57780E+000	10	...........
	43	0.586667	9.16434E-001	5.99633E-003	0.00000E+000	5.49524E-003	3.59960E-001	-1.13511E+000	3.57780E+000	10	...........
	44	0.6	9.22525E-001	5.99551E-003	0.00000E+000	5.53101E-003	3.59960E-001	-1.12706E+000	3.57780E+000	10	...........
	45	0.613333	9.28479E-001	5.99081E-003	0.00000E+000	5.56234E-003	3.59960E-001	-1.13297E+000	3.57780E+000	10	...........
	46	0.626667	9.34378E-001	5.99757E-003	0.00000E+000	5.60400E-003	3.59960E-001	-1.13439E+000	3.57780E+000	10	...........
	47	0.64	9.40262E-001	5.99448E-003	0.00000E+000	5.63638E-003	3.59960E-001	-1.12652E+000	3.57780E+000	10	...........
	48	0.653333	9.46147E-001	5.99519E-003	0.00000E+000	5.67233E-003	3.59960E-001	-1.13263E+000	3.57780E+000	10	...........
	49	0.666667	9.51995E-001	5.99042E-003	0.00000E+000	5.70285E-003	3.59960E-001	-1.13400E+000	3.57780E+000	10	...........
	50	0.68	9.57770E-001	5.99261E-003	0.00000E+000	5.73954E-003	3.59960E-001	-1.12571E+000	3.57780E+000	10	...........
	51	0.693333	9.63509E-001	6.00083E-003	0.00000E+000	5.78186E-003	3.59960E-001	-1.13202E+000	3.57780E+000	10	...........
	52	0.706667	9.69161E-001	5.99374E-003	0.00000E+000	5.80890E-003	3.59960E-001	-1.13346E+000	3.57780E+000	10	...........
	53	0.72	9.74911E-001	5.99383E-003	0.00000E+000	5.84345E-003	3.59960E-001	-1.12575E+000	3.57780E+000	10	...........
	54	0.733333	9.80541E-001	5.98978E-003	0.00000E+000	5.87322E-003	3.59960E-001	-1.13164E+000	3.57780E+000	10	...........
	55	0.746667	9.86111E-001	5.99102E-003	0.00000E+000	5.90781E-003	3.59960E-001	-1.13320E+000	3.57780E+000	10	...........
	56	0.76	9.91646E-001	5.99401E-003	0.00000E+000	5.94394E-003	3.59960E-001	-1.12488E+000	3.57780E+000	10	...........
	57	0.773333	9.97117E-001	5.99404E-003	0.00000E+000	5.97676E-003	3.59960E-001	-1.13102E+000	3.57780E+000	10	...........
	58	0.775	1.00020E+000	5.99387E-003	0.00000E+000	5.99510E-003	3.59960E-001	-1.11346E+000	3.57780E+000	10	...........
STARTTIMEOFFSET	QUANT	852.8687	Start Time Offset (s)