File: Data/CV_CRGO300517_1/PWRCCD_CRGO300517_1/CHARGE_DISCHARGE/CHARGE_#540.DTA
EXPLAIN
TAG	PWR800_CHARGE
TITLE	LABEL	PWR Cyclic Charge Discharge (Cell) - Charge Step	Test &Identifier
DATE	LABEL	22-6-2017	Date
TIME	LABEL	15:57:28	Time
NOTES	NOTES	3	&Notes...
	supercap test cell
	0.6mg
	6M KOH
PSTAT	PSTAT	IFC5000-01520	Potentiostat
CAPACITY	QUANT	1.00000E-003	Capacity (A-hr)
CELLTYPE	SELECTOR	1	&Cell Type
WORKINGCONNECTION	SELECTOR	0	&Working Lead
MAXCHARGETIME	VARIABLEANDUNITS	1.00000E+002	s	1.00000E+002	second(s)	Max &Charge Time
CHARGECURRENT	QUANT	6.00000E-003	&Charge Current (A)
VOLTAGEFINISH	TWOPARAM	F	1.00000E-003	3.60000E+003	&Voltage Finish	 I (A) < 	Max Time(s)
SAMPLETIME	QUANT	1.00000E-002	Sa&mple Period (s)
CHARGESTOPAT1	MULTIPARAM	4	1.00000E+000	Charge Stop At &1	Voltage > Limit	V
CHARGESTOPAT2	MULTIPARAM	0	0.00000E+000	Charge Stop At &2	None	N/A
AESBHCSELECTOR	TOGGLE	F	Save Both Half Cells
IRCOMP	TOGGLE	F	IR &Measure
EOC	QUANT	0	Open Circuit (V)
SEQUENCER	TOGGLE	TRUE	Run as Sequence
PSTATMODEL	IQUANT	53	Pstat Model
PSTATSECTION	LABEL	IFC5000-01520	Pstat Section
PSTATSERIALNO	LABEL	01520	Pstat Serial Number
CTRLMODE	IQUANT	0	Control Mode
ELECTROMETER	IQUANT	1	RE=0 or CS=1
IESTAB	IQUANT	0	I/E Stability
CASPEED	IQUANT	4	Control Amp Speed
CONVENTION	IQUANT	1	Current Convention
ICHRANGE	IQUANT	2	Ich Range
ICHRANGEMODE	TOGGLE	T	Ich Auto Range
ICHOFFSETENABLE	TOGGLE	F	Ich Offset Enable
ICHOFFSET	QUANT	0	Ich Offset (V)
ICHFILTER	IQUANT	1	Ich Filter
VCHRANGE	IQUANT	2	Vch Range
VCHRANGEMODE	TOGGLE	T	Vch Auto Range
VCHOFFSETENABLE	TOGGLE	F	Vch Offset Enable
VCHOFFSET	QUANT	0	Vch Offset (V)
VCHFILTER	IQUANT	1	Vch Filter
IERANGELOWERLIMIT	IQUANT	9	I/E Range Lower Limit
IERANGEMODE	TOGGLE	F	I/E AutoRange
IERANGE	IQUANT	10	I/E Range
ACHSELECT	IQUANT	1	Ach Select
ACHRANGE	IQUANT	2	Ach Range
ACHOFFSETENABLE	TOGGLE	F	Ach Offset Enable
ACHOFFSET	QUANT	0	Ach Offset (V)
ACHFILTER	IQUANT	1	Ach Filter
CABLEID	IQUANT	14	Cable ID
DCCALDATE	LABEL	20-10-2016	DC Calibration Date
ACCALDATE	LABEL	12/3/2015	AC Calibration Date
FRAMEWORKVERSION	QUANT	7.01	Framework Version
INSTRUMENTVERSION	LABEL	4.00	Instrument Version
CURVE	TABLE	58
	Pt	T	Vf	Im	Vu	Pwr	Sig	Ach	Temp	IERange	Over
	#	s	V	A	V	W	V	V	deg C	#	bits
	0	0.013333	6.34528E-001	5.99002E-003	0.00000E+000	3.80083E-003	3.59960E-001	-1.12674E+000	3.57740E+000	10	...........
	1	0.026667	6.43515E-001	5.99165E-003	0.00000E+000	3.85572E-003	3.59960E-001	-1.13763E+000	3.57740E+000	10	...........
	2	0.04	6.51745E-001	5.99238E-003	0.00000E+000	3.90551E-003	3.59960E-001	-1.12705E+000	3.57740E+000	10	...........
	3	0.053333	6.59533E-001	5.99191E-003	0.00000E+000	3.95187E-003	3.59960E-001	-1.12599E+000	3.57740E+000	10	...........
	4	0.066667	6.67061E-001	5.99198E-003	0.00000E+000	3.99701E-003	3.59960E-001	-1.13661E+000	3.57740E+000	10	...........
	5	0.08	6.74362E-001	5.99371E-003	0.00000E+000	4.04193E-003	3.59960E-001	-1.12579E+000	3.57740E+000	10	...........
	6	0.093333	6.81511E-001	5.99849E-003	0.00000E+000	4.08803E-003	3.59960E-001	-1.12578E+000	3.57740E+000	10	...........
	7	0.106667	6.88576E-001	5.99159E-003	0.00000E+000	4.12567E-003	3.59960E-001	-1.13644E+000	3.57740E+000	10	...........
	8	0.12	6.95545E-001	5.99541E-003	0.00000E+000	4.17008E-003	3.59960E-001	-1.12585E+000	3.57740E+000	10	...........
	9	0.133333	7.02441E-001	5.99588E-003	0.00000E+000	4.21175E-003	3.59960E-001	-1.12513E+000	3.57740E+000	10	...........
	10	0.146667	7.09233E-001	5.99711E-003	0.00000E+000	4.25335E-003	3.59960E-001	-1.13594E+000	3.57740E+000	10	...........
	11	0.16	7.16008E-001	5.99006E-003	0.00000E+000	4.28893E-003	3.59960E-001	-1.12575E+000	3.57740E+000	10	...........
	12	0.173333	7.22763E-001	5.99363E-003	0.00000E+000	4.33198E-003	3.59960E-001	-1.12420E+000	3.57740E+000	10	...........
	13	0.186667	7.29424E-001	5.99378E-003	0.00000E+000	4.37201E-003	3.59960E-001	-1.13354E+000	3.57740E+000	10	...........
	14	0.2	7.36104E-001	5.99962E-003	0.00000E+000	4.41635E-003	3.59960E-001	-1.12271E+000	3.57740E+000	10	...........
	15	0.213333	7.42806E-001	5.99599E-003	0.00000E+000	4.45386E-003	3.59960E-001	-1.12194E+000	3.57740E+000	10	...........
	16	0.226667	7.49386E-001	5.99946E-003	0.00000E+000	4.49591E-003	3.59960E-001	-1.13254E+000	3.57740E+000	10	...........
	17	0.24	7.55971E-001	5.98949E-003	0.00000E+000	4.52789E-003	3.59960E-001	-1.12177E+000	3.57740E+000	10	...........
	18	0.253333	7.62532E-001	5.99188E-003	0.00000E+000	4.56901E-003	3.59960E-001	-1.12079E+000	3.57740E+000	10	...........
	19	0.266667	7.69112E-001	5.99430E-003	0.00000E+000	4.61029E-003	3.59960E-001	-1.13126E+000	3.57740E+000	10	...........
	20	0.28	7.75654E-001	5.99224E-003	0.00000E+000	4.64790E-003	3.59960E-001	-1.12045E+000	3.57740E+000	10	...........
	21	0.293333	7.82178E-001	5.99323E-003	0.00000E+000	4.68777E-003	3.59960E-001	-1.12039E+000	3.57740E+000	10	...........
	22	0.306667	7.88677E-001	5.99774E-003	0.00000E+000	4.73028E-003	3.59960E-001	-1.13067E+000	3.57740E+000	10	...........
	23	0.32	7.95167E-001	5.99456E-003	0.00000E+000	4.76668E-003	3.59960E-001	-1.11871E+000	3.57740E+000	10	...........
	24	0.333333	8.01607E-001	5.98757E-003	0.00000E+000	4.79968E-003	3.59960E-001	-1.11755E+000	3.57740E+000	10	...........
	25	0.346667	8.08086E-001	5.99419E-003	0.00000E+000	4.84382E-003	3.59960E-001	-1.12786E+000	3.57740E+000	10	...........
	26	0.36	8.14472E-001	5.99042E-003	0.00000E+000	4.87903E-003	3.59960E-001	-1.11743E+000	3.57740E+000	10	...........
	27	0.373333	8.20932E-001	5.99432E-003	0.00000E+000	4.92093E-003	3.59960E-001	-1.11668E+000	3.57740E+000	10	...........
	28	0.386667	8.27334E-001	5.99691E-003	0.00000E+000	4.96145E-003	3.59960E-001	-1.12677E+000	3.57740E+000	10	...........
	29	0.4	8.33686E-001	5.99577E-003	0.00000E+000	4.99859E-003	3.59960E-001	-1.11553E+000	3.57740E+000	10	...........
	30	0.413333	8.40050E-001	5.98932E-003	0.00000E+000	5.03132E-003	3.59960E-001	-1.11506E+000	3.57740E+000	10	...........
	31	0.426667	8.46427E-001	5.98919E-003	0.00000E+000	5.06941E-003	3.59960E-001	-1.12602E+000	3.57740E+000	10	...........
	32	0.44	8.52748E-001	5.99470E-003	0.00000E+000	5.11197E-003	3.59960E-001	-1.11572E+000	3.57740E+000	10	...........
	33	0.453333	8.59046E-001	5.99179E-003	0.00000E+000	5.14722E-003	3.59960E-001	-1.11425E+000	3.57740E+000	10	...........
	34	0.466667	8.65302E-001	5.99337E-003	0.00000E+000	5.18608E-003	3.59960E-001	-1.12434E+000	3.57740E+000	10	...........
	35	0.48	8.71609E-001	5.99147E-003	0.00000E+000	5.22221E-003	3.59960E-001	-1.11351E+000	3.57740E+000	10	...........
	36	0.493333	8.77853E-001	5.99494E-003	0.00000E+000	5.26267E-003	3.59960E-001	-1.11323E+000	3.57740E+000	10	...........
	37	0.506667	8.84096E-001	5.99941E-003	0.00000E+000	5.30406E-003	3.59960E-001	-1.12326E+000	3.57740E+000	10	...........
	38	0.52	8.90281E-001	5.99488E-003	0.00000E+000	5.33712E-003	3.59960E-001	-1.11238E+000	3.57740E+000	10	...........
	39	0.533333	8.96431E-001	5.99455E-003	0.00000E+000	5.37370E-003	3.59960E-001	-1.11164E+000	3.57740E+000	10	...........
	40	0.546667	9.02609E-001	5.99617E-003	0.00000E+000	5.41220E-003	3.59960E-001	-1.12177E+000	3.57740E+000	10	...........
	41	0.56	9.08721E-001	5.99452E-003	0.00000E+000	5.44735E-003	3.59960E-001	-1.11176E+000	3.57740E+000	10	...........
	42	0.573333	9.14776E-001	5.99578E-003	0.00000E+000	5.48480E-003	3.59960E-001	-1.11189E+000	3.57740E+000	10	...........
	43	0.586667	9.20876E-001	5.99407E-003	0.00000E+000	5.51980E-003	3.59960E-001	-1.12223E+000	3.57740E+000	10	...........
	44	0.6	9.26903E-001	5.99654E-003	0.00000E+000	5.55822E-003	3.59960E-001	-1.11163E+000	3.57740E+000	10	...........
	45	0.613333	9.32870E-001	5.99294E-003	0.00000E+000	5.59063E-003	3.59960E-001	-1.11130E+000	3.57740E+000	10	...........
	46	0.626667	9.38769E-001	5.99229E-003	0.00000E+000	5.62538E-003	3.59960E-001	-1.12237E+000	3.57740E+000	10	...........
	47	0.64	9.44676E-001	5.99239E-003	0.00000E+000	5.66087E-003	3.59960E-001	-1.11233E+000	3.57740E+000	10	...........
	48	0.653333	9.50598E-001	5.99469E-003	0.00000E+000	5.69854E-003	3.59960E-001	-1.11155E+000	3.57740E+000	10	...........
	49	0.666667	9.56383E-001	5.99302E-003	0.00000E+000	5.73162E-003	3.59960E-001	-1.12199E+000	3.57740E+000	10	...........
	50	0.68	9.62169E-001	5.99111E-003	0.00000E+000	5.76446E-003	3.59960E-001	-1.11153E+000	3.57740E+000	10	...........
	51	0.693333	9.67900E-001	5.99348E-003	0.00000E+000	5.80109E-003	3.59960E-001	-1.11143E+000	3.57740E+000	10	...........
	52	0.706667	9.73618E-001	5.99203E-003	0.00000E+000	5.83395E-003	3.59960E-001	-1.12233E+000	3.57740E+000	10	...........
	53	0.72	9.79294E-001	5.99142E-003	0.00000E+000	5.86736E-003	3.59960E-001	-1.11178E+000	3.57740E+000	10	...........
	54	0.733333	9.84851E-001	5.99247E-003	0.00000E+000	5.90169E-003	3.59960E-001	-1.11134E+000	3.57740E+000	10	...........
	55	0.746667	9.90368E-001	5.99060E-003	0.00000E+000	5.93290E-003	3.59960E-001	-1.12209E+000	3.57740E+000	10	...........
	56	0.76	9.95899E-001	5.99199E-003	0.00000E+000	5.96741E-003	3.59960E-001	-1.11233E+000	3.57740E+000	10	...........
	57	0.765	9.99607E-001	5.98959E-003	0.00000E+000	5.98724E-003	3.59960E-001	-1.12419E+000	3.57740E+000	10	...........
STARTTIMEOFFSET	QUANT	920.2985	Start Time Offset (s)