File: Data/CV_CRGO300517_1/PWRCCD_CRGO300517_1/CHARGE_DISCHARGE/CHARGE_#260.DTA
EXPLAIN
TAG	PWR800_CHARGE
TITLE	LABEL	PWR Cyclic Charge Discharge (Cell) - Charge Step	Test &Identifier
DATE	LABEL	22-6-2017	Date
TIME	LABEL	15:46:17	Time
NOTES	NOTES	3	&Notes...
	supercap test cell
	0.6mg
	6M KOH
PSTAT	PSTAT	IFC5000-01520	Potentiostat
CAPACITY	QUANT	1.00000E-003	Capacity (A-hr)
CELLTYPE	SELECTOR	1	&Cell Type
WORKINGCONNECTION	SELECTOR	0	&Working Lead
MAXCHARGETIME	VARIABLEANDUNITS	1.00000E+002	s	1.00000E+002	second(s)	Max &Charge Time
CHARGECURRENT	QUANT	6.00000E-003	&Charge Current (A)
VOLTAGEFINISH	TWOPARAM	F	1.00000E-003	3.60000E+003	&Voltage Finish	 I (A) < 	Max Time(s)
SAMPLETIME	QUANT	1.00000E-002	Sa&mple Period (s)
CHARGESTOPAT1	MULTIPARAM	4	1.00000E+000	Charge Stop At &1	Voltage > Limit	V
CHARGESTOPAT2	MULTIPARAM	0	0.00000E+000	Charge Stop At &2	None	N/A
AESBHCSELECTOR	TOGGLE	F	Save Both Half Cells
IRCOMP	TOGGLE	F	IR &Measure
EOC	QUANT	0	Open Circuit (V)
SEQUENCER	TOGGLE	TRUE	Run as Sequence
PSTATMODEL	IQUANT	53	Pstat Model
PSTATSECTION	LABEL	IFC5000-01520	Pstat Section
PSTATSERIALNO	LABEL	01520	Pstat Serial Number
CTRLMODE	IQUANT	0	Control Mode
ELECTROMETER	IQUANT	1	RE=0 or CS=1
IESTAB	IQUANT	0	I/E Stability
CASPEED	IQUANT	4	Control Amp Speed
CONVENTION	IQUANT	1	Current Convention
ICHRANGE	IQUANT	2	Ich Range
ICHRANGEMODE	TOGGLE	T	Ich Auto Range
ICHOFFSETENABLE	TOGGLE	F	Ich Offset Enable
ICHOFFSET	QUANT	0	Ich Offset (V)
ICHFILTER	IQUANT	1	Ich Filter
VCHRANGE	IQUANT	2	Vch Range
VCHRANGEMODE	TOGGLE	T	Vch Auto Range
VCHOFFSETENABLE	TOGGLE	F	Vch Offset Enable
VCHOFFSET	QUANT	0	Vch Offset (V)
VCHFILTER	IQUANT	1	Vch Filter
IERANGELOWERLIMIT	IQUANT	9	I/E Range Lower Limit
IERANGEMODE	TOGGLE	F	I/E AutoRange
IERANGE	IQUANT	10	I/E Range
ACHSELECT	IQUANT	1	Ach Select
ACHRANGE	IQUANT	2	Ach Range
ACHOFFSETENABLE	TOGGLE	F	Ach Offset Enable
ACHOFFSET	QUANT	0	Ach Offset (V)
ACHFILTER	IQUANT	1	Ach Filter
CABLEID	IQUANT	14	Cable ID
DCCALDATE	LABEL	20-10-2016	DC Calibration Date
ACCALDATE	LABEL	12/3/2015	AC Calibration Date
FRAMEWORKVERSION	QUANT	7.01	Framework Version
INSTRUMENTVERSION	LABEL	4.00	Instrument Version
CURVE	TABLE	62
	Pt	T	Vf	Im	Vu	Pwr	Sig	Ach	Temp	IERange	Over
	#	s	V	A	V	W	V	V	deg C	#	bits
	0	0.013333	6.22372E-001	5.99198E-003	0.00000E+000	3.72924E-003	3.59960E-001	-1.09961E+000	3.57810E+000	10	...........
	1	0.026667	6.30103E-001	5.99169E-003	0.00000E+000	3.77539E-003	3.59960E-001	-1.10913E+000	3.57810E+000	10	...........
	2	0.04	6.37469E-001	5.99107E-003	0.00000E+000	3.81912E-003	3.59960E-001	-1.10009E+000	3.57810E+000	10	...........
	3	0.053333	6.44648E-001	5.99458E-003	0.00000E+000	3.86439E-003	3.59960E-001	-1.09969E+000	3.57810E+000	10	...........
	4	0.066667	6.51554E-001	5.99813E-003	0.00000E+000	3.90811E-003	3.59960E-001	-1.10878E+000	3.57810E+000	10	...........
	5	0.08	6.58378E-001	5.99327E-003	0.00000E+000	3.94583E-003	3.59960E-001	-1.09938E+000	3.57810E+000	10	...........
	6	0.093333	6.65056E-001	5.99506E-003	0.00000E+000	3.98706E-003	3.59960E-001	-1.09938E+000	3.57810E+000	10	...........
	7	0.106667	6.71734E-001	5.99238E-003	0.00000E+000	4.02529E-003	3.59960E-001	-1.10887E+000	3.57810E+000	10	...........
	8	0.12	6.78296E-001	5.99624E-003	0.00000E+000	4.06723E-003	3.59960E-001	-1.09969E+000	3.57810E+000	10	...........
	9	0.133333	6.84775E-001	5.99410E-003	0.00000E+000	4.10461E-003	3.59960E-001	-1.09939E+000	3.57810E+000	10	...........
	10	0.146667	6.91215E-001	5.99616E-003	0.00000E+000	4.14463E-003	3.59960E-001	-1.10882E+000	3.57810E+000	10	...........
	11	0.16	6.97693E-001	5.99592E-003	0.00000E+000	4.18331E-003	3.59960E-001	-1.09947E+000	3.57810E+000	10	...........
	12	0.173333	7.04078E-001	5.99492E-003	0.00000E+000	4.22089E-003	3.59960E-001	-1.09935E+000	3.57810E+000	10	...........
	13	0.186667	7.10464E-001	5.99174E-003	0.00000E+000	4.25692E-003	3.59960E-001	-1.10883E+000	3.57810E+000	10	...........
	14	0.2	7.16828E-001	5.99581E-003	0.00000E+000	4.29797E-003	3.59960E-001	-1.09954E+000	3.57810E+000	10	...........
	15	0.213333	7.23168E-001	5.99112E-003	0.00000E+000	4.33259E-003	3.59960E-001	-1.09911E+000	3.57810E+000	10	...........
	16	0.226667	7.29486E-001	5.99419E-003	0.00000E+000	4.37268E-003	3.59960E-001	-1.10869E+000	3.57810E+000	10	...........
	17	0.24	7.35753E-001	5.99054E-003	0.00000E+000	4.40755E-003	3.59960E-001	-1.09921E+000	3.57810E+000	10	...........
	18	0.253333	7.42001E-001	5.99566E-003	0.00000E+000	4.44878E-003	3.59960E-001	-1.09922E+000	3.57810E+000	10	...........
	19	0.266667	7.48240E-001	5.99032E-003	0.00000E+000	4.48219E-003	3.59960E-001	-1.10882E+000	3.57810E+000	10	...........
	20	0.28	7.54493E-001	5.99359E-003	0.00000E+000	4.52213E-003	3.59960E-001	-1.09927E+000	3.57810E+000	10	...........
	21	0.293333	7.60680E-001	5.99772E-003	0.00000E+000	4.56235E-003	3.59960E-001	-1.09944E+000	3.57810E+000	10	...........
	22	0.306667	7.66910E-001	5.99295E-003	0.00000E+000	4.59605E-003	3.59960E-001	-1.10880E+000	3.57810E+000	10	...........
	23	0.32	7.73110E-001	5.99387E-003	0.00000E+000	4.63392E-003	3.59960E-001	-1.09943E+000	3.57810E+000	10	...........
	24	0.333333	7.79356E-001	5.99657E-003	0.00000E+000	4.67346E-003	3.59960E-001	-1.09941E+000	3.57810E+000	10	...........
	25	0.346667	7.85542E-001	5.99360E-003	0.00000E+000	4.70823E-003	3.59960E-001	-1.10866E+000	3.57810E+000	10	...........
	26	0.36	7.91731E-001	5.99252E-003	0.00000E+000	4.74446E-003	3.59960E-001	-1.09923E+000	3.57810E+000	10	...........
	27	0.373333	7.97913E-001	5.99507E-003	0.00000E+000	4.78355E-003	3.59960E-001	-1.09910E+000	3.57810E+000	10	...........
	28	0.386667	8.04092E-001	5.99128E-003	0.00000E+000	4.81754E-003	3.59960E-001	-1.10805E+000	3.57735E+000	10	...........
	29	0.4	8.10214E-001	5.99296E-003	0.00000E+000	4.85558E-003	3.59960E-001	-1.09878E+000	3.57690E+000	10	...........
	30	0.413333	8.16321E-001	5.99811E-003	0.00000E+000	4.89638E-003	3.59960E-001	-1.09893E+000	3.57690E+000	10	...........
	31	0.426667	8.22512E-001	5.99482E-003	0.00000E+000	4.93082E-003	3.59960E-001	-1.10812E+000	3.57690E+000	10	...........
	32	0.44	8.28646E-001	5.99515E-003	0.00000E+000	4.96785E-003	3.59960E-001	-1.09888E+000	3.57690E+000	10	...........
	33	0.453333	8.34740E-001	5.99367E-003	0.00000E+000	5.00316E-003	3.59960E-001	-1.09888E+000	3.57690E+000	10	...........
	34	0.466667	8.40884E-001	5.99119E-003	0.00000E+000	5.03790E-003	3.59960E-001	-1.10812E+000	3.57690E+000	10	...........
	35	0.48	8.47025E-001	5.99916E-003	0.00000E+000	5.08144E-003	3.59960E-001	-1.09863E+000	3.57690E+000	10	...........
	36	0.493333	8.53067E-001	5.99276E-003	0.00000E+000	5.11223E-003	3.59960E-001	-1.09885E+000	3.57690E+000	10	...........
	37	0.506667	8.59124E-001	5.99308E-003	0.00000E+000	5.14880E-003	3.59960E-001	-1.10816E+000	3.57690E+000	10	...........
	38	0.52	8.65172E-001	5.99346E-003	0.00000E+000	5.18537E-003	3.59960E-001	-1.09868E+000	3.57690E+000	10	...........
	39	0.533333	8.71243E-001	5.99672E-003	0.00000E+000	5.22460E-003	3.59960E-001	-1.09904E+000	3.57690E+000	10	...........
	40	0.546667	8.77270E-001	5.99747E-003	0.00000E+000	5.26140E-003	3.59960E-001	-1.10801E+000	3.57690E+000	10	...........
	41	0.56	8.83278E-001	5.99663E-003	0.00000E+000	5.29669E-003	3.59960E-001	-1.09842E+000	3.57690E+000	10	...........
	42	0.573333	8.89284E-001	5.99427E-003	0.00000E+000	5.33061E-003	3.59960E-001	-1.09901E+000	3.57690E+000	10	...........
	43	0.586667	8.95233E-001	5.99473E-003	0.00000E+000	5.36668E-003	3.59960E-001	-1.10832E+000	3.57690E+000	10	...........
	44	0.6	9.01196E-001	5.99387E-003	0.00000E+000	5.40166E-003	3.59960E-001	-1.09873E+000	3.57690E+000	10	...........
	45	0.613333	9.07115E-001	5.99489E-003	0.00000E+000	5.43805E-003	3.59960E-001	-1.09900E+000	3.57690E+000	10	...........
	46	0.626667	9.13059E-001	5.99738E-003	0.00000E+000	5.47596E-003	3.59960E-001	-1.10821E+000	3.57690E+000	10	...........
	47	0.64	9.18949E-001	6.00111E-003	0.00000E+000	5.51472E-003	3.59960E-001	-1.09885E+000	3.57690E+000	10	...........
	48	0.653333	9.24881E-001	5.99350E-003	0.00000E+000	5.54328E-003	3.59960E-001	-1.09920E+000	3.57690E+000	10	...........
	49	0.666667	9.30670E-001	5.99320E-003	0.00000E+000	5.57769E-003	3.59960E-001	-1.10842E+000	3.57690E+000	10	...........
	50	0.68	9.36450E-001	5.99301E-003	0.00000E+000	5.61216E-003	3.59960E-001	-1.09877E+000	3.57690E+000	10	...........
	51	0.693333	9.42208E-001	5.99565E-003	0.00000E+000	5.64915E-003	3.59960E-001	-1.09898E+000	3.57690E+000	10	...........
	52	0.706667	9.47941E-001	5.99337E-003	0.00000E+000	5.68136E-003	3.59960E-001	-1.10793E+000	3.57690E+000	10	...........
	53	0.72	9.53624E-001	5.99288E-003	0.00000E+000	5.71496E-003	3.59960E-001	-1.09839E+000	3.57690E+000	10	...........
	54	0.733333	9.59295E-001	5.99712E-003	0.00000E+000	5.75301E-003	3.59960E-001	-1.09886E+000	3.57690E+000	10	...........
	55	0.746667	9.64921E-001	5.99719E-003	0.00000E+000	5.78682E-003	3.59960E-001	-1.10788E+000	3.57690E+000	10	...........
	56	0.76	9.70549E-001	5.99642E-003	0.00000E+000	5.81982E-003	3.59960E-001	-1.09830E+000	3.57690E+000	10	...........
	57	0.773333	9.76145E-001	5.98961E-003	0.00000E+000	5.84673E-003	3.59960E-001	-1.09888E+000	3.57690E+000	10	...........
	58	0.786667	9.81656E-001	5.99243E-003	0.00000E+000	5.88250E-003	3.59960E-001	-1.10810E+000	3.57690E+000	10	...........
	59	0.8	9.87113E-001	5.99548E-003	0.00000E+000	5.91822E-003	3.59960E-001	-1.09840E+000	3.57690E+000	10	...........
	60	0.813333	9.92536E-001	5.99480E-003	0.00000E+000	5.95006E-003	3.59960E-001	-1.09882E+000	3.57690E+000	10	...........
	61	0.826667	9.97995E-001	5.99673E-003	0.00000E+000	5.98471E-003	3.59960E-001	-1.10780E+000	3.57690E+000	10	...........
STARTTIMEOFFSET	QUANT	474.745	Start Time Offset (s)