File: Data/CV_CRGO300517_1/PWRCCD_CRGO300517_1/CHARGE_DISCHARGE/CHARGE_#333.DTA
EXPLAIN
TAG	PWR800_CHARGE
TITLE	LABEL	PWR Cyclic Charge Discharge (Cell) - Charge Step	Test &Identifier
DATE	LABEL	22-6-2017	Date
TIME	LABEL	15:49:16	Time
NOTES	NOTES	3	&Notes...
	supercap test cell
	0.6mg
	6M KOH
PSTAT	PSTAT	IFC5000-01520	Potentiostat
CAPACITY	QUANT	1.00000E-003	Capacity (A-hr)
CELLTYPE	SELECTOR	1	&Cell Type
WORKINGCONNECTION	SELECTOR	0	&Working Lead
MAXCHARGETIME	VARIABLEANDUNITS	1.00000E+002	s	1.00000E+002	second(s)	Max &Charge Time
CHARGECURRENT	QUANT	6.00000E-003	&Charge Current (A)
VOLTAGEFINISH	TWOPARAM	F	1.00000E-003	3.60000E+003	&Voltage Finish	 I (A) < 	Max Time(s)
SAMPLETIME	QUANT	1.00000E-002	Sa&mple Period (s)
CHARGESTOPAT1	MULTIPARAM	4	1.00000E+000	Charge Stop At &1	Voltage > Limit	V
CHARGESTOPAT2	MULTIPARAM	0	0.00000E+000	Charge Stop At &2	None	N/A
AESBHCSELECTOR	TOGGLE	F	Save Both Half Cells
IRCOMP	TOGGLE	F	IR &Measure
EOC	QUANT	0	Open Circuit (V)
SEQUENCER	TOGGLE	TRUE	Run as Sequence
PSTATMODEL	IQUANT	53	Pstat Model
PSTATSECTION	LABEL	IFC5000-01520	Pstat Section
PSTATSERIALNO	LABEL	01520	Pstat Serial Number
CTRLMODE	IQUANT	0	Control Mode
ELECTROMETER	IQUANT	1	RE=0 or CS=1
IESTAB	IQUANT	0	I/E Stability
CASPEED	IQUANT	4	Control Amp Speed
CONVENTION	IQUANT	1	Current Convention
ICHRANGE	IQUANT	2	Ich Range
ICHRANGEMODE	TOGGLE	T	Ich Auto Range
ICHOFFSETENABLE	TOGGLE	F	Ich Offset Enable
ICHOFFSET	QUANT	0	Ich Offset (V)
ICHFILTER	IQUANT	1	Ich Filter
VCHRANGE	IQUANT	2	Vch Range
VCHRANGEMODE	TOGGLE	T	Vch Auto Range
VCHOFFSETENABLE	TOGGLE	F	Vch Offset Enable
VCHOFFSET	QUANT	0	Vch Offset (V)
VCHFILTER	IQUANT	1	Vch Filter
IERANGELOWERLIMIT	IQUANT	9	I/E Range Lower Limit
IERANGEMODE	TOGGLE	F	I/E AutoRange
IERANGE	IQUANT	10	I/E Range
ACHSELECT	IQUANT	1	Ach Select
ACHRANGE	IQUANT	2	Ach Range
ACHOFFSETENABLE	TOGGLE	F	Ach Offset Enable
ACHOFFSET	QUANT	0	Ach Offset (V)
ACHFILTER	IQUANT	1	Ach Filter
CABLEID	IQUANT	14	Cable ID
DCCALDATE	LABEL	20-10-2016	DC Calibration Date
ACCALDATE	LABEL	12/3/2015	AC Calibration Date
FRAMEWORKVERSION	QUANT	7.01	Framework Version
INSTRUMENTVERSION	LABEL	4.00	Instrument Version
CURVE	TABLE	62
	Pt	T	Vf	Im	Vu	Pwr	Sig	Ach	Temp	IERange	Over
	#	s	V	A	V	W	V	V	deg C	#	bits
	0	0.013333	6.19473E-001	5.99169E-003	0.00000E+000	3.71169E-003	3.59960E-001	-1.12149E+000	3.57670E+000	10	...........
	1	0.026667	6.28098E-001	5.99164E-003	0.00000E+000	3.76334E-003	3.59960E-001	-1.11592E+000	3.57670E+000	10	...........
	2	0.04	6.36031E-001	5.99271E-003	0.00000E+000	3.81155E-003	3.59960E-001	-1.11129E+000	3.57670E+000	10	...........
	3	0.053333	6.43595E-001	5.99050E-003	0.00000E+000	3.85545E-003	3.59960E-001	-1.12086E+000	3.57670E+000	10	...........
	4	0.066667	6.50880E-001	5.98815E-003	0.00000E+000	3.89757E-003	3.59960E-001	-1.11591E+000	3.57670E+000	10	...........
	5	0.08	6.57960E-001	5.99410E-003	0.00000E+000	3.94388E-003	3.59960E-001	-1.11153E+000	3.57670E+000	10	...........
	6	0.093333	6.64845E-001	5.98715E-003	0.00000E+000	3.98053E-003	3.59960E-001	-1.12050E+000	3.57670E+000	10	...........
	7	0.106667	6.71693E-001	5.99735E-003	0.00000E+000	4.02837E-003	3.59960E-001	-1.11593E+000	3.57670E+000	10	...........
	8	0.12	6.78421E-001	5.99474E-003	0.00000E+000	4.06696E-003	3.59960E-001	-1.11120E+000	3.57670E+000	10	...........
	9	0.133333	6.85076E-001	5.99108E-003	0.00000E+000	4.10435E-003	3.59960E-001	-1.12069E+000	3.57670E+000	10	...........
	10	0.146667	6.91667E-001	5.99067E-003	0.00000E+000	4.14355E-003	3.59960E-001	-1.11598E+000	3.57670E+000	10	...........
	11	0.16	6.98262E-001	5.99537E-003	0.00000E+000	4.18634E-003	3.59960E-001	-1.11119E+000	3.57670E+000	10	...........
	12	0.173333	7.04777E-001	5.99426E-003	0.00000E+000	4.22462E-003	3.59960E-001	-1.12035E+000	3.57670E+000	10	...........
	13	0.186667	7.11265E-001	5.99378E-003	0.00000E+000	4.26316E-003	3.59960E-001	-1.11595E+000	3.57670E+000	10	...........
	14	0.2	7.17737E-001	5.99515E-003	0.00000E+000	4.30294E-003	3.59960E-001	-1.11126E+000	3.57670E+000	10	...........
	15	0.213333	7.24167E-001	5.99413E-003	0.00000E+000	4.34075E-003	3.59960E-001	-1.12030E+000	3.57670E+000	10	...........
	16	0.226667	7.30562E-001	5.99273E-003	0.00000E+000	4.37806E-003	3.59960E-001	-1.11629E+000	3.57670E+000	10	...........
	17	0.24	7.36928E-001	5.99601E-003	0.00000E+000	4.41863E-003	3.59960E-001	-1.11139E+000	3.57670E+000	10	...........
	18	0.253333	7.43334E-001	5.99517E-003	0.00000E+000	4.45641E-003	3.59960E-001	-1.12037E+000	3.57670E+000	10	...........
	19	0.266667	7.49709E-001	5.99389E-003	0.00000E+000	4.49367E-003	3.59960E-001	-1.11665E+000	3.57670E+000	10	...........
	20	0.28	7.56065E-001	5.99519E-003	0.00000E+000	4.53275E-003	3.59960E-001	-1.11151E+000	3.57670E+000	10	...........
	21	0.293333	7.62384E-001	5.99774E-003	0.00000E+000	4.57258E-003	3.59960E-001	-1.12032E+000	3.57670E+000	10	...........
	22	0.306667	7.68713E-001	5.99420E-003	0.00000E+000	4.60782E-003	3.59960E-001	-1.11664E+000	3.57670E+000	10	...........
	23	0.32	7.75038E-001	5.99538E-003	0.00000E+000	4.64665E-003	3.59960E-001	-1.11175E+000	3.57670E+000	10	...........
	24	0.333333	7.81356E-001	5.99728E-003	0.00000E+000	4.68600E-003	3.59960E-001	-1.12007E+000	3.57670E+000	10	...........
	25	0.346667	7.87598E-001	5.98962E-003	0.00000E+000	4.71741E-003	3.59960E-001	-1.11675E+000	3.57670E+000	10	...........
	26	0.36	7.93853E-001	5.98918E-003	0.00000E+000	4.75453E-003	3.59960E-001	-1.11157E+000	3.57670E+000	10	...........
	27	0.373333	8.00151E-001	5.99458E-003	0.00000E+000	4.79657E-003	3.59960E-001	-1.12014E+000	3.57670E+000	10	...........
	28	0.386667	8.06414E-001	5.99713E-003	0.00000E+000	4.83617E-003	3.59960E-001	-1.11728E+000	3.57670E+000	10	...........
	29	0.4	8.12636E-001	5.99350E-003	0.00000E+000	4.87053E-003	3.59960E-001	-1.11207E+000	3.57670E+000	10	...........
	30	0.413333	8.18895E-001	5.99459E-003	0.00000E+000	4.90894E-003	3.59960E-001	-1.12049E+000	3.57670E+000	10	...........
	31	0.426667	8.25113E-001	5.99038E-003	0.00000E+000	4.94274E-003	3.59960E-001	-1.11748E+000	3.57670E+000	10	...........
	32	0.44	8.31305E-001	5.99429E-003	0.00000E+000	4.98309E-003	3.59960E-001	-1.11226E+000	3.57670E+000	10	...........
	33	0.453333	8.37508E-001	5.99141E-003	0.00000E+000	5.01785E-003	3.59960E-001	-1.12072E+000	3.57670E+000	10	...........
	34	0.466667	8.43724E-001	5.99691E-003	0.00000E+000	5.05973E-003	3.59960E-001	-1.11840E+000	3.57670E+000	10	...........
	35	0.48	8.49886E-001	5.99550E-003	0.00000E+000	5.09549E-003	3.59960E-001	-1.11291E+000	3.57670E+000	10	...........
	36	0.493333	8.56023E-001	5.99381E-003	0.00000E+000	5.13084E-003	3.59960E-001	-1.12085E+000	3.57670E+000	10	...........
	37	0.506667	8.62195E-001	5.99633E-003	0.00000E+000	5.17001E-003	3.59960E-001	-1.11874E+000	3.57670E+000	10	...........
	38	0.52	8.68289E-001	5.99302E-003	0.00000E+000	5.20367E-003	3.59960E-001	-1.11318E+000	3.57670E+000	10	...........
	39	0.533333	8.74435E-001	5.98930E-003	0.00000E+000	5.23725E-003	3.59960E-001	-1.12113E+000	3.57670E+000	10	...........
	40	0.546667	8.80520E-001	5.99403E-003	0.00000E+000	5.27786E-003	3.59960E-001	-1.11928E+000	3.57670E+000	10	...........
	41	0.56	8.86625E-001	5.99505E-003	0.00000E+000	5.31536E-003	3.59960E-001	-1.11329E+000	3.57670E+000	10	...........
	42	0.573333	8.92632E-001	5.99796E-003	0.00000E+000	5.35397E-003	3.59960E-001	-1.12126E+000	3.57670E+000	10	...........
	43	0.586667	8.98649E-001	5.99970E-003	0.00000E+000	5.39162E-003	3.59960E-001	-1.11985E+000	3.57670E+000	10	...........
	44	0.6	9.04611E-001	5.99066E-003	0.00000E+000	5.41922E-003	3.59960E-001	-1.11381E+000	3.57670E+000	10	...........
	45	0.613333	9.10607E-001	5.99595E-003	0.00000E+000	5.45996E-003	3.59960E-001	-1.12129E+000	3.57670E+000	10	...........
	46	0.626667	9.16534E-001	5.99455E-003	0.00000E+000	5.49421E-003	3.59960E-001	-1.11992E+000	3.57670E+000	10	...........
	47	0.64	9.22505E-001	5.99458E-003	0.00000E+000	5.53004E-003	3.59960E-001	-1.11353E+000	3.57670E+000	10	...........
	48	0.653333	9.28412E-001	5.99810E-003	0.00000E+000	5.56871E-003	3.59960E-001	-1.12107E+000	3.57670E+000	10	...........
	49	0.666667	9.34286E-001	5.99228E-003	0.00000E+000	5.59850E-003	3.59960E-001	-1.11978E+000	3.57670E+000	10	...........
	50	0.68	9.40121E-001	5.99639E-003	0.00000E+000	5.63733E-003	3.59960E-001	-1.11340E+000	3.57670E+000	10	...........
	51	0.693333	9.45930E-001	5.99689E-003	0.00000E+000	5.67264E-003	3.59960E-001	-1.12075E+000	3.57670E+000	10	...........
	52	0.706667	9.51746E-001	5.99572E-003	0.00000E+000	5.70640E-003	3.59960E-001	-1.11977E+000	3.57670E+000	10	...........
	53	0.72	9.57412E-001	5.99372E-003	0.00000E+000	5.73846E-003	3.59960E-001	-1.11353E+000	3.57670E+000	10	...........
	54	0.733333	9.63087E-001	5.99311E-003	0.00000E+000	5.77189E-003	3.59960E-001	-1.12107E+000	3.57670E+000	10	...........
	55	0.746667	9.68725E-001	5.99190E-003	0.00000E+000	5.80451E-003	3.59960E-001	-1.12052E+000	3.57670E+000	10	...........
	56	0.76	9.74417E-001	5.99826E-003	0.00000E+000	5.84480E-003	3.59960E-001	-1.11404E+000	3.57784E+000	10	...........
	57	0.773333	9.79954E-001	5.99779E-003	0.00000E+000	5.87755E-003	3.59960E-001	-1.12106E+000	3.57800E+000	10	...........
	58	0.786667	9.85481E-001	5.99107E-003	0.00000E+000	5.90409E-003	3.59960E-001	-1.12099E+000	3.57800E+000	10	...........
	59	0.8	9.90956E-001	5.99943E-003	0.00000E+000	5.94517E-003	3.59960E-001	-1.11439E+000	3.57800E+000	10	...........
	60	0.813333	9.96420E-001	5.99517E-003	0.00000E+000	5.97371E-003	3.59960E-001	-1.12156E+000	3.57800E+000	10	...........
	61	0.816667	9.99819E-001	5.99859E-003	0.00000E+000	5.99750E-003	3.59960E-001	-1.10561E+000	3.57800E+000	10	...........
STARTTIMEOFFSET	QUANT	595.1148	Start Time Offset (s)