File: Data/CV_CRGO300517_1/PWRCCD_CRGO300517_1/CHARGE_DISCHARGE/CHARGE_#670.DTA
EXPLAIN
TAG	PWR800_CHARGE
TITLE	LABEL	PWR Cyclic Charge Discharge (Cell) - Charge Step	Test &Identifier
DATE	LABEL	22-6-2017	Date
TIME	LABEL	16:02:25	Time
NOTES	NOTES	3	&Notes...
	supercap test cell
	0.6mg
	6M KOH
PSTAT	PSTAT	IFC5000-01520	Potentiostat
CAPACITY	QUANT	1.00000E-003	Capacity (A-hr)
CELLTYPE	SELECTOR	1	&Cell Type
WORKINGCONNECTION	SELECTOR	0	&Working Lead
MAXCHARGETIME	VARIABLEANDUNITS	1.00000E+002	s	1.00000E+002	second(s)	Max &Charge Time
CHARGECURRENT	QUANT	6.00000E-003	&Charge Current (A)
VOLTAGEFINISH	TWOPARAM	F	1.00000E-003	3.60000E+003	&Voltage Finish	 I (A) < 	Max Time(s)
SAMPLETIME	QUANT	1.00000E-002	Sa&mple Period (s)
CHARGESTOPAT1	MULTIPARAM	4	1.00000E+000	Charge Stop At &1	Voltage > Limit	V
CHARGESTOPAT2	MULTIPARAM	0	0.00000E+000	Charge Stop At &2	None	N/A
AESBHCSELECTOR	TOGGLE	F	Save Both Half Cells
IRCOMP	TOGGLE	F	IR &Measure
EOC	QUANT	0	Open Circuit (V)
SEQUENCER	TOGGLE	TRUE	Run as Sequence
PSTATMODEL	IQUANT	53	Pstat Model
PSTATSECTION	LABEL	IFC5000-01520	Pstat Section
PSTATSERIALNO	LABEL	01520	Pstat Serial Number
CTRLMODE	IQUANT	0	Control Mode
ELECTROMETER	IQUANT	1	RE=0 or CS=1
IESTAB	IQUANT	0	I/E Stability
CASPEED	IQUANT	4	Control Amp Speed
CONVENTION	IQUANT	1	Current Convention
ICHRANGE	IQUANT	2	Ich Range
ICHRANGEMODE	TOGGLE	T	Ich Auto Range
ICHOFFSETENABLE	TOGGLE	F	Ich Offset Enable
ICHOFFSET	QUANT	0	Ich Offset (V)
ICHFILTER	IQUANT	1	Ich Filter
VCHRANGE	IQUANT	2	Vch Range
VCHRANGEMODE	TOGGLE	T	Vch Auto Range
VCHOFFSETENABLE	TOGGLE	F	Vch Offset Enable
VCHOFFSET	QUANT	0	Vch Offset (V)
VCHFILTER	IQUANT	1	Vch Filter
IERANGELOWERLIMIT	IQUANT	9	I/E Range Lower Limit
IERANGEMODE	TOGGLE	F	I/E AutoRange
IERANGE	IQUANT	10	I/E Range
ACHSELECT	IQUANT	1	Ach Select
ACHRANGE	IQUANT	2	Ach Range
ACHOFFSETENABLE	TOGGLE	F	Ach Offset Enable
ACHOFFSET	QUANT	0	Ach Offset (V)
ACHFILTER	IQUANT	1	Ach Filter
CABLEID	IQUANT	14	Cable ID
DCCALDATE	LABEL	20-10-2016	DC Calibration Date
ACCALDATE	LABEL	12/3/2015	AC Calibration Date
FRAMEWORKVERSION	QUANT	7.01	Framework Version
INSTRUMENTVERSION	LABEL	4.00	Instrument Version
CURVE	TABLE	56
	Pt	T	Vf	Im	Vu	Pwr	Sig	Ach	Temp	IERange	Over
	#	s	V	A	V	W	V	V	deg C	#	bits
	0	0.013333	6.42303E-001	5.99761E-003	0.00000E+000	3.85228E-003	3.59960E-001	-1.15356E+000	3.57670E+000	10	...........
	1	0.026667	6.51351E-001	5.99323E-003	0.00000E+000	3.90370E-003	3.59960E-001	-1.16315E+000	3.57670E+000	10	...........
	2	0.04	6.59672E-001	5.99342E-003	0.00000E+000	3.95369E-003	3.59960E-001	-1.15205E+000	3.57670E+000	10	...........
	3	0.053333	6.67580E-001	5.99329E-003	0.00000E+000	4.00100E-003	3.59960E-001	-1.15359E+000	3.57670E+000	10	...........
	4	0.066667	6.75181E-001	5.99320E-003	0.00000E+000	4.04650E-003	3.59960E-001	-1.16292E+000	3.57670E+000	10	...........
	5	0.08	6.82593E-001	5.99960E-003	0.00000E+000	4.09529E-003	3.59960E-001	-1.15195E+000	3.57670E+000	10	...........
	6	0.093333	6.89884E-001	5.99211E-003	0.00000E+000	4.13386E-003	3.59960E-001	-1.15345E+000	3.57670E+000	10	...........
	7	0.106667	6.97038E-001	5.99534E-003	0.00000E+000	4.17898E-003	3.59960E-001	-1.16304E+000	3.57670E+000	10	...........
	8	0.12	7.04135E-001	5.99318E-003	0.00000E+000	4.22000E-003	3.59960E-001	-1.15210E+000	3.57670E+000	10	...........
	9	0.133333	7.11121E-001	5.99155E-003	0.00000E+000	4.26072E-003	3.59960E-001	-1.15329E+000	3.57670E+000	10	...........
	10	0.146667	7.18096E-001	5.99050E-003	0.00000E+000	4.30175E-003	3.59960E-001	-1.16294E+000	3.57670E+000	10	...........
	11	0.16	7.25002E-001	6.00040E-003	0.00000E+000	4.35031E-003	3.59960E-001	-1.15203E+000	3.57670E+000	10	...........
	12	0.173333	7.31816E-001	5.99078E-003	0.00000E+000	4.38415E-003	3.59960E-001	-1.15348E+000	3.57670E+000	10	...........
	13	0.186667	7.38587E-001	5.99440E-003	0.00000E+000	4.42739E-003	3.59960E-001	-1.16302E+000	3.57670E+000	10	...........
	14	0.2	7.45389E-001	5.99448E-003	0.00000E+000	4.46822E-003	3.59960E-001	-1.15198E+000	3.57670E+000	10	...........
	15	0.213333	7.52110E-001	5.99022E-003	0.00000E+000	4.50531E-003	3.59960E-001	-1.15333E+000	3.57670E+000	10	...........
	16	0.226667	7.58826E-001	5.99358E-003	0.00000E+000	4.54809E-003	3.59960E-001	-1.16301E+000	3.57670E+000	10	...........
	17	0.24	7.65472E-001	5.99560E-003	0.00000E+000	4.58946E-003	3.59960E-001	-1.15215E+000	3.57670E+000	10	...........
	18	0.253333	7.72147E-001	5.99433E-003	0.00000E+000	4.62851E-003	3.59960E-001	-1.15323E+000	3.57670E+000	10	...........
	19	0.266667	7.78783E-001	5.99629E-003	0.00000E+000	4.66982E-003	3.59960E-001	-1.16257E+000	3.57680E+000	10	...........
	20	0.28	7.85385E-001	5.99808E-003	0.00000E+000	4.71080E-003	3.59960E-001	-1.15176E+000	3.57710E+000	10	...........
	21	0.293333	7.91990E-001	5.99276E-003	0.00000E+000	4.74620E-003	3.59960E-001	-1.15293E+000	3.57710E+000	10	...........
	22	0.306667	7.98578E-001	5.99331E-003	0.00000E+000	4.78613E-003	3.59960E-001	-1.16253E+000	3.57710E+000	10	...........
	23	0.32	8.05128E-001	5.99375E-003	0.00000E+000	4.82574E-003	3.59960E-001	-1.15191E+000	3.57710E+000	10	...........
	24	0.333333	8.11651E-001	5.99226E-003	0.00000E+000	4.86362E-003	3.59960E-001	-1.15301E+000	3.57710E+000	10	...........
	25	0.346667	8.18189E-001	5.98943E-003	0.00000E+000	4.90049E-003	3.59960E-001	-1.16229E+000	3.57710E+000	10	...........
	26	0.36	8.24699E-001	5.99637E-003	0.00000E+000	4.94520E-003	3.59960E-001	-1.15170E+000	3.57710E+000	10	...........
	27	0.373333	8.31150E-001	5.99214E-003	0.00000E+000	4.98037E-003	3.59960E-001	-1.15291E+000	3.57710E+000	10	...........
	28	0.386667	8.37598E-001	5.99134E-003	0.00000E+000	5.01833E-003	3.59960E-001	-1.16236E+000	3.57710E+000	10	...........
	29	0.4	8.44026E-001	5.99110E-003	0.00000E+000	5.05665E-003	3.59960E-001	-1.15172E+000	3.57710E+000	10	...........
	30	0.413333	8.50476E-001	5.99288E-003	0.00000E+000	5.09680E-003	3.59960E-001	-1.15295E+000	3.57710E+000	10	...........
	31	0.426667	8.56855E-001	5.99249E-003	0.00000E+000	5.13469E-003	3.59960E-001	-1.16225E+000	3.57710E+000	10	...........
	32	0.44	8.63208E-001	5.99353E-003	0.00000E+000	5.17367E-003	3.59960E-001	-1.15140E+000	3.57710E+000	10	...........
	33	0.453333	8.69585E-001	5.99700E-003	0.00000E+000	5.21490E-003	3.59960E-001	-1.15283E+000	3.57710E+000	10	...........
	34	0.466667	8.75904E-001	5.98908E-003	0.00000E+000	5.24586E-003	3.59960E-001	-1.16225E+000	3.57710E+000	10	...........
	35	0.48	8.82177E-001	5.99534E-003	0.00000E+000	5.28894E-003	3.59960E-001	-1.15164E+000	3.57710E+000	10	...........
	36	0.493333	8.88464E-001	5.99222E-003	0.00000E+000	5.32387E-003	3.59960E-001	-1.15268E+000	3.57710E+000	10	...........
	37	0.506667	8.94698E-001	5.98399E-003	0.00000E+000	5.35386E-003	3.59960E-001	-1.16201E+000	3.57710E+000	10	...........
	38	0.52	9.00917E-001	5.99146E-003	0.00000E+000	5.39781E-003	3.59960E-001	-1.15121E+000	3.57710E+000	10	...........
	39	0.533333	9.07095E-001	5.99148E-003	0.00000E+000	5.43484E-003	3.59960E-001	-1.15283E+000	3.57710E+000	10	...........
	40	0.546667	9.13231E-001	5.99257E-003	0.00000E+000	5.47260E-003	3.59960E-001	-1.16193E+000	3.57710E+000	10	...........
	41	0.56	9.19342E-001	5.99612E-003	0.00000E+000	5.51248E-003	3.59960E-001	-1.15102E+000	3.57710E+000	10	...........
	42	0.573333	9.25460E-001	5.99722E-003	0.00000E+000	5.55019E-003	3.59960E-001	-1.15216E+000	3.57710E+000	10	...........
	43	0.586667	9.31485E-001	5.99650E-003	0.00000E+000	5.58565E-003	3.59960E-001	-1.16146E+000	3.57710E+000	10	...........
	44	0.6	9.37470E-001	5.99483E-003	0.00000E+000	5.61998E-003	3.59960E-001	-1.15075E+000	3.57710E+000	10	...........
	45	0.613333	9.43393E-001	5.99251E-003	0.00000E+000	5.65329E-003	3.59960E-001	-1.15191E+000	3.57710E+000	10	...........
	46	0.626667	9.49372E-001	5.99496E-003	0.00000E+000	5.69144E-003	3.59960E-001	-1.16135E+000	3.57710E+000	10	...........
	47	0.64	9.55229E-001	5.99286E-003	0.00000E+000	5.72455E-003	3.59960E-001	-1.15060E+000	3.57710E+000	10	...........
	48	0.653333	9.61020E-001	5.99779E-003	0.00000E+000	5.76399E-003	3.59960E-001	-1.15202E+000	3.57710E+000	10	...........
	49	0.666667	9.66818E-001	5.99785E-003	0.00000E+000	5.79883E-003	3.59960E-001	-1.16140E+000	3.57710E+000	10	...........
	50	0.68	9.72576E-001	5.99093E-003	0.00000E+000	5.82664E-003	3.59960E-001	-1.15031E+000	3.57710E+000	10	...........
	51	0.693333	9.78277E-001	5.99301E-003	0.00000E+000	5.86282E-003	3.59960E-001	-1.15174E+000	3.57710E+000	10	...........
	52	0.706667	9.83881E-001	5.99243E-003	0.00000E+000	5.89583E-003	3.59960E-001	-1.16101E+000	3.57710E+000	10	...........
	53	0.72	9.89471E-001	5.99802E-003	0.00000E+000	5.93486E-003	3.59960E-001	-1.15022E+000	3.57710E+000	10	...........
	54	0.733333	9.94992E-001	5.99265E-003	0.00000E+000	5.96264E-003	3.59960E-001	-1.15165E+000	3.57710E+000	10	...........
	55	0.74	9.99106E-001	5.99020E-003	0.00000E+000	5.98485E-003	3.59960E-001	-1.15964E+000	3.57710E+000	10	...........
STARTTIMEOFFSET	QUANT	1115.06	Start Time Offset (s)