File: Data/CV_CRGO300517_1/PWRCCD_CRGO300517_1/CHARGE_DISCHARGE/CHARGE_#769.DTA
EXPLAIN
TAG	PWR800_CHARGE
TITLE	LABEL	PWR Cyclic Charge Discharge (Cell) - Charge Step	Test &Identifier
DATE	LABEL	22-6-2017	Date
TIME	LABEL	16:06:08	Time
NOTES	NOTES	3	&Notes...
	supercap test cell
	0.6mg
	6M KOH
PSTAT	PSTAT	IFC5000-01520	Potentiostat
CAPACITY	QUANT	1.00000E-003	Capacity (A-hr)
CELLTYPE	SELECTOR	1	&Cell Type
WORKINGCONNECTION	SELECTOR	0	&Working Lead
MAXCHARGETIME	VARIABLEANDUNITS	1.00000E+002	s	1.00000E+002	second(s)	Max &Charge Time
CHARGECURRENT	QUANT	6.00000E-003	&Charge Current (A)
VOLTAGEFINISH	TWOPARAM	F	1.00000E-003	3.60000E+003	&Voltage Finish	 I (A) < 	Max Time(s)
SAMPLETIME	QUANT	1.00000E-002	Sa&mple Period (s)
CHARGESTOPAT1	MULTIPARAM	4	1.00000E+000	Charge Stop At &1	Voltage > Limit	V
CHARGESTOPAT2	MULTIPARAM	0	0.00000E+000	Charge Stop At &2	None	N/A
AESBHCSELECTOR	TOGGLE	F	Save Both Half Cells
IRCOMP	TOGGLE	F	IR &Measure
EOC	QUANT	0	Open Circuit (V)
SEQUENCER	TOGGLE	TRUE	Run as Sequence
PSTATMODEL	IQUANT	53	Pstat Model
PSTATSECTION	LABEL	IFC5000-01520	Pstat Section
PSTATSERIALNO	LABEL	01520	Pstat Serial Number
CTRLMODE	IQUANT	0	Control Mode
ELECTROMETER	IQUANT	1	RE=0 or CS=1
IESTAB	IQUANT	0	I/E Stability
CASPEED	IQUANT	4	Control Amp Speed
CONVENTION	IQUANT	1	Current Convention
ICHRANGE	IQUANT	2	Ich Range
ICHRANGEMODE	TOGGLE	T	Ich Auto Range
ICHOFFSETENABLE	TOGGLE	F	Ich Offset Enable
ICHOFFSET	QUANT	0	Ich Offset (V)
ICHFILTER	IQUANT	1	Ich Filter
VCHRANGE	IQUANT	2	Vch Range
VCHRANGEMODE	TOGGLE	T	Vch Auto Range
VCHOFFSETENABLE	TOGGLE	F	Vch Offset Enable
VCHOFFSET	QUANT	0	Vch Offset (V)
VCHFILTER	IQUANT	1	Vch Filter
IERANGELOWERLIMIT	IQUANT	9	I/E Range Lower Limit
IERANGEMODE	TOGGLE	F	I/E AutoRange
IERANGE	IQUANT	10	I/E Range
ACHSELECT	IQUANT	1	Ach Select
ACHRANGE	IQUANT	2	Ach Range
ACHOFFSETENABLE	TOGGLE	F	Ach Offset Enable
ACHOFFSET	QUANT	0	Ach Offset (V)
ACHFILTER	IQUANT	1	Ach Filter
CABLEID	IQUANT	14	Cable ID
DCCALDATE	LABEL	20-10-2016	DC Calibration Date
ACCALDATE	LABEL	12/3/2015	AC Calibration Date
FRAMEWORKVERSION	QUANT	7.01	Framework Version
INSTRUMENTVERSION	LABEL	4.00	Instrument Version
CURVE	TABLE	55
	Pt	T	Vf	Im	Vu	Pwr	Sig	Ach	Temp	IERange	Over
	#	s	V	A	V	W	V	V	deg C	#	bits
	0	0.013333	6.46802E-001	5.99366E-003	0.00000E+000	3.87671E-003	3.59960E-001	-1.17344E+000	3.57700E+000	10	...........
	1	0.026667	6.55991E-001	5.99621E-003	0.00000E+000	3.93346E-003	3.59960E-001	-1.16283E+000	3.57700E+000	10	...........
	2	0.04	6.64395E-001	5.99035E-003	0.00000E+000	3.97996E-003	3.59960E-001	-1.16579E+000	3.57700E+000	10	...........
	3	0.053333	6.72402E-001	5.98821E-003	0.00000E+000	4.02648E-003	3.59960E-001	-1.17285E+000	3.57700E+000	10	...........
	4	0.066667	6.80129E-001	5.99254E-003	0.00000E+000	4.07570E-003	3.59960E-001	-1.16249E+000	3.57700E+000	10	...........
	5	0.08	6.87616E-001	5.99699E-003	0.00000E+000	4.12363E-003	3.59960E-001	-1.16541E+000	3.57700E+000	10	...........
	6	0.093333	6.95014E-001	5.99674E-003	0.00000E+000	4.16782E-003	3.59960E-001	-1.17270E+000	3.57700E+000	10	...........
	7	0.106667	7.02219E-001	5.99414E-003	0.00000E+000	4.20920E-003	3.59960E-001	-1.16259E+000	3.57700E+000	10	...........
	8	0.12	7.09355E-001	5.99027E-003	0.00000E+000	4.24923E-003	3.59960E-001	-1.16566E+000	3.57700E+000	10	...........
	9	0.133333	7.16472E-001	5.99085E-003	0.00000E+000	4.29227E-003	3.59960E-001	-1.17272E+000	3.57700E+000	10	...........
	10	0.146667	7.23487E-001	5.99174E-003	0.00000E+000	4.33494E-003	3.59960E-001	-1.16223E+000	3.57700E+000	10	...........
	11	0.16	7.30386E-001	5.99321E-003	0.00000E+000	4.37735E-003	3.59960E-001	-1.16537E+000	3.57700E+000	10	...........
	12	0.173333	7.37288E-001	5.99748E-003	0.00000E+000	4.42187E-003	3.59960E-001	-1.17261E+000	3.57670E+000	10	...........
	13	0.186667	7.44177E-001	5.99517E-003	0.00000E+000	4.46147E-003	3.59960E-001	-1.16228E+000	3.57660E+000	10	...........
	14	0.2	7.51018E-001	5.99071E-003	0.00000E+000	4.49914E-003	3.59960E-001	-1.16543E+000	3.57660E+000	10	...........
	15	0.213333	7.57863E-001	5.99577E-003	0.00000E+000	4.54398E-003	3.59960E-001	-1.17226E+000	3.57660E+000	10	...........
	16	0.226667	7.64579E-001	5.99286E-003	0.00000E+000	4.58202E-003	3.59960E-001	-1.16228E+000	3.57660E+000	10	...........
	17	0.24	7.71344E-001	5.99882E-003	0.00000E+000	4.62716E-003	3.59960E-001	-1.16556E+000	3.57660E+000	10	...........
	18	0.253333	7.78091E-001	5.99791E-003	0.00000E+000	4.66692E-003	3.59960E-001	-1.17241E+000	3.57660E+000	10	...........
	19	0.266667	7.84817E-001	5.99420E-003	0.00000E+000	4.70435E-003	3.59960E-001	-1.16235E+000	3.57660E+000	10	...........
	20	0.28	7.91536E-001	5.99078E-003	0.00000E+000	4.74191E-003	3.59960E-001	-1.16551E+000	3.57660E+000	10	...........
	21	0.293333	7.98197E-001	5.98581E-003	0.00000E+000	4.77786E-003	3.59960E-001	-1.17226E+000	3.57660E+000	10	...........
	22	0.306667	8.04803E-001	5.99139E-003	0.00000E+000	4.82189E-003	3.59960E-001	-1.16217E+000	3.57660E+000	10	...........
	23	0.32	8.11402E-001	5.99131E-003	0.00000E+000	4.86136E-003	3.59960E-001	-1.16569E+000	3.57660E+000	10	...........
	24	0.333333	8.17987E-001	5.99332E-003	0.00000E+000	4.90246E-003	3.59960E-001	-1.17234E+000	3.57660E+000	10	...........
	25	0.346667	8.24558E-001	5.99312E-003	0.00000E+000	4.94168E-003	3.59960E-001	-1.16214E+000	3.57660E+000	10	...........
	26	0.36	8.31115E-001	5.99204E-003	0.00000E+000	4.98008E-003	3.59960E-001	-1.16569E+000	3.57660E+000	10	...........
	27	0.373333	8.37609E-001	5.99663E-003	0.00000E+000	5.02283E-003	3.59960E-001	-1.17196E+000	3.57660E+000	10	...........
	28	0.386667	8.44130E-001	5.99848E-003	0.00000E+000	5.06350E-003	3.59960E-001	-1.16187E+000	3.57660E+000	10	...........
	29	0.4	8.50611E-001	5.98922E-003	0.00000E+000	5.09450E-003	3.59960E-001	-1.16536E+000	3.57660E+000	10	...........
	30	0.413333	8.57034E-001	5.99181E-003	0.00000E+000	5.13518E-003	3.59960E-001	-1.17187E+000	3.57660E+000	10	...........
	31	0.426667	8.63476E-001	5.99201E-003	0.00000E+000	5.17396E-003	3.59960E-001	-1.16175E+000	3.57660E+000	10	...........
	32	0.44	8.69885E-001	5.98963E-003	0.00000E+000	5.21029E-003	3.59960E-001	-1.16553E+000	3.57660E+000	10	...........
	33	0.453333	8.76283E-001	5.99304E-003	0.00000E+000	5.25160E-003	3.59960E-001	-1.17181E+000	3.57660E+000	10	...........
	34	0.466667	8.82627E-001	5.99407E-003	0.00000E+000	5.29053E-003	3.59960E-001	-1.16186E+000	3.57660E+000	10	...........
	35	0.48	8.88963E-001	5.98841E-003	0.00000E+000	5.32347E-003	3.59960E-001	-1.16543E+000	3.57660E+000	10	...........
	36	0.493333	8.95249E-001	5.98978E-003	0.00000E+000	5.36234E-003	3.59960E-001	-1.17180E+000	3.57660E+000	10	...........
	37	0.506667	9.01488E-001	5.99177E-003	0.00000E+000	5.40150E-003	3.59960E-001	-1.16181E+000	3.57660E+000	10	...........
	38	0.52	9.07744E-001	5.99189E-003	0.00000E+000	5.43910E-003	3.59960E-001	-1.16562E+000	3.57660E+000	10	...........
	39	0.533333	9.13901E-001	5.99408E-003	0.00000E+000	5.47800E-003	3.59960E-001	-1.17176E+000	3.57660E+000	10	...........
	40	0.546667	9.20102E-001	5.99543E-003	0.00000E+000	5.51641E-003	3.59960E-001	-1.16178E+000	3.57660E+000	10	...........
	41	0.56	9.26244E-001	5.99716E-003	0.00000E+000	5.55483E-003	3.59960E-001	-1.16560E+000	3.57660E+000	10	...........
	42	0.573333	9.32249E-001	5.99112E-003	0.00000E+000	5.58522E-003	3.59960E-001	-1.17174E+000	3.57660E+000	10	...........
	43	0.586667	9.38252E-001	5.99351E-003	0.00000E+000	5.62342E-003	3.59960E-001	-1.16202E+000	3.57660E+000	10	...........
	44	0.6	9.44210E-001	5.99560E-003	0.00000E+000	5.66110E-003	3.59960E-001	-1.16569E+000	3.57660E+000	10	...........
	45	0.613333	9.50184E-001	5.99694E-003	0.00000E+000	5.69820E-003	3.59960E-001	-1.17177E+000	3.57660E+000	10	...........
	46	0.626667	9.56028E-001	5.99156E-003	0.00000E+000	5.72810E-003	3.59960E-001	-1.16176E+000	3.57660E+000	10	...........
	47	0.64	9.61889E-001	6.00001E-003	0.00000E+000	5.77134E-003	3.59960E-001	-1.16574E+000	3.57660E+000	10	...........
	48	0.653333	9.67667E-001	5.99353E-003	0.00000E+000	5.79974E-003	3.59960E-001	-1.17151E+000	3.57660E+000	10	...........
	49	0.666667	9.73479E-001	5.99049E-003	0.00000E+000	5.83161E-003	3.59960E-001	-1.16184E+000	3.57660E+000	10	...........
	50	0.68	9.79203E-001	5.99450E-003	0.00000E+000	5.86983E-003	3.59960E-001	-1.16549E+000	3.57660E+000	10	...........
	51	0.693333	9.84792E-001	5.99473E-003	0.00000E+000	5.90356E-003	3.59960E-001	-1.17107E+000	3.57660E+000	10	...........
	52	0.706667	9.90419E-001	5.99147E-003	0.00000E+000	5.93406E-003	3.59960E-001	-1.16147E+000	3.57660E+000	10	...........
	53	0.72	9.95951E-001	5.99704E-003	0.00000E+000	5.97275E-003	3.59960E-001	-1.16571E+000	3.57660E+000	10	...........
	54	0.725	9.99727E-001	5.98865E-003	0.00000E+000	5.98701E-003	3.59960E-001	-1.16402E+000	3.57660E+000	10	...........
STARTTIMEOFFSET	QUANT	1259.536	Start Time Offset (s)