File: Data/CV_CRGO300517_1/PWRCCD_CRGO300517_1/CHARGE_DISCHARGE/CHARGE_#279.DTA
EXPLAIN
TAG	PWR800_CHARGE
TITLE	LABEL	PWR Cyclic Charge Discharge (Cell) - Charge Step	Test &Identifier
DATE	LABEL	22-6-2017	Date
TIME	LABEL	15:47:04	Time
NOTES	NOTES	3	&Notes...
	supercap test cell
	0.6mg
	6M KOH
PSTAT	PSTAT	IFC5000-01520	Potentiostat
CAPACITY	QUANT	1.00000E-003	Capacity (A-hr)
CELLTYPE	SELECTOR	1	&Cell Type
WORKINGCONNECTION	SELECTOR	0	&Working Lead
MAXCHARGETIME	VARIABLEANDUNITS	1.00000E+002	s	1.00000E+002	second(s)	Max &Charge Time
CHARGECURRENT	QUANT	6.00000E-003	&Charge Current (A)
VOLTAGEFINISH	TWOPARAM	F	1.00000E-003	3.60000E+003	&Voltage Finish	 I (A) < 	Max Time(s)
SAMPLETIME	QUANT	1.00000E-002	Sa&mple Period (s)
CHARGESTOPAT1	MULTIPARAM	4	1.00000E+000	Charge Stop At &1	Voltage > Limit	V
CHARGESTOPAT2	MULTIPARAM	0	0.00000E+000	Charge Stop At &2	None	N/A
AESBHCSELECTOR	TOGGLE	F	Save Both Half Cells
IRCOMP	TOGGLE	F	IR &Measure
EOC	QUANT	0	Open Circuit (V)
SEQUENCER	TOGGLE	TRUE	Run as Sequence
PSTATMODEL	IQUANT	53	Pstat Model
PSTATSECTION	LABEL	IFC5000-01520	Pstat Section
PSTATSERIALNO	LABEL	01520	Pstat Serial Number
CTRLMODE	IQUANT	0	Control Mode
ELECTROMETER	IQUANT	1	RE=0 or CS=1
IESTAB	IQUANT	0	I/E Stability
CASPEED	IQUANT	4	Control Amp Speed
CONVENTION	IQUANT	1	Current Convention
ICHRANGE	IQUANT	2	Ich Range
ICHRANGEMODE	TOGGLE	T	Ich Auto Range
ICHOFFSETENABLE	TOGGLE	F	Ich Offset Enable
ICHOFFSET	QUANT	0	Ich Offset (V)
ICHFILTER	IQUANT	1	Ich Filter
VCHRANGE	IQUANT	2	Vch Range
VCHRANGEMODE	TOGGLE	T	Vch Auto Range
VCHOFFSETENABLE	TOGGLE	F	Vch Offset Enable
VCHOFFSET	QUANT	0	Vch Offset (V)
VCHFILTER	IQUANT	1	Vch Filter
IERANGELOWERLIMIT	IQUANT	9	I/E Range Lower Limit
IERANGEMODE	TOGGLE	F	I/E AutoRange
IERANGE	IQUANT	10	I/E Range
ACHSELECT	IQUANT	1	Ach Select
ACHRANGE	IQUANT	2	Ach Range
ACHOFFSETENABLE	TOGGLE	F	Ach Offset Enable
ACHOFFSET	QUANT	0	Ach Offset (V)
ACHFILTER	IQUANT	1	Ach Filter
CABLEID	IQUANT	14	Cable ID
DCCALDATE	LABEL	20-10-2016	DC Calibration Date
ACCALDATE	LABEL	12/3/2015	AC Calibration Date
FRAMEWORKVERSION	QUANT	7.01	Framework Version
INSTRUMENTVERSION	LABEL	4.00	Instrument Version
CURVE	TABLE	63
	Pt	T	Vf	Im	Vu	Pwr	Sig	Ach	Temp	IERange	Over
	#	s	V	A	V	W	V	V	deg C	#	bits
	0	0.013333	6.14303E-001	5.99648E-003	0.00000E+000	3.68366E-003	3.59960E-001	-1.11405E+000	3.57810E+000	10	...........
	1	0.026667	6.22880E-001	5.99700E-003	0.00000E+000	3.73541E-003	3.59960E-001	-1.10525E+000	3.57810E+000	10	...........
	2	0.04	6.30735E-001	5.99272E-003	0.00000E+000	3.77982E-003	3.59960E-001	-1.10898E+000	3.57810E+000	10	...........
	3	0.053333	6.38208E-001	5.99526E-003	0.00000E+000	3.82622E-003	3.59960E-001	-1.11360E+000	3.57810E+000	10	...........
	4	0.066667	6.45410E-001	5.99181E-003	0.00000E+000	3.86718E-003	3.59960E-001	-1.10498E+000	3.57810E+000	10	...........
	5	0.08	6.52452E-001	5.99637E-003	0.00000E+000	3.91234E-003	3.59960E-001	-1.10910E+000	3.57810E+000	10	...........
	6	0.093333	6.59312E-001	5.99376E-003	0.00000E+000	3.95176E-003	3.59960E-001	-1.11379E+000	3.57810E+000	10	...........
	7	0.106667	6.66096E-001	5.99923E-003	0.00000E+000	3.99606E-003	3.59960E-001	-1.10517E+000	3.57810E+000	10	...........
	8	0.12	6.72796E-001	5.99673E-003	0.00000E+000	4.03458E-003	3.59960E-001	-1.10896E+000	3.57810E+000	10	...........
	9	0.133333	6.79363E-001	5.99067E-003	0.00000E+000	4.06984E-003	3.59960E-001	-1.11414E+000	3.57810E+000	10	...........
	10	0.146667	6.85898E-001	5.99347E-003	0.00000E+000	4.11091E-003	3.59960E-001	-1.10537E+000	3.57810E+000	10	...........
	11	0.16	6.92405E-001	5.99471E-003	0.00000E+000	4.15077E-003	3.59960E-001	-1.10911E+000	3.57810E+000	10	...........
	12	0.173333	6.98883E-001	5.99724E-003	0.00000E+000	4.19137E-003	3.59960E-001	-1.11400E+000	3.57810E+000	10	...........
	13	0.186667	7.05296E-001	5.99547E-003	0.00000E+000	4.22858E-003	3.59960E-001	-1.10531E+000	3.57810E+000	10	...........
	14	0.2	7.11669E-001	5.99303E-003	0.00000E+000	4.26505E-003	3.59960E-001	-1.10914E+000	3.57810E+000	10	...........
	15	0.213333	7.18041E-001	5.99628E-003	0.00000E+000	4.30558E-003	3.59960E-001	-1.11430E+000	3.57810E+000	10	...........
	16	0.226667	7.24408E-001	5.99459E-003	0.00000E+000	4.34253E-003	3.59960E-001	-1.10533E+000	3.57810E+000	10	...........
	17	0.24	7.30708E-001	5.99397E-003	0.00000E+000	4.37984E-003	3.59960E-001	-1.10891E+000	3.57810E+000	10	...........
	18	0.253333	7.37004E-001	5.99547E-003	0.00000E+000	4.41869E-003	3.59960E-001	-1.11389E+000	3.57810E+000	10	...........
	19	0.266667	7.43319E-001	5.99379E-003	0.00000E+000	4.45530E-003	3.59960E-001	-1.10504E+000	3.57810E+000	10	...........
	20	0.28	7.49573E-001	5.99333E-003	0.00000E+000	4.49244E-003	3.59960E-001	-1.10838E+000	3.57810E+000	10	...........
	21	0.293333	7.55874E-001	5.99756E-003	0.00000E+000	4.53340E-003	3.59960E-001	-1.11362E+000	3.57810E+000	10	...........
	22	0.306667	7.62137E-001	5.99378E-003	0.00000E+000	4.56808E-003	3.59960E-001	-1.10413E+000	3.57810E+000	10	...........
	23	0.32	7.68402E-001	5.99308E-003	0.00000E+000	4.60510E-003	3.59960E-001	-1.10746E+000	3.57810E+000	10	...........
	24	0.333333	7.74598E-001	5.99202E-003	0.00000E+000	4.64141E-003	3.59960E-001	-1.11299E+000	3.57810E+000	10	...........
	25	0.346667	7.80867E-001	5.99507E-003	0.00000E+000	4.68135E-003	3.59960E-001	-1.10413E+000	3.57810E+000	10	...........
	26	0.36	7.87073E-001	5.99557E-003	0.00000E+000	4.71895E-003	3.59960E-001	-1.10732E+000	3.57810E+000	10	...........
	27	0.373333	7.93311E-001	5.99746E-003	0.00000E+000	4.75786E-003	3.59960E-001	-1.11298E+000	3.57810E+000	10	...........
	28	0.386667	7.99519E-001	5.99446E-003	0.00000E+000	4.79268E-003	3.59960E-001	-1.10365E+000	3.57810E+000	10	...........
	29	0.4	8.05725E-001	5.99790E-003	0.00000E+000	4.83266E-003	3.59960E-001	-1.10684E+000	3.57810E+000	10	...........
	30	0.413333	8.11899E-001	5.99555E-003	0.00000E+000	4.86779E-003	3.59960E-001	-1.11255E+000	3.57810E+000	10	...........
	31	0.426667	8.18075E-001	5.99327E-003	0.00000E+000	4.90295E-003	3.59960E-001	-1.10334E+000	3.57810E+000	10	...........
	32	0.44	8.24238E-001	5.98863E-003	0.00000E+000	4.93605E-003	3.59960E-001	-1.10646E+000	3.57810E+000	10	...........
	33	0.453333	8.30364E-001	5.99518E-003	0.00000E+000	4.97818E-003	3.59960E-001	-1.11222E+000	3.57810E+000	10	...........
	34	0.466667	8.36537E-001	5.99579E-003	0.00000E+000	5.01571E-003	3.59960E-001	-1.10334E+000	3.57810E+000	10	...........
	35	0.48	8.42685E-001	5.99047E-003	0.00000E+000	5.04808E-003	3.59960E-001	-1.10631E+000	3.57810E+000	10	...........
	36	0.493333	8.48807E-001	6.00100E-003	0.00000E+000	5.09369E-003	3.59960E-001	-1.11230E+000	3.57792E+000	10	...........
	37	0.506667	8.54919E-001	5.99108E-003	0.00000E+000	5.12189E-003	3.59960E-001	-1.10294E+000	3.57740E+000	10	...........
	38	0.52	8.60994E-001	5.99733E-003	0.00000E+000	5.16366E-003	3.59960E-001	-1.10618E+000	3.57740E+000	10	...........
	39	0.533333	8.67065E-001	5.99055E-003	0.00000E+000	5.19419E-003	3.59960E-001	-1.11240E+000	3.57740E+000	10	...........
	40	0.546667	8.73122E-001	5.99419E-003	0.00000E+000	5.23366E-003	3.59960E-001	-1.10303E+000	3.57740E+000	10	...........
	41	0.56	8.79149E-001	5.99305E-003	0.00000E+000	5.26879E-003	3.59960E-001	-1.10608E+000	3.57740E+000	10	...........
	42	0.573333	8.85188E-001	5.99444E-003	0.00000E+000	5.30620E-003	3.59960E-001	-1.11214E+000	3.57740E+000	10	...........
	43	0.586667	8.91189E-001	5.99499E-003	0.00000E+000	5.34267E-003	3.59960E-001	-1.10299E+000	3.57740E+000	10	...........
	44	0.6	8.97158E-001	5.99475E-003	0.00000E+000	5.37824E-003	3.59960E-001	-1.10574E+000	3.57740E+000	10	...........
	45	0.613333	9.03142E-001	5.99355E-003	0.00000E+000	5.41303E-003	3.59960E-001	-1.11228E+000	3.57740E+000	10	...........
	46	0.626667	9.09115E-001	5.99341E-003	0.00000E+000	5.44870E-003	3.59960E-001	-1.10253E+000	3.57740E+000	10	...........
	47	0.64	9.15054E-001	5.99080E-003	0.00000E+000	5.48190E-003	3.59960E-001	-1.10522E+000	3.57740E+000	10	...........
	48	0.653333	9.20999E-001	5.99112E-003	0.00000E+000	5.51781E-003	3.59960E-001	-1.11175E+000	3.57740E+000	10	...........
	49	0.666667	9.26852E-001	5.99077E-003	0.00000E+000	5.55255E-003	3.59960E-001	-1.10230E+000	3.57740E+000	10	...........
	50	0.68	9.32687E-001	5.99633E-003	0.00000E+000	5.59269E-003	3.59960E-001	-1.10507E+000	3.57740E+000	10	...........
	51	0.693333	9.38452E-001	5.99733E-003	0.00000E+000	5.62821E-003	3.59960E-001	-1.11178E+000	3.57740E+000	10	...........
	52	0.706667	9.44226E-001	5.99153E-003	0.00000E+000	5.65736E-003	3.59960E-001	-1.10230E+000	3.57740E+000	10	...........
	53	0.72	9.49984E-001	5.99363E-003	0.00000E+000	5.69386E-003	3.59960E-001	-1.10508E+000	3.57740E+000	10	...........
	54	0.733333	9.55669E-001	5.99395E-003	0.00000E+000	5.72823E-003	3.59960E-001	-1.11169E+000	3.57740E+000	10	...........
	55	0.746667	9.61333E-001	5.99317E-003	0.00000E+000	5.76143E-003	3.59960E-001	-1.10216E+000	3.57740E+000	10	...........
	56	0.76	9.66979E-001	5.99842E-003	0.00000E+000	5.80035E-003	3.59960E-001	-1.10485E+000	3.57740E+000	10	...........
	57	0.773333	9.72580E-001	5.99445E-003	0.00000E+000	5.83008E-003	3.59960E-001	-1.11133E+000	3.57740E+000	10	...........
	58	0.786667	9.78152E-001	5.99329E-003	0.00000E+000	5.86235E-003	3.59960E-001	-1.10225E+000	3.57740E+000	10	...........
	59	0.8	9.83684E-001	5.99121E-003	0.00000E+000	5.89346E-003	3.59960E-001	-1.10451E+000	3.57740E+000	10	...........
	60	0.813333	9.89197E-001	5.99503E-003	0.00000E+000	5.93027E-003	3.59960E-001	-1.11135E+000	3.57740E+000	10	...........
	61	0.826667	9.94627E-001	5.99299E-003	0.00000E+000	5.96079E-003	3.59960E-001	-1.10214E+000	3.57740E+000	10	...........
	62	0.835	9.99048E-001	5.99619E-003	0.00000E+000	5.99048E-003	3.59960E-001	-1.11196E+000	3.57740E+000	10	...........
STARTTIMEOFFSET	QUANT	506.415	Start Time Offset (s)