File: Data/CV_CRGO300517_1/PWRCCD_CRGO300517_1/CHARGE_DISCHARGE/CHARGE_#275.DTA
EXPLAIN
TAG	PWR800_CHARGE
TITLE	LABEL	PWR Cyclic Charge Discharge (Cell) - Charge Step	Test &Identifier
DATE	LABEL	22-6-2017	Date
TIME	LABEL	15:46:54	Time
NOTES	NOTES	3	&Notes...
	supercap test cell
	0.6mg
	6M KOH
PSTAT	PSTAT	IFC5000-01520	Potentiostat
CAPACITY	QUANT	1.00000E-003	Capacity (A-hr)
CELLTYPE	SELECTOR	1	&Cell Type
WORKINGCONNECTION	SELECTOR	0	&Working Lead
MAXCHARGETIME	VARIABLEANDUNITS	1.00000E+002	s	1.00000E+002	second(s)	Max &Charge Time
CHARGECURRENT	QUANT	6.00000E-003	&Charge Current (A)
VOLTAGEFINISH	TWOPARAM	F	1.00000E-003	3.60000E+003	&Voltage Finish	 I (A) < 	Max Time(s)
SAMPLETIME	QUANT	1.00000E-002	Sa&mple Period (s)
CHARGESTOPAT1	MULTIPARAM	4	1.00000E+000	Charge Stop At &1	Voltage > Limit	V
CHARGESTOPAT2	MULTIPARAM	0	0.00000E+000	Charge Stop At &2	None	N/A
AESBHCSELECTOR	TOGGLE	F	Save Both Half Cells
IRCOMP	TOGGLE	F	IR &Measure
EOC	QUANT	0	Open Circuit (V)
SEQUENCER	TOGGLE	TRUE	Run as Sequence
PSTATMODEL	IQUANT	53	Pstat Model
PSTATSECTION	LABEL	IFC5000-01520	Pstat Section
PSTATSERIALNO	LABEL	01520	Pstat Serial Number
CTRLMODE	IQUANT	0	Control Mode
ELECTROMETER	IQUANT	1	RE=0 or CS=1
IESTAB	IQUANT	0	I/E Stability
CASPEED	IQUANT	4	Control Amp Speed
CONVENTION	IQUANT	1	Current Convention
ICHRANGE	IQUANT	2	Ich Range
ICHRANGEMODE	TOGGLE	T	Ich Auto Range
ICHOFFSETENABLE	TOGGLE	F	Ich Offset Enable
ICHOFFSET	QUANT	0	Ich Offset (V)
ICHFILTER	IQUANT	1	Ich Filter
VCHRANGE	IQUANT	2	Vch Range
VCHRANGEMODE	TOGGLE	T	Vch Auto Range
VCHOFFSETENABLE	TOGGLE	F	Vch Offset Enable
VCHOFFSET	QUANT	0	Vch Offset (V)
VCHFILTER	IQUANT	1	Vch Filter
IERANGELOWERLIMIT	IQUANT	9	I/E Range Lower Limit
IERANGEMODE	TOGGLE	F	I/E AutoRange
IERANGE	IQUANT	10	I/E Range
ACHSELECT	IQUANT	1	Ach Select
ACHRANGE	IQUANT	2	Ach Range
ACHOFFSETENABLE	TOGGLE	F	Ach Offset Enable
ACHOFFSET	QUANT	0	Ach Offset (V)
ACHFILTER	IQUANT	1	Ach Filter
CABLEID	IQUANT	14	Cable ID
DCCALDATE	LABEL	20-10-2016	DC Calibration Date
ACCALDATE	LABEL	12/3/2015	AC Calibration Date
FRAMEWORKVERSION	QUANT	7.01	Framework Version
INSTRUMENTVERSION	LABEL	4.00	Instrument Version
CURVE	TABLE	63
	Pt	T	Vf	Im	Vu	Pwr	Sig	Ach	Temp	IERange	Over
	#	s	V	A	V	W	V	V	deg C	#	bits
	0	0.013333	6.13332E-001	5.99032E-003	0.00000E+000	3.67406E-003	3.59960E-001	-1.09793E+000	3.57960E+000	10	...........
	1	0.026667	6.21928E-001	5.99185E-003	0.00000E+000	3.72650E-003	3.59960E-001	-1.10500E+000	3.57960E+000	10	...........
	2	0.04	6.29805E-001	5.99137E-003	0.00000E+000	3.77339E-003	3.59960E-001	-1.09593E+000	3.57960E+000	10	...........
	3	0.053333	6.37289E-001	5.99550E-003	0.00000E+000	3.82087E-003	3.59960E-001	-1.09826E+000	3.57960E+000	10	...........
	4	0.066667	6.44515E-001	6.00004E-003	0.00000E+000	3.86712E-003	3.59960E-001	-1.10524E+000	3.57960E+000	10	...........
	5	0.08	6.51489E-001	5.99659E-003	0.00000E+000	3.90671E-003	3.59960E-001	-1.09574E+000	3.57960E+000	10	...........
	6	0.093333	6.58360E-001	5.99532E-003	0.00000E+000	3.94708E-003	3.59960E-001	-1.09838E+000	3.57960E+000	10	...........
	7	0.106667	6.65136E-001	5.99394E-003	0.00000E+000	3.98679E-003	3.59960E-001	-1.10510E+000	3.57960E+000	10	...........
	8	0.12	6.71825E-001	5.99852E-003	0.00000E+000	4.02995E-003	3.59960E-001	-1.09567E+000	3.57960E+000	10	...........
	9	0.133333	6.78445E-001	5.99039E-003	0.00000E+000	4.06415E-003	3.59960E-001	-1.09747E+000	3.57960E+000	10	...........
	10	0.146667	6.84993E-001	5.99301E-003	0.00000E+000	4.10517E-003	3.59960E-001	-1.10456E+000	3.57960E+000	10	...........
	11	0.16	6.91470E-001	5.99392E-003	0.00000E+000	4.14461E-003	3.59960E-001	-1.09511E+000	3.57960E+000	10	...........
	12	0.173333	6.97952E-001	5.99326E-003	0.00000E+000	4.18301E-003	3.59960E-001	-1.09703E+000	3.57960E+000	10	...........
	13	0.186667	7.04373E-001	5.99258E-003	0.00000E+000	4.22102E-003	3.59960E-001	-1.10378E+000	3.57960E+000	10	...........
	14	0.2	7.10790E-001	5.99285E-003	0.00000E+000	4.25966E-003	3.59960E-001	-1.09413E+000	3.57960E+000	10	...........
	15	0.213333	7.17171E-001	5.99445E-003	0.00000E+000	4.29904E-003	3.59960E-001	-1.09599E+000	3.57960E+000	10	...........
	16	0.226667	7.23498E-001	5.99045E-003	0.00000E+000	4.33408E-003	3.59960E-001	-1.10334E+000	3.57960E+000	10	...........
	17	0.24	7.29840E-001	5.99287E-003	0.00000E+000	4.37384E-003	3.59960E-001	-1.09366E+000	3.57960E+000	10	...........
	18	0.253333	7.36193E-001	5.99486E-003	0.00000E+000	4.41337E-003	3.59960E-001	-1.09523E+000	3.57960E+000	10	...........
	19	0.266667	7.42518E-001	5.99362E-003	0.00000E+000	4.45037E-003	3.59960E-001	-1.10233E+000	3.57960E+000	10	...........
	20	0.28	7.48807E-001	5.99439E-003	0.00000E+000	4.48864E-003	3.59960E-001	-1.09261E+000	3.57960E+000	10	...........
	21	0.293333	7.55083E-001	5.99661E-003	0.00000E+000	4.52794E-003	3.59960E-001	-1.09487E+000	3.57960E+000	10	...........
	22	0.306667	7.61341E-001	5.99713E-003	0.00000E+000	4.56586E-003	3.59960E-001	-1.10225E+000	3.57960E+000	10	...........
	23	0.32	7.67563E-001	5.99187E-003	0.00000E+000	4.59914E-003	3.59960E-001	-1.09259E+000	3.57960E+000	10	...........
	24	0.333333	7.73805E-001	5.99664E-003	0.00000E+000	4.64023E-003	3.59960E-001	-1.09448E+000	3.57960E+000	10	...........
	25	0.346667	7.80029E-001	5.99687E-003	0.00000E+000	4.67773E-003	3.59960E-001	-1.10154E+000	3.57960E+000	10	...........
	26	0.36	7.86251E-001	5.99379E-003	0.00000E+000	4.71263E-003	3.59960E-001	-1.09205E+000	3.57960E+000	10	...........
	27	0.373333	7.92462E-001	5.98904E-003	0.00000E+000	4.74608E-003	3.59960E-001	-1.09397E+000	3.57960E+000	10	...........
	28	0.386667	7.98673E-001	5.99060E-003	0.00000E+000	4.78453E-003	3.59960E-001	-1.10146E+000	3.57759E+000	10	...........
	29	0.4	8.04871E-001	5.99622E-003	0.00000E+000	4.82618E-003	3.59960E-001	-1.09167E+000	3.57730E+000	10	...........
	30	0.413333	8.11013E-001	5.99664E-003	0.00000E+000	4.86335E-003	3.59960E-001	-1.09366E+000	3.57730E+000	10	...........
	31	0.426667	8.17183E-001	5.99536E-003	0.00000E+000	4.89930E-003	3.59960E-001	-1.10124E+000	3.57730E+000	10	...........
	32	0.44	8.23346E-001	5.99622E-003	0.00000E+000	4.93697E-003	3.59960E-001	-1.09204E+000	3.57730E+000	10	...........
	33	0.453333	8.29513E-001	5.99182E-003	0.00000E+000	4.97030E-003	3.59960E-001	-1.09415E+000	3.57730E+000	10	...........
	34	0.466667	8.35622E-001	5.99358E-003	0.00000E+000	5.00837E-003	3.59960E-001	-1.10171E+000	3.57730E+000	10	...........
	35	0.48	8.41790E-001	5.99679E-003	0.00000E+000	5.04804E-003	3.59960E-001	-1.09243E+000	3.57730E+000	10	...........
	36	0.493333	8.47898E-001	5.99096E-003	0.00000E+000	5.07973E-003	3.59960E-001	-1.09434E+000	3.57730E+000	10	...........
	37	0.506667	8.53997E-001	5.99338E-003	0.00000E+000	5.11834E-003	3.59960E-001	-1.10234E+000	3.57730E+000	10	...........
	38	0.52	8.60088E-001	5.99643E-003	0.00000E+000	5.15746E-003	3.59960E-001	-1.09282E+000	3.57730E+000	10	...........
	39	0.533333	8.66185E-001	5.99674E-003	0.00000E+000	5.19429E-003	3.59960E-001	-1.09460E+000	3.57730E+000	10	...........
	40	0.546667	8.72256E-001	5.98679E-003	0.00000E+000	5.22201E-003	3.59960E-001	-1.10228E+000	3.57730E+000	10	...........
	41	0.56	8.78304E-001	5.99510E-003	0.00000E+000	5.26552E-003	3.59960E-001	-1.09300E+000	3.57730E+000	10	...........
	42	0.573333	8.84325E-001	5.98888E-003	0.00000E+000	5.29611E-003	3.59960E-001	-1.09461E+000	3.57730E+000	10	...........
	43	0.586667	8.90340E-001	5.99190E-003	0.00000E+000	5.33483E-003	3.59960E-001	-1.10220E+000	3.57730E+000	10	...........
	44	0.6	8.96333E-001	5.99080E-003	0.00000E+000	5.36975E-003	3.59960E-001	-1.09246E+000	3.57730E+000	10	...........
	45	0.613333	9.02307E-001	5.99139E-003	0.00000E+000	5.40607E-003	3.59960E-001	-1.09476E+000	3.57730E+000	10	...........
	46	0.626667	9.08246E-001	5.99689E-003	0.00000E+000	5.44665E-003	3.59960E-001	-1.10260E+000	3.57730E+000	10	...........
	47	0.64	9.14151E-001	5.99447E-003	0.00000E+000	5.47985E-003	3.59960E-001	-1.09359E+000	3.57730E+000	10	...........
	48	0.653333	9.20082E-001	5.99284E-003	0.00000E+000	5.51391E-003	3.59960E-001	-1.09544E+000	3.57730E+000	10	...........
	49	0.666667	9.26025E-001	5.99479E-003	0.00000E+000	5.55133E-003	3.59960E-001	-1.10308E+000	3.57730E+000	10	...........
	50	0.68	9.31870E-001	5.99719E-003	0.00000E+000	5.58860E-003	3.59960E-001	-1.09375E+000	3.57730E+000	10	...........
	51	0.693333	9.37651E-001	5.99534E-003	0.00000E+000	5.62153E-003	3.59960E-001	-1.09566E+000	3.57730E+000	10	...........
	52	0.706667	9.43403E-001	5.99610E-003	0.00000E+000	5.65674E-003	3.59960E-001	-1.10374E+000	3.57730E+000	10	...........
	53	0.72	9.49189E-001	5.99053E-003	0.00000E+000	5.68614E-003	3.59960E-001	-1.09431E+000	3.57730E+000	10	...........
	54	0.733333	9.54900E-001	5.99472E-003	0.00000E+000	5.72436E-003	3.59960E-001	-1.09567E+000	3.57730E+000	10	...........
	55	0.746667	9.60573E-001	5.99437E-003	0.00000E+000	5.75803E-003	3.59960E-001	-1.10376E+000	3.57730E+000	10	...........
	56	0.76	9.66195E-001	5.98744E-003	0.00000E+000	5.78504E-003	3.59960E-001	-1.09433E+000	3.57730E+000	10	...........
	57	0.773333	9.71804E-001	5.99188E-003	0.00000E+000	5.82293E-003	3.59960E-001	-1.09604E+000	3.57730E+000	10	...........
	58	0.786667	9.77403E-001	5.99776E-003	0.00000E+000	5.86222E-003	3.59960E-001	-1.10404E+000	3.57730E+000	10	...........
	59	0.8	9.82896E-001	5.99820E-003	0.00000E+000	5.89561E-003	3.59960E-001	-1.09444E+000	3.57730E+000	10	...........
	60	0.813333	9.88380E-001	5.99004E-003	0.00000E+000	5.92043E-003	3.59960E-001	-1.09613E+000	3.57730E+000	10	...........
	61	0.826667	9.93823E-001	5.99066E-003	0.00000E+000	5.95366E-003	3.59960E-001	-1.10423E+000	3.57730E+000	10	...........
	62	0.836667	9.98550E-001	5.99474E-003	0.00000E+000	5.98605E-003	3.59960E-001	-1.09078E+000	3.57730E+000	10	...........
STARTTIMEOFFSET	QUANT	499.7684	Start Time Offset (s)