File: Data/CV_CRGO300517_1/PWRCCD_CRGO300517_1/CHARGE_DISCHARGE/CHARGE_#756.DTA
EXPLAIN
TAG	PWR800_CHARGE
TITLE	LABEL	PWR Cyclic Charge Discharge (Cell) - Charge Step	Test &Identifier
DATE	LABEL	22-6-2017	Date
TIME	LABEL	16:05:39	Time
NOTES	NOTES	3	&Notes...
	supercap test cell
	0.6mg
	6M KOH
PSTAT	PSTAT	IFC5000-01520	Potentiostat
CAPACITY	QUANT	1.00000E-003	Capacity (A-hr)
CELLTYPE	SELECTOR	1	&Cell Type
WORKINGCONNECTION	SELECTOR	0	&Working Lead
MAXCHARGETIME	VARIABLEANDUNITS	1.00000E+002	s	1.00000E+002	second(s)	Max &Charge Time
CHARGECURRENT	QUANT	6.00000E-003	&Charge Current (A)
VOLTAGEFINISH	TWOPARAM	F	1.00000E-003	3.60000E+003	&Voltage Finish	 I (A) < 	Max Time(s)
SAMPLETIME	QUANT	1.00000E-002	Sa&mple Period (s)
CHARGESTOPAT1	MULTIPARAM	4	1.00000E+000	Charge Stop At &1	Voltage > Limit	V
CHARGESTOPAT2	MULTIPARAM	0	0.00000E+000	Charge Stop At &2	None	N/A
AESBHCSELECTOR	TOGGLE	F	Save Both Half Cells
IRCOMP	TOGGLE	F	IR &Measure
EOC	QUANT	0	Open Circuit (V)
SEQUENCER	TOGGLE	TRUE	Run as Sequence
PSTATMODEL	IQUANT	53	Pstat Model
PSTATSECTION	LABEL	IFC5000-01520	Pstat Section
PSTATSERIALNO	LABEL	01520	Pstat Serial Number
CTRLMODE	IQUANT	0	Control Mode
ELECTROMETER	IQUANT	1	RE=0 or CS=1
IESTAB	IQUANT	0	I/E Stability
CASPEED	IQUANT	4	Control Amp Speed
CONVENTION	IQUANT	1	Current Convention
ICHRANGE	IQUANT	2	Ich Range
ICHRANGEMODE	TOGGLE	T	Ich Auto Range
ICHOFFSETENABLE	TOGGLE	F	Ich Offset Enable
ICHOFFSET	QUANT	0	Ich Offset (V)
ICHFILTER	IQUANT	1	Ich Filter
VCHRANGE	IQUANT	2	Vch Range
VCHRANGEMODE	TOGGLE	T	Vch Auto Range
VCHOFFSETENABLE	TOGGLE	F	Vch Offset Enable
VCHOFFSET	QUANT	0	Vch Offset (V)
VCHFILTER	IQUANT	1	Vch Filter
IERANGELOWERLIMIT	IQUANT	9	I/E Range Lower Limit
IERANGEMODE	TOGGLE	F	I/E AutoRange
IERANGE	IQUANT	10	I/E Range
ACHSELECT	IQUANT	1	Ach Select
ACHRANGE	IQUANT	2	Ach Range
ACHOFFSETENABLE	TOGGLE	F	Ach Offset Enable
ACHOFFSET	QUANT	0	Ach Offset (V)
ACHFILTER	IQUANT	1	Ach Filter
CABLEID	IQUANT	14	Cable ID
DCCALDATE	LABEL	20-10-2016	DC Calibration Date
ACCALDATE	LABEL	12/3/2015	AC Calibration Date
FRAMEWORKVERSION	QUANT	7.01	Framework Version
INSTRUMENTVERSION	LABEL	4.00	Instrument Version
CURVE	TABLE	55
	Pt	T	Vf	Im	Vu	Pwr	Sig	Ach	Temp	IERange	Over
	#	s	V	A	V	W	V	V	deg C	#	bits
	0	0.013333	6.46062E-001	5.99511E-003	0.00000E+000	3.87321E-003	3.59960E-001	-1.17093E+000	3.57640E+000	10	...........
	1	0.026667	6.55222E-001	5.99825E-003	0.00000E+000	3.93018E-003	3.59960E-001	-1.15991E+000	3.57655E+000	10	...........
	2	0.04	6.63647E-001	5.99647E-003	0.00000E+000	3.97954E-003	3.59960E-001	-1.16007E+000	3.57660E+000	10	...........
	3	0.053333	6.71639E-001	5.98598E-003	0.00000E+000	4.02042E-003	3.59960E-001	-1.17052E+000	3.57660E+000	10	...........
	4	0.066667	6.79324E-001	5.99641E-003	0.00000E+000	4.07351E-003	3.59960E-001	-1.16002E+000	3.57660E+000	10	...........
	5	0.08	6.86807E-001	5.99321E-003	0.00000E+000	4.11618E-003	3.59960E-001	-1.16017E+000	3.57660E+000	10	...........
	6	0.093333	6.94242E-001	5.99873E-003	0.00000E+000	4.16457E-003	3.59960E-001	-1.17041E+000	3.57660E+000	10	...........
	7	0.106667	7.01425E-001	5.99480E-003	0.00000E+000	4.20490E-003	3.59960E-001	-1.15953E+000	3.57660E+000	10	...........
	8	0.12	7.08546E-001	5.99454E-003	0.00000E+000	4.24741E-003	3.59960E-001	-1.16007E+000	3.57660E+000	10	...........
	9	0.133333	7.15646E-001	5.99814E-003	0.00000E+000	4.29255E-003	3.59960E-001	-1.17049E+000	3.57660E+000	10	...........
	10	0.146667	7.22721E-001	5.99479E-003	0.00000E+000	4.33257E-003	3.59960E-001	-1.15966E+000	3.57660E+000	10	...........
	11	0.16	7.29658E-001	5.99711E-003	0.00000E+000	4.37584E-003	3.59960E-001	-1.16011E+000	3.57660E+000	10	...........
	12	0.173333	7.36557E-001	5.99532E-003	0.00000E+000	4.41590E-003	3.59960E-001	-1.17029E+000	3.57660E+000	10	...........
	13	0.186667	7.43455E-001	5.99693E-003	0.00000E+000	4.45845E-003	3.59960E-001	-1.15963E+000	3.57660E+000	10	...........
	14	0.2	7.50289E-001	5.99268E-003	0.00000E+000	4.49624E-003	3.59960E-001	-1.16033E+000	3.57660E+000	10	...........
	15	0.213333	7.57083E-001	5.99500E-003	0.00000E+000	4.53871E-003	3.59960E-001	-1.17007E+000	3.57660E+000	10	...........
	16	0.226667	7.63840E-001	5.99502E-003	0.00000E+000	4.57924E-003	3.59960E-001	-1.15928E+000	3.57660E+000	10	...........
	17	0.24	7.70625E-001	5.99663E-003	0.00000E+000	4.62115E-003	3.59960E-001	-1.16003E+000	3.57660E+000	10	...........
	18	0.253333	7.77340E-001	5.98954E-003	0.00000E+000	4.65591E-003	3.59960E-001	-1.17018E+000	3.57660E+000	10	...........
	19	0.266667	7.84008E-001	5.99216E-003	0.00000E+000	4.69790E-003	3.59960E-001	-1.15939E+000	3.57660E+000	10	...........
	20	0.28	7.90678E-001	5.99371E-003	0.00000E+000	4.73909E-003	3.59960E-001	-1.16019E+000	3.57660E+000	10	...........
	21	0.293333	7.97338E-001	5.99391E-003	0.00000E+000	4.77917E-003	3.59960E-001	-1.17003E+000	3.57660E+000	10	...........
	22	0.306667	8.03973E-001	5.99409E-003	0.00000E+000	4.81909E-003	3.59960E-001	-1.15910E+000	3.57660E+000	10	...........
	23	0.32	8.10560E-001	5.99671E-003	0.00000E+000	4.86070E-003	3.59960E-001	-1.16038E+000	3.57660E+000	10	...........
	24	0.333333	8.17150E-001	5.99230E-003	0.00000E+000	4.89661E-003	3.59960E-001	-1.17031E+000	3.57660E+000	10	...........
	25	0.346667	8.23736E-001	5.99280E-003	0.00000E+000	4.93649E-003	3.59960E-001	-1.15915E+000	3.57660E+000	10	...........
	26	0.36	8.30260E-001	5.99364E-003	0.00000E+000	4.97628E-003	3.59960E-001	-1.15979E+000	3.57660E+000	10	...........
	27	0.373333	8.36776E-001	5.99351E-003	0.00000E+000	5.01523E-003	3.59960E-001	-1.16955E+000	3.57660E+000	10	...........
	28	0.386667	8.43257E-001	5.99024E-003	0.00000E+000	5.05132E-003	3.59960E-001	-1.15875E+000	3.57660E+000	10	...........
	29	0.4	8.49720E-001	6.00023E-003	0.00000E+000	5.09851E-003	3.59960E-001	-1.15987E+000	3.57660E+000	10	...........
	30	0.413333	8.56176E-001	5.99407E-003	0.00000E+000	5.13198E-003	3.59960E-001	-1.16957E+000	3.57660E+000	10	...........
	31	0.426667	8.62596E-001	5.98944E-003	0.00000E+000	5.16647E-003	3.59960E-001	-1.15870E+000	3.57660E+000	10	...........
	32	0.44	8.69001E-001	5.99437E-003	0.00000E+000	5.20911E-003	3.59960E-001	-1.15980E+000	3.57660E+000	10	...........
	33	0.453333	8.75428E-001	5.98909E-003	0.00000E+000	5.24301E-003	3.59960E-001	-1.16955E+000	3.57660E+000	10	...........
	34	0.466667	8.81792E-001	5.98891E-003	0.00000E+000	5.28097E-003	3.59960E-001	-1.15881E+000	3.57660E+000	10	...........
	35	0.48	8.88121E-001	5.99047E-003	0.00000E+000	5.32027E-003	3.59960E-001	-1.16020E+000	3.57660E+000	10	...........
	36	0.493333	8.94380E-001	5.99397E-003	0.00000E+000	5.36089E-003	3.59960E-001	-1.16960E+000	3.57660E+000	10	...........
	37	0.506667	9.00642E-001	5.99451E-003	0.00000E+000	5.39891E-003	3.59960E-001	-1.15871E+000	3.57660E+000	10	...........
	38	0.52	9.06860E-001	5.99143E-003	0.00000E+000	5.43339E-003	3.59960E-001	-1.16009E+000	3.57660E+000	10	...........
	39	0.533333	9.13019E-001	5.99076E-003	0.00000E+000	5.46968E-003	3.59960E-001	-1.16953E+000	3.57660E+000	10	...........
	40	0.546667	9.19193E-001	5.99137E-003	0.00000E+000	5.50723E-003	3.59960E-001	-1.15869E+000	3.57660E+000	10	...........
	41	0.56	9.25301E-001	5.98814E-003	0.00000E+000	5.54083E-003	3.59960E-001	-1.16022E+000	3.57660E+000	10	...........
	42	0.573333	9.31370E-001	5.99573E-003	0.00000E+000	5.58424E-003	3.59960E-001	-1.16943E+000	3.57660E+000	10	...........
	43	0.586667	9.37411E-001	5.99302E-003	0.00000E+000	5.61792E-003	3.59960E-001	-1.15877E+000	3.57660E+000	10	...........
	44	0.6	9.43373E-001	5.99333E-003	0.00000E+000	5.65395E-003	3.59960E-001	-1.16037E+000	3.57660E+000	10	...........
	45	0.613333	9.49339E-001	5.99511E-003	0.00000E+000	5.69139E-003	3.59960E-001	-1.16953E+000	3.57660E+000	10	...........
	46	0.626667	9.55195E-001	5.99199E-003	0.00000E+000	5.72352E-003	3.59960E-001	-1.15876E+000	3.57660E+000	10	...........
	47	0.64	9.61057E-001	5.99171E-003	0.00000E+000	5.75837E-003	3.59960E-001	-1.16029E+000	3.57660E+000	10	...........
	48	0.653333	9.66853E-001	5.99241E-003	0.00000E+000	5.79378E-003	3.59960E-001	-1.16948E+000	3.57660E+000	10	...........
	49	0.666667	9.72644E-001	5.99171E-003	0.00000E+000	5.82780E-003	3.59960E-001	-1.15872E+000	3.57660E+000	10	...........
	50	0.68	9.78335E-001	5.99444E-003	0.00000E+000	5.86457E-003	3.59960E-001	-1.16005E+000	3.57660E+000	10	...........
	51	0.693333	9.83991E-001	5.99219E-003	0.00000E+000	5.89625E-003	3.59960E-001	-1.16880E+000	3.57660E+000	10	...........
	52	0.706667	9.89611E-001	5.99064E-003	0.00000E+000	5.92841E-003	3.59960E-001	-1.15810E+000	3.57660E+000	10	...........
	53	0.72	9.95153E-001	5.99133E-003	0.00000E+000	5.96229E-003	3.59960E-001	-1.16001E+000	3.57660E+000	10	...........
	54	0.726667	9.99361E-001	5.99617E-003	0.00000E+000	5.99234E-003	3.59960E-001	-1.16731E+000	3.57660E+000	10	...........
STARTTIMEOFFSET	QUANT	1240.763	Start Time Offset (s)