File: Data/CV_CRGO300517_1/PWRCCD_CRGO300517_1/CHARGE_DISCHARGE/CHARGE_#689.DTA
EXPLAIN
TAG	PWR800_CHARGE
TITLE	LABEL	PWR Cyclic Charge Discharge (Cell) - Charge Step	Test &Identifier
DATE	LABEL	22-6-2017	Date
TIME	LABEL	16:03:08	Time
NOTES	NOTES	3	&Notes...
	supercap test cell
	0.6mg
	6M KOH
PSTAT	PSTAT	IFC5000-01520	Potentiostat
CAPACITY	QUANT	1.00000E-003	Capacity (A-hr)
CELLTYPE	SELECTOR	1	&Cell Type
WORKINGCONNECTION	SELECTOR	0	&Working Lead
MAXCHARGETIME	VARIABLEANDUNITS	1.00000E+002	s	1.00000E+002	second(s)	Max &Charge Time
CHARGECURRENT	QUANT	6.00000E-003	&Charge Current (A)
VOLTAGEFINISH	TWOPARAM	F	1.00000E-003	3.60000E+003	&Voltage Finish	 I (A) < 	Max Time(s)
SAMPLETIME	QUANT	1.00000E-002	Sa&mple Period (s)
CHARGESTOPAT1	MULTIPARAM	4	1.00000E+000	Charge Stop At &1	Voltage > Limit	V
CHARGESTOPAT2	MULTIPARAM	0	0.00000E+000	Charge Stop At &2	None	N/A
AESBHCSELECTOR	TOGGLE	F	Save Both Half Cells
IRCOMP	TOGGLE	F	IR &Measure
EOC	QUANT	0	Open Circuit (V)
SEQUENCER	TOGGLE	TRUE	Run as Sequence
PSTATMODEL	IQUANT	53	Pstat Model
PSTATSECTION	LABEL	IFC5000-01520	Pstat Section
PSTATSERIALNO	LABEL	01520	Pstat Serial Number
CTRLMODE	IQUANT	0	Control Mode
ELECTROMETER	IQUANT	1	RE=0 or CS=1
IESTAB	IQUANT	0	I/E Stability
CASPEED	IQUANT	4	Control Amp Speed
CONVENTION	IQUANT	1	Current Convention
ICHRANGE	IQUANT	2	Ich Range
ICHRANGEMODE	TOGGLE	T	Ich Auto Range
ICHOFFSETENABLE	TOGGLE	F	Ich Offset Enable
ICHOFFSET	QUANT	0	Ich Offset (V)
ICHFILTER	IQUANT	1	Ich Filter
VCHRANGE	IQUANT	2	Vch Range
VCHRANGEMODE	TOGGLE	T	Vch Auto Range
VCHOFFSETENABLE	TOGGLE	F	Vch Offset Enable
VCHOFFSET	QUANT	0	Vch Offset (V)
VCHFILTER	IQUANT	1	Vch Filter
IERANGELOWERLIMIT	IQUANT	9	I/E Range Lower Limit
IERANGEMODE	TOGGLE	F	I/E AutoRange
IERANGE	IQUANT	10	I/E Range
ACHSELECT	IQUANT	1	Ach Select
ACHRANGE	IQUANT	2	Ach Range
ACHOFFSETENABLE	TOGGLE	F	Ach Offset Enable
ACHOFFSET	QUANT	0	Ach Offset (V)
ACHFILTER	IQUANT	1	Ach Filter
CABLEID	IQUANT	14	Cable ID
DCCALDATE	LABEL	20-10-2016	DC Calibration Date
ACCALDATE	LABEL	12/3/2015	AC Calibration Date
FRAMEWORKVERSION	QUANT	7.01	Framework Version
INSTRUMENTVERSION	LABEL	4.00	Instrument Version
CURVE	TABLE	56
	Pt	T	Vf	Im	Vu	Pwr	Sig	Ach	Temp	IERange	Over
	#	s	V	A	V	W	V	V	deg C	#	bits
	0	0.013333	6.42404E-001	5.99372E-003	0.00000E+000	3.85039E-003	3.59960E-001	-1.15283E+000	3.57690E+000	10	...........
	1	0.026667	6.51489E-001	5.99476E-003	0.00000E+000	3.90552E-003	3.59960E-001	-1.15408E+000	3.57690E+000	10	...........
	2	0.04	6.59799E-001	5.99143E-003	0.00000E+000	3.95314E-003	3.59960E-001	-1.16394E+000	3.57690E+000	10	...........
	3	0.053333	6.67746E-001	5.99548E-003	0.00000E+000	4.00346E-003	3.59960E-001	-1.15264E+000	3.57690E+000	10	...........
	4	0.066667	6.75371E-001	5.99356E-003	0.00000E+000	4.04788E-003	3.59960E-001	-1.15368E+000	3.57690E+000	10	...........
	5	0.08	6.82799E-001	5.99745E-003	0.00000E+000	4.09506E-003	3.59960E-001	-1.16356E+000	3.57690E+000	10	...........
	6	0.093333	6.90078E-001	5.99491E-003	0.00000E+000	4.13695E-003	3.59960E-001	-1.15242E+000	3.57690E+000	10	...........
	7	0.106667	6.97313E-001	5.99163E-003	0.00000E+000	4.17805E-003	3.59960E-001	-1.15375E+000	3.57690E+000	10	...........
	8	0.12	7.04360E-001	5.99843E-003	0.00000E+000	4.22505E-003	3.59960E-001	-1.16339E+000	3.57690E+000	10	...........
	9	0.133333	7.11320E-001	5.99617E-003	0.00000E+000	4.26519E-003	3.59960E-001	-1.15255E+000	3.57690E+000	10	...........
	10	0.146667	7.18317E-001	5.99521E-003	0.00000E+000	4.30646E-003	3.59960E-001	-1.15370E+000	3.57690E+000	10	...........
	11	0.16	7.25216E-001	5.99207E-003	0.00000E+000	4.34555E-003	3.59960E-001	-1.16336E+000	3.57690E+000	10	...........
	12	0.173333	7.32049E-001	5.99429E-003	0.00000E+000	4.38811E-003	3.59960E-001	-1.15238E+000	3.57690E+000	10	...........
	13	0.186667	7.38866E-001	5.99517E-003	0.00000E+000	4.42963E-003	3.59960E-001	-1.15373E+000	3.57690E+000	10	...........
	14	0.2	7.45670E-001	5.99728E-003	0.00000E+000	4.47199E-003	3.59960E-001	-1.16344E+000	3.57690E+000	10	...........
	15	0.213333	7.52445E-001	5.99508E-003	0.00000E+000	4.51097E-003	3.59960E-001	-1.15222E+000	3.57690E+000	10	...........
	16	0.226667	7.59140E-001	5.99114E-003	0.00000E+000	4.54812E-003	3.59960E-001	-1.15372E+000	3.57690E+000	10	...........
	17	0.24	7.65905E-001	5.99675E-003	0.00000E+000	4.59294E-003	3.59960E-001	-1.16336E+000	3.57690E+000	10	...........
	18	0.253333	7.72574E-001	5.98996E-003	0.00000E+000	4.62769E-003	3.59960E-001	-1.15222E+000	3.57690E+000	10	...........
	19	0.266667	7.79212E-001	5.99514E-003	0.00000E+000	4.67148E-003	3.59960E-001	-1.15411E+000	3.57690E+000	10	...........
	20	0.28	7.85861E-001	5.99556E-003	0.00000E+000	4.71168E-003	3.59960E-001	-1.16332E+000	3.57690E+000	10	...........
	21	0.293333	7.92455E-001	5.99307E-003	0.00000E+000	4.74924E-003	3.59960E-001	-1.15230E+000	3.57690E+000	10	...........
	22	0.306667	7.99061E-001	5.99001E-003	0.00000E+000	4.78638E-003	3.59960E-001	-1.15414E+000	3.57690E+000	10	...........
	23	0.32	8.05596E-001	5.99028E-003	0.00000E+000	4.82574E-003	3.59960E-001	-1.16313E+000	3.57690E+000	10	...........
	24	0.333333	8.12165E-001	5.99164E-003	0.00000E+000	4.86620E-003	3.59960E-001	-1.15230E+000	3.57690E+000	10	...........
	25	0.346667	8.18748E-001	5.99870E-003	0.00000E+000	4.91143E-003	3.59960E-001	-1.15388E+000	3.57690E+000	10	...........
	26	0.36	8.25173E-001	5.99392E-003	0.00000E+000	4.94602E-003	3.59960E-001	-1.16291E+000	3.57690E+000	10	...........
	27	0.373333	8.31704E-001	5.99161E-003	0.00000E+000	4.98325E-003	3.59960E-001	-1.15189E+000	3.57690E+000	10	...........
	28	0.386667	8.38165E-001	5.99232E-003	0.00000E+000	5.02256E-003	3.59960E-001	-1.15365E+000	3.57690E+000	10	...........
	29	0.4	8.44648E-001	5.99496E-003	0.00000E+000	5.06363E-003	3.59960E-001	-1.16256E+000	3.57690E+000	10	...........
	30	0.413333	8.51073E-001	5.99497E-003	0.00000E+000	5.10216E-003	3.59960E-001	-1.15152E+000	3.57690E+000	10	...........
	31	0.426667	8.57453E-001	5.99298E-003	0.00000E+000	5.13869E-003	3.59960E-001	-1.15352E+000	3.57671E+000	10	...........
	32	0.44	8.63825E-001	5.99679E-003	0.00000E+000	5.18017E-003	3.59960E-001	-1.16262E+000	3.57660E+000	10	...........
	33	0.453333	8.70175E-001	5.99268E-003	0.00000E+000	5.21467E-003	3.59960E-001	-1.15170E+000	3.57660E+000	10	...........
	34	0.466667	8.76506E-001	5.99390E-003	0.00000E+000	5.25368E-003	3.59960E-001	-1.15381E+000	3.57660E+000	10	...........
	35	0.48	8.82836E-001	5.99458E-003	0.00000E+000	5.29223E-003	3.59960E-001	-1.16237E+000	3.57660E+000	10	...........
	36	0.493333	8.89122E-001	5.99351E-003	0.00000E+000	5.32896E-003	3.59960E-001	-1.15161E+000	3.57660E+000	10	...........
	37	0.506667	8.95382E-001	5.99351E-003	0.00000E+000	5.36648E-003	3.59960E-001	-1.15354E+000	3.57660E+000	10	...........
	38	0.52	9.01569E-001	5.99429E-003	0.00000E+000	5.40427E-003	3.59960E-001	-1.16250E+000	3.57660E+000	10	...........
	39	0.533333	9.07729E-001	5.99104E-003	0.00000E+000	5.43824E-003	3.59960E-001	-1.15150E+000	3.57660E+000	10	...........
	40	0.546667	9.13868E-001	5.99165E-003	0.00000E+000	5.47558E-003	3.59960E-001	-1.15377E+000	3.57660E+000	10	...........
	41	0.56	9.19994E-001	5.99733E-003	0.00000E+000	5.51751E-003	3.59960E-001	-1.16197E+000	3.57660E+000	10	...........
	42	0.573333	9.26077E-001	5.99415E-003	0.00000E+000	5.55104E-003	3.59960E-001	-1.15152E+000	3.57660E+000	10	...........
	43	0.586667	9.32088E-001	5.99619E-003	0.00000E+000	5.58897E-003	3.59960E-001	-1.15405E+000	3.57660E+000	10	...........
	44	0.6	9.38080E-001	5.99368E-003	0.00000E+000	5.62255E-003	3.59960E-001	-1.16236E+000	3.57660E+000	10	...........
	45	0.613333	9.44047E-001	5.99210E-003	0.00000E+000	5.65683E-003	3.59960E-001	-1.15149E+000	3.57660E+000	10	...........
	46	0.626667	9.49987E-001	5.99205E-003	0.00000E+000	5.69237E-003	3.59960E-001	-1.15381E+000	3.57660E+000	10	...........
	47	0.64	9.55870E-001	5.99130E-003	0.00000E+000	5.72690E-003	3.59960E-001	-1.16230E+000	3.57660E+000	10	...........
	48	0.653333	9.61674E-001	5.99603E-003	0.00000E+000	5.76623E-003	3.59960E-001	-1.15168E+000	3.57660E+000	10	...........
	49	0.666667	9.67449E-001	5.99003E-003	0.00000E+000	5.79505E-003	3.59960E-001	-1.15411E+000	3.57660E+000	10	...........
	50	0.68	9.73192E-001	5.99324E-003	0.00000E+000	5.83257E-003	3.59960E-001	-1.16217E+000	3.57660E+000	10	...........
	51	0.693333	9.78895E-001	5.99682E-003	0.00000E+000	5.87025E-003	3.59960E-001	-1.15122E+000	3.57660E+000	10	...........
	52	0.706667	9.84496E-001	5.99682E-003	0.00000E+000	5.90384E-003	3.59960E-001	-1.15374E+000	3.57660E+000	10	...........
	53	0.72	9.90094E-001	5.99180E-003	0.00000E+000	5.93244E-003	3.59960E-001	-1.16192E+000	3.57660E+000	10	...........
	54	0.733333	9.95611E-001	5.99040E-003	0.00000E+000	5.96411E-003	3.59960E-001	-1.15158E+000	3.57660E+000	10	...........
	55	0.738333	9.99434E-001	5.99549E-003	0.00000E+000	5.99209E-003	3.59960E-001	-1.16540E+000	3.57660E+000	10	...........
STARTTIMEOFFSET	QUANT	1143.062	Start Time Offset (s)