File: Data/CV_CRGO300517_1/PWRCCD_CRGO300517_1/CHARGE_DISCHARGE/CHARGE_#393.DTA
EXPLAIN
TAG	PWR800_CHARGE
TITLE	LABEL	PWR Cyclic Charge Discharge (Cell) - Charge Step	Test &Identifier
DATE	LABEL	22-6-2017	Date
TIME	LABEL	15:51:42	Time
NOTES	NOTES	3	&Notes...
	supercap test cell
	0.6mg
	6M KOH
PSTAT	PSTAT	IFC5000-01520	Potentiostat
CAPACITY	QUANT	1.00000E-003	Capacity (A-hr)
CELLTYPE	SELECTOR	1	&Cell Type
WORKINGCONNECTION	SELECTOR	0	&Working Lead
MAXCHARGETIME	VARIABLEANDUNITS	1.00000E+002	s	1.00000E+002	second(s)	Max &Charge Time
CHARGECURRENT	QUANT	6.00000E-003	&Charge Current (A)
VOLTAGEFINISH	TWOPARAM	F	1.00000E-003	3.60000E+003	&Voltage Finish	 I (A) < 	Max Time(s)
SAMPLETIME	QUANT	1.00000E-002	Sa&mple Period (s)
CHARGESTOPAT1	MULTIPARAM	4	1.00000E+000	Charge Stop At &1	Voltage > Limit	V
CHARGESTOPAT2	MULTIPARAM	0	0.00000E+000	Charge Stop At &2	None	N/A
AESBHCSELECTOR	TOGGLE	F	Save Both Half Cells
IRCOMP	TOGGLE	F	IR &Measure
EOC	QUANT	0	Open Circuit (V)
SEQUENCER	TOGGLE	TRUE	Run as Sequence
PSTATMODEL	IQUANT	53	Pstat Model
PSTATSECTION	LABEL	IFC5000-01520	Pstat Section
PSTATSERIALNO	LABEL	01520	Pstat Serial Number
CTRLMODE	IQUANT	0	Control Mode
ELECTROMETER	IQUANT	1	RE=0 or CS=1
IESTAB	IQUANT	0	I/E Stability
CASPEED	IQUANT	4	Control Amp Speed
CONVENTION	IQUANT	1	Current Convention
ICHRANGE	IQUANT	2	Ich Range
ICHRANGEMODE	TOGGLE	T	Ich Auto Range
ICHOFFSETENABLE	TOGGLE	F	Ich Offset Enable
ICHOFFSET	QUANT	0	Ich Offset (V)
ICHFILTER	IQUANT	1	Ich Filter
VCHRANGE	IQUANT	2	Vch Range
VCHRANGEMODE	TOGGLE	T	Vch Auto Range
VCHOFFSETENABLE	TOGGLE	F	Vch Offset Enable
VCHOFFSET	QUANT	0	Vch Offset (V)
VCHFILTER	IQUANT	1	Vch Filter
IERANGELOWERLIMIT	IQUANT	9	I/E Range Lower Limit
IERANGEMODE	TOGGLE	F	I/E AutoRange
IERANGE	IQUANT	10	I/E Range
ACHSELECT	IQUANT	1	Ach Select
ACHRANGE	IQUANT	2	Ach Range
ACHOFFSETENABLE	TOGGLE	F	Ach Offset Enable
ACHOFFSET	QUANT	0	Ach Offset (V)
ACHFILTER	IQUANT	1	Ach Filter
CABLEID	IQUANT	14	Cable ID
DCCALDATE	LABEL	20-10-2016	DC Calibration Date
ACCALDATE	LABEL	12/3/2015	AC Calibration Date
FRAMEWORKVERSION	QUANT	7.01	Framework Version
INSTRUMENTVERSION	LABEL	4.00	Instrument Version
CURVE	TABLE	60
	Pt	T	Vf	Im	Vu	Pwr	Sig	Ach	Temp	IERange	Over
	#	s	V	A	V	W	V	V	deg C	#	bits
	0	0.013333	6.24980E-001	5.99244E-003	0.00000E+000	3.74515E-003	3.59960E-001	-1.13281E+000	3.57750E+000	10	...........
	1	0.026667	6.33669E-001	5.99476E-003	0.00000E+000	3.79869E-003	3.59960E-001	-1.12352E+000	3.57750E+000	10	...........
	2	0.04	6.41667E-001	5.99455E-003	0.00000E+000	3.84650E-003	3.59960E-001	-1.12183E+000	3.57750E+000	10	...........
	3	0.053333	6.49274E-001	5.99138E-003	0.00000E+000	3.89005E-003	3.59960E-001	-1.13264E+000	3.57750E+000	10	...........
	4	0.066667	6.56640E-001	5.99613E-003	0.00000E+000	3.93729E-003	3.59960E-001	-1.12317E+000	3.57750E+000	10	...........
	5	0.08	6.63806E-001	5.99574E-003	0.00000E+000	3.98001E-003	3.59960E-001	-1.12129E+000	3.57750E+000	10	...........
	6	0.093333	6.70761E-001	5.99280E-003	0.00000E+000	4.01974E-003	3.59960E-001	-1.13238E+000	3.57750E+000	10	...........
	7	0.106667	6.77724E-001	5.99556E-003	0.00000E+000	4.06334E-003	3.59960E-001	-1.12308E+000	3.57750E+000	10	...........
	8	0.12	6.84485E-001	5.99438E-003	0.00000E+000	4.10306E-003	3.59960E-001	-1.12117E+000	3.57750E+000	10	...........
	9	0.133333	6.91217E-001	5.99109E-003	0.00000E+000	4.14114E-003	3.59960E-001	-1.13236E+000	3.57750E+000	10	...........
	10	0.146667	6.97905E-001	5.99558E-003	0.00000E+000	4.18434E-003	3.59960E-001	-1.12265E+000	3.57750E+000	10	...........
	11	0.16	7.04498E-001	5.99131E-003	0.00000E+000	4.22087E-003	3.59960E-001	-1.12094E+000	3.57750E+000	10	...........
	12	0.173333	7.11101E-001	5.99200E-003	0.00000E+000	4.26091E-003	3.59960E-001	-1.13212E+000	3.57750E+000	10	...........
	13	0.186667	7.17682E-001	5.99105E-003	0.00000E+000	4.29967E-003	3.59960E-001	-1.12298E+000	3.57750E+000	10	...........
	14	0.2	7.24213E-001	5.99737E-003	0.00000E+000	4.34337E-003	3.59960E-001	-1.12099E+000	3.57750E+000	10	...........
	15	0.213333	7.30692E-001	5.99587E-003	0.00000E+000	4.38113E-003	3.59960E-001	-1.13192E+000	3.57750E+000	10	...........
	16	0.226667	7.37184E-001	5.99679E-003	0.00000E+000	4.42074E-003	3.59960E-001	-1.12254E+000	3.57740E+000	10	...........
	17	0.24	7.43709E-001	5.99566E-003	0.00000E+000	4.45903E-003	3.59960E-001	-1.12086E+000	3.57730E+000	10	...........
	18	0.253333	7.50127E-001	5.99028E-003	0.00000E+000	4.49347E-003	3.59960E-001	-1.13219E+000	3.57730E+000	10	...........
	19	0.266667	7.56580E-001	5.99736E-003	0.00000E+000	4.53748E-003	3.59960E-001	-1.12293E+000	3.57730E+000	10	...........
	20	0.28	7.62979E-001	5.99318E-003	0.00000E+000	4.57267E-003	3.59960E-001	-1.12100E+000	3.57730E+000	10	...........
	21	0.293333	7.69376E-001	5.99827E-003	0.00000E+000	4.61492E-003	3.59960E-001	-1.13210E+000	3.57730E+000	10	...........
	22	0.306667	7.75745E-001	5.99263E-003	0.00000E+000	4.64875E-003	3.59960E-001	-1.12271E+000	3.57730E+000	10	...........
	23	0.32	7.82056E-001	5.99402E-003	0.00000E+000	4.68766E-003	3.59960E-001	-1.12127E+000	3.57730E+000	10	...........
	24	0.333333	7.88403E-001	6.00071E-003	0.00000E+000	4.73098E-003	3.59960E-001	-1.13218E+000	3.57730E+000	10	...........
	25	0.346667	7.94812E-001	5.99642E-003	0.00000E+000	4.76603E-003	3.59960E-001	-1.12275E+000	3.57730E+000	10	...........
	26	0.36	8.01150E-001	5.98916E-003	0.00000E+000	4.79822E-003	3.59960E-001	-1.12085E+000	3.57730E+000	10	...........
	27	0.373333	8.07442E-001	5.99374E-003	0.00000E+000	4.83959E-003	3.59960E-001	-1.13191E+000	3.57730E+000	10	...........
	28	0.386667	8.13783E-001	5.99495E-003	0.00000E+000	4.87859E-003	3.59960E-001	-1.12237E+000	3.57730E+000	10	...........
	29	0.4	8.20112E-001	5.99635E-003	0.00000E+000	4.91768E-003	3.59960E-001	-1.12084E+000	3.57730E+000	10	...........
	30	0.413333	8.26405E-001	5.99627E-003	0.00000E+000	4.95535E-003	3.59960E-001	-1.13161E+000	3.57730E+000	10	...........
	31	0.426667	8.32647E-001	5.99574E-003	0.00000E+000	4.99234E-003	3.59960E-001	-1.12228E+000	3.57730E+000	10	...........
	32	0.44	8.38859E-001	5.99400E-003	0.00000E+000	5.02812E-003	3.59960E-001	-1.12060E+000	3.57730E+000	10	...........
	33	0.453333	8.45138E-001	5.99161E-003	0.00000E+000	5.06374E-003	3.59960E-001	-1.13184E+000	3.57730E+000	10	...........
	34	0.466667	8.51383E-001	5.99685E-003	0.00000E+000	5.10561E-003	3.59960E-001	-1.12233E+000	3.57730E+000	10	...........
	35	0.48	8.57601E-001	5.99184E-003	0.00000E+000	5.13861E-003	3.59960E-001	-1.12030E+000	3.57730E+000	10	...........
	36	0.493333	8.63774E-001	5.99211E-003	0.00000E+000	5.17583E-003	3.59960E-001	-1.13147E+000	3.57730E+000	10	...........
	37	0.506667	8.69972E-001	5.99401E-003	0.00000E+000	5.21462E-003	3.59960E-001	-1.12241E+000	3.57730E+000	10	...........
	38	0.52	8.76117E-001	5.99385E-003	0.00000E+000	5.25132E-003	3.59960E-001	-1.12052E+000	3.57730E+000	10	...........
	39	0.533333	8.82275E-001	5.99494E-003	0.00000E+000	5.28919E-003	3.59960E-001	-1.13156E+000	3.57730E+000	10	...........
	40	0.546667	8.88383E-001	5.99213E-003	0.00000E+000	5.32331E-003	3.59960E-001	-1.12195E+000	3.57730E+000	10	...........
	41	0.56	8.94420E-001	5.98841E-003	0.00000E+000	5.35615E-003	3.59960E-001	-1.12016E+000	3.57730E+000	10	...........
	42	0.573333	9.00495E-001	5.99974E-003	0.00000E+000	5.40273E-003	3.59960E-001	-1.13136E+000	3.57730E+000	10	...........
	43	0.586667	9.06499E-001	5.99322E-003	0.00000E+000	5.43285E-003	3.59960E-001	-1.12212E+000	3.57730E+000	10	...........
	44	0.6	9.12517E-001	5.99256E-003	0.00000E+000	5.46831E-003	3.59960E-001	-1.12039E+000	3.57730E+000	10	...........
	45	0.613333	9.18494E-001	5.99647E-003	0.00000E+000	5.50772E-003	3.59960E-001	-1.13136E+000	3.57730E+000	10	...........
	46	0.626667	9.24471E-001	5.99819E-003	0.00000E+000	5.54516E-003	3.59960E-001	-1.12227E+000	3.57730E+000	10	...........
	47	0.64	9.30381E-001	5.99338E-003	0.00000E+000	5.57613E-003	3.59960E-001	-1.12045E+000	3.57730E+000	10	...........
	48	0.653333	9.36267E-001	5.99174E-003	0.00000E+000	5.60986E-003	3.59960E-001	-1.13170E+000	3.57730E+000	10	...........
	49	0.666667	9.42115E-001	5.99159E-003	0.00000E+000	5.64477E-003	3.59960E-001	-1.12210E+000	3.57730E+000	10	...........
	50	0.68	9.47971E-001	5.99576E-003	0.00000E+000	5.68381E-003	3.59960E-001	-1.12027E+000	3.57730E+000	10	...........
	51	0.693333	9.53697E-001	5.98953E-003	0.00000E+000	5.71219E-003	3.59960E-001	-1.13103E+000	3.57730E+000	10	...........
	52	0.706667	9.59415E-001	5.99601E-003	0.00000E+000	5.75267E-003	3.59960E-001	-1.12153E+000	3.57730E+000	10	...........
	53	0.72	9.65127E-001	5.99510E-003	0.00000E+000	5.78603E-003	3.59960E-001	-1.11991E+000	3.57730E+000	10	...........
	54	0.733333	9.70777E-001	5.99361E-003	0.00000E+000	5.81846E-003	3.59960E-001	-1.13097E+000	3.57730E+000	10	...........
	55	0.746667	9.76403E-001	5.99306E-003	0.00000E+000	5.85164E-003	3.59960E-001	-1.12162E+000	3.57730E+000	10	...........
	56	0.76	9.82000E-001	5.99233E-003	0.00000E+000	5.88447E-003	3.59960E-001	-1.11992E+000	3.57730E+000	10	...........
	57	0.773333	9.87571E-001	5.99713E-003	0.00000E+000	5.92259E-003	3.59960E-001	-1.13094E+000	3.57730E+000	10	...........
	58	0.786667	9.93071E-001	5.99498E-003	0.00000E+000	5.95344E-003	3.59960E-001	-1.12166E+000	3.57730E+000	10	...........
	59	0.798333	9.98156E-001	5.99685E-003	0.00000E+000	5.98580E-003	3.59960E-001	-1.12048E+000	3.57730E+000	10	...........
STARTTIMEOFFSET	QUANT	691.5434	Start Time Offset (s)