File: Data/CV_CRGO300517_1/PWRCCD_CRGO300517_1/CHARGE_DISCHARGE/CHARGE_#570.DTA
EXPLAIN
TAG	PWR800_CHARGE
TITLE	LABEL	PWR Cyclic Charge Discharge (Cell) - Charge Step	Test &Identifier
DATE	LABEL	22-6-2017	Date
TIME	LABEL	15:58:37	Time
NOTES	NOTES	3	&Notes...
	supercap test cell
	0.6mg
	6M KOH
PSTAT	PSTAT	IFC5000-01520	Potentiostat
CAPACITY	QUANT	1.00000E-003	Capacity (A-hr)
CELLTYPE	SELECTOR	1	&Cell Type
WORKINGCONNECTION	SELECTOR	0	&Working Lead
MAXCHARGETIME	VARIABLEANDUNITS	1.00000E+002	s	1.00000E+002	second(s)	Max &Charge Time
CHARGECURRENT	QUANT	6.00000E-003	&Charge Current (A)
VOLTAGEFINISH	TWOPARAM	F	1.00000E-003	3.60000E+003	&Voltage Finish	 I (A) < 	Max Time(s)
SAMPLETIME	QUANT	1.00000E-002	Sa&mple Period (s)
CHARGESTOPAT1	MULTIPARAM	4	1.00000E+000	Charge Stop At &1	Voltage > Limit	V
CHARGESTOPAT2	MULTIPARAM	0	0.00000E+000	Charge Stop At &2	None	N/A
AESBHCSELECTOR	TOGGLE	F	Save Both Half Cells
IRCOMP	TOGGLE	F	IR &Measure
EOC	QUANT	0	Open Circuit (V)
SEQUENCER	TOGGLE	TRUE	Run as Sequence
PSTATMODEL	IQUANT	53	Pstat Model
PSTATSECTION	LABEL	IFC5000-01520	Pstat Section
PSTATSERIALNO	LABEL	01520	Pstat Serial Number
CTRLMODE	IQUANT	0	Control Mode
ELECTROMETER	IQUANT	1	RE=0 or CS=1
IESTAB	IQUANT	0	I/E Stability
CASPEED	IQUANT	4	Control Amp Speed
CONVENTION	IQUANT	1	Current Convention
ICHRANGE	IQUANT	2	Ich Range
ICHRANGEMODE	TOGGLE	T	Ich Auto Range
ICHOFFSETENABLE	TOGGLE	F	Ich Offset Enable
ICHOFFSET	QUANT	0	Ich Offset (V)
ICHFILTER	IQUANT	1	Ich Filter
VCHRANGE	IQUANT	2	Vch Range
VCHRANGEMODE	TOGGLE	T	Vch Auto Range
VCHOFFSETENABLE	TOGGLE	F	Vch Offset Enable
VCHOFFSET	QUANT	0	Vch Offset (V)
VCHFILTER	IQUANT	1	Vch Filter
IERANGELOWERLIMIT	IQUANT	9	I/E Range Lower Limit
IERANGEMODE	TOGGLE	F	I/E AutoRange
IERANGE	IQUANT	10	I/E Range
ACHSELECT	IQUANT	1	Ach Select
ACHRANGE	IQUANT	2	Ach Range
ACHOFFSETENABLE	TOGGLE	F	Ach Offset Enable
ACHOFFSET	QUANT	0	Ach Offset (V)
ACHFILTER	IQUANT	1	Ach Filter
CABLEID	IQUANT	14	Cable ID
DCCALDATE	LABEL	20-10-2016	DC Calibration Date
ACCALDATE	LABEL	12/3/2015	AC Calibration Date
FRAMEWORKVERSION	QUANT	7.01	Framework Version
INSTRUMENTVERSION	LABEL	4.00	Instrument Version
CURVE	TABLE	57
	Pt	T	Vf	Im	Vu	Pwr	Sig	Ach	Temp	IERange	Over
	#	s	V	A	V	W	V	V	deg C	#	bits
	0	0.013333	6.36006E-001	5.99748E-003	0.00000E+000	3.81443E-003	3.59960E-001	-1.15408E+000	3.57670E+000	10	...........
	1	0.026667	6.44990E-001	5.99768E-003	0.00000E+000	3.86845E-003	3.59960E-001	-1.14338E+000	3.57670E+000	10	...........
	2	0.04	6.53258E-001	5.99546E-003	0.00000E+000	3.91658E-003	3.59960E-001	-1.14440E+000	3.57670E+000	10	...........
	3	0.053333	6.61034E-001	5.99370E-003	0.00000E+000	3.96204E-003	3.59960E-001	-1.15418E+000	3.57670E+000	10	...........
	4	0.066667	6.68583E-001	5.99462E-003	0.00000E+000	4.00790E-003	3.59960E-001	-1.14320E+000	3.57670E+000	10	...........
	5	0.08	6.75897E-001	5.99476E-003	0.00000E+000	4.05184E-003	3.59960E-001	-1.14429E+000	3.57670E+000	10	...........
	6	0.093333	6.83066E-001	5.99286E-003	0.00000E+000	4.09352E-003	3.59960E-001	-1.15371E+000	3.57670E+000	10	...........
	7	0.106667	6.90163E-001	5.99403E-003	0.00000E+000	4.13686E-003	3.59960E-001	-1.14317E+000	3.57670E+000	10	...........
	8	0.12	6.97152E-001	5.99207E-003	0.00000E+000	4.17738E-003	3.59960E-001	-1.14460E+000	3.57670E+000	10	...........
	9	0.133333	7.04058E-001	5.99632E-003	0.00000E+000	4.22176E-003	3.59960E-001	-1.15399E+000	3.57670E+000	10	...........
	10	0.146667	7.10866E-001	5.99317E-003	0.00000E+000	4.26034E-003	3.59960E-001	-1.14337E+000	3.57670E+000	10	...........
	11	0.16	7.17755E-001	5.99516E-003	0.00000E+000	4.30305E-003	3.59960E-001	-1.14434E+000	3.57670E+000	10	...........
	12	0.173333	7.24547E-001	5.99293E-003	0.00000E+000	4.34216E-003	3.59960E-001	-1.15371E+000	3.57670E+000	10	...........
	13	0.186667	7.31237E-001	5.99174E-003	0.00000E+000	4.38138E-003	3.59960E-001	-1.14324E+000	3.57670E+000	10	...........
	14	0.2	7.37890E-001	5.99271E-003	0.00000E+000	4.42196E-003	3.59960E-001	-1.14429E+000	3.57670E+000	10	...........
	15	0.213333	7.44568E-001	5.99171E-003	0.00000E+000	4.46123E-003	3.59960E-001	-1.15336E+000	3.57670E+000	10	...........
	16	0.226667	7.51218E-001	5.99482E-003	0.00000E+000	4.50342E-003	3.59960E-001	-1.14237E+000	3.57670E+000	10	...........
	17	0.24	7.57832E-001	5.99622E-003	0.00000E+000	4.54413E-003	3.59960E-001	-1.14364E+000	3.57670E+000	10	...........
	18	0.253333	7.64413E-001	5.98954E-003	0.00000E+000	4.57848E-003	3.59960E-001	-1.15331E+000	3.57670E+000	10	...........
	19	0.266667	7.70989E-001	5.99347E-003	0.00000E+000	4.62090E-003	3.59960E-001	-1.14264E+000	3.57670E+000	10	...........
	20	0.28	7.77534E-001	5.99385E-003	0.00000E+000	4.66043E-003	3.59960E-001	-1.14368E+000	3.57670E+000	10	...........
	21	0.293333	7.84079E-001	5.99795E-003	0.00000E+000	4.70287E-003	3.59960E-001	-1.15309E+000	3.57670E+000	10	...........
	22	0.306667	7.90557E-001	5.99004E-003	0.00000E+000	4.73546E-003	3.59960E-001	-1.14252E+000	3.57670E+000	10	...........
	23	0.32	7.97088E-001	5.99477E-003	0.00000E+000	4.77836E-003	3.59960E-001	-1.14391E+000	3.57670E+000	10	...........
	24	0.333333	8.03539E-001	5.99092E-003	0.00000E+000	4.81394E-003	3.59960E-001	-1.15319E+000	3.57670E+000	10	...........
	25	0.346667	8.10000E-001	5.99516E-003	0.00000E+000	4.85608E-003	3.59960E-001	-1.14245E+000	3.57670E+000	10	...........
	26	0.36	8.16421E-001	5.99751E-003	0.00000E+000	4.89649E-003	3.59960E-001	-1.14371E+000	3.57670E+000	10	...........
	27	0.373333	8.22858E-001	5.99304E-003	0.00000E+000	4.93142E-003	3.59960E-001	-1.15294E+000	3.57670E+000	10	...........
	28	0.386667	8.29225E-001	5.98848E-003	0.00000E+000	4.96580E-003	3.59960E-001	-1.14252E+000	3.57670E+000	10	...........
	29	0.4	8.35641E-001	5.99207E-003	0.00000E+000	5.00722E-003	3.59960E-001	-1.14384E+000	3.57670E+000	10	...........
	30	0.413333	8.42019E-001	5.99502E-003	0.00000E+000	5.04792E-003	3.59960E-001	-1.15280E+000	3.57670E+000	10	...........
	31	0.426667	8.48429E-001	5.99576E-003	0.00000E+000	5.08698E-003	3.59960E-001	-1.14221E+000	3.57670E+000	10	...........
	32	0.44	8.54775E-001	5.99410E-003	0.00000E+000	5.12361E-003	3.59960E-001	-1.14373E+000	3.57670E+000	10	...........
	33	0.453333	8.61075E-001	5.99282E-003	0.00000E+000	5.16027E-003	3.59960E-001	-1.15306E+000	3.57670E+000	10	...........
	34	0.466667	8.67360E-001	5.99087E-003	0.00000E+000	5.19624E-003	3.59960E-001	-1.14266E+000	3.57670E+000	10	...........
	35	0.48	8.73666E-001	5.99157E-003	0.00000E+000	5.23463E-003	3.59960E-001	-1.14387E+000	3.57670E+000	10	...........
	36	0.493333	8.79892E-001	5.99547E-003	0.00000E+000	5.27537E-003	3.59960E-001	-1.15295E+000	3.57670E+000	10	...........
	37	0.506667	8.86124E-001	5.99575E-003	0.00000E+000	5.31298E-003	3.59960E-001	-1.14245E+000	3.57670E+000	10	...........
	38	0.52	8.92352E-001	5.99905E-003	0.00000E+000	5.35326E-003	3.59960E-001	-1.14385E+000	3.57670E+000	10	...........
	39	0.533333	8.98541E-001	5.99632E-003	0.00000E+000	5.38794E-003	3.59960E-001	-1.15274E+000	3.57670E+000	10	...........
	40	0.546667	9.04662E-001	5.99324E-003	0.00000E+000	5.42186E-003	3.59960E-001	-1.14197E+000	3.57670E+000	10	...........
	41	0.56	9.10726E-001	5.99448E-003	0.00000E+000	5.45933E-003	3.59960E-001	-1.14334E+000	3.57670E+000	10	...........
	42	0.573333	9.16787E-001	5.99373E-003	0.00000E+000	5.49497E-003	3.59960E-001	-1.15262E+000	3.57670E+000	10	...........
	43	0.586667	9.22909E-001	5.98946E-003	0.00000E+000	5.52773E-003	3.59960E-001	-1.14214E+000	3.57670E+000	10	...........
	44	0.6	9.28936E-001	5.99444E-003	0.00000E+000	5.56845E-003	3.59960E-001	-1.14360E+000	3.57670E+000	10	...........
	45	0.613333	9.34869E-001	5.99128E-003	0.00000E+000	5.60106E-003	3.59960E-001	-1.15262E+000	3.57670E+000	10	...........
	46	0.626667	9.40802E-001	5.99648E-003	0.00000E+000	5.64150E-003	3.59960E-001	-1.14179E+000	3.57670E+000	10	...........
	47	0.64	9.46742E-001	5.99786E-003	0.00000E+000	5.67842E-003	3.59960E-001	-1.14348E+000	3.57670E+000	10	...........
	48	0.653333	9.52608E-001	5.99748E-003	0.00000E+000	5.71325E-003	3.59960E-001	-1.15262E+000	3.57670E+000	10	...........
	49	0.666667	9.58424E-001	5.99323E-003	0.00000E+000	5.74405E-003	3.59960E-001	-1.14207E+000	3.57670E+000	10	...........
	50	0.68	9.64144E-001	5.99689E-003	0.00000E+000	5.78187E-003	3.59960E-001	-1.14334E+000	3.57670E+000	10	...........
	51	0.693333	9.69897E-001	5.99113E-003	0.00000E+000	5.81078E-003	3.59960E-001	-1.15226E+000	3.57670E+000	10	...........
	52	0.706667	9.75615E-001	5.99754E-003	0.00000E+000	5.85129E-003	3.59960E-001	-1.14174E+000	3.57670E+000	10	...........
	53	0.72	9.81203E-001	5.99349E-003	0.00000E+000	5.88083E-003	3.59960E-001	-1.14347E+000	3.57670E+000	10	...........
	54	0.733333	9.86778E-001	5.99101E-003	0.00000E+000	5.91179E-003	3.59960E-001	-1.15234E+000	3.57670E+000	10	...........
	55	0.746667	9.92320E-001	5.99504E-003	0.00000E+000	5.94900E-003	3.59960E-001	-1.14176E+000	3.57670E+000	10	...........
	56	0.76	9.97839E-001	5.99625E-003	0.00000E+000	5.98330E-003	3.59960E-001	-1.14354E+000	3.57670E+000	10	...........
STARTTIMEOFFSET	QUANT	965.789	Start Time Offset (s)