File: Data/CV_CRGO300517_1/PWRCCD_CRGO300517_1/CHARGE_DISCHARGE/CHARGE_#989.DTA
EXPLAIN
TAG	PWR800_CHARGE
TITLE	LABEL	PWR Cyclic Charge Discharge (Cell) - Charge Step	Test &Identifier
DATE	LABEL	22-6-2017	Date
TIME	LABEL	16:14:14	Time
NOTES	NOTES	3	&Notes...
	supercap test cell
	0.6mg
	6M KOH
PSTAT	PSTAT	IFC5000-01520	Potentiostat
CAPACITY	QUANT	1.00000E-003	Capacity (A-hr)
CELLTYPE	SELECTOR	1	&Cell Type
WORKINGCONNECTION	SELECTOR	0	&Working Lead
MAXCHARGETIME	VARIABLEANDUNITS	1.00000E+002	s	1.00000E+002	second(s)	Max &Charge Time
CHARGECURRENT	QUANT	6.00000E-003	&Charge Current (A)
VOLTAGEFINISH	TWOPARAM	F	1.00000E-003	3.60000E+003	&Voltage Finish	 I (A) < 	Max Time(s)
SAMPLETIME	QUANT	1.00000E-002	Sa&mple Period (s)
CHARGESTOPAT1	MULTIPARAM	4	1.00000E+000	Charge Stop At &1	Voltage > Limit	V
CHARGESTOPAT2	MULTIPARAM	0	0.00000E+000	Charge Stop At &2	None	N/A
AESBHCSELECTOR	TOGGLE	F	Save Both Half Cells
IRCOMP	TOGGLE	F	IR &Measure
EOC	QUANT	0	Open Circuit (V)
SEQUENCER	TOGGLE	TRUE	Run as Sequence
PSTATMODEL	IQUANT	53	Pstat Model
PSTATSECTION	LABEL	IFC5000-01520	Pstat Section
PSTATSERIALNO	LABEL	01520	Pstat Serial Number
CTRLMODE	IQUANT	0	Control Mode
ELECTROMETER	IQUANT	1	RE=0 or CS=1
IESTAB	IQUANT	0	I/E Stability
CASPEED	IQUANT	4	Control Amp Speed
CONVENTION	IQUANT	1	Current Convention
ICHRANGE	IQUANT	2	Ich Range
ICHRANGEMODE	TOGGLE	T	Ich Auto Range
ICHOFFSETENABLE	TOGGLE	F	Ich Offset Enable
ICHOFFSET	QUANT	0	Ich Offset (V)
ICHFILTER	IQUANT	1	Ich Filter
VCHRANGE	IQUANT	2	Vch Range
VCHRANGEMODE	TOGGLE	T	Vch Auto Range
VCHOFFSETENABLE	TOGGLE	F	Vch Offset Enable
VCHOFFSET	QUANT	0	Vch Offset (V)
VCHFILTER	IQUANT	1	Vch Filter
IERANGELOWERLIMIT	IQUANT	9	I/E Range Lower Limit
IERANGEMODE	TOGGLE	F	I/E AutoRange
IERANGE	IQUANT	10	I/E Range
ACHSELECT	IQUANT	1	Ach Select
ACHRANGE	IQUANT	2	Ach Range
ACHOFFSETENABLE	TOGGLE	F	Ach Offset Enable
ACHOFFSET	QUANT	0	Ach Offset (V)
ACHFILTER	IQUANT	1	Ach Filter
CABLEID	IQUANT	14	Cable ID
DCCALDATE	LABEL	20-10-2016	DC Calibration Date
ACCALDATE	LABEL	12/3/2015	AC Calibration Date
FRAMEWORKVERSION	QUANT	7.01	Framework Version
INSTRUMENTVERSION	LABEL	4.00	Instrument Version
CURVE	TABLE	53
	Pt	T	Vf	Im	Vu	Pwr	Sig	Ach	Temp	IERange	Over
	#	s	V	A	V	W	V	V	deg C	#	bits
	0	0.013333	6.56778E-001	5.99482E-003	0.00000E+000	3.93727E-003	3.59960E-001	-1.18482E+000	3.57780E+000	10	...........
	1	0.026667	6.66087E-001	5.99343E-003	0.00000E+000	3.99214E-003	3.59960E-001	-1.17434E+000	3.57780E+000	10	...........
	2	0.04	6.74696E-001	5.99967E-003	0.00000E+000	4.04796E-003	3.59960E-001	-1.17405E+000	3.57780E+000	10	...........
	3	0.053333	6.82834E-001	5.99646E-003	0.00000E+000	4.09459E-003	3.59960E-001	-1.18469E+000	3.57780E+000	10	...........
	4	0.066667	6.90707E-001	5.99347E-003	0.00000E+000	4.13973E-003	3.59960E-001	-1.17409E+000	3.57780E+000	10	...........
	5	0.08	6.98346E-001	5.99518E-003	0.00000E+000	4.18671E-003	3.59960E-001	-1.17401E+000	3.57780E+000	10	...........
	6	0.093333	7.05836E-001	5.99258E-003	0.00000E+000	4.22978E-003	3.59960E-001	-1.18494E+000	3.57780E+000	10	...........
	7	0.106667	7.13198E-001	5.99148E-003	0.00000E+000	4.27311E-003	3.59960E-001	-1.17424E+000	3.57780E+000	10	...........
	8	0.12	7.20524E-001	5.98966E-003	0.00000E+000	4.31570E-003	3.59960E-001	-1.17434E+000	3.57780E+000	10	...........
	9	0.133333	7.27752E-001	5.99664E-003	0.00000E+000	4.36407E-003	3.59960E-001	-1.18489E+000	3.57780E+000	10	...........
	10	0.146667	7.34882E-001	5.99395E-003	0.00000E+000	4.40485E-003	3.59960E-001	-1.17405E+000	3.57780E+000	10	...........
	11	0.16	7.42000E-001	5.99311E-003	0.00000E+000	4.44689E-003	3.59960E-001	-1.17413E+000	3.57780E+000	10	...........
	12	0.173333	7.49057E-001	5.99443E-003	0.00000E+000	4.49017E-003	3.59960E-001	-1.18487E+000	3.57780E+000	10	...........
	13	0.186667	7.56081E-001	5.99868E-003	0.00000E+000	4.53549E-003	3.59960E-001	-1.17407E+000	3.57780E+000	10	...........
	14	0.2	7.63005E-001	5.99080E-003	0.00000E+000	4.57101E-003	3.59960E-001	-1.17416E+000	3.57780E+000	10	...........
	15	0.213333	7.69963E-001	5.99666E-003	0.00000E+000	4.61720E-003	3.59960E-001	-1.18472E+000	3.57780E+000	10	...........
	16	0.226667	7.76851E-001	5.99346E-003	0.00000E+000	4.65603E-003	3.59960E-001	-1.17405E+000	3.57780E+000	10	...........
	17	0.24	7.83718E-001	5.99314E-003	0.00000E+000	4.69693E-003	3.59960E-001	-1.17417E+000	3.57780E+000	10	...........
	18	0.253333	7.90525E-001	5.99166E-003	0.00000E+000	4.73656E-003	3.59960E-001	-1.18466E+000	3.57780E+000	10	...........
	19	0.266667	7.97353E-001	5.99560E-003	0.00000E+000	4.78060E-003	3.59960E-001	-1.17377E+000	3.57780E+000	10	...........
	20	0.28	8.04103E-001	5.99326E-003	0.00000E+000	4.81920E-003	3.59960E-001	-1.17411E+000	3.57780E+000	10	...........
	21	0.293333	8.10889E-001	5.99387E-003	0.00000E+000	4.86037E-003	3.59960E-001	-1.18475E+000	3.57780E+000	10	...........
	22	0.306667	8.17587E-001	5.99619E-003	0.00000E+000	4.90240E-003	3.59960E-001	-1.17375E+000	3.57780E+000	10	...........
	23	0.32	8.24300E-001	5.99124E-003	0.00000E+000	4.93858E-003	3.59960E-001	-1.17406E+000	3.57780E+000	10	...........
	24	0.333333	8.30992E-001	5.99153E-003	0.00000E+000	4.97891E-003	3.59960E-001	-1.18428E+000	3.57780E+000	10	...........
	25	0.346667	8.37633E-001	5.99487E-003	0.00000E+000	5.02150E-003	3.59960E-001	-1.17332E+000	3.57780E+000	10	...........
	26	0.36	8.44263E-001	5.99513E-003	0.00000E+000	5.06146E-003	3.59960E-001	-1.17401E+000	3.57780E+000	10	...........
	27	0.373333	8.50840E-001	5.99235E-003	0.00000E+000	5.09853E-003	3.59960E-001	-1.18433E+000	3.57780E+000	10	...........
	28	0.386667	8.57396E-001	5.99450E-003	0.00000E+000	5.13966E-003	3.59960E-001	-1.17333E+000	3.57780E+000	10	...........
	29	0.4	8.63925E-001	5.99290E-003	0.00000E+000	5.17742E-003	3.59960E-001	-1.17389E+000	3.57780E+000	10	...........
	30	0.413333	8.70461E-001	5.99485E-003	0.00000E+000	5.21828E-003	3.59960E-001	-1.18436E+000	3.57780E+000	10	...........
	31	0.426667	8.76918E-001	5.99525E-003	0.00000E+000	5.25735E-003	3.59960E-001	-1.17326E+000	3.57780E+000	10	...........
	32	0.44	8.83378E-001	5.99375E-003	0.00000E+000	5.29475E-003	3.59960E-001	-1.17436E+000	3.57780E+000	10	...........
	33	0.453333	8.89794E-001	5.99721E-003	0.00000E+000	5.33629E-003	3.59960E-001	-1.18438E+000	3.57780E+000	10	...........
	34	0.466667	8.96179E-001	5.99427E-003	0.00000E+000	5.37194E-003	3.59960E-001	-1.17310E+000	3.57780E+000	10	...........
	35	0.48	9.02508E-001	5.98901E-003	0.00000E+000	5.40513E-003	3.59960E-001	-1.17403E+000	3.57780E+000	10	...........
	36	0.493333	9.08756E-001	5.99227E-003	0.00000E+000	5.44551E-003	3.59960E-001	-1.18416E+000	3.57780E+000	10	...........
	37	0.506667	9.14998E-001	5.99528E-003	0.00000E+000	5.48567E-003	3.59960E-001	-1.17317E+000	3.57780E+000	10	...........
	38	0.52	9.21231E-001	5.99733E-003	0.00000E+000	5.52492E-003	3.59960E-001	-1.17428E+000	3.57780E+000	10	...........
	39	0.533333	9.27391E-001	5.99644E-003	0.00000E+000	5.56104E-003	3.59960E-001	-1.18409E+000	3.57780E+000	10	...........
	40	0.546667	9.33493E-001	5.99211E-003	0.00000E+000	5.59360E-003	3.59960E-001	-1.17297E+000	3.57780E+000	10	...........
	41	0.56	9.39547E-001	5.99397E-003	0.00000E+000	5.63161E-003	3.59960E-001	-1.17427E+000	3.57780E+000	10	...........
	42	0.573333	9.45583E-001	5.99330E-003	0.00000E+000	5.66716E-003	3.59960E-001	-1.18414E+000	3.57780E+000	10	...........
	43	0.586667	9.51577E-001	5.99444E-003	0.00000E+000	5.70417E-003	3.59960E-001	-1.17294E+000	3.57780E+000	10	...........
	44	0.6	9.57467E-001	5.99603E-003	0.00000E+000	5.74100E-003	3.59960E-001	-1.17422E+000	3.57780E+000	10	...........
	45	0.613333	9.63375E-001	5.99602E-003	0.00000E+000	5.77642E-003	3.59960E-001	-1.18412E+000	3.57780E+000	10	...........
	46	0.626667	9.69158E-001	5.99618E-003	0.00000E+000	5.81124E-003	3.59960E-001	-1.17301E+000	3.57780E+000	10	...........
	47	0.64	9.75001E-001	5.99499E-003	0.00000E+000	5.84512E-003	3.59960E-001	-1.17420E+000	3.57780E+000	10	...........
	48	0.653333	9.80737E-001	5.99499E-003	0.00000E+000	5.87951E-003	3.59960E-001	-1.18373E+000	3.57780E+000	10	...........
	49	0.666667	9.86379E-001	5.98785E-003	0.00000E+000	5.90629E-003	3.59960E-001	-1.17258E+000	3.57780E+000	10	...........
	50	0.68	9.92024E-001	5.99413E-003	0.00000E+000	5.94631E-003	3.59960E-001	-1.17420E+000	3.57780E+000	10	...........
	51	0.693333	9.97576E-001	5.99589E-003	0.00000E+000	5.98135E-003	3.59960E-001	-1.18376E+000	3.57780E+000	10	...........
	52	0.695	1.00071E+000	6.00940E-003	0.00000E+000	6.01369E-003	3.59960E-001	-1.17100E+000	3.57780E+000	10	...........
STARTTIMEOFFSET	QUANT	1570.074	Start Time Offset (s)