File: Data/CV_CRGO300517_1/PWRCCD_CRGO300517_1/CHARGE_DISCHARGE/CHARGE_#980.DTA
EXPLAIN
TAG	PWR800_CHARGE
TITLE	LABEL	PWR Cyclic Charge Discharge (Cell) - Charge Step	Test &Identifier
DATE	LABEL	22-6-2017	Date
TIME	LABEL	16:13:54	Time
NOTES	NOTES	3	&Notes...
	supercap test cell
	0.6mg
	6M KOH
PSTAT	PSTAT	IFC5000-01520	Potentiostat
CAPACITY	QUANT	1.00000E-003	Capacity (A-hr)
CELLTYPE	SELECTOR	1	&Cell Type
WORKINGCONNECTION	SELECTOR	0	&Working Lead
MAXCHARGETIME	VARIABLEANDUNITS	1.00000E+002	s	1.00000E+002	second(s)	Max &Charge Time
CHARGECURRENT	QUANT	6.00000E-003	&Charge Current (A)
VOLTAGEFINISH	TWOPARAM	F	1.00000E-003	3.60000E+003	&Voltage Finish	 I (A) < 	Max Time(s)
SAMPLETIME	QUANT	1.00000E-002	Sa&mple Period (s)
CHARGESTOPAT1	MULTIPARAM	4	1.00000E+000	Charge Stop At &1	Voltage > Limit	V
CHARGESTOPAT2	MULTIPARAM	0	0.00000E+000	Charge Stop At &2	None	N/A
AESBHCSELECTOR	TOGGLE	F	Save Both Half Cells
IRCOMP	TOGGLE	F	IR &Measure
EOC	QUANT	0	Open Circuit (V)
SEQUENCER	TOGGLE	TRUE	Run as Sequence
PSTATMODEL	IQUANT	53	Pstat Model
PSTATSECTION	LABEL	IFC5000-01520	Pstat Section
PSTATSERIALNO	LABEL	01520	Pstat Serial Number
CTRLMODE	IQUANT	0	Control Mode
ELECTROMETER	IQUANT	1	RE=0 or CS=1
IESTAB	IQUANT	0	I/E Stability
CASPEED	IQUANT	4	Control Amp Speed
CONVENTION	IQUANT	1	Current Convention
ICHRANGE	IQUANT	2	Ich Range
ICHRANGEMODE	TOGGLE	T	Ich Auto Range
ICHOFFSETENABLE	TOGGLE	F	Ich Offset Enable
ICHOFFSET	QUANT	0	Ich Offset (V)
ICHFILTER	IQUANT	1	Ich Filter
VCHRANGE	IQUANT	2	Vch Range
VCHRANGEMODE	TOGGLE	T	Vch Auto Range
VCHOFFSETENABLE	TOGGLE	F	Vch Offset Enable
VCHOFFSET	QUANT	0	Vch Offset (V)
VCHFILTER	IQUANT	1	Vch Filter
IERANGELOWERLIMIT	IQUANT	9	I/E Range Lower Limit
IERANGEMODE	TOGGLE	F	I/E AutoRange
IERANGE	IQUANT	10	I/E Range
ACHSELECT	IQUANT	1	Ach Select
ACHRANGE	IQUANT	2	Ach Range
ACHOFFSETENABLE	TOGGLE	F	Ach Offset Enable
ACHOFFSET	QUANT	0	Ach Offset (V)
ACHFILTER	IQUANT	1	Ach Filter
CABLEID	IQUANT	14	Cable ID
DCCALDATE	LABEL	20-10-2016	DC Calibration Date
ACCALDATE	LABEL	12/3/2015	AC Calibration Date
FRAMEWORKVERSION	QUANT	7.01	Framework Version
INSTRUMENTVERSION	LABEL	4.00	Instrument Version
CURVE	TABLE	53
	Pt	T	Vf	Im	Vu	Pwr	Sig	Ach	Temp	IERange	Over
	#	s	V	A	V	W	V	V	deg C	#	bits
	0	0.013333	6.56660E-001	5.99979E-003	0.00000E+000	3.93982E-003	3.59960E-001	-1.17412E+000	3.57640E+000	10	...........
	1	0.026667	6.65972E-001	5.98946E-003	0.00000E+000	3.98881E-003	3.59960E-001	-1.17315E+000	3.57640E+000	10	...........
	2	0.04	6.74614E-001	5.99340E-003	0.00000E+000	4.04323E-003	3.59960E-001	-1.18398E+000	3.57640E+000	10	...........
	3	0.053333	6.82785E-001	5.99427E-003	0.00000E+000	4.09280E-003	3.59960E-001	-1.17392E+000	3.57640E+000	10	...........
	4	0.066667	6.90643E-001	5.99927E-003	0.00000E+000	4.14335E-003	3.59960E-001	-1.17300E+000	3.57640E+000	10	...........
	5	0.08	6.98266E-001	5.99647E-003	0.00000E+000	4.18713E-003	3.59960E-001	-1.18385E+000	3.57640E+000	10	...........
	6	0.093333	7.05806E-001	5.99288E-003	0.00000E+000	4.22982E-003	3.59960E-001	-1.17361E+000	3.57640E+000	10	...........
	7	0.106667	7.13164E-001	5.98761E-003	0.00000E+000	4.27015E-003	3.59960E-001	-1.17288E+000	3.57640E+000	10	...........
	8	0.12	7.20522E-001	5.99659E-003	0.00000E+000	4.32067E-003	3.59960E-001	-1.18367E+000	3.57640E+000	10	...........
	9	0.133333	7.27690E-001	5.98807E-003	0.00000E+000	4.35745E-003	3.59960E-001	-1.17365E+000	3.57640E+000	10	...........
	10	0.146667	7.34798E-001	5.99006E-003	0.00000E+000	4.40148E-003	3.59960E-001	-1.17285E+000	3.57640E+000	10	...........
	11	0.16	7.41884E-001	5.99467E-003	0.00000E+000	4.44735E-003	3.59960E-001	-1.18376E+000	3.57640E+000	10	...........
	12	0.173333	7.48941E-001	5.99287E-003	0.00000E+000	4.48831E-003	3.59960E-001	-1.17348E+000	3.57640E+000	10	...........
	13	0.186667	7.55976E-001	5.99363E-003	0.00000E+000	4.53105E-003	3.59960E-001	-1.17273E+000	3.57640E+000	10	...........
	14	0.2	7.62929E-001	5.99197E-003	0.00000E+000	4.57144E-003	3.59960E-001	-1.18378E+000	3.57640E+000	10	...........
	15	0.213333	7.69820E-001	5.99230E-003	0.00000E+000	4.61299E-003	3.59960E-001	-1.17356E+000	3.57640E+000	10	...........
	16	0.226667	7.76740E-001	5.99821E-003	0.00000E+000	4.65905E-003	3.59960E-001	-1.17277E+000	3.57640E+000	10	...........
	17	0.24	7.83643E-001	5.99154E-003	0.00000E+000	4.69523E-003	3.59960E-001	-1.18338E+000	3.57640E+000	10	...........
	18	0.253333	7.90462E-001	5.99384E-003	0.00000E+000	4.73790E-003	3.59960E-001	-1.17329E+000	3.57640E+000	10	...........
	19	0.266667	7.97340E-001	5.99494E-003	0.00000E+000	4.78001E-003	3.59960E-001	-1.17290E+000	3.57640E+000	10	...........
	20	0.28	8.04085E-001	5.99419E-003	0.00000E+000	4.81984E-003	3.59960E-001	-1.18366E+000	3.57640E+000	10	...........
	21	0.293333	8.10818E-001	5.99310E-003	0.00000E+000	4.85931E-003	3.59960E-001	-1.17329E+000	3.57640E+000	10	...........
	22	0.306667	8.17530E-001	5.99011E-003	0.00000E+000	4.89710E-003	3.59960E-001	-1.17272E+000	3.57640E+000	10	...........
	23	0.32	8.24215E-001	5.99472E-003	0.00000E+000	4.94094E-003	3.59960E-001	-1.18319E+000	3.57641E+000	10	...........
	24	0.333333	8.30860E-001	5.99567E-003	0.00000E+000	4.98156E-003	3.59960E-001	-1.17325E+000	3.57650E+000	10	...........
	25	0.346667	8.37485E-001	5.99780E-003	0.00000E+000	5.02307E-003	3.59960E-001	-1.17303E+000	3.57650E+000	10	...........
	26	0.36	8.44163E-001	5.99682E-003	0.00000E+000	5.06229E-003	3.59960E-001	-1.18355E+000	3.57650E+000	10	...........
	27	0.373333	8.50780E-001	5.99286E-003	0.00000E+000	5.09861E-003	3.59960E-001	-1.17298E+000	3.57650E+000	10	...........
	28	0.386667	8.57361E-001	5.99684E-003	0.00000E+000	5.14146E-003	3.59960E-001	-1.17248E+000	3.57650E+000	10	...........
	29	0.4	8.63872E-001	5.99567E-003	0.00000E+000	5.17949E-003	3.59960E-001	-1.18313E+000	3.57650E+000	10	...........
	30	0.413333	8.70391E-001	5.99670E-003	0.00000E+000	5.21948E-003	3.59960E-001	-1.17302E+000	3.57650E+000	10	...........
	31	0.426667	8.76871E-001	5.99819E-003	0.00000E+000	5.25964E-003	3.59960E-001	-1.17262E+000	3.57650E+000	10	...........
	32	0.44	8.83302E-001	5.99497E-003	0.00000E+000	5.29537E-003	3.59960E-001	-1.18325E+000	3.57650E+000	10	...........
	33	0.453333	8.89726E-001	5.98804E-003	0.00000E+000	5.32772E-003	3.59960E-001	-1.17296E+000	3.57650E+000	10	...........
	34	0.466667	8.96084E-001	5.99257E-003	0.00000E+000	5.36985E-003	3.59960E-001	-1.17275E+000	3.57650E+000	10	...........
	35	0.48	9.02384E-001	5.98941E-003	0.00000E+000	5.40475E-003	3.59960E-001	-1.18337E+000	3.57650E+000	10	...........
	36	0.493333	9.08678E-001	5.99067E-003	0.00000E+000	5.44359E-003	3.59960E-001	-1.17269E+000	3.57650E+000	10	...........
	37	0.506667	9.14948E-001	5.99818E-003	0.00000E+000	5.48802E-003	3.59960E-001	-1.17250E+000	3.57650E+000	10	...........
	38	0.52	9.21162E-001	5.99058E-003	0.00000E+000	5.51830E-003	3.59960E-001	-1.18331E+000	3.57650E+000	10	...........
	39	0.533333	9.27348E-001	5.99582E-003	0.00000E+000	5.56021E-003	3.59960E-001	-1.17305E+000	3.57650E+000	10	...........
	40	0.546667	9.33437E-001	5.99564E-003	0.00000E+000	5.59655E-003	3.59960E-001	-1.17277E+000	3.57650E+000	10	...........
	41	0.56	9.39508E-001	5.99033E-003	0.00000E+000	5.62796E-003	3.59960E-001	-1.18328E+000	3.57650E+000	10	...........
	42	0.573333	9.45526E-001	5.99288E-003	0.00000E+000	5.66643E-003	3.59960E-001	-1.17272E+000	3.57650E+000	10	...........
	43	0.586667	9.51567E-001	5.99563E-003	0.00000E+000	5.70524E-003	3.59960E-001	-1.17264E+000	3.57650E+000	10	...........
	44	0.6	9.57493E-001	5.99289E-003	0.00000E+000	5.73816E-003	3.59960E-001	-1.18337E+000	3.57650E+000	10	...........
	45	0.613333	9.63399E-001	5.99997E-003	0.00000E+000	5.78036E-003	3.59960E-001	-1.17300E+000	3.57650E+000	10	...........
	46	0.626667	9.69203E-001	5.99206E-003	0.00000E+000	5.80752E-003	3.59960E-001	-1.17296E+000	3.57650E+000	10	...........
	47	0.64	9.75041E-001	5.98967E-003	0.00000E+000	5.84017E-003	3.59960E-001	-1.18333E+000	3.57650E+000	10	...........
	48	0.653333	9.80723E-001	5.99441E-003	0.00000E+000	5.87885E-003	3.59960E-001	-1.17311E+000	3.57650E+000	10	...........
	49	0.666667	9.86379E-001	5.99118E-003	0.00000E+000	5.90958E-003	3.59960E-001	-1.17305E+000	3.57650E+000	10	...........
	50	0.68	9.92032E-001	5.99171E-003	0.00000E+000	5.94397E-003	3.59960E-001	-1.18348E+000	3.57650E+000	10	...........
	51	0.693333	9.97549E-001	5.99214E-003	0.00000E+000	5.97746E-003	3.59960E-001	-1.17318E+000	3.57650E+000	10	...........
	52	0.695	1.00067E+000	5.99905E-003	0.00000E+000	6.00309E-003	3.59960E-001	-1.18612E+000	3.57650E+000	10	...........
STARTTIMEOFFSET	QUANT	1557.627	Start Time Offset (s)