File: Data/CV_CRGO300517_1/PWRCCD_CRGO300517_1/CHARGE_DISCHARGE/CHARGE_#4.DTA
EXPLAIN
TAG	PWR800_CHARGE
TITLE	LABEL	PWR Cyclic Charge Discharge (Cell) - Charge Step	Test &Identifier
DATE	LABEL	22-6-2017	Date
TIME	LABEL	15:35:05	Time
NOTES	NOTES	3	&Notes...
	supercap test cell
	0.6mg
	6M KOH
PSTAT	PSTAT	IFC5000-01520	Potentiostat
CAPACITY	QUANT	1.00000E-003	Capacity (A-hr)
CELLTYPE	SELECTOR	1	&Cell Type
WORKINGCONNECTION	SELECTOR	0	&Working Lead
MAXCHARGETIME	VARIABLEANDUNITS	1.00000E+002	s	1.00000E+002	second(s)	Max &Charge Time
CHARGECURRENT	QUANT	6.00000E-003	&Charge Current (A)
VOLTAGEFINISH	TWOPARAM	F	1.00000E-003	3.60000E+003	&Voltage Finish	 I (A) < 	Max Time(s)
SAMPLETIME	QUANT	1.00000E-002	Sa&mple Period (s)
CHARGESTOPAT1	MULTIPARAM	4	1.00000E+000	Charge Stop At &1	Voltage > Limit	V
CHARGESTOPAT2	MULTIPARAM	0	0.00000E+000	Charge Stop At &2	None	N/A
AESBHCSELECTOR	TOGGLE	F	Save Both Half Cells
IRCOMP	TOGGLE	F	IR &Measure
EOC	QUANT	0	Open Circuit (V)
SEQUENCER	TOGGLE	TRUE	Run as Sequence
PSTATMODEL	IQUANT	53	Pstat Model
PSTATSECTION	LABEL	IFC5000-01520	Pstat Section
PSTATSERIALNO	LABEL	01520	Pstat Serial Number
CTRLMODE	IQUANT	0	Control Mode
ELECTROMETER	IQUANT	1	RE=0 or CS=1
IESTAB	IQUANT	0	I/E Stability
CASPEED	IQUANT	4	Control Amp Speed
CONVENTION	IQUANT	1	Current Convention
ICHRANGE	IQUANT	2	Ich Range
ICHRANGEMODE	TOGGLE	T	Ich Auto Range
ICHOFFSETENABLE	TOGGLE	F	Ich Offset Enable
ICHOFFSET	QUANT	0	Ich Offset (V)
ICHFILTER	IQUANT	1	Ich Filter
VCHRANGE	IQUANT	2	Vch Range
VCHRANGEMODE	TOGGLE	T	Vch Auto Range
VCHOFFSETENABLE	TOGGLE	F	Vch Offset Enable
VCHOFFSET	QUANT	0	Vch Offset (V)
VCHFILTER	IQUANT	1	Vch Filter
IERANGELOWERLIMIT	IQUANT	9	I/E Range Lower Limit
IERANGEMODE	TOGGLE	F	I/E AutoRange
IERANGE	IQUANT	10	I/E Range
ACHSELECT	IQUANT	1	Ach Select
ACHRANGE	IQUANT	2	Ach Range
ACHOFFSETENABLE	TOGGLE	F	Ach Offset Enable
ACHOFFSET	QUANT	0	Ach Offset (V)
ACHFILTER	IQUANT	1	Ach Filter
CABLEID	IQUANT	14	Cable ID
DCCALDATE	LABEL	20-10-2016	DC Calibration Date
ACCALDATE	LABEL	12/3/2015	AC Calibration Date
FRAMEWORKVERSION	QUANT	7.01	Framework Version
INSTRUMENTVERSION	LABEL	4.00	Instrument Version
CURVE	TABLE	83
	Pt	T	Vf	Im	Vu	Pwr	Sig	Ach	Temp	IERange	Over
	#	s	V	A	V	W	V	V	deg C	#	bits
	0	0.013333	5.50936E-001	5.99234E-003	0.00000E+000	3.30139E-003	3.59960E-001	-1.00648E+000	3.57750E+000	10	...........
	1	0.026667	5.58776E-001	5.99041E-003	0.00000E+000	3.34730E-003	3.59960E-001	-1.00663E+000	3.57750E+000	10	...........
	2	0.04	5.66029E-001	5.99645E-003	0.00000E+000	3.39416E-003	3.59960E-001	-9.98938E-001	3.57750E+000	10	...........
	3	0.053333	5.72775E-001	5.99493E-003	0.00000E+000	3.43374E-003	3.59960E-001	-1.00655E+000	3.57750E+000	10	...........
	4	0.066667	5.79273E-001	5.99245E-003	0.00000E+000	3.47127E-003	3.59960E-001	-1.00652E+000	3.57750E+000	10	...........
	5	0.08	5.85595E-001	5.99400E-003	0.00000E+000	3.51005E-003	3.59960E-001	-9.98879E-001	3.57750E+000	10	...........
	6	0.093333	5.91801E-001	5.99443E-003	0.00000E+000	3.54751E-003	3.59960E-001	-1.00624E+000	3.57750E+000	10	...........
	7	0.106667	5.97824E-001	5.99254E-003	0.00000E+000	3.58248E-003	3.59960E-001	-1.00657E+000	3.57750E+000	10	...........
	8	0.12	6.03758E-001	5.99136E-003	0.00000E+000	3.61733E-003	3.59960E-001	-9.98764E-001	3.57750E+000	10	...........
	9	0.133333	6.09615E-001	5.99312E-003	0.00000E+000	3.65350E-003	3.59960E-001	-1.00639E+000	3.57750E+000	10	...........
	10	0.146667	6.15548E-001	5.99328E-003	0.00000E+000	3.68915E-003	3.59960E-001	-1.00655E+000	3.57750E+000	10	...........
	11	0.16	6.21263E-001	5.99521E-003	0.00000E+000	3.72460E-003	3.59960E-001	-9.98629E-001	3.57750E+000	10	...........
	12	0.173333	6.26990E-001	5.99525E-003	0.00000E+000	3.75896E-003	3.59960E-001	-1.00599E+000	3.57750E+000	10	...........
	13	0.186667	6.32613E-001	5.99451E-003	0.00000E+000	3.79221E-003	3.59960E-001	-1.00651E+000	3.57750E+000	10	...........
	14	0.2	6.38215E-001	5.99279E-003	0.00000E+000	3.82469E-003	3.59960E-001	-9.98717E-001	3.57750E+000	10	...........
	15	0.213333	6.43830E-001	5.99444E-003	0.00000E+000	3.85940E-003	3.59960E-001	-1.00603E+000	3.57750E+000	10	...........
	16	0.226667	6.49374E-001	5.99584E-003	0.00000E+000	3.89354E-003	3.59960E-001	-1.00659E+000	3.57750E+000	10	...........
	17	0.24	6.54931E-001	5.98932E-003	0.00000E+000	3.92259E-003	3.59960E-001	-9.98307E-001	3.57750E+000	10	...........
	18	0.253333	6.60472E-001	5.99464E-003	0.00000E+000	3.95929E-003	3.59960E-001	-1.00573E+000	3.57750E+000	10	...........
	19	0.266667	6.66010E-001	5.99574E-003	0.00000E+000	3.99323E-003	3.59960E-001	-1.00624E+000	3.57750E+000	10	...........
	20	0.28	6.71520E-001	5.99303E-003	0.00000E+000	4.02444E-003	3.59960E-001	-9.98137E-001	3.57750E+000	10	...........
	21	0.293333	6.76977E-001	5.99608E-003	0.00000E+000	4.05921E-003	3.59960E-001	-1.00561E+000	3.57750E+000	10	...........
	22	0.306667	6.82413E-001	5.99227E-003	0.00000E+000	4.08920E-003	3.59960E-001	-1.00592E+000	3.57750E+000	10	...........
	23	0.32	6.87845E-001	5.99415E-003	0.00000E+000	4.12304E-003	3.59960E-001	-9.98221E-001	3.57750E+000	10	...........
	24	0.333333	6.93313E-001	5.98989E-003	0.00000E+000	4.15287E-003	3.59960E-001	-1.00577E+000	3.57750E+000	10	...........
	25	0.346667	6.98716E-001	5.99357E-003	0.00000E+000	4.18781E-003	3.59960E-001	-1.00609E+000	3.57750E+000	10	...........
	26	0.36	7.04148E-001	5.99682E-003	0.00000E+000	4.22265E-003	3.59960E-001	-9.98526E-001	3.57750E+000	10	...........
	27	0.373333	7.09535E-001	5.98925E-003	0.00000E+000	4.24959E-003	3.59960E-001	-1.00580E+000	3.57750E+000	10	...........
	28	0.386667	7.14949E-001	5.99736E-003	0.00000E+000	4.28780E-003	3.59960E-001	-1.00672E+000	3.57750E+000	10	...........
	29	0.4	7.20372E-001	5.99493E-003	0.00000E+000	4.31858E-003	3.59960E-001	-9.98874E-001	3.57750E+000	10	...........
	30	0.413333	7.25731E-001	5.99465E-003	0.00000E+000	4.35050E-003	3.59960E-001	-1.00663E+000	3.57750E+000	10	...........
	31	0.426667	7.31101E-001	5.99766E-003	0.00000E+000	4.38490E-003	3.59960E-001	-1.00672E+000	3.57750E+000	10	...........
	32	0.44	7.36428E-001	5.99226E-003	0.00000E+000	4.41287E-003	3.59960E-001	-9.99095E-001	3.57750E+000	10	...........
	33	0.453333	7.41842E-001	5.99033E-003	0.00000E+000	4.44388E-003	3.59960E-001	-1.00674E+000	3.57750E+000	10	...........
	34	0.466667	7.47205E-001	5.99487E-003	0.00000E+000	4.47940E-003	3.59960E-001	-1.00722E+000	3.57750E+000	10	...........
	35	0.48	7.52596E-001	5.99297E-003	0.00000E+000	4.51028E-003	3.59960E-001	-9.99386E-001	3.57750E+000	10	...........
	36	0.493333	7.57969E-001	5.99192E-003	0.00000E+000	4.54170E-003	3.59960E-001	-1.00688E+000	3.57750E+000	10	...........
	37	0.506667	7.63328E-001	5.99406E-003	0.00000E+000	4.57543E-003	3.59960E-001	-1.00747E+000	3.57750E+000	10	...........
	38	0.52	7.68706E-001	5.98945E-003	0.00000E+000	4.60413E-003	3.59960E-001	-9.99684E-001	3.57750E+000	10	...........
	39	0.533333	7.74099E-001	5.99530E-003	0.00000E+000	4.64096E-003	3.59960E-001	-1.00683E+000	3.57750E+000	10	...........
	40	0.546667	7.79475E-001	5.99418E-003	0.00000E+000	4.67231E-003	3.59960E-001	-1.00713E+000	3.57750E+000	10	...........
	41	0.56	7.84861E-001	5.99398E-003	0.00000E+000	4.70444E-003	3.59960E-001	-9.98972E-001	3.57750E+000	10	...........
	42	0.573333	7.90230E-001	5.99453E-003	0.00000E+000	4.73706E-003	3.59960E-001	-1.00647E+000	3.57750E+000	10	...........
	43	0.586667	7.95673E-001	5.99463E-003	0.00000E+000	4.76976E-003	3.59960E-001	-1.00699E+000	3.57750E+000	10	...........
	44	0.6	8.01058E-001	5.99559E-003	0.00000E+000	4.80281E-003	3.59960E-001	-9.98992E-001	3.57750E+000	10	...........
	45	0.613333	8.06422E-001	5.99577E-003	0.00000E+000	4.83513E-003	3.59960E-001	-1.00632E+000	3.57750E+000	10	...........
	46	0.626667	8.11824E-001	5.99374E-003	0.00000E+000	4.86586E-003	3.59960E-001	-1.00661E+000	3.57750E+000	10	...........
	47	0.64	8.17249E-001	5.99351E-003	0.00000E+000	4.89819E-003	3.59960E-001	-9.98839E-001	3.57930E+000	10	...........
	48	0.653333	8.22661E-001	5.99517E-003	0.00000E+000	4.93199E-003	3.59960E-001	-1.00641E+000	3.57990E+000	10	...........
	49	0.666667	8.28003E-001	5.99386E-003	0.00000E+000	4.96294E-003	3.59960E-001	-1.00675E+000	3.57990E+000	10	...........
	50	0.68	8.33399E-001	5.99377E-003	0.00000E+000	4.99520E-003	3.59960E-001	-9.98808E-001	3.57990E+000	10	...........
	51	0.693333	8.38759E-001	5.99159E-003	0.00000E+000	5.02550E-003	3.59960E-001	-1.00617E+000	3.57990E+000	10	...........
	52	0.706667	8.44158E-001	5.99614E-003	0.00000E+000	5.06169E-003	3.59960E-001	-1.00683E+000	3.57990E+000	10	...........
	53	0.72	8.49578E-001	5.99193E-003	0.00000E+000	5.09062E-003	3.59960E-001	-9.98899E-001	3.57990E+000	10	...........
	54	0.733333	8.54957E-001	5.99445E-003	0.00000E+000	5.12499E-003	3.59960E-001	-1.00609E+000	3.57990E+000	10	...........
	55	0.746667	8.60346E-001	5.99375E-003	0.00000E+000	5.15670E-003	3.59960E-001	-1.00660E+000	3.57990E+000	10	...........
	56	0.76	8.65727E-001	5.99006E-003	0.00000E+000	5.18575E-003	3.59960E-001	-9.98652E-001	3.57990E+000	10	...........
	57	0.773333	8.71146E-001	5.99389E-003	0.00000E+000	5.22155E-003	3.59960E-001	-1.00615E+000	3.57990E+000	10	...........
	58	0.786667	8.76540E-001	5.99269E-003	0.00000E+000	5.25283E-003	3.59960E-001	-1.00681E+000	3.57990E+000	10	...........
	59	0.8	8.81879E-001	5.99536E-003	0.00000E+000	5.28718E-003	3.59960E-001	-9.98787E-001	3.57990E+000	10	...........
	60	0.813333	8.87272E-001	5.99301E-003	0.00000E+000	5.31743E-003	3.59960E-001	-1.00597E+000	3.57990E+000	10	...........
	61	0.826667	8.92601E-001	5.99276E-003	0.00000E+000	5.34914E-003	3.59960E-001	-1.00651E+000	3.57990E+000	10	...........
	62	0.84	8.97986E-001	5.99298E-003	0.00000E+000	5.38161E-003	3.59960E-001	-9.98829E-001	3.57990E+000	10	...........
	63	0.853333	9.03342E-001	5.99196E-003	0.00000E+000	5.41279E-003	3.59960E-001	-1.00629E+000	3.57990E+000	10	...........
	64	0.866667	9.08693E-001	5.99408E-003	0.00000E+000	5.44678E-003	3.59960E-001	-1.00704E+000	3.57990E+000	10	...........
	65	0.88	9.14045E-001	5.99249E-003	0.00000E+000	5.47740E-003	3.59960E-001	-9.98453E-001	3.57990E+000	10	...........
	66	0.893333	9.19368E-001	5.99546E-003	0.00000E+000	5.51203E-003	3.59960E-001	-1.00578E+000	3.57990E+000	10	...........
	67	0.906667	9.24721E-001	5.99473E-003	0.00000E+000	5.54345E-003	3.59960E-001	-1.00629E+000	3.57990E+000	10	...........
	68	0.92	9.30064E-001	5.99470E-003	0.00000E+000	5.57546E-003	3.59960E-001	-9.98541E-001	3.57990E+000	10	...........
	69	0.933333	9.35354E-001	5.99421E-003	0.00000E+000	5.60671E-003	3.59960E-001	-1.00574E+000	3.57990E+000	10	...........
	70	0.946667	9.40637E-001	5.99403E-003	0.00000E+000	5.63821E-003	3.59960E-001	-1.00625E+000	3.57990E+000	10	...........
	71	0.96	9.45926E-001	5.99332E-003	0.00000E+000	5.66924E-003	3.59960E-001	-9.98159E-001	3.57990E+000	10	...........
	72	0.97333	9.51200E-001	5.99361E-003	0.00000E+000	5.70112E-003	3.59960E-001	-1.00570E+000	3.57990E+000	10	...........
	73	0.98667	9.56419E-001	5.99620E-003	0.00000E+000	5.73488E-003	3.59960E-001	-1.00638E+000	3.57990E+000	10	...........
	74	1	9.61647E-001	5.99571E-003	0.00000E+000	5.76576E-003	3.59960E-001	-9.98599E-001	3.57990E+000	10	...........
	75	1.01333	9.66844E-001	5.99227E-003	0.00000E+000	5.79359E-003	3.59960E-001	-1.00572E+000	3.57990E+000	10	...........
	76	1.02667	9.72017E-001	5.99262E-003	0.00000E+000	5.82493E-003	3.59960E-001	-1.00620E+000	3.57990E+000	10	...........
	77	1.04	9.77206E-001	5.99441E-003	0.00000E+000	5.85777E-003	3.59960E-001	-9.98344E-001	3.57990E+000	10	...........
	78	1.05333	9.82340E-001	5.99354E-003	0.00000E+000	5.88770E-003	3.59960E-001	-1.00575E+000	3.57990E+000	10	...........
	79	1.06667	9.87482E-001	5.99149E-003	0.00000E+000	5.91648E-003	3.59960E-001	-1.00640E+000	3.57990E+000	10	...........
	80	1.08	9.92564E-001	5.99164E-003	0.00000E+000	5.94709E-003	3.59960E-001	-9.98187E-001	3.57990E+000	10	...........
	81	1.09333	9.97612E-001	5.99006E-003	0.00000E+000	5.97575E-003	3.59960E-001	-1.00581E+000	3.57990E+000	10	...........
	82	1.095	1.00046E+000	5.99095E-003	0.00000E+000	5.99374E-003	3.59960E-001	-9.85191E-001	3.57990E+000	10	...........
STARTTIMEOFFSET	QUANT	6.816667	Start Time Offset (s)