File: Data/CV_CRGO300517_1/PWRCCD_CRGO300517_1/CHARGE_DISCHARGE/CHARGE_#712.DTA
EXPLAIN
TAG	PWR800_CHARGE
TITLE	LABEL	PWR Cyclic Charge Discharge (Cell) - Charge Step	Test &Identifier
DATE	LABEL	22-6-2017	Date
TIME	LABEL	16:04:00	Time
NOTES	NOTES	3	&Notes...
	supercap test cell
	0.6mg
	6M KOH
PSTAT	PSTAT	IFC5000-01520	Potentiostat
CAPACITY	QUANT	1.00000E-003	Capacity (A-hr)
CELLTYPE	SELECTOR	1	&Cell Type
WORKINGCONNECTION	SELECTOR	0	&Working Lead
MAXCHARGETIME	VARIABLEANDUNITS	1.00000E+002	s	1.00000E+002	second(s)	Max &Charge Time
CHARGECURRENT	QUANT	6.00000E-003	&Charge Current (A)
VOLTAGEFINISH	TWOPARAM	F	1.00000E-003	3.60000E+003	&Voltage Finish	 I (A) < 	Max Time(s)
SAMPLETIME	QUANT	1.00000E-002	Sa&mple Period (s)
CHARGESTOPAT1	MULTIPARAM	4	1.00000E+000	Charge Stop At &1	Voltage > Limit	V
CHARGESTOPAT2	MULTIPARAM	0	0.00000E+000	Charge Stop At &2	None	N/A
AESBHCSELECTOR	TOGGLE	F	Save Both Half Cells
IRCOMP	TOGGLE	F	IR &Measure
EOC	QUANT	0	Open Circuit (V)
SEQUENCER	TOGGLE	TRUE	Run as Sequence
PSTATMODEL	IQUANT	53	Pstat Model
PSTATSECTION	LABEL	IFC5000-01520	Pstat Section
PSTATSERIALNO	LABEL	01520	Pstat Serial Number
CTRLMODE	IQUANT	0	Control Mode
ELECTROMETER	IQUANT	1	RE=0 or CS=1
IESTAB	IQUANT	0	I/E Stability
CASPEED	IQUANT	4	Control Amp Speed
CONVENTION	IQUANT	1	Current Convention
ICHRANGE	IQUANT	2	Ich Range
ICHRANGEMODE	TOGGLE	T	Ich Auto Range
ICHOFFSETENABLE	TOGGLE	F	Ich Offset Enable
ICHOFFSET	QUANT	0	Ich Offset (V)
ICHFILTER	IQUANT	1	Ich Filter
VCHRANGE	IQUANT	2	Vch Range
VCHRANGEMODE	TOGGLE	T	Vch Auto Range
VCHOFFSETENABLE	TOGGLE	F	Vch Offset Enable
VCHOFFSET	QUANT	0	Vch Offset (V)
VCHFILTER	IQUANT	1	Vch Filter
IERANGELOWERLIMIT	IQUANT	9	I/E Range Lower Limit
IERANGEMODE	TOGGLE	F	I/E AutoRange
IERANGE	IQUANT	10	I/E Range
ACHSELECT	IQUANT	1	Ach Select
ACHRANGE	IQUANT	2	Ach Range
ACHOFFSETENABLE	TOGGLE	F	Ach Offset Enable
ACHOFFSET	QUANT	0	Ach Offset (V)
ACHFILTER	IQUANT	1	Ach Filter
CABLEID	IQUANT	14	Cable ID
DCCALDATE	LABEL	20-10-2016	DC Calibration Date
ACCALDATE	LABEL	12/3/2015	AC Calibration Date
FRAMEWORKVERSION	QUANT	7.01	Framework Version
INSTRUMENTVERSION	LABEL	4.00	Instrument Version
CURVE	TABLE	55
	Pt	T	Vf	Im	Vu	Pwr	Sig	Ach	Temp	IERange	Over
	#	s	V	A	V	W	V	V	deg C	#	bits
	0	0.013333	6.44254E-001	5.99761E-003	0.00000E+000	3.86398E-003	3.59960E-001	-1.15704E+000	3.57780E+000	10	...........
	1	0.026667	6.53337E-001	5.99611E-003	0.00000E+000	3.91748E-003	3.59960E-001	-1.15963E+000	3.57780E+000	10	...........
	2	0.04	6.61706E-001	5.99334E-003	0.00000E+000	3.96583E-003	3.59960E-001	-1.15141E+000	3.57780E+000	10	...........
	3	0.053333	6.69672E-001	5.99520E-003	0.00000E+000	4.01482E-003	3.59960E-001	-1.15708E+000	3.57780E+000	10	...........
	4	0.066667	6.77298E-001	5.99691E-003	0.00000E+000	4.06170E-003	3.59960E-001	-1.15896E+000	3.57780E+000	10	...........
	5	0.08	6.84744E-001	5.99722E-003	0.00000E+000	4.10656E-003	3.59960E-001	-1.15049E+000	3.57780E+000	10	...........
	6	0.093333	6.92095E-001	5.99634E-003	0.00000E+000	4.15004E-003	3.59960E-001	-1.15696E+000	3.57780E+000	10	...........
	7	0.106667	6.99244E-001	5.99161E-003	0.00000E+000	4.18960E-003	3.59960E-001	-1.15866E+000	3.57780E+000	10	...........
	8	0.12	7.06334E-001	5.99395E-003	0.00000E+000	4.23373E-003	3.59960E-001	-1.15044E+000	3.57780E+000	10	...........
	9	0.133333	7.13387E-001	5.99451E-003	0.00000E+000	4.27641E-003	3.59960E-001	-1.15673E+000	3.57780E+000	10	...........
	10	0.146667	7.20384E-001	5.98804E-003	0.00000E+000	4.31369E-003	3.59960E-001	-1.15822E+000	3.57780E+000	10	...........
	11	0.16	7.27278E-001	5.98977E-003	0.00000E+000	4.35623E-003	3.59960E-001	-1.15042E+000	3.57780E+000	10	...........
	12	0.173333	7.34141E-001	5.99139E-003	0.00000E+000	4.39852E-003	3.59960E-001	-1.15687E+000	3.57780E+000	10	...........
	13	0.186667	7.40967E-001	5.99472E-003	0.00000E+000	4.44189E-003	3.59960E-001	-1.15814E+000	3.57780E+000	10	...........
	14	0.2	7.47742E-001	5.99227E-003	0.00000E+000	4.48067E-003	3.59960E-001	-1.15015E+000	3.57780E+000	10	...........
	15	0.213333	7.54489E-001	5.99744E-003	0.00000E+000	4.52501E-003	3.59960E-001	-1.15679E+000	3.57780E+000	10	...........
	16	0.226667	7.61232E-001	5.98862E-003	0.00000E+000	4.55873E-003	3.59960E-001	-1.15780E+000	3.57780E+000	10	...........
	17	0.24	7.67944E-001	5.99463E-003	0.00000E+000	4.60354E-003	3.59960E-001	-1.14995E+000	3.57780E+000	10	...........
	18	0.253333	7.74673E-001	5.99497E-003	0.00000E+000	4.64414E-003	3.59960E-001	-1.15684E+000	3.57780E+000	10	...........
	19	0.266667	7.81313E-001	5.99303E-003	0.00000E+000	4.68243E-003	3.59960E-001	-1.15763E+000	3.57780E+000	10	...........
	20	0.28	7.87971E-001	5.99555E-003	0.00000E+000	4.72432E-003	3.59960E-001	-1.14983E+000	3.57780E+000	10	...........
	21	0.293333	7.94586E-001	5.99300E-003	0.00000E+000	4.76195E-003	3.59960E-001	-1.15691E+000	3.57780E+000	10	...........
	22	0.306667	8.01192E-001	5.99776E-003	0.00000E+000	4.80535E-003	3.59960E-001	-1.15765E+000	3.57780E+000	10	...........
	23	0.32	8.07734E-001	5.99735E-003	0.00000E+000	4.84426E-003	3.59960E-001	-1.14973E+000	3.57780E+000	10	...........
	24	0.333333	8.14305E-001	5.99898E-003	0.00000E+000	4.88500E-003	3.59960E-001	-1.15700E+000	3.57780E+000	10	...........
	25	0.346667	8.20836E-001	5.99611E-003	0.00000E+000	4.92182E-003	3.59960E-001	-1.15715E+000	3.57780E+000	10	...........
	26	0.36	8.27345E-001	5.99546E-003	0.00000E+000	4.96031E-003	3.59960E-001	-1.14978E+000	3.57780E+000	10	...........
	27	0.373333	8.33806E-001	5.99020E-003	0.00000E+000	4.99467E-003	3.59960E-001	-1.15700E+000	3.57780E+000	10	...........
	28	0.386667	8.40299E-001	5.99350E-003	0.00000E+000	5.03633E-003	3.59960E-001	-1.15667E+000	3.57780E+000	10	...........
	29	0.4	8.46784E-001	5.99671E-003	0.00000E+000	5.07792E-003	3.59960E-001	-1.14923E+000	3.57780E+000	10	...........
	30	0.413333	8.53203E-001	5.99356E-003	0.00000E+000	5.11373E-003	3.59960E-001	-1.15655E+000	3.57780E+000	10	...........
	31	0.426667	8.59627E-001	5.98929E-003	0.00000E+000	5.14855E-003	3.59960E-001	-1.15644E+000	3.57780E+000	10	...........
	32	0.44	8.66011E-001	5.98859E-003	0.00000E+000	5.18618E-003	3.59960E-001	-1.14941E+000	3.57780E+000	10	...........
	33	0.453333	8.72389E-001	5.99554E-003	0.00000E+000	5.23045E-003	3.59960E-001	-1.15686E+000	3.57780E+000	10	...........
	34	0.466667	8.78735E-001	5.99431E-003	0.00000E+000	5.26742E-003	3.59960E-001	-1.15617E+000	3.57780E+000	10	...........
	35	0.48	8.85049E-001	5.99190E-003	0.00000E+000	5.30313E-003	3.59960E-001	-1.14917E+000	3.57780E+000	10	...........
	36	0.493333	8.91298E-001	5.99269E-003	0.00000E+000	5.34127E-003	3.59960E-001	-1.15686E+000	3.57680E+000	10	...........
	37	0.506667	8.97561E-001	5.99419E-003	0.00000E+000	5.38015E-003	3.59960E-001	-1.15616E+000	3.57680E+000	10	...........
	38	0.52	9.03756E-001	5.99588E-003	0.00000E+000	5.41881E-003	3.59960E-001	-1.14911E+000	3.57680E+000	10	...........
	39	0.533333	9.09957E-001	5.99811E-003	0.00000E+000	5.45802E-003	3.59960E-001	-1.15682E+000	3.57680E+000	10	...........
	40	0.546667	9.16082E-001	5.99441E-003	0.00000E+000	5.49137E-003	3.59960E-001	-1.15574E+000	3.57680E+000	10	...........
	41	0.56	9.22255E-001	5.99651E-003	0.00000E+000	5.53032E-003	3.59960E-001	-1.14896E+000	3.57680E+000	10	...........
	42	0.573333	9.28309E-001	5.99608E-003	0.00000E+000	5.56621E-003	3.59960E-001	-1.15707E+000	3.57680E+000	10	...........
	43	0.586667	9.34303E-001	5.98990E-003	0.00000E+000	5.59638E-003	3.59960E-001	-1.15573E+000	3.57680E+000	10	...........
	44	0.6	9.40289E-001	5.99740E-003	0.00000E+000	5.63929E-003	3.59960E-001	-1.14905E+000	3.57680E+000	10	...........
	45	0.613333	9.46245E-001	5.99432E-003	0.00000E+000	5.67210E-003	3.59960E-001	-1.15721E+000	3.57680E+000	10	...........
	46	0.626667	9.52170E-001	5.99697E-003	0.00000E+000	5.71014E-003	3.59960E-001	-1.15552E+000	3.57680E+000	10	...........
	47	0.64	9.57993E-001	6.00087E-003	0.00000E+000	5.74880E-003	3.59960E-001	-1.14913E+000	3.57680E+000	10	...........
	48	0.653333	9.63787E-001	5.99707E-003	0.00000E+000	5.77989E-003	3.59960E-001	-1.15737E+000	3.57680E+000	10	...........
	49	0.666667	9.69581E-001	5.99301E-003	0.00000E+000	5.81071E-003	3.59960E-001	-1.15543E+000	3.57680E+000	10	...........
	50	0.68	9.75334E-001	5.98807E-003	0.00000E+000	5.84036E-003	3.59960E-001	-1.14892E+000	3.57680E+000	10	...........
	51	0.693333	9.80942E-001	5.99350E-003	0.00000E+000	5.87927E-003	3.59960E-001	-1.15720E+000	3.57680E+000	10	...........
	52	0.706667	9.86572E-001	5.99081E-003	0.00000E+000	5.91036E-003	3.59960E-001	-1.15476E+000	3.57680E+000	10	...........
	53	0.72	9.92147E-001	5.99513E-003	0.00000E+000	5.94805E-003	3.59960E-001	-1.14886E+000	3.57680E+000	10	...........
	54	0.733333	9.97698E-001	5.99756E-003	0.00000E+000	5.98375E-003	3.59960E-001	-1.15710E+000	3.57680E+000	10	...........
STARTTIMEOFFSET	QUANT	1176.797	Start Time Offset (s)