File: Data/CV_CRGO300517_1/PWRCCD_CRGO300517_1/CHARGE_DISCHARGE/CHARGE_#951.DTA
EXPLAIN
TAG	PWR800_CHARGE
TITLE	LABEL	PWR Cyclic Charge Discharge (Cell) - Charge Step	Test &Identifier
DATE	LABEL	22-6-2017	Date
TIME	LABEL	16:12:51	Time
NOTES	NOTES	3	&Notes...
	supercap test cell
	0.6mg
	6M KOH
PSTAT	PSTAT	IFC5000-01520	Potentiostat
CAPACITY	QUANT	1.00000E-003	Capacity (A-hr)
CELLTYPE	SELECTOR	1	&Cell Type
WORKINGCONNECTION	SELECTOR	0	&Working Lead
MAXCHARGETIME	VARIABLEANDUNITS	1.00000E+002	s	1.00000E+002	second(s)	Max &Charge Time
CHARGECURRENT	QUANT	6.00000E-003	&Charge Current (A)
VOLTAGEFINISH	TWOPARAM	F	1.00000E-003	3.60000E+003	&Voltage Finish	 I (A) < 	Max Time(s)
SAMPLETIME	QUANT	1.00000E-002	Sa&mple Period (s)
CHARGESTOPAT1	MULTIPARAM	4	1.00000E+000	Charge Stop At &1	Voltage > Limit	V
CHARGESTOPAT2	MULTIPARAM	0	0.00000E+000	Charge Stop At &2	None	N/A
AESBHCSELECTOR	TOGGLE	F	Save Both Half Cells
IRCOMP	TOGGLE	F	IR &Measure
EOC	QUANT	0	Open Circuit (V)
SEQUENCER	TOGGLE	TRUE	Run as Sequence
PSTATMODEL	IQUANT	53	Pstat Model
PSTATSECTION	LABEL	IFC5000-01520	Pstat Section
PSTATSERIALNO	LABEL	01520	Pstat Serial Number
CTRLMODE	IQUANT	0	Control Mode
ELECTROMETER	IQUANT	1	RE=0 or CS=1
IESTAB	IQUANT	0	I/E Stability
CASPEED	IQUANT	4	Control Amp Speed
CONVENTION	IQUANT	1	Current Convention
ICHRANGE	IQUANT	2	Ich Range
ICHRANGEMODE	TOGGLE	T	Ich Auto Range
ICHOFFSETENABLE	TOGGLE	F	Ich Offset Enable
ICHOFFSET	QUANT	0	Ich Offset (V)
ICHFILTER	IQUANT	1	Ich Filter
VCHRANGE	IQUANT	2	Vch Range
VCHRANGEMODE	TOGGLE	T	Vch Auto Range
VCHOFFSETENABLE	TOGGLE	F	Vch Offset Enable
VCHOFFSET	QUANT	0	Vch Offset (V)
VCHFILTER	IQUANT	1	Vch Filter
IERANGELOWERLIMIT	IQUANT	9	I/E Range Lower Limit
IERANGEMODE	TOGGLE	F	I/E AutoRange
IERANGE	IQUANT	10	I/E Range
ACHSELECT	IQUANT	1	Ach Select
ACHRANGE	IQUANT	2	Ach Range
ACHOFFSETENABLE	TOGGLE	F	Ach Offset Enable
ACHOFFSET	QUANT	0	Ach Offset (V)
ACHFILTER	IQUANT	1	Ach Filter
CABLEID	IQUANT	14	Cable ID
DCCALDATE	LABEL	20-10-2016	DC Calibration Date
ACCALDATE	LABEL	12/3/2015	AC Calibration Date
FRAMEWORKVERSION	QUANT	7.01	Framework Version
INSTRUMENTVERSION	LABEL	4.00	Instrument Version
CURVE	TABLE	53
	Pt	T	Vf	Im	Vu	Pwr	Sig	Ach	Temp	IERange	Over
	#	s	V	A	V	W	V	V	deg C	#	bits
	0	0.013333	6.55297E-001	5.99424E-003	0.00000E+000	3.92800E-003	3.59960E-001	-1.17374E+000	3.57790E+000	10	...........
	1	0.026667	6.64640E-001	5.99764E-003	0.00000E+000	3.98627E-003	3.59960E-001	-1.17437E+000	3.57790E+000	10	...........
	2	0.04	6.73216E-001	5.99293E-003	0.00000E+000	4.03453E-003	3.59960E-001	-1.18433E+000	3.57790E+000	10	...........
	3	0.053333	6.81326E-001	5.99605E-003	0.00000E+000	4.08527E-003	3.59960E-001	-1.17368E+000	3.57790E+000	10	...........
	4	0.066667	6.89148E-001	5.99624E-003	0.00000E+000	4.13230E-003	3.59960E-001	-1.17422E+000	3.57790E+000	10	...........
	5	0.08	6.96776E-001	5.99249E-003	0.00000E+000	4.17542E-003	3.59960E-001	-1.18441E+000	3.57790E+000	10	...........
	6	0.093333	7.04223E-001	5.99322E-003	0.00000E+000	4.22056E-003	3.59960E-001	-1.17365E+000	3.57790E+000	10	...........
	7	0.106667	7.11559E-001	5.99204E-003	0.00000E+000	4.26369E-003	3.59960E-001	-1.17403E+000	3.57790E+000	10	...........
	8	0.12	7.18843E-001	5.99289E-003	0.00000E+000	4.30795E-003	3.59960E-001	-1.18403E+000	3.57790E+000	10	...........
	9	0.133333	7.26013E-001	5.99312E-003	0.00000E+000	4.35108E-003	3.59960E-001	-1.17331E+000	3.57790E+000	10	...........
	10	0.146667	7.33187E-001	5.99227E-003	0.00000E+000	4.39345E-003	3.59960E-001	-1.17374E+000	3.57790E+000	10	...........
	11	0.16	7.40239E-001	5.98991E-003	0.00000E+000	4.43397E-003	3.59960E-001	-1.18380E+000	3.57790E+000	10	...........
	12	0.173333	7.47266E-001	5.99389E-003	0.00000E+000	4.47902E-003	3.59960E-001	-1.17297E+000	3.57790E+000	10	...........
	13	0.186667	7.54307E-001	5.99269E-003	0.00000E+000	4.52032E-003	3.59960E-001	-1.17335E+000	3.57790E+000	10	...........
	14	0.2	7.61233E-001	5.99321E-003	0.00000E+000	4.56223E-003	3.59960E-001	-1.18386E+000	3.57790E+000	10	...........
	15	0.213333	7.68121E-001	5.99120E-003	0.00000E+000	4.60197E-003	3.59960E-001	-1.17329E+000	3.57790E+000	10	...........
	16	0.226667	7.75000E-001	5.98655E-003	0.00000E+000	4.63958E-003	3.59960E-001	-1.17327E+000	3.57790E+000	10	...........
	17	0.24	7.81855E-001	5.99854E-003	0.00000E+000	4.68998E-003	3.59960E-001	-1.18354E+000	3.57790E+000	10	...........
	18	0.253333	7.88631E-001	5.99130E-003	0.00000E+000	4.72492E-003	3.59960E-001	-1.17304E+000	3.57790E+000	10	...........
	19	0.266667	7.95430E-001	5.99186E-003	0.00000E+000	4.76610E-003	3.59960E-001	-1.17338E+000	3.57790E+000	10	...........
	20	0.28	8.02157E-001	5.99360E-003	0.00000E+000	4.80781E-003	3.59960E-001	-1.18365E+000	3.57790E+000	10	...........
	21	0.293333	8.08890E-001	5.99713E-003	0.00000E+000	4.85102E-003	3.59960E-001	-1.17307E+000	3.57790E+000	10	...........
	22	0.306667	8.15583E-001	5.99428E-003	0.00000E+000	4.88884E-003	3.59960E-001	-1.17319E+000	3.57790E+000	10	...........
	23	0.32	8.22269E-001	5.99629E-003	0.00000E+000	4.93057E-003	3.59960E-001	-1.18339E+000	3.57790E+000	10	...........
	24	0.333333	8.28911E-001	5.99201E-003	0.00000E+000	4.96684E-003	3.59960E-001	-1.17305E+000	3.57790E+000	10	...........
	25	0.346667	8.35541E-001	5.99420E-003	0.00000E+000	5.00840E-003	3.59960E-001	-1.17336E+000	3.57790E+000	10	...........
	26	0.36	8.42172E-001	5.99675E-003	0.00000E+000	5.05030E-003	3.59960E-001	-1.18366E+000	3.57790E+000	10	...........
	27	0.373333	8.48769E-001	5.99849E-003	0.00000E+000	5.09133E-003	3.59960E-001	-1.17303E+000	3.57790E+000	10	...........
	28	0.386667	8.55284E-001	5.99626E-003	0.00000E+000	5.12851E-003	3.59960E-001	-1.17307E+000	3.57790E+000	10	...........
	29	0.4	8.61810E-001	5.99127E-003	0.00000E+000	5.16334E-003	3.59960E-001	-1.18348E+000	3.57790E+000	10	...........
	30	0.413333	8.68319E-001	5.99708E-003	0.00000E+000	5.20738E-003	3.59960E-001	-1.17309E+000	3.57790E+000	10	...........
	31	0.426667	8.74790E-001	5.99613E-003	0.00000E+000	5.24535E-003	3.59960E-001	-1.17297E+000	3.57790E+000	10	...........
	32	0.44	8.81243E-001	5.99663E-003	0.00000E+000	5.28448E-003	3.59960E-001	-1.18313E+000	3.57790E+000	10	...........
	33	0.453333	8.87624E-001	5.98931E-003	0.00000E+000	5.31625E-003	3.59960E-001	-1.17238E+000	3.57790E+000	10	...........
	34	0.466667	8.94006E-001	5.99695E-003	0.00000E+000	5.36131E-003	3.59960E-001	-1.17261E+000	3.57790E+000	10	...........
	35	0.48	9.00297E-001	5.99161E-003	0.00000E+000	5.39423E-003	3.59960E-001	-1.18300E+000	3.57790E+000	10	...........
	36	0.493333	9.06589E-001	5.99383E-003	0.00000E+000	5.43395E-003	3.59960E-001	-1.17253E+000	3.57790E+000	10	...........
	37	0.506667	9.12823E-001	5.99531E-003	0.00000E+000	5.47266E-003	3.59960E-001	-1.17245E+000	3.57790E+000	10	...........
	38	0.52	9.19092E-001	5.99363E-003	0.00000E+000	5.50870E-003	3.59960E-001	-1.18309E+000	3.57790E+000	10	...........
	39	0.533333	9.25256E-001	5.99650E-003	0.00000E+000	5.54830E-003	3.59960E-001	-1.17268E+000	3.57790E+000	10	...........
	40	0.546667	9.31345E-001	5.99015E-003	0.00000E+000	5.57890E-003	3.59960E-001	-1.17273E+000	3.57790E+000	10	...........
	41	0.56	9.37397E-001	5.99016E-003	0.00000E+000	5.61516E-003	3.59960E-001	-1.18296E+000	3.57770E+000	10	...........
	42	0.573333	9.43412E-001	5.98698E-003	0.00000E+000	5.64819E-003	3.59960E-001	-1.17236E+000	3.57770E+000	10	...........
	43	0.586667	9.49452E-001	5.99031E-003	0.00000E+000	5.68751E-003	3.59960E-001	-1.17230E+000	3.57770E+000	10	...........
	44	0.6	9.55349E-001	5.99237E-003	0.00000E+000	5.72481E-003	3.59960E-001	-1.18303E+000	3.57770E+000	10	...........
	45	0.613333	9.61288E-001	5.99279E-003	0.00000E+000	5.76080E-003	3.59960E-001	-1.17267E+000	3.57770E+000	10	...........
	46	0.626667	9.67074E-001	5.99397E-003	0.00000E+000	5.79661E-003	3.59960E-001	-1.17239E+000	3.57770E+000	10	...........
	47	0.64	9.72931E-001	5.99544E-003	0.00000E+000	5.83315E-003	3.59960E-001	-1.18300E+000	3.57770E+000	10	...........
	48	0.653333	9.78617E-001	5.98922E-003	0.00000E+000	5.86116E-003	3.59960E-001	-1.17247E+000	3.57770E+000	10	...........
	49	0.666667	9.84268E-001	5.99268E-003	0.00000E+000	5.89840E-003	3.59960E-001	-1.17255E+000	3.57770E+000	10	...........
	50	0.68	9.89908E-001	5.99026E-003	0.00000E+000	5.92980E-003	3.59960E-001	-1.18333E+000	3.57770E+000	10	...........
	51	0.693333	9.95472E-001	5.99359E-003	0.00000E+000	5.96646E-003	3.59960E-001	-1.17270E+000	3.57770E+000	10	...........
	52	0.7	9.99651E-001	5.98893E-003	0.00000E+000	5.98684E-003	3.59960E-001	-1.18298E+000	3.57770E+000	10	...........
STARTTIMEOFFSET	QUANT	1517.363	Start Time Offset (s)