File: Data/CV_CRGO300517_1/PWRCCD_CRGO300517_1/CHARGE_DISCHARGE/CHARGE_#944.DTA
EXPLAIN
TAG	PWR800_CHARGE
TITLE	LABEL	PWR Cyclic Charge Discharge (Cell) - Charge Step	Test &Identifier
DATE	LABEL	22-6-2017	Date
TIME	LABEL	16:12:36	Time
NOTES	NOTES	3	&Notes...
	supercap test cell
	0.6mg
	6M KOH
PSTAT	PSTAT	IFC5000-01520	Potentiostat
CAPACITY	QUANT	1.00000E-003	Capacity (A-hr)
CELLTYPE	SELECTOR	1	&Cell Type
WORKINGCONNECTION	SELECTOR	0	&Working Lead
MAXCHARGETIME	VARIABLEANDUNITS	1.00000E+002	s	1.00000E+002	second(s)	Max &Charge Time
CHARGECURRENT	QUANT	6.00000E-003	&Charge Current (A)
VOLTAGEFINISH	TWOPARAM	F	1.00000E-003	3.60000E+003	&Voltage Finish	 I (A) < 	Max Time(s)
SAMPLETIME	QUANT	1.00000E-002	Sa&mple Period (s)
CHARGESTOPAT1	MULTIPARAM	4	1.00000E+000	Charge Stop At &1	Voltage > Limit	V
CHARGESTOPAT2	MULTIPARAM	0	0.00000E+000	Charge Stop At &2	None	N/A
AESBHCSELECTOR	TOGGLE	F	Save Both Half Cells
IRCOMP	TOGGLE	F	IR &Measure
EOC	QUANT	0	Open Circuit (V)
SEQUENCER	TOGGLE	TRUE	Run as Sequence
PSTATMODEL	IQUANT	53	Pstat Model
PSTATSECTION	LABEL	IFC5000-01520	Pstat Section
PSTATSERIALNO	LABEL	01520	Pstat Serial Number
CTRLMODE	IQUANT	0	Control Mode
ELECTROMETER	IQUANT	1	RE=0 or CS=1
IESTAB	IQUANT	0	I/E Stability
CASPEED	IQUANT	4	Control Amp Speed
CONVENTION	IQUANT	1	Current Convention
ICHRANGE	IQUANT	2	Ich Range
ICHRANGEMODE	TOGGLE	T	Ich Auto Range
ICHOFFSETENABLE	TOGGLE	F	Ich Offset Enable
ICHOFFSET	QUANT	0	Ich Offset (V)
ICHFILTER	IQUANT	1	Ich Filter
VCHRANGE	IQUANT	2	Vch Range
VCHRANGEMODE	TOGGLE	T	Vch Auto Range
VCHOFFSETENABLE	TOGGLE	F	Vch Offset Enable
VCHOFFSET	QUANT	0	Vch Offset (V)
VCHFILTER	IQUANT	1	Vch Filter
IERANGELOWERLIMIT	IQUANT	9	I/E Range Lower Limit
IERANGEMODE	TOGGLE	F	I/E AutoRange
IERANGE	IQUANT	10	I/E Range
ACHSELECT	IQUANT	1	Ach Select
ACHRANGE	IQUANT	2	Ach Range
ACHOFFSETENABLE	TOGGLE	F	Ach Offset Enable
ACHOFFSET	QUANT	0	Ach Offset (V)
ACHFILTER	IQUANT	1	Ach Filter
CABLEID	IQUANT	14	Cable ID
DCCALDATE	LABEL	20-10-2016	DC Calibration Date
ACCALDATE	LABEL	12/3/2015	AC Calibration Date
FRAMEWORKVERSION	QUANT	7.01	Framework Version
INSTRUMENTVERSION	LABEL	4.00	Instrument Version
CURVE	TABLE	53
	Pt	T	Vf	Im	Vu	Pwr	Sig	Ach	Temp	IERange	Over
	#	s	V	A	V	W	V	V	deg C	#	bits
	0	0.013333	6.54746E-001	5.99395E-003	0.00000E+000	3.92452E-003	3.59960E-001	-1.17966E+000	3.57780E+000	10	...........
	1	0.026667	6.64034E-001	5.99293E-003	0.00000E+000	3.97950E-003	3.59960E-001	-1.17937E+000	3.57780E+000	10	...........
	2	0.04	6.72638E-001	5.99273E-003	0.00000E+000	4.03094E-003	3.59960E-001	-1.17233E+000	3.57780E+000	10	...........
	3	0.053333	6.80775E-001	6.00008E-003	0.00000E+000	4.08470E-003	3.59960E-001	-1.17969E+000	3.57780E+000	10	...........
	4	0.066667	6.88580E-001	5.99549E-003	0.00000E+000	4.12838E-003	3.59960E-001	-1.17911E+000	3.57780E+000	10	...........
	5	0.08	6.96270E-001	5.99152E-003	0.00000E+000	4.17172E-003	3.59960E-001	-1.17213E+000	3.57780E+000	10	...........
	6	0.093333	7.03736E-001	5.99400E-003	0.00000E+000	4.21819E-003	3.59960E-001	-1.17956E+000	3.57780E+000	10	...........
	7	0.106667	7.11070E-001	5.99107E-003	0.00000E+000	4.26007E-003	3.59960E-001	-1.17957E+000	3.57780E+000	10	...........
	8	0.12	7.18357E-001	5.99366E-003	0.00000E+000	4.30559E-003	3.59960E-001	-1.17259E+000	3.57780E+000	10	...........
	9	0.133333	7.25544E-001	5.98819E-003	0.00000E+000	4.34469E-003	3.59960E-001	-1.18001E+000	3.57780E+000	10	...........
	10	0.146667	7.32669E-001	5.99733E-003	0.00000E+000	4.39405E-003	3.59960E-001	-1.17972E+000	3.57780E+000	10	...........
	11	0.16	7.39712E-001	5.99302E-003	0.00000E+000	4.43311E-003	3.59960E-001	-1.17272E+000	3.57780E+000	10	...........
	12	0.173333	7.46757E-001	5.99375E-003	0.00000E+000	4.47587E-003	3.59960E-001	-1.18011E+000	3.57780E+000	10	...........
	13	0.186667	7.53722E-001	5.99155E-003	0.00000E+000	4.51596E-003	3.59960E-001	-1.18006E+000	3.57780E+000	10	...........
	14	0.2	7.60647E-001	5.99158E-003	0.00000E+000	4.55748E-003	3.59960E-001	-1.17292E+000	3.57780E+000	10	...........
	15	0.213333	7.67534E-001	5.99437E-003	0.00000E+000	4.60088E-003	3.59960E-001	-1.18030E+000	3.57780E+000	10	...........
	16	0.226667	7.74432E-001	5.99685E-003	0.00000E+000	4.64415E-003	3.59960E-001	-1.18028E+000	3.57780E+000	10	...........
	17	0.24	7.81308E-001	5.99066E-003	0.00000E+000	4.68055E-003	3.59960E-001	-1.17308E+000	3.57780E+000	10	...........
	18	0.253333	7.88113E-001	5.99235E-003	0.00000E+000	4.72265E-003	3.59960E-001	-1.18024E+000	3.57780E+000	10	...........
	19	0.266667	7.94937E-001	5.99115E-003	0.00000E+000	4.76259E-003	3.59960E-001	-1.18012E+000	3.57780E+000	10	...........
	20	0.28	8.01686E-001	5.99363E-003	0.00000E+000	4.80501E-003	3.59960E-001	-1.17284E+000	3.57780E+000	10	...........
	21	0.293333	8.08386E-001	5.99419E-003	0.00000E+000	4.84562E-003	3.59960E-001	-1.17961E+000	3.57780E+000	10	...........
	22	0.306667	8.15089E-001	5.99403E-003	0.00000E+000	4.88567E-003	3.59960E-001	-1.17982E+000	3.57780E+000	10	...........
	23	0.32	8.21807E-001	5.99940E-003	0.00000E+000	4.93035E-003	3.59960E-001	-1.17246E+000	3.57780E+000	10	...........
	24	0.333333	8.28453E-001	5.99513E-003	0.00000E+000	4.96668E-003	3.59960E-001	-1.17930E+000	3.57780E+000	10	...........
	25	0.346667	8.35096E-001	5.99036E-003	0.00000E+000	5.00252E-003	3.59960E-001	-1.17976E+000	3.57780E+000	10	...........
	26	0.36	8.41683E-001	5.99310E-003	0.00000E+000	5.04429E-003	3.59960E-001	-1.17243E+000	3.57780E+000	10	...........
	27	0.373333	8.48262E-001	5.99006E-003	0.00000E+000	5.08114E-003	3.59960E-001	-1.17922E+000	3.57780E+000	10	...........
	28	0.386667	8.54799E-001	5.99473E-003	0.00000E+000	5.12429E-003	3.59960E-001	-1.17966E+000	3.57780E+000	10	...........
	29	0.4	8.61276E-001	5.99358E-003	0.00000E+000	5.16213E-003	3.59960E-001	-1.17222E+000	3.57780E+000	10	...........
	30	0.413333	8.67815E-001	5.99671E-003	0.00000E+000	5.20404E-003	3.59960E-001	-1.17903E+000	3.57780E+000	10	...........
	31	0.426667	8.74324E-001	5.99398E-003	0.00000E+000	5.24068E-003	3.59960E-001	-1.17972E+000	3.57780E+000	10	...........
	32	0.44	8.80771E-001	5.99486E-003	0.00000E+000	5.28010E-003	3.59960E-001	-1.17234E+000	3.57780E+000	10	...........
	33	0.453333	8.87130E-001	5.98898E-003	0.00000E+000	5.31300E-003	3.59960E-001	-1.17882E+000	3.57780E+000	10	...........
	34	0.466667	8.93508E-001	5.99116E-003	0.00000E+000	5.35315E-003	3.59960E-001	-1.17953E+000	3.57780E+000	10	...........
	35	0.48	8.99817E-001	5.99207E-003	0.00000E+000	5.39177E-003	3.59960E-001	-1.17189E+000	3.57780E+000	10	...........
	36	0.493333	9.06092E-001	5.99231E-003	0.00000E+000	5.42958E-003	3.59960E-001	-1.17859E+000	3.57780E+000	10	...........
	37	0.506667	9.12357E-001	5.99254E-003	0.00000E+000	5.46733E-003	3.59960E-001	-1.17953E+000	3.57780E+000	10	...........
	38	0.52	9.18550E-001	5.99109E-003	0.00000E+000	5.50312E-003	3.59960E-001	-1.17189E+000	3.57780E+000	10	...........
	39	0.533333	9.24811E-001	5.99430E-003	0.00000E+000	5.54360E-003	3.59960E-001	-1.17835E+000	3.57780E+000	10	...........
	40	0.546667	9.30898E-001	5.99413E-003	0.00000E+000	5.57992E-003	3.59960E-001	-1.17925E+000	3.57780E+000	10	...........
	41	0.56	9.36982E-001	5.99274E-003	0.00000E+000	5.61509E-003	3.59960E-001	-1.17155E+000	3.57780E+000	10	...........
	42	0.573333	9.42998E-001	5.99835E-003	0.00000E+000	5.65643E-003	3.59960E-001	-1.17832E+000	3.57780E+000	10	...........
	43	0.586667	9.49050E-001	5.99426E-003	0.00000E+000	5.68885E-003	3.59960E-001	-1.17919E+000	3.57780E+000	10	...........
	44	0.6	9.54992E-001	5.99319E-003	0.00000E+000	5.72345E-003	3.59960E-001	-1.17165E+000	3.57780E+000	10	...........
	45	0.613333	9.60857E-001	5.99408E-003	0.00000E+000	5.75946E-003	3.59960E-001	-1.17771E+000	3.57780E+000	10	...........
	46	0.626667	9.66684E-001	5.99896E-003	0.00000E+000	5.79910E-003	3.59960E-001	-1.17917E+000	3.57780E+000	10	...........
	47	0.64	9.72550E-001	5.99701E-003	0.00000E+000	5.83240E-003	3.59960E-001	-1.17132E+000	3.57780E+000	10	...........
	48	0.653333	9.78262E-001	5.99715E-003	0.00000E+000	5.86679E-003	3.59960E-001	-1.17783E+000	3.57780E+000	10	...........
	49	0.666667	9.83919E-001	5.99471E-003	0.00000E+000	5.89831E-003	3.59960E-001	-1.17904E+000	3.57780E+000	10	...........
	50	0.68	9.89540E-001	5.99045E-003	0.00000E+000	5.92779E-003	3.59960E-001	-1.17125E+000	3.57780E+000	10	...........
	51	0.693333	9.95103E-001	5.99838E-003	0.00000E+000	5.96901E-003	3.59960E-001	-1.17786E+000	3.57780E+000	10	...........
	52	0.7	9.99251E-001	6.00314E-003	0.00000E+000	5.99864E-003	3.59960E-001	-1.17290E+000	3.57780E+000	10	...........
STARTTIMEOFFSET	QUANT	1507.611	Start Time Offset (s)