File: Data/CV_CRGO300517_1/PWRCCD_CRGO300517_1/CHARGE_DISCHARGE/CHARGE_#168.DTA
EXPLAIN
TAG	PWR800_CHARGE
TITLE	LABEL	PWR Cyclic Charge Discharge (Cell) - Charge Step	Test &Identifier
DATE	LABEL	22-6-2017	Date
TIME	LABEL	15:42:27	Time
NOTES	NOTES	3	&Notes...
	supercap test cell
	0.6mg
	6M KOH
PSTAT	PSTAT	IFC5000-01520	Potentiostat
CAPACITY	QUANT	1.00000E-003	Capacity (A-hr)
CELLTYPE	SELECTOR	1	&Cell Type
WORKINGCONNECTION	SELECTOR	0	&Working Lead
MAXCHARGETIME	VARIABLEANDUNITS	1.00000E+002	s	1.00000E+002	second(s)	Max &Charge Time
CHARGECURRENT	QUANT	6.00000E-003	&Charge Current (A)
VOLTAGEFINISH	TWOPARAM	F	1.00000E-003	3.60000E+003	&Voltage Finish	 I (A) < 	Max Time(s)
SAMPLETIME	QUANT	1.00000E-002	Sa&mple Period (s)
CHARGESTOPAT1	MULTIPARAM	4	1.00000E+000	Charge Stop At &1	Voltage > Limit	V
CHARGESTOPAT2	MULTIPARAM	0	0.00000E+000	Charge Stop At &2	None	N/A
AESBHCSELECTOR	TOGGLE	F	Save Both Half Cells
IRCOMP	TOGGLE	F	IR &Measure
EOC	QUANT	0	Open Circuit (V)
SEQUENCER	TOGGLE	TRUE	Run as Sequence
PSTATMODEL	IQUANT	53	Pstat Model
PSTATSECTION	LABEL	IFC5000-01520	Pstat Section
PSTATSERIALNO	LABEL	01520	Pstat Serial Number
CTRLMODE	IQUANT	0	Control Mode
ELECTROMETER	IQUANT	1	RE=0 or CS=1
IESTAB	IQUANT	0	I/E Stability
CASPEED	IQUANT	4	Control Amp Speed
CONVENTION	IQUANT	1	Current Convention
ICHRANGE	IQUANT	2	Ich Range
ICHRANGEMODE	TOGGLE	T	Ich Auto Range
ICHOFFSETENABLE	TOGGLE	F	Ich Offset Enable
ICHOFFSET	QUANT	0	Ich Offset (V)
ICHFILTER	IQUANT	1	Ich Filter
VCHRANGE	IQUANT	2	Vch Range
VCHRANGEMODE	TOGGLE	T	Vch Auto Range
VCHOFFSETENABLE	TOGGLE	F	Vch Offset Enable
VCHOFFSET	QUANT	0	Vch Offset (V)
VCHFILTER	IQUANT	1	Vch Filter
IERANGELOWERLIMIT	IQUANT	9	I/E Range Lower Limit
IERANGEMODE	TOGGLE	F	I/E AutoRange
IERANGE	IQUANT	10	I/E Range
ACHSELECT	IQUANT	1	Ach Select
ACHRANGE	IQUANT	2	Ach Range
ACHOFFSETENABLE	TOGGLE	F	Ach Offset Enable
ACHOFFSET	QUANT	0	Ach Offset (V)
ACHFILTER	IQUANT	1	Ach Filter
CABLEID	IQUANT	14	Cable ID
DCCALDATE	LABEL	20-10-2016	DC Calibration Date
ACCALDATE	LABEL	12/3/2015	AC Calibration Date
FRAMEWORKVERSION	QUANT	7.01	Framework Version
INSTRUMENTVERSION	LABEL	4.00	Instrument Version
CURVE	TABLE	67
	Pt	T	Vf	Im	Vu	Pwr	Sig	Ach	Temp	IERange	Over
	#	s	V	A	V	W	V	V	deg C	#	bits
	0	0.013333	6.01630E-001	5.99311E-003	0.00000E+000	3.60564E-003	3.59960E-001	-1.07860E+000	3.57770E+000	10	...........
	1	0.026667	6.10045E-001	5.99451E-003	0.00000E+000	3.65692E-003	3.59960E-001	-1.08625E+000	3.57770E+000	10	...........
	2	0.04	6.17833E-001	5.99323E-003	0.00000E+000	3.70281E-003	3.59960E-001	-1.08584E+000	3.57770E+000	10	...........
	3	0.053333	6.25130E-001	5.99297E-003	0.00000E+000	3.74639E-003	3.59960E-001	-1.07857E+000	3.57770E+000	10	...........
	4	0.066667	6.32168E-001	5.99485E-003	0.00000E+000	3.78975E-003	3.59960E-001	-1.08622E+000	3.57770E+000	10	...........
	5	0.08	6.38997E-001	5.99548E-003	0.00000E+000	3.83109E-003	3.59960E-001	-1.08601E+000	3.57770E+000	10	...........
	6	0.093333	6.45714E-001	5.99658E-003	0.00000E+000	3.87208E-003	3.59960E-001	-1.07854E+000	3.57770E+000	10	...........
	7	0.106667	6.52330E-001	5.99332E-003	0.00000E+000	3.90963E-003	3.59960E-001	-1.08602E+000	3.57770E+000	10	...........
	8	0.12	6.58829E-001	5.99297E-003	0.00000E+000	3.94834E-003	3.59960E-001	-1.08573E+000	3.57770E+000	10	...........
	9	0.133333	6.65288E-001	5.99428E-003	0.00000E+000	3.98792E-003	3.59960E-001	-1.07853E+000	3.57770E+000	10	...........
	10	0.146667	6.71688E-001	5.99280E-003	0.00000E+000	4.02529E-003	3.59960E-001	-1.08608E+000	3.57770E+000	10	...........
	11	0.16	6.78029E-001	5.99198E-003	0.00000E+000	4.06273E-003	3.59960E-001	-1.08586E+000	3.57770E+000	10	...........
	12	0.173333	6.84244E-001	5.99294E-003	0.00000E+000	4.10063E-003	3.59960E-001	-1.07853E+000	3.57770E+000	10	...........
	13	0.186667	6.90541E-001	5.99470E-003	0.00000E+000	4.13958E-003	3.59960E-001	-1.08604E+000	3.57770E+000	10	...........
	14	0.2	6.96768E-001	5.99369E-003	0.00000E+000	4.17621E-003	3.59960E-001	-1.08643E+000	3.57770E+000	10	...........
	15	0.213333	7.02963E-001	5.99311E-003	0.00000E+000	4.21294E-003	3.59960E-001	-1.07903E+000	3.57770E+000	10	...........
	16	0.226667	7.09129E-001	5.99536E-003	0.00000E+000	4.25148E-003	3.59960E-001	-1.08624E+000	3.57770E+000	10	...........
	17	0.24	7.15314E-001	5.99454E-003	0.00000E+000	4.28798E-003	3.59960E-001	-1.08645E+000	3.57770E+000	10	...........
	18	0.253333	7.21466E-001	5.99321E-003	0.00000E+000	4.32390E-003	3.59960E-001	-1.07885E+000	3.57770E+000	10	...........
	19	0.266667	7.27578E-001	5.99230E-003	0.00000E+000	4.35987E-003	3.59960E-001	-1.08590E+000	3.57770E+000	10	...........
	20	0.28	7.33663E-001	5.99299E-003	0.00000E+000	4.39683E-003	3.59960E-001	-1.08630E+000	3.57770E+000	10	...........
	21	0.293333	7.39810E-001	5.98838E-003	0.00000E+000	4.43026E-003	3.59960E-001	-1.07858E+000	3.57770E+000	10	...........
	22	0.306667	7.45925E-001	5.99261E-003	0.00000E+000	4.47004E-003	3.59960E-001	-1.08572E+000	3.57770E+000	10	...........
	23	0.32	7.52010E-001	5.99402E-003	0.00000E+000	4.50756E-003	3.59960E-001	-1.08625E+000	3.57770E+000	10	...........
	24	0.333333	7.58116E-001	5.99675E-003	0.00000E+000	4.54623E-003	3.59960E-001	-1.07862E+000	3.57770E+000	10	...........
	25	0.346667	7.64131E-001	5.99255E-003	0.00000E+000	4.57909E-003	3.59960E-001	-1.08533E+000	3.57770E+000	10	...........
	26	0.36	7.70229E-001	5.98969E-003	0.00000E+000	4.61343E-003	3.59960E-001	-1.08616E+000	3.57770E+000	10	...........
	27	0.373333	7.76285E-001	5.99375E-003	0.00000E+000	4.65286E-003	3.59960E-001	-1.07823E+000	3.57770E+000	10	...........
	28	0.386667	7.82322E-001	5.99416E-003	0.00000E+000	4.68936E-003	3.59960E-001	-1.08519E+000	3.57770E+000	10	...........
	29	0.4	7.88363E-001	5.99412E-003	0.00000E+000	4.72554E-003	3.59960E-001	-1.08618E+000	3.57770E+000	10	...........
	30	0.413333	7.94428E-001	5.99206E-003	0.00000E+000	4.76026E-003	3.59960E-001	-1.07835E+000	3.57770E+000	10	...........
	31	0.426667	8.00493E-001	5.99212E-003	0.00000E+000	4.79665E-003	3.59960E-001	-1.08476E+000	3.57770E+000	10	...........
	32	0.44	8.06526E-001	5.99538E-003	0.00000E+000	4.83543E-003	3.59960E-001	-1.08576E+000	3.57770E+000	10	...........
	33	0.453333	8.12506E-001	5.99328E-003	0.00000E+000	4.86958E-003	3.59960E-001	-1.07801E+000	3.57770E+000	10	...........
	34	0.466667	8.18528E-001	5.99239E-003	0.00000E+000	4.90494E-003	3.59960E-001	-1.08446E+000	3.57770E+000	10	...........
	35	0.48	8.24512E-001	5.99220E-003	0.00000E+000	4.94063E-003	3.59960E-001	-1.08584E+000	3.57770E+000	10	...........
	36	0.493333	8.30498E-001	5.99250E-003	0.00000E+000	4.97676E-003	3.59960E-001	-1.07769E+000	3.57770E+000	10	...........
	37	0.506667	8.36524E-001	5.99111E-003	0.00000E+000	5.01171E-003	3.59960E-001	-1.08386E+000	3.57770E+000	10	...........
	38	0.52	8.42517E-001	5.99399E-003	0.00000E+000	5.05004E-003	3.59960E-001	-1.08572E+000	3.57770E+000	10	...........
	39	0.533333	8.48520E-001	5.99470E-003	0.00000E+000	5.08662E-003	3.59960E-001	-1.07765E+000	3.57770E+000	10	...........
	40	0.546667	8.54519E-001	5.99726E-003	0.00000E+000	5.12478E-003	3.59960E-001	-1.08385E+000	3.57770E+000	10	...........
	41	0.56	8.60405E-001	5.98835E-003	0.00000E+000	5.15240E-003	3.59960E-001	-1.08585E+000	3.57770E+000	10	...........
	42	0.573333	8.66360E-001	5.99463E-003	0.00000E+000	5.19350E-003	3.59960E-001	-1.07734E+000	3.57770E+000	10	...........
	43	0.586667	8.72283E-001	5.99712E-003	0.00000E+000	5.23118E-003	3.59960E-001	-1.08364E+000	3.57770E+000	10	...........
	44	0.6	8.78211E-001	5.99294E-003	0.00000E+000	5.26306E-003	3.59960E-001	-1.08574E+000	3.57770E+000	10	...........
	45	0.613333	8.84146E-001	5.99344E-003	0.00000E+000	5.29907E-003	3.59960E-001	-1.07750E+000	3.57770E+000	10	...........
	46	0.626667	8.90015E-001	5.99646E-003	0.00000E+000	5.33694E-003	3.59960E-001	-1.08316E+000	3.57770E+000	10	...........
	47	0.64	8.95893E-001	5.99585E-003	0.00000E+000	5.37164E-003	3.59960E-001	-1.08540E+000	3.57770E+000	10	...........
	48	0.653333	9.01715E-001	5.98911E-003	0.00000E+000	5.40047E-003	3.59960E-001	-1.07700E+000	3.57770E+000	10	...........
	49	0.666667	9.07571E-001	5.99361E-003	0.00000E+000	5.43963E-003	3.59960E-001	-1.08294E+000	3.57770E+000	10	...........
	50	0.68	9.13382E-001	5.98832E-003	0.00000E+000	5.46962E-003	3.59960E-001	-1.08543E+000	3.57770E+000	10	...........
	51	0.693333	9.19207E-001	5.99332E-003	0.00000E+000	5.50910E-003	3.59960E-001	-1.07725E+000	3.57770E+000	10	...........
	52	0.706667	9.25070E-001	5.99224E-003	0.00000E+000	5.54324E-003	3.59960E-001	-1.08281E+000	3.57770E+000	10	...........
	53	0.72	9.30797E-001	5.99534E-003	0.00000E+000	5.58044E-003	3.59960E-001	-1.08557E+000	3.57770E+000	10	...........
	54	0.733333	9.36499E-001	5.99270E-003	0.00000E+000	5.61216E-003	3.59960E-001	-1.07756E+000	3.57770E+000	10	...........
	55	0.746667	9.42181E-001	5.99154E-003	0.00000E+000	5.64512E-003	3.59960E-001	-1.08311E+000	3.57770E+000	10	...........
	56	0.76	9.47880E-001	5.99021E-003	0.00000E+000	5.67800E-003	3.59960E-001	-1.08600E+000	3.57770E+000	10	...........
	57	0.773333	9.53526E-001	5.98996E-003	0.00000E+000	5.71158E-003	3.59960E-001	-1.07772E+000	3.57770E+000	10	...........
	58	0.786667	9.59138E-001	5.99549E-003	0.00000E+000	5.75050E-003	3.59960E-001	-1.08317E+000	3.57770E+000	10	...........
	59	0.8	9.64686E-001	5.99274E-003	0.00000E+000	5.78111E-003	3.59960E-001	-1.08637E+000	3.57770E+000	10	...........
	60	0.813333	9.70197E-001	5.99195E-003	0.00000E+000	5.81336E-003	3.59960E-001	-1.07817E+000	3.57770E+000	10	...........
	61	0.826667	9.75774E-001	5.99399E-003	0.00000E+000	5.84878E-003	3.59960E-001	-1.08318E+000	3.57770E+000	10	...........
	62	0.84	9.81217E-001	5.99362E-003	0.00000E+000	5.88105E-003	3.59960E-001	-1.08670E+000	3.57799E+000	10	...........
	63	0.853333	9.86663E-001	5.99309E-003	0.00000E+000	5.91316E-003	3.59960E-001	-1.07806E+000	3.57830E+000	10	...........
	64	0.866667	9.92026E-001	5.99412E-003	0.00000E+000	5.94632E-003	3.59960E-001	-1.08317E+000	3.57830E+000	10	...........
	65	0.88	9.97403E-001	5.99333E-003	0.00000E+000	5.97777E-003	3.59960E-001	-1.08675E+000	3.57830E+000	10	...........
	66	0.881667	1.00036E+000	5.99204E-003	0.00000E+000	5.99422E-003	3.59960E-001	-1.08858E+000	3.57830E+000	10	...........
STARTTIMEOFFSET	QUANT	317.3734	Start Time Offset (s)