File: Data/CV_CRGO300517_1/PWRCCD_CRGO300517_1/CHARGE_DISCHARGE/CHARGE_#582.DTA
EXPLAIN
TAG	PWR800_CHARGE
TITLE	LABEL	PWR Cyclic Charge Discharge (Cell) - Charge Step	Test &Identifier
DATE	LABEL	22-6-2017	Date
TIME	LABEL	15:59:05	Time
NOTES	NOTES	3	&Notes...
	supercap test cell
	0.6mg
	6M KOH
PSTAT	PSTAT	IFC5000-01520	Potentiostat
CAPACITY	QUANT	1.00000E-003	Capacity (A-hr)
CELLTYPE	SELECTOR	1	&Cell Type
WORKINGCONNECTION	SELECTOR	0	&Working Lead
MAXCHARGETIME	VARIABLEANDUNITS	1.00000E+002	s	1.00000E+002	second(s)	Max &Charge Time
CHARGECURRENT	QUANT	6.00000E-003	&Charge Current (A)
VOLTAGEFINISH	TWOPARAM	F	1.00000E-003	3.60000E+003	&Voltage Finish	 I (A) < 	Max Time(s)
SAMPLETIME	QUANT	1.00000E-002	Sa&mple Period (s)
CHARGESTOPAT1	MULTIPARAM	4	1.00000E+000	Charge Stop At &1	Voltage > Limit	V
CHARGESTOPAT2	MULTIPARAM	0	0.00000E+000	Charge Stop At &2	None	N/A
AESBHCSELECTOR	TOGGLE	F	Save Both Half Cells
IRCOMP	TOGGLE	F	IR &Measure
EOC	QUANT	0	Open Circuit (V)
SEQUENCER	TOGGLE	TRUE	Run as Sequence
PSTATMODEL	IQUANT	53	Pstat Model
PSTATSECTION	LABEL	IFC5000-01520	Pstat Section
PSTATSERIALNO	LABEL	01520	Pstat Serial Number
CTRLMODE	IQUANT	0	Control Mode
ELECTROMETER	IQUANT	1	RE=0 or CS=1
IESTAB	IQUANT	0	I/E Stability
CASPEED	IQUANT	4	Control Amp Speed
CONVENTION	IQUANT	1	Current Convention
ICHRANGE	IQUANT	2	Ich Range
ICHRANGEMODE	TOGGLE	T	Ich Auto Range
ICHOFFSETENABLE	TOGGLE	F	Ich Offset Enable
ICHOFFSET	QUANT	0	Ich Offset (V)
ICHFILTER	IQUANT	1	Ich Filter
VCHRANGE	IQUANT	2	Vch Range
VCHRANGEMODE	TOGGLE	T	Vch Auto Range
VCHOFFSETENABLE	TOGGLE	F	Vch Offset Enable
VCHOFFSET	QUANT	0	Vch Offset (V)
VCHFILTER	IQUANT	1	Vch Filter
IERANGELOWERLIMIT	IQUANT	9	I/E Range Lower Limit
IERANGEMODE	TOGGLE	F	I/E AutoRange
IERANGE	IQUANT	10	I/E Range
ACHSELECT	IQUANT	1	Ach Select
ACHRANGE	IQUANT	2	Ach Range
ACHOFFSETENABLE	TOGGLE	F	Ach Offset Enable
ACHOFFSET	QUANT	0	Ach Offset (V)
ACHFILTER	IQUANT	1	Ach Filter
CABLEID	IQUANT	14	Cable ID
DCCALDATE	LABEL	20-10-2016	DC Calibration Date
ACCALDATE	LABEL	12/3/2015	AC Calibration Date
FRAMEWORKVERSION	QUANT	7.01	Framework Version
INSTRUMENTVERSION	LABEL	4.00	Instrument Version
CURVE	TABLE	57
	Pt	T	Vf	Im	Vu	Pwr	Sig	Ach	Temp	IERange	Over
	#	s	V	A	V	W	V	V	deg C	#	bits
	0	0.013333	6.36880E-001	5.99510E-003	0.00000E+000	3.81815E-003	3.59960E-001	-1.14245E+000	3.57650E+000	10	...........
	1	0.026667	6.45857E-001	5.99449E-003	0.00000E+000	3.87158E-003	3.59960E-001	-1.14571E+000	3.57650E+000	10	...........
	2	0.04	6.54149E-001	5.99545E-003	0.00000E+000	3.92192E-003	3.59960E-001	-1.15242E+000	3.57650E+000	10	...........
	3	0.053333	6.61973E-001	5.99047E-003	0.00000E+000	3.96553E-003	3.59960E-001	-1.14227E+000	3.57650E+000	10	...........
	4	0.066667	6.69532E-001	5.99688E-003	0.00000E+000	4.01510E-003	3.59960E-001	-1.14578E+000	3.57650E+000	10	...........
	5	0.08	6.76872E-001	5.99260E-003	0.00000E+000	4.05623E-003	3.59960E-001	-1.15222E+000	3.57650E+000	10	...........
	6	0.093333	6.84108E-001	5.99319E-003	0.00000E+000	4.09999E-003	3.59960E-001	-1.14238E+000	3.57650E+000	10	...........
	7	0.106667	6.91170E-001	5.99570E-003	0.00000E+000	4.14405E-003	3.59960E-001	-1.14558E+000	3.57650E+000	10	...........
	8	0.12	6.98197E-001	5.99545E-003	0.00000E+000	4.18601E-003	3.59960E-001	-1.15183E+000	3.57650E+000	10	...........
	9	0.133333	7.05096E-001	5.99066E-003	0.00000E+000	4.22399E-003	3.59960E-001	-1.14188E+000	3.57650E+000	10	...........
	10	0.146667	7.11939E-001	5.99638E-003	0.00000E+000	4.26905E-003	3.59960E-001	-1.14549E+000	3.57650E+000	10	...........
	11	0.16	7.18819E-001	5.99076E-003	0.00000E+000	4.30627E-003	3.59960E-001	-1.15181E+000	3.57650E+000	10	...........
	12	0.173333	7.25614E-001	5.99306E-003	0.00000E+000	4.34865E-003	3.59960E-001	-1.14173E+000	3.57650E+000	10	...........
	13	0.186667	7.32295E-001	5.99369E-003	0.00000E+000	4.38915E-003	3.59960E-001	-1.14514E+000	3.57720E+000	10	...........
	14	0.2	7.38962E-001	5.99200E-003	0.00000E+000	4.42786E-003	3.59960E-001	-1.15158E+000	3.57720E+000	10	...........
	15	0.213333	7.45607E-001	5.99177E-003	0.00000E+000	4.46751E-003	3.59960E-001	-1.14163E+000	3.57720E+000	10	...........
	16	0.226667	7.52252E-001	5.99190E-003	0.00000E+000	4.50742E-003	3.59960E-001	-1.14516E+000	3.57720E+000	10	...........
	17	0.24	7.58855E-001	5.99799E-003	0.00000E+000	4.55161E-003	3.59960E-001	-1.15157E+000	3.57720E+000	10	...........
	18	0.253333	7.65447E-001	5.99595E-003	0.00000E+000	4.58958E-003	3.59960E-001	-1.14142E+000	3.57720E+000	10	...........
	19	0.266667	7.72037E-001	5.99299E-003	0.00000E+000	4.62681E-003	3.59960E-001	-1.14492E+000	3.57720E+000	10	...........
	20	0.28	7.78600E-001	5.99762E-003	0.00000E+000	4.66974E-003	3.59960E-001	-1.15153E+000	3.57720E+000	10	...........
	21	0.293333	7.85142E-001	5.99321E-003	0.00000E+000	4.70552E-003	3.59960E-001	-1.14167E+000	3.57720E+000	10	...........
	22	0.306667	7.91677E-001	5.99227E-003	0.00000E+000	4.74394E-003	3.59960E-001	-1.14478E+000	3.57720E+000	10	...........
	23	0.32	7.98213E-001	5.99503E-003	0.00000E+000	4.78531E-003	3.59960E-001	-1.15137E+000	3.57720E+000	10	...........
	24	0.333333	8.04697E-001	5.99308E-003	0.00000E+000	4.82261E-003	3.59960E-001	-1.14148E+000	3.57720E+000	10	...........
	25	0.346667	8.11204E-001	5.99783E-003	0.00000E+000	4.86546E-003	3.59960E-001	-1.14511E+000	3.57720E+000	10	...........
	26	0.36	8.17678E-001	5.99681E-003	0.00000E+000	4.90346E-003	3.59960E-001	-1.15150E+000	3.57720E+000	10	...........
	27	0.373333	8.24108E-001	5.99381E-003	0.00000E+000	4.93955E-003	3.59960E-001	-1.14140E+000	3.57720E+000	10	...........
	28	0.386667	8.30509E-001	5.99537E-003	0.00000E+000	4.97920E-003	3.59960E-001	-1.14465E+000	3.57720E+000	10	...........
	29	0.4	8.36885E-001	5.98913E-003	0.00000E+000	5.01221E-003	3.59960E-001	-1.15125E+000	3.57720E+000	10	...........
	30	0.413333	8.43322E-001	5.99623E-003	0.00000E+000	5.05676E-003	3.59960E-001	-1.14150E+000	3.57720E+000	10	...........
	31	0.426667	8.49678E-001	5.99162E-003	0.00000E+000	5.09095E-003	3.59960E-001	-1.14495E+000	3.57720E+000	10	...........
	32	0.44	8.56004E-001	5.99242E-003	0.00000E+000	5.12954E-003	3.59960E-001	-1.15110E+000	3.57720E+000	10	...........
	33	0.453333	8.62343E-001	5.99487E-003	0.00000E+000	5.16963E-003	3.59960E-001	-1.14090E+000	3.57720E+000	10	...........
	34	0.466667	8.68639E-001	5.99711E-003	0.00000E+000	5.20932E-003	3.59960E-001	-1.14472E+000	3.57720E+000	10	...........
	35	0.48	8.74935E-001	5.99302E-003	0.00000E+000	5.24350E-003	3.59960E-001	-1.15087E+000	3.57720E+000	10	...........
	36	0.493333	8.81146E-001	5.98596E-003	0.00000E+000	5.27450E-003	3.59960E-001	-1.14108E+000	3.57720E+000	10	...........
	37	0.506667	8.87414E-001	5.99831E-003	0.00000E+000	5.32298E-003	3.59960E-001	-1.14456E+000	3.57720E+000	10	...........
	38	0.52	8.93615E-001	5.99258E-003	0.00000E+000	5.35506E-003	3.59960E-001	-1.15071E+000	3.57720E+000	10	...........
	39	0.533333	8.99777E-001	5.99115E-003	0.00000E+000	5.39070E-003	3.59960E-001	-1.14114E+000	3.57720E+000	10	...........
	40	0.546667	9.05884E-001	5.99083E-003	0.00000E+000	5.42700E-003	3.59960E-001	-1.14450E+000	3.57720E+000	10	...........
	41	0.56	9.12046E-001	5.99102E-003	0.00000E+000	5.46409E-003	3.59960E-001	-1.15075E+000	3.57720E+000	10	...........
	42	0.573333	9.18165E-001	5.99504E-003	0.00000E+000	5.50444E-003	3.59960E-001	-1.14095E+000	3.57720E+000	10	...........
	43	0.586667	9.24222E-001	5.99701E-003	0.00000E+000	5.54257E-003	3.59960E-001	-1.14437E+000	3.57720E+000	10	...........
	44	0.6	9.30224E-001	5.99177E-003	0.00000E+000	5.57369E-003	3.59960E-001	-1.15076E+000	3.57720E+000	10	...........
	45	0.613333	9.36220E-001	5.99611E-003	0.00000E+000	5.61368E-003	3.59960E-001	-1.14094E+000	3.57720E+000	10	...........
	46	0.626667	9.42123E-001	5.99296E-003	0.00000E+000	5.64610E-003	3.59960E-001	-1.14432E+000	3.57720E+000	10	...........
	47	0.64	9.48005E-001	5.99051E-003	0.00000E+000	5.67903E-003	3.59960E-001	-1.15071E+000	3.57720E+000	10	...........
	48	0.653333	9.53858E-001	5.99430E-003	0.00000E+000	5.71771E-003	3.59960E-001	-1.14085E+000	3.57720E+000	10	...........
	49	0.666667	9.59712E-001	5.99278E-003	0.00000E+000	5.75134E-003	3.59960E-001	-1.14461E+000	3.57720E+000	10	...........
	50	0.68	9.65465E-001	5.99455E-003	0.00000E+000	5.78753E-003	3.59960E-001	-1.15106E+000	3.57720E+000	10	...........
	51	0.693333	9.71185E-001	5.99629E-003	0.00000E+000	5.82351E-003	3.59960E-001	-1.14131E+000	3.57720E+000	10	...........
	52	0.706667	9.76852E-001	5.98594E-003	0.00000E+000	5.84737E-003	3.59960E-001	-1.14463E+000	3.57720E+000	10	...........
	53	0.72	9.82485E-001	5.99292E-003	0.00000E+000	5.88795E-003	3.59960E-001	-1.15089E+000	3.57720E+000	10	...........
	54	0.733333	9.88082E-001	5.99690E-003	0.00000E+000	5.92543E-003	3.59960E-001	-1.14104E+000	3.57720E+000	10	...........
	55	0.746667	9.93597E-001	5.99538E-003	0.00000E+000	5.95699E-003	3.59960E-001	-1.14470E+000	3.57720E+000	10	...........
	56	0.756667	9.98408E-001	5.99005E-003	0.00000E+000	5.98052E-003	3.59960E-001	-1.15015E+000	3.57720E+000	10	...........
STARTTIMEOFFSET	QUANT	983.895	Start Time Offset (s)