File: Data/CV_CRGO300517_1/PWRCCD_CRGO300517_1/CHARGE_DISCHARGE/CHARGE_#611.DTA
EXPLAIN
TAG	PWR800_CHARGE
TITLE	LABEL	PWR Cyclic Charge Discharge (Cell) - Charge Step	Test &Identifier
DATE	LABEL	22-6-2017	Date
TIME	LABEL	16:00:11	Time
NOTES	NOTES	3	&Notes...
	supercap test cell
	0.6mg
	6M KOH
PSTAT	PSTAT	IFC5000-01520	Potentiostat
CAPACITY	QUANT	1.00000E-003	Capacity (A-hr)
CELLTYPE	SELECTOR	1	&Cell Type
WORKINGCONNECTION	SELECTOR	0	&Working Lead
MAXCHARGETIME	VARIABLEANDUNITS	1.00000E+002	s	1.00000E+002	second(s)	Max &Charge Time
CHARGECURRENT	QUANT	6.00000E-003	&Charge Current (A)
VOLTAGEFINISH	TWOPARAM	F	1.00000E-003	3.60000E+003	&Voltage Finish	 I (A) < 	Max Time(s)
SAMPLETIME	QUANT	1.00000E-002	Sa&mple Period (s)
CHARGESTOPAT1	MULTIPARAM	4	1.00000E+000	Charge Stop At &1	Voltage > Limit	V
CHARGESTOPAT2	MULTIPARAM	0	0.00000E+000	Charge Stop At &2	None	N/A
AESBHCSELECTOR	TOGGLE	F	Save Both Half Cells
IRCOMP	TOGGLE	F	IR &Measure
EOC	QUANT	0	Open Circuit (V)
SEQUENCER	TOGGLE	TRUE	Run as Sequence
PSTATMODEL	IQUANT	53	Pstat Model
PSTATSECTION	LABEL	IFC5000-01520	Pstat Section
PSTATSERIALNO	LABEL	01520	Pstat Serial Number
CTRLMODE	IQUANT	0	Control Mode
ELECTROMETER	IQUANT	1	RE=0 or CS=1
IESTAB	IQUANT	0	I/E Stability
CASPEED	IQUANT	4	Control Amp Speed
CONVENTION	IQUANT	1	Current Convention
ICHRANGE	IQUANT	2	Ich Range
ICHRANGEMODE	TOGGLE	T	Ich Auto Range
ICHOFFSETENABLE	TOGGLE	F	Ich Offset Enable
ICHOFFSET	QUANT	0	Ich Offset (V)
ICHFILTER	IQUANT	1	Ich Filter
VCHRANGE	IQUANT	2	Vch Range
VCHRANGEMODE	TOGGLE	T	Vch Auto Range
VCHOFFSETENABLE	TOGGLE	F	Vch Offset Enable
VCHOFFSET	QUANT	0	Vch Offset (V)
VCHFILTER	IQUANT	1	Vch Filter
IERANGELOWERLIMIT	IQUANT	9	I/E Range Lower Limit
IERANGEMODE	TOGGLE	F	I/E AutoRange
IERANGE	IQUANT	10	I/E Range
ACHSELECT	IQUANT	1	Ach Select
ACHRANGE	IQUANT	2	Ach Range
ACHOFFSETENABLE	TOGGLE	F	Ach Offset Enable
ACHOFFSET	QUANT	0	Ach Offset (V)
ACHFILTER	IQUANT	1	Ach Filter
CABLEID	IQUANT	14	Cable ID
DCCALDATE	LABEL	20-10-2016	DC Calibration Date
ACCALDATE	LABEL	12/3/2015	AC Calibration Date
FRAMEWORKVERSION	QUANT	7.01	Framework Version
INSTRUMENTVERSION	LABEL	4.00	Instrument Version
CURVE	TABLE	57
	Pt	T	Vf	Im	Vu	Pwr	Sig	Ach	Temp	IERange	Over
	#	s	V	A	V	W	V	V	deg C	#	bits
	0	0.013333	6.38547E-001	5.99040E-003	0.00000E+000	3.82515E-003	3.59960E-001	-1.15826E+000	3.57790E+000	10	...........
	1	0.026667	6.47570E-001	5.99430E-003	0.00000E+000	3.88173E-003	3.59960E-001	-1.14840E+000	3.57790E+000	10	...........
	2	0.04	6.55831E-001	5.99919E-003	0.00000E+000	3.93445E-003	3.59960E-001	-1.15187E+000	3.57790E+000	10	...........
	3	0.053333	6.63683E-001	5.99647E-003	0.00000E+000	3.97976E-003	3.59960E-001	-1.15802E+000	3.57790E+000	10	...........
	4	0.066667	6.71291E-001	5.99603E-003	0.00000E+000	4.02508E-003	3.59960E-001	-1.14822E+000	3.57790E+000	10	...........
	5	0.08	6.78618E-001	5.98966E-003	0.00000E+000	4.06469E-003	3.59960E-001	-1.15134E+000	3.57790E+000	10	...........
	6	0.093333	6.85859E-001	5.99395E-003	0.00000E+000	4.11100E-003	3.59960E-001	-1.15743E+000	3.57790E+000	10	...........
	7	0.106667	6.92957E-001	5.99106E-003	0.00000E+000	4.15154E-003	3.59960E-001	-1.14758E+000	3.57790E+000	10	...........
	8	0.12	6.99978E-001	5.99207E-003	0.00000E+000	4.19432E-003	3.59960E-001	-1.15149E+000	3.57790E+000	10	...........
	9	0.133333	7.06923E-001	5.99653E-003	0.00000E+000	4.23909E-003	3.59960E-001	-1.15789E+000	3.57790E+000	10	...........
	10	0.146667	7.13781E-001	5.99842E-003	0.00000E+000	4.28156E-003	3.59960E-001	-1.14793E+000	3.57790E+000	10	...........
	11	0.16	7.20673E-001	5.99602E-003	0.00000E+000	4.32117E-003	3.59960E-001	-1.15151E+000	3.57790E+000	10	...........
	12	0.173333	7.27463E-001	5.99574E-003	0.00000E+000	4.36168E-003	3.59960E-001	-1.15744E+000	3.57790E+000	10	...........
	13	0.186667	7.34224E-001	5.99467E-003	0.00000E+000	4.40143E-003	3.59960E-001	-1.14796E+000	3.57790E+000	10	...........
	14	0.2	7.40941E-001	6.00074E-003	0.00000E+000	4.44619E-003	3.59960E-001	-1.15129E+000	3.57790E+000	10	...........
	15	0.213333	7.47638E-001	5.99821E-003	0.00000E+000	4.48449E-003	3.59960E-001	-1.15758E+000	3.57790E+000	10	...........
	16	0.226667	7.54306E-001	5.99863E-003	0.00000E+000	4.52480E-003	3.59960E-001	-1.14788E+000	3.57790E+000	10	...........
	17	0.24	7.60947E-001	5.99721E-003	0.00000E+000	4.56356E-003	3.59960E-001	-1.15125E+000	3.57790E+000	10	...........
	18	0.253333	7.67577E-001	5.99076E-003	0.00000E+000	4.59837E-003	3.59960E-001	-1.15737E+000	3.57790E+000	10	...........
	19	0.266667	7.74193E-001	5.99614E-003	0.00000E+000	4.64217E-003	3.59960E-001	-1.14778E+000	3.57790E+000	10	...........
	20	0.28	7.80785E-001	5.99539E-003	0.00000E+000	4.68111E-003	3.59960E-001	-1.15124E+000	3.57790E+000	10	...........
	21	0.293333	7.87354E-001	5.99531E-003	0.00000E+000	4.72044E-003	3.59960E-001	-1.15753E+000	3.57790E+000	10	...........
	22	0.306667	7.93942E-001	5.99803E-003	0.00000E+000	4.76208E-003	3.59960E-001	-1.14775E+000	3.57790E+000	10	...........
	23	0.32	8.00434E-001	5.99068E-003	0.00000E+000	4.79515E-003	3.59960E-001	-1.15135E+000	3.57790E+000	10	...........
	24	0.333333	8.06945E-001	5.99217E-003	0.00000E+000	4.83536E-003	3.59960E-001	-1.15754E+000	3.57790E+000	10	...........
	25	0.346667	8.13471E-001	5.99305E-003	0.00000E+000	4.87517E-003	3.59960E-001	-1.14787E+000	3.57790E+000	10	...........
	26	0.36	8.19931E-001	5.99332E-003	0.00000E+000	4.91411E-003	3.59960E-001	-1.15122E+000	3.57790E+000	10	...........
	27	0.373333	8.26357E-001	5.99498E-003	0.00000E+000	4.95400E-003	3.59960E-001	-1.15747E+000	3.57790E+000	10	...........
	28	0.386667	8.32811E-001	5.99127E-003	0.00000E+000	4.98959E-003	3.59960E-001	-1.14774E+000	3.57790E+000	10	...........
	29	0.4	8.39235E-001	5.99485E-003	0.00000E+000	5.03108E-003	3.59960E-001	-1.15092E+000	3.57790E+000	10	...........
	30	0.413333	8.45648E-001	5.99231E-003	0.00000E+000	5.06739E-003	3.59960E-001	-1.15714E+000	3.57790E+000	10	...........
	31	0.426667	8.52056E-001	5.99838E-003	0.00000E+000	5.11095E-003	3.59960E-001	-1.14709E+000	3.57790E+000	10	...........
	32	0.44	8.58404E-001	5.98760E-003	0.00000E+000	5.13978E-003	3.59960E-001	-1.15061E+000	3.57790E+000	10	...........
	33	0.453333	8.64744E-001	5.99443E-003	0.00000E+000	5.18365E-003	3.59960E-001	-1.15720E+000	3.57790E+000	10	...........
	34	0.466667	8.71080E-001	5.99450E-003	0.00000E+000	5.22169E-003	3.59960E-001	-1.14717E+000	3.57790E+000	10	...........
	35	0.48	8.77367E-001	5.99219E-003	0.00000E+000	5.25735E-003	3.59960E-001	-1.15098E+000	3.57790E+000	10	...........
	36	0.493333	8.83633E-001	5.98631E-003	0.00000E+000	5.28971E-003	3.59960E-001	-1.15707E+000	3.57790E+000	10	...........
	37	0.506667	8.89846E-001	5.99711E-003	0.00000E+000	5.33650E-003	3.59960E-001	-1.14731E+000	3.57790E+000	10	...........
	38	0.52	8.96061E-001	5.98882E-003	0.00000E+000	5.36634E-003	3.59960E-001	-1.15088E+000	3.57790E+000	10	...........
	39	0.533333	9.02248E-001	5.99812E-003	0.00000E+000	5.41179E-003	3.59960E-001	-1.15712E+000	3.57790E+000	10	...........
	40	0.546667	9.08393E-001	5.99265E-003	0.00000E+000	5.44368E-003	3.59960E-001	-1.14728E+000	3.57790E+000	10	...........
	41	0.56	9.14505E-001	5.99253E-003	0.00000E+000	5.48020E-003	3.59960E-001	-1.15058E+000	3.57790E+000	10	...........
	42	0.573333	9.20588E-001	5.99879E-003	0.00000E+000	5.52241E-003	3.59960E-001	-1.15714E+000	3.57790E+000	10	...........
	43	0.586667	9.26622E-001	5.99037E-003	0.00000E+000	5.55081E-003	3.59960E-001	-1.14722E+000	3.57790E+000	10	...........
	44	0.6	9.32617E-001	5.99977E-003	0.00000E+000	5.59548E-003	3.59960E-001	-1.15090E+000	3.57790E+000	10	...........
	45	0.613333	9.38608E-001	5.99697E-003	0.00000E+000	5.62880E-003	3.59960E-001	-1.15735E+000	3.57790E+000	10	...........
	46	0.626667	9.44512E-001	5.99452E-003	0.00000E+000	5.66190E-003	3.59960E-001	-1.14735E+000	3.57790E+000	10	...........
	47	0.64	9.50386E-001	5.99062E-003	0.00000E+000	5.69340E-003	3.59960E-001	-1.15091E+000	3.57790E+000	10	...........
	48	0.653333	9.56234E-001	5.99648E-003	0.00000E+000	5.73404E-003	3.59960E-001	-1.15731E+000	3.57790E+000	10	...........
	49	0.666667	9.61997E-001	5.99413E-003	0.00000E+000	5.76633E-003	3.59960E-001	-1.14754E+000	3.57790E+000	10	...........
	50	0.68	9.67762E-001	5.99117E-003	0.00000E+000	5.79803E-003	3.59960E-001	-1.15100E+000	3.57790E+000	10	...........
	51	0.693333	9.73518E-001	5.99132E-003	0.00000E+000	5.83266E-003	3.59960E-001	-1.15710E+000	3.57790E+000	10	...........
	52	0.706667	9.79180E-001	5.98848E-003	0.00000E+000	5.86380E-003	3.59960E-001	-1.14716E+000	3.57790E+000	10	...........
	53	0.72	9.84782E-001	5.98910E-003	0.00000E+000	5.89796E-003	3.59960E-001	-1.15039E+000	3.57790E+000	10	...........
	54	0.733333	9.90330E-001	5.99485E-003	0.00000E+000	5.93688E-003	3.59960E-001	-1.15701E+000	3.57790E+000	10	...........
	55	0.746667	9.95872E-001	5.99259E-003	0.00000E+000	5.96786E-003	3.59960E-001	-1.14689E+000	3.57790E+000	10	...........
	56	0.751667	9.99644E-001	5.99068E-003	0.00000E+000	5.98854E-003	3.59960E-001	-1.16114E+000	3.57790E+000	10	...........
STARTTIMEOFFSET	QUANT	1027.407	Start Time Offset (s)