File: Data/CV_CRGO300517_1/PWRCCD_CRGO300517_1/CHARGE_DISCHARGE/CHARGE_#962.DTA
EXPLAIN
TAG	PWR800_CHARGE
TITLE	LABEL	PWR Cyclic Charge Discharge (Cell) - Charge Step	Test &Identifier
DATE	LABEL	22-6-2017	Date
TIME	LABEL	16:13:15	Time
NOTES	NOTES	3	&Notes...
	supercap test cell
	0.6mg
	6M KOH
PSTAT	PSTAT	IFC5000-01520	Potentiostat
CAPACITY	QUANT	1.00000E-003	Capacity (A-hr)
CELLTYPE	SELECTOR	1	&Cell Type
WORKINGCONNECTION	SELECTOR	0	&Working Lead
MAXCHARGETIME	VARIABLEANDUNITS	1.00000E+002	s	1.00000E+002	second(s)	Max &Charge Time
CHARGECURRENT	QUANT	6.00000E-003	&Charge Current (A)
VOLTAGEFINISH	TWOPARAM	F	1.00000E-003	3.60000E+003	&Voltage Finish	 I (A) < 	Max Time(s)
SAMPLETIME	QUANT	1.00000E-002	Sa&mple Period (s)
CHARGESTOPAT1	MULTIPARAM	4	1.00000E+000	Charge Stop At &1	Voltage > Limit	V
CHARGESTOPAT2	MULTIPARAM	0	0.00000E+000	Charge Stop At &2	None	N/A
AESBHCSELECTOR	TOGGLE	F	Save Both Half Cells
IRCOMP	TOGGLE	F	IR &Measure
EOC	QUANT	0	Open Circuit (V)
SEQUENCER	TOGGLE	TRUE	Run as Sequence
PSTATMODEL	IQUANT	53	Pstat Model
PSTATSECTION	LABEL	IFC5000-01520	Pstat Section
PSTATSERIALNO	LABEL	01520	Pstat Serial Number
CTRLMODE	IQUANT	0	Control Mode
ELECTROMETER	IQUANT	1	RE=0 or CS=1
IESTAB	IQUANT	0	I/E Stability
CASPEED	IQUANT	4	Control Amp Speed
CONVENTION	IQUANT	1	Current Convention
ICHRANGE	IQUANT	2	Ich Range
ICHRANGEMODE	TOGGLE	T	Ich Auto Range
ICHOFFSETENABLE	TOGGLE	F	Ich Offset Enable
ICHOFFSET	QUANT	0	Ich Offset (V)
ICHFILTER	IQUANT	1	Ich Filter
VCHRANGE	IQUANT	2	Vch Range
VCHRANGEMODE	TOGGLE	T	Vch Auto Range
VCHOFFSETENABLE	TOGGLE	F	Vch Offset Enable
VCHOFFSET	QUANT	0	Vch Offset (V)
VCHFILTER	IQUANT	1	Vch Filter
IERANGELOWERLIMIT	IQUANT	9	I/E Range Lower Limit
IERANGEMODE	TOGGLE	F	I/E AutoRange
IERANGE	IQUANT	10	I/E Range
ACHSELECT	IQUANT	1	Ach Select
ACHRANGE	IQUANT	2	Ach Range
ACHOFFSETENABLE	TOGGLE	F	Ach Offset Enable
ACHOFFSET	QUANT	0	Ach Offset (V)
ACHFILTER	IQUANT	1	Ach Filter
CABLEID	IQUANT	14	Cable ID
DCCALDATE	LABEL	20-10-2016	DC Calibration Date
ACCALDATE	LABEL	12/3/2015	AC Calibration Date
FRAMEWORKVERSION	QUANT	7.01	Framework Version
INSTRUMENTVERSION	LABEL	4.00	Instrument Version
CURVE	TABLE	53
	Pt	T	Vf	Im	Vu	Pwr	Sig	Ach	Temp	IERange	Over
	#	s	V	A	V	W	V	V	deg C	#	bits
	0	0.013333	6.56002E-001	5.99049E-003	0.00000E+000	3.92977E-003	3.59960E-001	-1.17931E+000	3.57860E+000	10	...........
	1	0.026667	6.65345E-001	5.99825E-003	0.00000E+000	3.99090E-003	3.59960E-001	-1.17366E+000	3.57860E+000	10	...........
	2	0.04	6.73916E-001	5.99331E-003	0.00000E+000	4.03899E-003	3.59960E-001	-1.18195E+000	3.57860E+000	10	...........
	3	0.053333	6.82053E-001	5.99396E-003	0.00000E+000	4.08820E-003	3.59960E-001	-1.17931E+000	3.57860E+000	10	...........
	4	0.066667	6.89898E-001	5.99907E-003	0.00000E+000	4.13875E-003	3.59960E-001	-1.17335E+000	3.57860E+000	10	...........
	5	0.08	6.97531E-001	5.99416E-003	0.00000E+000	4.18111E-003	3.59960E-001	-1.18198E+000	3.57860E+000	10	...........
	6	0.093333	7.05036E-001	5.99185E-003	0.00000E+000	4.22447E-003	3.59960E-001	-1.17930E+000	3.57860E+000	10	...........
	7	0.106667	7.12380E-001	5.99472E-003	0.00000E+000	4.27052E-003	3.59960E-001	-1.17374E+000	3.57860E+000	10	...........
	8	0.12	7.19705E-001	5.99569E-003	0.00000E+000	4.31513E-003	3.59960E-001	-1.18228E+000	3.57860E+000	10	...........
	9	0.133333	7.26909E-001	5.99488E-003	0.00000E+000	4.35773E-003	3.59960E-001	-1.17943E+000	3.57860E+000	10	...........
	10	0.146667	7.33997E-001	5.99562E-003	0.00000E+000	4.40076E-003	3.59960E-001	-1.17364E+000	3.57860E+000	10	...........
	11	0.16	7.41076E-001	5.99637E-003	0.00000E+000	4.44376E-003	3.59960E-001	-1.18183E+000	3.57860E+000	10	...........
	12	0.173333	7.48138E-001	5.99285E-003	0.00000E+000	4.48348E-003	3.59960E-001	-1.17909E+000	3.57860E+000	10	...........
	13	0.186667	7.55141E-001	5.99836E-003	0.00000E+000	4.52961E-003	3.59960E-001	-1.17311E+000	3.57860E+000	10	...........
	14	0.2	7.62060E-001	5.99482E-003	0.00000E+000	4.56841E-003	3.59960E-001	-1.18147E+000	3.57860E+000	10	...........
	15	0.213333	7.68942E-001	5.99108E-003	0.00000E+000	4.60679E-003	3.59960E-001	-1.17872E+000	3.57860E+000	10	...........
	16	0.226667	7.75820E-001	5.99980E-003	0.00000E+000	4.65476E-003	3.59960E-001	-1.17313E+000	3.57860E+000	10	...........
	17	0.24	7.82699E-001	5.99226E-003	0.00000E+000	4.69013E-003	3.59960E-001	-1.18171E+000	3.57860E+000	10	...........
	18	0.253333	7.89514E-001	5.99294E-003	0.00000E+000	4.73150E-003	3.59960E-001	-1.17870E+000	3.57860E+000	10	...........
	19	0.266667	7.96356E-001	5.99043E-003	0.00000E+000	4.77052E-003	3.59960E-001	-1.17286E+000	3.57860E+000	10	...........
	20	0.28	8.03091E-001	5.99347E-003	0.00000E+000	4.81330E-003	3.59960E-001	-1.18146E+000	3.57860E+000	10	...........
	21	0.293333	8.09811E-001	5.99353E-003	0.00000E+000	4.85363E-003	3.59960E-001	-1.17874E+000	3.57860E+000	10	...........
	22	0.306667	8.16497E-001	5.98673E-003	0.00000E+000	4.88815E-003	3.59960E-001	-1.17300E+000	3.57860E+000	10	...........
	23	0.32	8.23250E-001	5.99264E-003	0.00000E+000	4.93344E-003	3.59960E-001	-1.18152E+000	3.57860E+000	10	...........
	24	0.333333	8.29854E-001	5.99222E-003	0.00000E+000	4.97266E-003	3.59960E-001	-1.17851E+000	3.57860E+000	10	...........
	25	0.346667	8.36496E-001	5.99225E-003	0.00000E+000	5.01249E-003	3.59960E-001	-1.17281E+000	3.57860E+000	10	...........
	26	0.36	8.43097E-001	5.99287E-003	0.00000E+000	5.05257E-003	3.59960E-001	-1.18131E+000	3.57860E+000	10	...........
	27	0.373333	8.49725E-001	5.99417E-003	0.00000E+000	5.09339E-003	3.59960E-001	-1.17858E+000	3.57860E+000	10	...........
	28	0.386667	8.56282E-001	5.99516E-003	0.00000E+000	5.13355E-003	3.59960E-001	-1.17302E+000	3.57860E+000	10	...........
	29	0.4	8.62774E-001	5.99037E-003	0.00000E+000	5.16834E-003	3.59960E-001	-1.18149E+000	3.57860E+000	10	...........
	30	0.413333	8.69278E-001	5.99642E-003	0.00000E+000	5.21256E-003	3.59960E-001	-1.17865E+000	3.57860E+000	10	...........
	31	0.426667	8.75742E-001	5.99163E-003	0.00000E+000	5.24712E-003	3.59960E-001	-1.17302E+000	3.57860E+000	10	...........
	32	0.44	8.82155E-001	5.99639E-003	0.00000E+000	5.28975E-003	3.59960E-001	-1.18160E+000	3.57860E+000	10	...........
	33	0.453333	8.88624E-001	5.99442E-003	0.00000E+000	5.32678E-003	3.59960E-001	-1.17855E+000	3.57860E+000	10	...........
	34	0.466667	8.94985E-001	5.99660E-003	0.00000E+000	5.36687E-003	3.59960E-001	-1.17266E+000	3.57860E+000	10	...........
	35	0.48	9.01270E-001	5.99526E-003	0.00000E+000	5.40335E-003	3.59960E-001	-1.18130E+000	3.57860E+000	10	...........
	36	0.493333	9.07569E-001	5.99293E-003	0.00000E+000	5.43899E-003	3.59960E-001	-1.17810E+000	3.57860E+000	10	...........
	37	0.506667	9.13838E-001	5.99733E-003	0.00000E+000	5.48059E-003	3.59960E-001	-1.17263E+000	3.57860E+000	10	...........
	38	0.52	9.20023E-001	5.99173E-003	0.00000E+000	5.51253E-003	3.59960E-001	-1.18124E+000	3.57860E+000	10	...........
	39	0.533333	9.26240E-001	5.99899E-003	0.00000E+000	5.55650E-003	3.59960E-001	-1.17829E+000	3.57860E+000	10	...........
	40	0.546667	9.32390E-001	5.99304E-003	0.00000E+000	5.58785E-003	3.59960E-001	-1.17230E+000	3.57844E+000	10	...........
	41	0.56	9.38437E-001	5.99617E-003	0.00000E+000	5.62703E-003	3.59960E-001	-1.18128E+000	3.57730E+000	10	...........
	42	0.573333	9.44468E-001	5.99521E-003	0.00000E+000	5.66229E-003	3.59960E-001	-1.17808E+000	3.57730E+000	10	...........
	43	0.586667	9.50464E-001	5.99149E-003	0.00000E+000	5.69469E-003	3.59960E-001	-1.17244E+000	3.57730E+000	10	...........
	44	0.6	9.56382E-001	5.99517E-003	0.00000E+000	5.73367E-003	3.59960E-001	-1.18117E+000	3.57730E+000	10	...........
	45	0.613333	9.62219E-001	5.99588E-003	0.00000E+000	5.76935E-003	3.59960E-001	-1.17788E+000	3.57730E+000	10	...........
	46	0.626667	9.68060E-001	5.99601E-003	0.00000E+000	5.80450E-003	3.59960E-001	-1.17247E+000	3.57730E+000	10	...........
	47	0.64	9.73858E-001	5.99356E-003	0.00000E+000	5.83688E-003	3.59960E-001	-1.18125E+000	3.57730E+000	10	...........
	48	0.653333	9.79585E-001	5.99531E-003	0.00000E+000	5.87292E-003	3.59960E-001	-1.17803E+000	3.57730E+000	10	...........
	49	0.666667	9.85232E-001	5.99663E-003	0.00000E+000	5.90807E-003	3.59960E-001	-1.17228E+000	3.57730E+000	10	...........
	50	0.68	9.90846E-001	5.99574E-003	0.00000E+000	5.94085E-003	3.59960E-001	-1.18117E+000	3.57730E+000	10	...........
	51	0.693333	9.96418E-001	5.99220E-003	0.00000E+000	5.97073E-003	3.59960E-001	-1.17786E+000	3.57730E+000	10	...........
	52	0.696667	9.99854E-001	5.99012E-003	0.00000E+000	5.98924E-003	3.59960E-001	-1.18394E+000	3.57730E+000	10	...........
STARTTIMEOFFSET	QUANT	1532.663	Start Time Offset (s)