File: Data/CV_CRGO300517_1/PWRCCD_CRGO300517_1/CHARGE_DISCHARGE/CHARGE_#663.DTA
EXPLAIN
TAG	PWR800_CHARGE
TITLE	LABEL	PWR Cyclic Charge Discharge (Cell) - Charge Step	Test &Identifier
DATE	LABEL	22-6-2017	Date
TIME	LABEL	16:02:10	Time
NOTES	NOTES	3	&Notes...
	supercap test cell
	0.6mg
	6M KOH
PSTAT	PSTAT	IFC5000-01520	Potentiostat
CAPACITY	QUANT	1.00000E-003	Capacity (A-hr)
CELLTYPE	SELECTOR	1	&Cell Type
WORKINGCONNECTION	SELECTOR	0	&Working Lead
MAXCHARGETIME	VARIABLEANDUNITS	1.00000E+002	s	1.00000E+002	second(s)	Max &Charge Time
CHARGECURRENT	QUANT	6.00000E-003	&Charge Current (A)
VOLTAGEFINISH	TWOPARAM	F	1.00000E-003	3.60000E+003	&Voltage Finish	 I (A) < 	Max Time(s)
SAMPLETIME	QUANT	1.00000E-002	Sa&mple Period (s)
CHARGESTOPAT1	MULTIPARAM	4	1.00000E+000	Charge Stop At &1	Voltage > Limit	V
CHARGESTOPAT2	MULTIPARAM	0	0.00000E+000	Charge Stop At &2	None	N/A
AESBHCSELECTOR	TOGGLE	F	Save Both Half Cells
IRCOMP	TOGGLE	F	IR &Measure
EOC	QUANT	0	Open Circuit (V)
SEQUENCER	TOGGLE	TRUE	Run as Sequence
PSTATMODEL	IQUANT	53	Pstat Model
PSTATSECTION	LABEL	IFC5000-01520	Pstat Section
PSTATSERIALNO	LABEL	01520	Pstat Serial Number
CTRLMODE	IQUANT	0	Control Mode
ELECTROMETER	IQUANT	1	RE=0 or CS=1
IESTAB	IQUANT	0	I/E Stability
CASPEED	IQUANT	4	Control Amp Speed
CONVENTION	IQUANT	1	Current Convention
ICHRANGE	IQUANT	2	Ich Range
ICHRANGEMODE	TOGGLE	T	Ich Auto Range
ICHOFFSETENABLE	TOGGLE	F	Ich Offset Enable
ICHOFFSET	QUANT	0	Ich Offset (V)
ICHFILTER	IQUANT	1	Ich Filter
VCHRANGE	IQUANT	2	Vch Range
VCHRANGEMODE	TOGGLE	T	Vch Auto Range
VCHOFFSETENABLE	TOGGLE	F	Vch Offset Enable
VCHOFFSET	QUANT	0	Vch Offset (V)
VCHFILTER	IQUANT	1	Vch Filter
IERANGELOWERLIMIT	IQUANT	9	I/E Range Lower Limit
IERANGEMODE	TOGGLE	F	I/E AutoRange
IERANGE	IQUANT	10	I/E Range
ACHSELECT	IQUANT	1	Ach Select
ACHRANGE	IQUANT	2	Ach Range
ACHOFFSETENABLE	TOGGLE	F	Ach Offset Enable
ACHOFFSET	QUANT	0	Ach Offset (V)
ACHFILTER	IQUANT	1	Ach Filter
CABLEID	IQUANT	14	Cable ID
DCCALDATE	LABEL	20-10-2016	DC Calibration Date
ACCALDATE	LABEL	12/3/2015	AC Calibration Date
FRAMEWORKVERSION	QUANT	7.01	Framework Version
INSTRUMENTVERSION	LABEL	4.00	Instrument Version
CURVE	TABLE	56
	Pt	T	Vf	Im	Vu	Pwr	Sig	Ach	Temp	IERange	Over
	#	s	V	A	V	W	V	V	deg C	#	bits
	0	0.013333	6.41613E-001	5.99061E-003	0.00000E+000	3.84365E-003	3.59960E-001	-1.14751E+000	3.57640E+000	10	...........
	1	0.026667	6.50642E-001	5.99669E-003	0.00000E+000	3.90170E-003	3.59960E-001	-1.15766E+000	3.57640E+000	10	...........
	2	0.04	6.58954E-001	5.98992E-003	0.00000E+000	3.94708E-003	3.59960E-001	-1.14701E+000	3.57640E+000	10	...........
	3	0.053333	6.66890E-001	5.99297E-003	0.00000E+000	3.99665E-003	3.59960E-001	-1.14738E+000	3.57640E+000	10	...........
	4	0.066667	6.74531E-001	5.99671E-003	0.00000E+000	4.04497E-003	3.59960E-001	-1.15777E+000	3.57640E+000	10	...........
	5	0.08	6.81953E-001	5.99856E-003	0.00000E+000	4.09073E-003	3.59960E-001	-1.14678E+000	3.57640E+000	10	...........
	6	0.093333	6.89198E-001	5.99393E-003	0.00000E+000	4.13100E-003	3.59960E-001	-1.14707E+000	3.57640E+000	10	...........
	7	0.106667	6.96397E-001	5.99053E-003	0.00000E+000	4.17178E-003	3.59960E-001	-1.15696E+000	3.57640E+000	10	...........
	8	0.12	7.03474E-001	5.99103E-003	0.00000E+000	4.21453E-003	3.59960E-001	-1.14634E+000	3.57640E+000	10	...........
	9	0.133333	7.10464E-001	5.99001E-003	0.00000E+000	4.25569E-003	3.59960E-001	-1.14707E+000	3.57647E+000	10	...........
	10	0.146667	7.17458E-001	5.99475E-003	0.00000E+000	4.30098E-003	3.59960E-001	-1.15706E+000	3.57660E+000	10	...........
	11	0.16	7.24297E-001	5.99621E-003	0.00000E+000	4.34304E-003	3.59960E-001	-1.14649E+000	3.57660E+000	10	...........
	12	0.173333	7.31093E-001	5.99490E-003	0.00000E+000	4.38283E-003	3.59960E-001	-1.14732E+000	3.57660E+000	10	...........
	13	0.186667	7.37873E-001	5.99628E-003	0.00000E+000	4.42450E-003	3.59960E-001	-1.15701E+000	3.57660E+000	10	...........
	14	0.2	7.44677E-001	5.99459E-003	0.00000E+000	4.46404E-003	3.59960E-001	-1.14634E+000	3.57660E+000	10	...........
	15	0.213333	7.51393E-001	5.99189E-003	0.00000E+000	4.50227E-003	3.59960E-001	-1.14747E+000	3.57660E+000	10	...........
	16	0.226667	7.58092E-001	5.99752E-003	0.00000E+000	4.54667E-003	3.59960E-001	-1.15693E+000	3.57660E+000	10	...........
	17	0.24	7.64752E-001	5.98711E-003	0.00000E+000	4.57865E-003	3.59960E-001	-1.14621E+000	3.57660E+000	10	...........
	18	0.253333	7.71432E-001	5.99305E-003	0.00000E+000	4.62323E-003	3.59960E-001	-1.14730E+000	3.57660E+000	10	...........
	19	0.266667	7.78062E-001	5.99135E-003	0.00000E+000	4.66164E-003	3.59960E-001	-1.15692E+000	3.57660E+000	10	...........
	20	0.28	7.84644E-001	5.99390E-003	0.00000E+000	4.70308E-003	3.59960E-001	-1.14610E+000	3.57660E+000	10	...........
	21	0.293333	7.91249E-001	5.99503E-003	0.00000E+000	4.74357E-003	3.59960E-001	-1.14779E+000	3.57660E+000	10	...........
	22	0.306667	7.97868E-001	5.99323E-003	0.00000E+000	4.78181E-003	3.59960E-001	-1.15694E+000	3.57660E+000	10	...........
	23	0.32	8.04398E-001	5.99265E-003	0.00000E+000	4.82048E-003	3.59960E-001	-1.14618E+000	3.57660E+000	10	...........
	24	0.333333	8.10914E-001	5.99156E-003	0.00000E+000	4.85864E-003	3.59960E-001	-1.14772E+000	3.57660E+000	10	...........
	25	0.346667	8.17435E-001	5.99354E-003	0.00000E+000	4.89933E-003	3.59960E-001	-1.15683E+000	3.57660E+000	10	...........
	26	0.36	8.23955E-001	5.99189E-003	0.00000E+000	4.93705E-003	3.59960E-001	-1.14633E+000	3.57660E+000	10	...........
	27	0.373333	8.30428E-001	5.98973E-003	0.00000E+000	4.97404E-003	3.59960E-001	-1.14781E+000	3.57660E+000	10	...........
	28	0.386667	8.36880E-001	5.99333E-003	0.00000E+000	5.01570E-003	3.59960E-001	-1.15668E+000	3.57660E+000	10	...........
	29	0.4	8.43334E-001	5.99379E-003	0.00000E+000	5.05477E-003	3.59960E-001	-1.14594E+000	3.57660E+000	10	...........
	30	0.413333	8.49758E-001	5.99704E-003	0.00000E+000	5.09603E-003	3.59960E-001	-1.14743E+000	3.57660E+000	10	...........
	31	0.426667	8.56120E-001	5.99064E-003	0.00000E+000	5.12870E-003	3.59960E-001	-1.15617E+000	3.57660E+000	10	...........
	32	0.44	8.62537E-001	5.99213E-003	0.00000E+000	5.16844E-003	3.59960E-001	-1.14577E+000	3.57660E+000	10	...........
	33	0.453333	8.68921E-001	5.99169E-003	0.00000E+000	5.20631E-003	3.59960E-001	-1.14752E+000	3.57660E+000	10	...........
	34	0.466667	8.75252E-001	5.99699E-003	0.00000E+000	5.24888E-003	3.59960E-001	-1.15624E+000	3.57660E+000	10	...........
	35	0.48	8.81515E-001	5.99089E-003	0.00000E+000	5.28106E-003	3.59960E-001	-1.14570E+000	3.57660E+000	10	...........
	36	0.493333	8.87774E-001	5.99269E-003	0.00000E+000	5.32015E-003	3.59960E-001	-1.14764E+000	3.57660E+000	10	...........
	37	0.506667	8.93997E-001	5.99181E-003	0.00000E+000	5.35666E-003	3.59960E-001	-1.15628E+000	3.57660E+000	10	...........
	38	0.52	9.00200E-001	5.99223E-003	0.00000E+000	5.39420E-003	3.59960E-001	-1.14560E+000	3.57660E+000	10	...........
	39	0.533333	9.06374E-001	5.99783E-003	0.00000E+000	5.43628E-003	3.59960E-001	-1.14775E+000	3.57660E+000	10	...........
	40	0.546667	9.12527E-001	5.99139E-003	0.00000E+000	5.46731E-003	3.59960E-001	-1.15619E+000	3.57660E+000	10	...........
	41	0.56	9.18621E-001	5.99491E-003	0.00000E+000	5.50705E-003	3.59960E-001	-1.14553E+000	3.57660E+000	10	...........
	42	0.573333	9.24759E-001	5.99418E-003	0.00000E+000	5.54317E-003	3.59960E-001	-1.14766E+000	3.57660E+000	10	...........
	43	0.586667	9.30791E-001	5.99584E-003	0.00000E+000	5.58087E-003	3.59960E-001	-1.15593E+000	3.57660E+000	10	...........
	44	0.6	9.36782E-001	5.99531E-003	0.00000E+000	5.61630E-003	3.59960E-001	-1.14548E+000	3.57660E+000	10	...........
	45	0.613333	9.42739E-001	5.99015E-003	0.00000E+000	5.64715E-003	3.59960E-001	-1.14797E+000	3.57660E+000	10	...........
	46	0.626667	9.48651E-001	5.99580E-003	0.00000E+000	5.68793E-003	3.59960E-001	-1.15621E+000	3.57660E+000	10	...........
	47	0.64	9.54518E-001	5.99543E-003	0.00000E+000	5.72275E-003	3.59960E-001	-1.14566E+000	3.57660E+000	10	...........
	48	0.653333	9.60383E-001	5.99462E-003	0.00000E+000	5.75713E-003	3.59960E-001	-1.14808E+000	3.57660E+000	10	...........
	49	0.666667	9.66144E-001	5.98907E-003	0.00000E+000	5.78630E-003	3.59960E-001	-1.15593E+000	3.57660E+000	10	...........
	50	0.68	9.71907E-001	5.99149E-003	0.00000E+000	5.82317E-003	3.59960E-001	-1.14553E+000	3.57660E+000	10	...........
	51	0.693333	9.77586E-001	5.99356E-003	0.00000E+000	5.85922E-003	3.59960E-001	-1.14831E+000	3.57660E+000	10	...........
	52	0.706667	9.83196E-001	5.99080E-003	0.00000E+000	5.89013E-003	3.59960E-001	-1.15611E+000	3.57660E+000	10	...........
	53	0.72	9.88776E-001	5.99515E-003	0.00000E+000	5.92786E-003	3.59960E-001	-1.14534E+000	3.57660E+000	10	...........
	54	0.733333	9.94351E-001	5.99548E-003	0.00000E+000	5.96161E-003	3.59960E-001	-1.14805E+000	3.57660E+000	10	...........
	55	0.741667	9.98860E-001	5.99161E-003	0.00000E+000	5.98477E-003	3.59960E-001	-1.15432E+000	3.57660E+000	10	...........
STARTTIMEOFFSET	QUANT	1104.725	Start Time Offset (s)