File: Data/CV_CRGO300517_1/PWRCCD_CRGO300517_1/CHARGE_DISCHARGE/CHARGE_#376.DTA
EXPLAIN
TAG	PWR800_CHARGE
TITLE	LABEL	PWR Cyclic Charge Discharge (Cell) - Charge Step	Test &Identifier
DATE	LABEL	22-6-2017	Date
TIME	LABEL	15:51:01	Time
NOTES	NOTES	3	&Notes...
	supercap test cell
	0.6mg
	6M KOH
PSTAT	PSTAT	IFC5000-01520	Potentiostat
CAPACITY	QUANT	1.00000E-003	Capacity (A-hr)
CELLTYPE	SELECTOR	1	&Cell Type
WORKINGCONNECTION	SELECTOR	0	&Working Lead
MAXCHARGETIME	VARIABLEANDUNITS	1.00000E+002	s	1.00000E+002	second(s)	Max &Charge Time
CHARGECURRENT	QUANT	6.00000E-003	&Charge Current (A)
VOLTAGEFINISH	TWOPARAM	F	1.00000E-003	3.60000E+003	&Voltage Finish	 I (A) < 	Max Time(s)
SAMPLETIME	QUANT	1.00000E-002	Sa&mple Period (s)
CHARGESTOPAT1	MULTIPARAM	4	1.00000E+000	Charge Stop At &1	Voltage > Limit	V
CHARGESTOPAT2	MULTIPARAM	0	0.00000E+000	Charge Stop At &2	None	N/A
AESBHCSELECTOR	TOGGLE	F	Save Both Half Cells
IRCOMP	TOGGLE	F	IR &Measure
EOC	QUANT	0	Open Circuit (V)
SEQUENCER	TOGGLE	TRUE	Run as Sequence
PSTATMODEL	IQUANT	53	Pstat Model
PSTATSECTION	LABEL	IFC5000-01520	Pstat Section
PSTATSERIALNO	LABEL	01520	Pstat Serial Number
CTRLMODE	IQUANT	0	Control Mode
ELECTROMETER	IQUANT	1	RE=0 or CS=1
IESTAB	IQUANT	0	I/E Stability
CASPEED	IQUANT	4	Control Amp Speed
CONVENTION	IQUANT	1	Current Convention
ICHRANGE	IQUANT	2	Ich Range
ICHRANGEMODE	TOGGLE	T	Ich Auto Range
ICHOFFSETENABLE	TOGGLE	F	Ich Offset Enable
ICHOFFSET	QUANT	0	Ich Offset (V)
ICHFILTER	IQUANT	1	Ich Filter
VCHRANGE	IQUANT	2	Vch Range
VCHRANGEMODE	TOGGLE	T	Vch Auto Range
VCHOFFSETENABLE	TOGGLE	F	Vch Offset Enable
VCHOFFSET	QUANT	0	Vch Offset (V)
VCHFILTER	IQUANT	1	Vch Filter
IERANGELOWERLIMIT	IQUANT	9	I/E Range Lower Limit
IERANGEMODE	TOGGLE	F	I/E AutoRange
IERANGE	IQUANT	10	I/E Range
ACHSELECT	IQUANT	1	Ach Select
ACHRANGE	IQUANT	2	Ach Range
ACHOFFSETENABLE	TOGGLE	F	Ach Offset Enable
ACHOFFSET	QUANT	0	Ach Offset (V)
ACHFILTER	IQUANT	1	Ach Filter
CABLEID	IQUANT	14	Cable ID
DCCALDATE	LABEL	20-10-2016	DC Calibration Date
ACCALDATE	LABEL	12/3/2015	AC Calibration Date
FRAMEWORKVERSION	QUANT	7.01	Framework Version
INSTRUMENTVERSION	LABEL	4.00	Instrument Version
CURVE	TABLE	61
	Pt	T	Vf	Im	Vu	Pwr	Sig	Ach	Temp	IERange	Over
	#	s	V	A	V	W	V	V	deg C	#	bits
	0	0.013333	6.22980E-001	5.99214E-003	0.00000E+000	3.73298E-003	3.59960E-001	-1.11946E+000	3.57680E+000	10	...........
	1	0.026667	6.31720E-001	5.99013E-003	0.00000E+000	3.78409E-003	3.59960E-001	-1.13076E+000	3.57680E+000	10	...........
	2	0.04	6.39733E-001	5.99361E-003	0.00000E+000	3.83431E-003	3.59960E-001	-1.12019E+000	3.57680E+000	10	...........
	3	0.053333	6.47337E-001	5.99195E-003	0.00000E+000	3.87881E-003	3.59960E-001	-1.11928E+000	3.57680E+000	10	...........
	4	0.066667	6.54688E-001	5.99416E-003	0.00000E+000	3.92430E-003	3.59960E-001	-1.13079E+000	3.57680E+000	10	...........
	5	0.08	6.61810E-001	5.99153E-003	0.00000E+000	3.96525E-003	3.59960E-001	-1.12027E+000	3.57680E+000	10	...........
	6	0.093333	6.68840E-001	5.99616E-003	0.00000E+000	4.01047E-003	3.59960E-001	-1.11953E+000	3.57680E+000	10	...........
	7	0.106667	6.75734E-001	5.99680E-003	0.00000E+000	4.05224E-003	3.59960E-001	-1.13073E+000	3.57680E+000	10	...........
	8	0.12	6.82529E-001	5.99506E-003	0.00000E+000	4.09181E-003	3.59960E-001	-1.12014E+000	3.57680E+000	10	...........
	9	0.133333	6.89227E-001	5.99514E-003	0.00000E+000	4.13201E-003	3.59960E-001	-1.11930E+000	3.57680E+000	10	...........
	10	0.146667	6.95933E-001	5.99383E-003	0.00000E+000	4.17131E-003	3.59960E-001	-1.13080E+000	3.57680E+000	10	...........
	11	0.16	7.02544E-001	5.99532E-003	0.00000E+000	4.21198E-003	3.59960E-001	-1.12008E+000	3.57680E+000	10	...........
	12	0.173333	7.09146E-001	5.99697E-003	0.00000E+000	4.25273E-003	3.59960E-001	-1.11961E+000	3.57680E+000	10	...........
	13	0.186667	7.15670E-001	5.98969E-003	0.00000E+000	4.28664E-003	3.59960E-001	-1.13094E+000	3.57680E+000	10	...........
	14	0.2	7.22225E-001	5.99768E-003	0.00000E+000	4.33168E-003	3.59960E-001	-1.12038E+000	3.57680E+000	10	...........
	15	0.213333	7.28704E-001	5.99286E-003	0.00000E+000	4.36702E-003	3.59960E-001	-1.11942E+000	3.57680E+000	10	...........
	16	0.226667	7.35126E-001	5.99162E-003	0.00000E+000	4.40460E-003	3.59960E-001	-1.13075E+000	3.57680E+000	10	...........
	17	0.24	7.41641E-001	5.99679E-003	0.00000E+000	4.44746E-003	3.59960E-001	-1.12016E+000	3.57680E+000	10	...........
	18	0.253333	7.48043E-001	5.99207E-003	0.00000E+000	4.48233E-003	3.59960E-001	-1.11944E+000	3.57680E+000	10	...........
	19	0.266667	7.54449E-001	5.99441E-003	0.00000E+000	4.52248E-003	3.59960E-001	-1.13070E+000	3.57680E+000	10	...........
	20	0.28	7.60832E-001	5.99273E-003	0.00000E+000	4.55946E-003	3.59960E-001	-1.11967E+000	3.57680E+000	10	...........
	21	0.293333	7.67183E-001	5.99541E-003	0.00000E+000	4.59957E-003	3.59960E-001	-1.11914E+000	3.57680E+000	10	...........
	22	0.306667	7.73578E-001	5.99589E-003	0.00000E+000	4.63829E-003	3.59960E-001	-1.13037E+000	3.57680E+000	10	...........
	23	0.32	7.79945E-001	5.99099E-003	0.00000E+000	4.67264E-003	3.59960E-001	-1.11970E+000	3.57680E+000	10	...........
	24	0.333333	7.86280E-001	5.99342E-003	0.00000E+000	4.71250E-003	3.59960E-001	-1.11920E+000	3.57680E+000	10	...........
	25	0.346667	7.92592E-001	5.99486E-003	0.00000E+000	4.75148E-003	3.59960E-001	-1.13031E+000	3.57680E+000	10	...........
	26	0.36	7.98931E-001	5.99394E-003	0.00000E+000	4.78874E-003	3.59960E-001	-1.11940E+000	3.57680E+000	10	...........
	27	0.373333	8.05229E-001	5.99114E-003	0.00000E+000	4.82424E-003	3.59960E-001	-1.11902E+000	3.57680E+000	10	...........
	28	0.386667	8.11517E-001	5.99216E-003	0.00000E+000	4.86274E-003	3.59960E-001	-1.13047E+000	3.57680E+000	10	...........
	29	0.4	8.17757E-001	5.99322E-003	0.00000E+000	4.90099E-003	3.59960E-001	-1.11975E+000	3.57680E+000	10	...........
	30	0.413333	8.24058E-001	5.99849E-003	0.00000E+000	4.94310E-003	3.59960E-001	-1.11925E+000	3.57680E+000	10	...........
	31	0.426667	8.30302E-001	5.99386E-003	0.00000E+000	4.97672E-003	3.59960E-001	-1.13014E+000	3.57680E+000	10	...........
	32	0.44	8.36512E-001	5.99743E-003	0.00000E+000	5.01692E-003	3.59960E-001	-1.11969E+000	3.57680E+000	10	...........
	33	0.453333	8.42780E-001	5.99429E-003	0.00000E+000	5.05187E-003	3.59960E-001	-1.11903E+000	3.57680E+000	10	...........
	34	0.466667	8.48989E-001	5.99215E-003	0.00000E+000	5.08728E-003	3.59960E-001	-1.13035E+000	3.57680E+000	10	...........
	35	0.48	8.55170E-001	5.99360E-003	0.00000E+000	5.12555E-003	3.59960E-001	-1.11969E+000	3.57680E+000	10	...........
	36	0.493333	8.61326E-001	5.99663E-003	0.00000E+000	5.16505E-003	3.59960E-001	-1.11919E+000	3.57680E+000	10	...........
	37	0.506667	8.67514E-001	5.99054E-003	0.00000E+000	5.19687E-003	3.59960E-001	-1.13035E+000	3.57680E+000	10	...........
	38	0.52	8.73662E-001	5.99322E-003	0.00000E+000	5.23605E-003	3.59960E-001	-1.11948E+000	3.57680E+000	10	...........
	39	0.533333	8.79790E-001	5.99260E-003	0.00000E+000	5.27223E-003	3.59960E-001	-1.11918E+000	3.57680E+000	10	...........
	40	0.546667	8.85916E-001	5.99526E-003	0.00000E+000	5.31130E-003	3.59960E-001	-1.13035E+000	3.57680E+000	10	...........
	41	0.56	8.91979E-001	5.99844E-003	0.00000E+000	5.35049E-003	3.59960E-001	-1.11964E+000	3.57680E+000	10	...........
	42	0.573333	8.98056E-001	5.99485E-003	0.00000E+000	5.38371E-003	3.59960E-001	-1.11932E+000	3.57680E+000	10	...........
	43	0.586667	9.04076E-001	5.99093E-003	0.00000E+000	5.41626E-003	3.59960E-001	-1.13020E+000	3.57680E+000	10	...........
	44	0.6	9.10116E-001	5.99491E-003	0.00000E+000	5.45606E-003	3.59960E-001	-1.11907E+000	3.57680E+000	10	...........
	45	0.613333	9.16074E-001	5.99356E-003	0.00000E+000	5.49055E-003	3.59960E-001	-1.11884E+000	3.57680E+000	10	...........
	46	0.626667	9.22045E-001	5.99425E-003	0.00000E+000	5.52697E-003	3.59960E-001	-1.12978E+000	3.57680E+000	10	...........
	47	0.64	9.28026E-001	5.99152E-003	0.00000E+000	5.56028E-003	3.59960E-001	-1.11899E+000	3.57680E+000	10	...........
	48	0.653333	9.33896E-001	5.99099E-003	0.00000E+000	5.59496E-003	3.59960E-001	-1.11881E+000	3.57680E+000	10	...........
	49	0.666667	9.39757E-001	5.99319E-003	0.00000E+000	5.63214E-003	3.59960E-001	-1.12991E+000	3.57680E+000	10	...........
	50	0.68	9.45605E-001	5.99149E-003	0.00000E+000	5.66558E-003	3.59960E-001	-1.11914E+000	3.57680E+000	10	...........
	51	0.693333	9.51407E-001	5.99487E-003	0.00000E+000	5.70356E-003	3.59960E-001	-1.11868E+000	3.57680E+000	10	...........
	52	0.706667	9.57137E-001	5.99359E-003	0.00000E+000	5.73669E-003	3.59960E-001	-1.12962E+000	3.57680E+000	10	...........
	53	0.72	9.62830E-001	5.99036E-003	0.00000E+000	5.76770E-003	3.59960E-001	-1.11908E+000	3.57680E+000	10	...........
	54	0.733333	9.68525E-001	5.99131E-003	0.00000E+000	5.80273E-003	3.59960E-001	-1.11890E+000	3.57680E+000	10	...........
	55	0.746667	9.74196E-001	5.99009E-003	0.00000E+000	5.83552E-003	3.59960E-001	-1.12996E+000	3.57680E+000	10	...........
	56	0.76	9.79819E-001	5.99465E-003	0.00000E+000	5.87367E-003	3.59960E-001	-1.11896E+000	3.57680E+000	10	...........
	57	0.773333	9.85362E-001	5.99520E-003	0.00000E+000	5.90744E-003	3.59960E-001	-1.11870E+000	3.57680E+000	10	...........
	58	0.786667	9.90857E-001	5.99193E-003	0.00000E+000	5.93715E-003	3.59960E-001	-1.12992E+000	3.57680E+000	10	...........
	59	0.8	9.96306E-001	5.99348E-003	0.00000E+000	5.97134E-003	3.59960E-001	-1.11925E+000	3.57680E+000	10	...........
	60	0.803333	9.99709E-001	5.99713E-003	0.00000E+000	5.99538E-003	3.59960E-001	-1.13248E+000	3.57680E+000	10	...........
STARTTIMEOFFSET	QUANT	664.4432	Start Time Offset (s)