File: Data/CV_CRGO300517_1/PWRCCD_CRGO300517_1/CHARGE_DISCHARGE/CHARGE_#555.DTA
EXPLAIN
TAG	PWR800_CHARGE
TITLE	LABEL	PWR Cyclic Charge Discharge (Cell) - Charge Step	Test &Identifier
DATE	LABEL	22-6-2017	Date
TIME	LABEL	15:58:02	Time
NOTES	NOTES	3	&Notes...
	supercap test cell
	0.6mg
	6M KOH
PSTAT	PSTAT	IFC5000-01520	Potentiostat
CAPACITY	QUANT	1.00000E-003	Capacity (A-hr)
CELLTYPE	SELECTOR	1	&Cell Type
WORKINGCONNECTION	SELECTOR	0	&Working Lead
MAXCHARGETIME	VARIABLEANDUNITS	1.00000E+002	s	1.00000E+002	second(s)	Max &Charge Time
CHARGECURRENT	QUANT	6.00000E-003	&Charge Current (A)
VOLTAGEFINISH	TWOPARAM	F	1.00000E-003	3.60000E+003	&Voltage Finish	 I (A) < 	Max Time(s)
SAMPLETIME	QUANT	1.00000E-002	Sa&mple Period (s)
CHARGESTOPAT1	MULTIPARAM	4	1.00000E+000	Charge Stop At &1	Voltage > Limit	V
CHARGESTOPAT2	MULTIPARAM	0	0.00000E+000	Charge Stop At &2	None	N/A
AESBHCSELECTOR	TOGGLE	F	Save Both Half Cells
IRCOMP	TOGGLE	F	IR &Measure
EOC	QUANT	0	Open Circuit (V)
SEQUENCER	TOGGLE	TRUE	Run as Sequence
PSTATMODEL	IQUANT	53	Pstat Model
PSTATSECTION	LABEL	IFC5000-01520	Pstat Section
PSTATSERIALNO	LABEL	01520	Pstat Serial Number
CTRLMODE	IQUANT	0	Control Mode
ELECTROMETER	IQUANT	1	RE=0 or CS=1
IESTAB	IQUANT	0	I/E Stability
CASPEED	IQUANT	4	Control Amp Speed
CONVENTION	IQUANT	1	Current Convention
ICHRANGE	IQUANT	2	Ich Range
ICHRANGEMODE	TOGGLE	T	Ich Auto Range
ICHOFFSETENABLE	TOGGLE	F	Ich Offset Enable
ICHOFFSET	QUANT	0	Ich Offset (V)
ICHFILTER	IQUANT	1	Ich Filter
VCHRANGE	IQUANT	2	Vch Range
VCHRANGEMODE	TOGGLE	T	Vch Auto Range
VCHOFFSETENABLE	TOGGLE	F	Vch Offset Enable
VCHOFFSET	QUANT	0	Vch Offset (V)
VCHFILTER	IQUANT	1	Vch Filter
IERANGELOWERLIMIT	IQUANT	9	I/E Range Lower Limit
IERANGEMODE	TOGGLE	F	I/E AutoRange
IERANGE	IQUANT	10	I/E Range
ACHSELECT	IQUANT	1	Ach Select
ACHRANGE	IQUANT	2	Ach Range
ACHOFFSETENABLE	TOGGLE	F	Ach Offset Enable
ACHOFFSET	QUANT	0	Ach Offset (V)
ACHFILTER	IQUANT	1	Ach Filter
CABLEID	IQUANT	14	Cable ID
DCCALDATE	LABEL	20-10-2016	DC Calibration Date
ACCALDATE	LABEL	12/3/2015	AC Calibration Date
FRAMEWORKVERSION	QUANT	7.01	Framework Version
INSTRUMENTVERSION	LABEL	4.00	Instrument Version
CURVE	TABLE	58
	Pt	T	Vf	Im	Vu	Pwr	Sig	Ach	Temp	IERange	Over
	#	s	V	A	V	W	V	V	deg C	#	bits
	0	0.013333	6.35534E-001	5.99116E-003	0.00000E+000	3.80759E-003	3.59960E-001	-1.13745E+000	3.57650E+000	10	...........
	1	0.026667	6.44494E-001	5.99649E-003	0.00000E+000	3.86470E-003	3.59960E-001	-1.14164E+000	3.57650E+000	10	...........
	2	0.04	6.52709E-001	5.98735E-003	0.00000E+000	3.90800E-003	3.59960E-001	-1.14692E+000	3.57650E+000	10	...........
	3	0.053333	6.60526E-001	5.99513E-003	0.00000E+000	3.95994E-003	3.59960E-001	-1.13763E+000	3.57650E+000	10	...........
	4	0.066667	6.68133E-001	5.99690E-003	0.00000E+000	4.00672E-003	3.59960E-001	-1.14151E+000	3.57650E+000	10	...........
	5	0.08	6.75464E-001	5.99184E-003	0.00000E+000	4.04727E-003	3.59960E-001	-1.14678E+000	3.57650E+000	10	...........
	6	0.093333	6.82649E-001	5.99450E-003	0.00000E+000	4.09214E-003	3.59960E-001	-1.13711E+000	3.57650E+000	10	...........
	7	0.106667	6.89726E-001	5.99933E-003	0.00000E+000	4.13789E-003	3.59960E-001	-1.14112E+000	3.57650E+000	10	...........
	8	0.12	6.96696E-001	5.99338E-003	0.00000E+000	4.17556E-003	3.59960E-001	-1.14661E+000	3.57650E+000	10	...........
	9	0.133333	7.03592E-001	5.99470E-003	0.00000E+000	4.21782E-003	3.59960E-001	-1.13686E+000	3.57650E+000	10	...........
	10	0.146667	7.10459E-001	5.99740E-003	0.00000E+000	4.26091E-003	3.59960E-001	-1.14068E+000	3.57650E+000	10	...........
	11	0.16	7.17252E-001	5.99331E-003	0.00000E+000	4.29871E-003	3.59960E-001	-1.14612E+000	3.57650E+000	10	...........
	12	0.173333	7.24068E-001	5.99369E-003	0.00000E+000	4.33984E-003	3.59960E-001	-1.13669E+000	3.57650E+000	10	...........
	13	0.186667	7.30744E-001	5.99081E-003	0.00000E+000	4.37775E-003	3.59960E-001	-1.14067E+000	3.57650E+000	10	...........
	14	0.2	7.37437E-001	5.99578E-003	0.00000E+000	4.42151E-003	3.59960E-001	-1.14615E+000	3.57650E+000	10	...........
	15	0.213333	7.44086E-001	5.99163E-003	0.00000E+000	4.45829E-003	3.59960E-001	-1.13655E+000	3.57650E+000	10	...........
	16	0.226667	7.50689E-001	5.99061E-003	0.00000E+000	4.49709E-003	3.59960E-001	-1.14042E+000	3.57650E+000	10	...........
	17	0.24	7.57292E-001	5.99292E-003	0.00000E+000	4.53839E-003	3.59960E-001	-1.14580E+000	3.57650E+000	10	...........
	18	0.253333	7.63909E-001	5.99253E-003	0.00000E+000	4.57775E-003	3.59960E-001	-1.13639E+000	3.57650E+000	10	...........
	19	0.266667	7.70463E-001	5.99733E-003	0.00000E+000	4.62072E-003	3.59960E-001	-1.14041E+000	3.57650E+000	10	...........
	20	0.28	7.77019E-001	5.99437E-003	0.00000E+000	4.65774E-003	3.59960E-001	-1.14596E+000	3.57650E+000	10	...........
	21	0.293333	7.83563E-001	5.99741E-003	0.00000E+000	4.69935E-003	3.59960E-001	-1.13651E+000	3.57650E+000	10	...........
	22	0.306667	7.90063E-001	5.99275E-003	0.00000E+000	4.73465E-003	3.59960E-001	-1.14011E+000	3.57650E+000	10	...........
	23	0.32	7.96586E-001	5.99866E-003	0.00000E+000	4.77845E-003	3.59960E-001	-1.14620E+000	3.57650E+000	10	...........
	24	0.333333	8.03052E-001	5.99546E-003	0.00000E+000	4.81467E-003	3.59960E-001	-1.13661E+000	3.57650E+000	10	...........
	25	0.346667	8.09507E-001	5.99179E-003	0.00000E+000	4.85040E-003	3.59960E-001	-1.14016E+000	3.57650E+000	10	...........
	26	0.36	8.15997E-001	5.99573E-003	0.00000E+000	4.89250E-003	3.59960E-001	-1.14594E+000	3.57650E+000	10	...........
	27	0.373333	8.22441E-001	5.99500E-003	0.00000E+000	4.93053E-003	3.59960E-001	-1.13655E+000	3.57650E+000	10	...........
	28	0.386667	8.28844E-001	5.99177E-003	0.00000E+000	4.96624E-003	3.59960E-001	-1.14046E+000	3.57670E+000	10	...........
	29	0.4	8.35207E-001	6.00062E-003	0.00000E+000	5.01176E-003	3.59960E-001	-1.14607E+000	3.57670E+000	10	...........
	30	0.413333	8.41589E-001	5.99619E-003	0.00000E+000	5.04633E-003	3.59960E-001	-1.13645E+000	3.57670E+000	10	...........
	31	0.426667	8.47959E-001	5.99516E-003	0.00000E+000	5.08365E-003	3.59960E-001	-1.14001E+000	3.57670E+000	10	...........
	32	0.44	8.54275E-001	5.99481E-003	0.00000E+000	5.12122E-003	3.59960E-001	-1.14578E+000	3.57670E+000	10	...........
	33	0.453333	8.60571E-001	5.98990E-003	0.00000E+000	5.15474E-003	3.59960E-001	-1.13602E+000	3.57670E+000	10	...........
	34	0.466667	8.66861E-001	5.99557E-003	0.00000E+000	5.19733E-003	3.59960E-001	-1.13977E+000	3.57670E+000	10	...........
	35	0.48	8.73170E-001	5.99596E-003	0.00000E+000	5.23549E-003	3.59960E-001	-1.14575E+000	3.57670E+000	10	...........
	36	0.493333	8.79418E-001	5.99474E-003	0.00000E+000	5.27188E-003	3.59960E-001	-1.13593E+000	3.57670E+000	10	...........
	37	0.506667	8.85659E-001	5.99150E-003	0.00000E+000	5.30642E-003	3.59960E-001	-1.13960E+000	3.57670E+000	10	...........
	38	0.52	8.91873E-001	5.99249E-003	0.00000E+000	5.34454E-003	3.59960E-001	-1.14582E+000	3.57670E+000	10	...........
	39	0.533333	8.98061E-001	5.99469E-003	0.00000E+000	5.38360E-003	3.59960E-001	-1.13630E+000	3.57670E+000	10	...........
	40	0.546667	9.04216E-001	5.99233E-003	0.00000E+000	5.41836E-003	3.59960E-001	-1.13960E+000	3.57670E+000	10	...........
	41	0.56	9.10386E-001	5.99266E-003	0.00000E+000	5.45564E-003	3.59960E-001	-1.14574E+000	3.57670E+000	10	...........
	42	0.573333	9.16441E-001	5.99532E-003	0.00000E+000	5.49436E-003	3.59960E-001	-1.13621E+000	3.57670E+000	10	...........
	43	0.586667	9.22545E-001	5.99784E-003	0.00000E+000	5.53328E-003	3.59960E-001	-1.13988E+000	3.57670E+000	10	...........
	44	0.6	9.28545E-001	5.99089E-003	0.00000E+000	5.56281E-003	3.59960E-001	-1.14597E+000	3.57670E+000	10	...........
	45	0.613333	9.34498E-001	5.99150E-003	0.00000E+000	5.59904E-003	3.59960E-001	-1.13605E+000	3.57670E+000	10	...........
	46	0.626667	9.40394E-001	5.99349E-003	0.00000E+000	5.63624E-003	3.59960E-001	-1.13973E+000	3.57670E+000	10	...........
	47	0.64	9.46282E-001	5.99120E-003	0.00000E+000	5.66937E-003	3.59960E-001	-1.14591E+000	3.57670E+000	10	...........
	48	0.653333	9.52188E-001	5.99695E-003	0.00000E+000	5.71022E-003	3.59960E-001	-1.13636E+000	3.57670E+000	10	...........
	49	0.666667	9.58008E-001	5.99327E-003	0.00000E+000	5.74160E-003	3.59960E-001	-1.13983E+000	3.57670E+000	10	...........
	50	0.68	9.63828E-001	5.99197E-003	0.00000E+000	5.77523E-003	3.59960E-001	-1.14609E+000	3.57670E+000	10	...........
	51	0.693333	9.69520E-001	5.99592E-003	0.00000E+000	5.81317E-003	3.59960E-001	-1.13612E+000	3.57670E+000	10	...........
	52	0.706667	9.75275E-001	5.99227E-003	0.00000E+000	5.84411E-003	3.59960E-001	-1.13969E+000	3.57670E+000	10	...........
	53	0.72	9.80873E-001	5.99374E-003	0.00000E+000	5.87910E-003	3.59960E-001	-1.14612E+000	3.57670E+000	10	...........
	54	0.733333	9.86434E-001	5.99062E-003	0.00000E+000	5.90935E-003	3.59960E-001	-1.13628E+000	3.57670E+000	10	...........
	55	0.746667	9.91998E-001	5.99425E-003	0.00000E+000	5.94629E-003	3.59960E-001	-1.13963E+000	3.57670E+000	10	...........
	56	0.76	9.97519E-001	5.99337E-003	0.00000E+000	5.97851E-003	3.59960E-001	-1.14581E+000	3.57670E+000	10	...........
	57	0.761667	1.00056E+000	5.99630E-003	0.00000E+000	5.99968E-003	3.59960E-001	-1.14187E+000	3.57670E+000	10	...........
STARTTIMEOFFSET	QUANT	943.0851	Start Time Offset (s)