File: Data/CV_CRGO300517_1/PWRCCD_CRGO300517_1/CHARGE_DISCHARGE/CHARGE_#601.DTA
EXPLAIN
TAG	PWR800_CHARGE
TITLE	LABEL	PWR Cyclic Charge Discharge (Cell) - Charge Step	Test &Identifier
DATE	LABEL	22-6-2017	Date
TIME	LABEL	15:59:48	Time
NOTES	NOTES	3	&Notes...
	supercap test cell
	0.6mg
	6M KOH
PSTAT	PSTAT	IFC5000-01520	Potentiostat
CAPACITY	QUANT	1.00000E-003	Capacity (A-hr)
CELLTYPE	SELECTOR	1	&Cell Type
WORKINGCONNECTION	SELECTOR	0	&Working Lead
MAXCHARGETIME	VARIABLEANDUNITS	1.00000E+002	s	1.00000E+002	second(s)	Max &Charge Time
CHARGECURRENT	QUANT	6.00000E-003	&Charge Current (A)
VOLTAGEFINISH	TWOPARAM	F	1.00000E-003	3.60000E+003	&Voltage Finish	 I (A) < 	Max Time(s)
SAMPLETIME	QUANT	1.00000E-002	Sa&mple Period (s)
CHARGESTOPAT1	MULTIPARAM	4	1.00000E+000	Charge Stop At &1	Voltage > Limit	V
CHARGESTOPAT2	MULTIPARAM	0	0.00000E+000	Charge Stop At &2	None	N/A
AESBHCSELECTOR	TOGGLE	F	Save Both Half Cells
IRCOMP	TOGGLE	F	IR &Measure
EOC	QUANT	0	Open Circuit (V)
SEQUENCER	TOGGLE	TRUE	Run as Sequence
PSTATMODEL	IQUANT	53	Pstat Model
PSTATSECTION	LABEL	IFC5000-01520	Pstat Section
PSTATSERIALNO	LABEL	01520	Pstat Serial Number
CTRLMODE	IQUANT	0	Control Mode
ELECTROMETER	IQUANT	1	RE=0 or CS=1
IESTAB	IQUANT	0	I/E Stability
CASPEED	IQUANT	4	Control Amp Speed
CONVENTION	IQUANT	1	Current Convention
ICHRANGE	IQUANT	2	Ich Range
ICHRANGEMODE	TOGGLE	T	Ich Auto Range
ICHOFFSETENABLE	TOGGLE	F	Ich Offset Enable
ICHOFFSET	QUANT	0	Ich Offset (V)
ICHFILTER	IQUANT	1	Ich Filter
VCHRANGE	IQUANT	2	Vch Range
VCHRANGEMODE	TOGGLE	T	Vch Auto Range
VCHOFFSETENABLE	TOGGLE	F	Vch Offset Enable
VCHOFFSET	QUANT	0	Vch Offset (V)
VCHFILTER	IQUANT	1	Vch Filter
IERANGELOWERLIMIT	IQUANT	9	I/E Range Lower Limit
IERANGEMODE	TOGGLE	F	I/E AutoRange
IERANGE	IQUANT	10	I/E Range
ACHSELECT	IQUANT	1	Ach Select
ACHRANGE	IQUANT	2	Ach Range
ACHOFFSETENABLE	TOGGLE	F	Ach Offset Enable
ACHOFFSET	QUANT	0	Ach Offset (V)
ACHFILTER	IQUANT	1	Ach Filter
CABLEID	IQUANT	14	Cable ID
DCCALDATE	LABEL	20-10-2016	DC Calibration Date
ACCALDATE	LABEL	12/3/2015	AC Calibration Date
FRAMEWORKVERSION	QUANT	7.01	Framework Version
INSTRUMENTVERSION	LABEL	4.00	Instrument Version
CURVE	TABLE	57
	Pt	T	Vf	Im	Vu	Pwr	Sig	Ach	Temp	IERange	Over
	#	s	V	A	V	W	V	V	deg C	#	bits
	0	0.013333	6.37878E-001	5.98926E-003	0.00000E+000	3.82042E-003	3.59960E-001	-1.15816E+000	3.57790E+000	10	...........
	1	0.026667	6.46882E-001	5.99416E-003	0.00000E+000	3.87751E-003	3.59960E-001	-1.14776E+000	3.57790E+000	10	...........
	2	0.04	6.55146E-001	5.99207E-003	0.00000E+000	3.92568E-003	3.59960E-001	-1.14856E+000	3.57790E+000	10	...........
	3	0.053333	6.62989E-001	5.99059E-003	0.00000E+000	3.97170E-003	3.59960E-001	-1.15846E+000	3.57790E+000	10	...........
	4	0.066667	6.70583E-001	5.99358E-003	0.00000E+000	4.01920E-003	3.59960E-001	-1.14772E+000	3.57790E+000	10	...........
	5	0.08	6.77966E-001	5.99297E-003	0.00000E+000	4.06303E-003	3.59960E-001	-1.14865E+000	3.57790E+000	10	...........
	6	0.093333	6.85135E-001	5.99454E-003	0.00000E+000	4.10707E-003	3.59960E-001	-1.15820E+000	3.57790E+000	10	...........
	7	0.106667	6.92255E-001	5.99069E-003	0.00000E+000	4.14709E-003	3.59960E-001	-1.14759E+000	3.57790E+000	10	...........
	8	0.12	6.99258E-001	5.99277E-003	0.00000E+000	4.19049E-003	3.59960E-001	-1.14861E+000	3.57790E+000	10	...........
	9	0.133333	7.06202E-001	5.99276E-003	0.00000E+000	4.23210E-003	3.59960E-001	-1.15827E+000	3.57790E+000	10	...........
	10	0.146667	7.13063E-001	5.99463E-003	0.00000E+000	4.27455E-003	3.59960E-001	-1.14758E+000	3.57790E+000	10	...........
	11	0.16	7.19980E-001	5.99458E-003	0.00000E+000	4.31598E-003	3.59960E-001	-1.14843E+000	3.57790E+000	10	...........
	12	0.173333	7.26769E-001	5.99277E-003	0.00000E+000	4.35536E-003	3.59960E-001	-1.15786E+000	3.57790E+000	10	...........
	13	0.186667	7.33500E-001	5.99517E-003	0.00000E+000	4.39746E-003	3.59960E-001	-1.14750E+000	3.57790E+000	10	...........
	14	0.2	7.40195E-001	5.99185E-003	0.00000E+000	4.43514E-003	3.59960E-001	-1.14797E+000	3.57790E+000	10	...........
	15	0.213333	7.46902E-001	5.99300E-003	0.00000E+000	4.47618E-003	3.59960E-001	-1.15759E+000	3.57790E+000	10	...........
	16	0.226667	7.53545E-001	5.99446E-003	0.00000E+000	4.51710E-003	3.59960E-001	-1.14724E+000	3.57790E+000	10	...........
	17	0.24	7.60198E-001	5.99044E-003	0.00000E+000	4.55392E-003	3.59960E-001	-1.14801E+000	3.57790E+000	10	...........
	18	0.253333	7.66818E-001	5.98979E-003	0.00000E+000	4.59307E-003	3.59960E-001	-1.15782E+000	3.57790E+000	10	...........
	19	0.266667	7.73415E-001	5.99356E-003	0.00000E+000	4.63551E-003	3.59960E-001	-1.14726E+000	3.57790E+000	10	...........
	20	0.28	7.79995E-001	5.99141E-003	0.00000E+000	4.67327E-003	3.59960E-001	-1.14791E+000	3.57790E+000	10	...........
	21	0.293333	7.86575E-001	5.99489E-003	0.00000E+000	4.71543E-003	3.59960E-001	-1.15773E+000	3.57790E+000	10	...........
	22	0.306667	7.93145E-001	5.99212E-003	0.00000E+000	4.75262E-003	3.59960E-001	-1.14715E+000	3.57790E+000	10	...........
	23	0.32	7.99677E-001	5.99747E-003	0.00000E+000	4.79604E-003	3.59960E-001	-1.14759E+000	3.57790E+000	10	...........
	24	0.333333	8.06171E-001	5.99055E-003	0.00000E+000	4.82941E-003	3.59960E-001	-1.15759E+000	3.57790E+000	10	...........
	25	0.346667	8.12651E-001	5.99530E-003	0.00000E+000	4.87209E-003	3.59960E-001	-1.14698E+000	3.57790E+000	10	...........
	26	0.36	8.19143E-001	5.99447E-003	0.00000E+000	4.91033E-003	3.59960E-001	-1.14767E+000	3.57790E+000	10	...........
	27	0.373333	8.25579E-001	5.99298E-003	0.00000E+000	4.94768E-003	3.59960E-001	-1.15758E+000	3.57790E+000	10	...........
	28	0.386667	8.31966E-001	5.99375E-003	0.00000E+000	4.98659E-003	3.59960E-001	-1.14734E+000	3.57790E+000	10	...........
	29	0.4	8.38400E-001	5.99447E-003	0.00000E+000	5.02577E-003	3.59960E-001	-1.14780E+000	3.57790E+000	10	...........
	30	0.413333	8.44835E-001	5.99416E-003	0.00000E+000	5.06408E-003	3.59960E-001	-1.15777E+000	3.57790E+000	10	...........
	31	0.426667	8.51223E-001	5.99618E-003	0.00000E+000	5.10408E-003	3.59960E-001	-1.14703E+000	3.57790E+000	10	...........
	32	0.44	8.57566E-001	5.98912E-003	0.00000E+000	5.13607E-003	3.59960E-001	-1.14765E+000	3.57790E+000	10	...........
	33	0.453333	8.63906E-001	5.98938E-003	0.00000E+000	5.17426E-003	3.59960E-001	-1.15787E+000	3.57790E+000	10	...........
	34	0.466667	8.70215E-001	5.99518E-003	0.00000E+000	5.21709E-003	3.59960E-001	-1.14738E+000	3.57790E+000	10	...........
	35	0.48	8.76511E-001	5.99462E-003	0.00000E+000	5.25435E-003	3.59960E-001	-1.14750E+000	3.57790E+000	10	...........
	36	0.493333	8.82776E-001	5.99330E-003	0.00000E+000	5.29074E-003	3.59960E-001	-1.15714E+000	3.57790E+000	10	...........
	37	0.506667	8.89010E-001	5.99486E-003	0.00000E+000	5.32949E-003	3.59960E-001	-1.14673E+000	3.57790E+000	10	...........
	38	0.52	8.95209E-001	5.99076E-003	0.00000E+000	5.36298E-003	3.59960E-001	-1.14729E+000	3.57790E+000	10	...........
	39	0.533333	9.01375E-001	5.99342E-003	0.00000E+000	5.40232E-003	3.59960E-001	-1.15718E+000	3.57790E+000	10	...........
	40	0.546667	9.07520E-001	5.99447E-003	0.00000E+000	5.44010E-003	3.59960E-001	-1.14671E+000	3.57790E+000	10	...........
	41	0.56	9.13651E-001	5.99394E-003	0.00000E+000	5.47637E-003	3.59960E-001	-1.14710E+000	3.57790E+000	10	...........
	42	0.573333	9.19724E-001	5.99673E-003	0.00000E+000	5.51534E-003	3.59960E-001	-1.15730E+000	3.57790E+000	10	...........
	43	0.586667	9.25819E-001	5.99706E-003	0.00000E+000	5.55219E-003	3.59960E-001	-1.14682E+000	3.57790E+000	10	...........
	44	0.6	9.31856E-001	5.99353E-003	0.00000E+000	5.58511E-003	3.59960E-001	-1.14707E+000	3.57790E+000	10	...........
	45	0.613333	9.37802E-001	5.99644E-003	0.00000E+000	5.62348E-003	3.59960E-001	-1.15711E+000	3.57866E+000	10	...........
	46	0.626667	9.43696E-001	5.99836E-003	0.00000E+000	5.66063E-003	3.59960E-001	-1.14657E+000	3.58000E+000	10	...........
	47	0.64	9.49630E-001	5.99617E-003	0.00000E+000	5.69414E-003	3.59960E-001	-1.14690E+000	3.58000E+000	10	...........
	48	0.653333	9.55469E-001	5.99849E-003	0.00000E+000	5.73137E-003	3.59960E-001	-1.15719E+000	3.58000E+000	10	...........
	49	0.666667	9.61252E-001	5.99284E-003	0.00000E+000	5.76063E-003	3.59960E-001	-1.14674E+000	3.58000E+000	10	...........
	50	0.68	9.67009E-001	5.99634E-003	0.00000E+000	5.79851E-003	3.59960E-001	-1.14679E+000	3.58000E+000	10	...........
	51	0.693333	9.72696E-001	5.99301E-003	0.00000E+000	5.82938E-003	3.59960E-001	-1.15711E+000	3.58000E+000	10	...........
	52	0.706667	9.78393E-001	5.99238E-003	0.00000E+000	5.86291E-003	3.59960E-001	-1.14660E+000	3.58000E+000	10	...........
	53	0.72	9.84003E-001	5.99321E-003	0.00000E+000	5.89733E-003	3.59960E-001	-1.14696E+000	3.58000E+000	10	...........
	54	0.733333	9.89576E-001	5.99316E-003	0.00000E+000	5.93068E-003	3.59960E-001	-1.15732E+000	3.58000E+000	10	...........
	55	0.746667	9.95110E-001	5.99616E-003	0.00000E+000	5.96684E-003	3.59960E-001	-1.14672E+000	3.58000E+000	10	...........
	56	0.753333	9.99231E-001	5.99855E-003	0.00000E+000	5.99394E-003	3.59960E-001	-1.15727E+000	3.58000E+000	10	...........
STARTTIMEOFFSET	QUANT	1012.439	Start Time Offset (s)