File: Data/CV_CRGO300517_1/PWRCCD_CRGO300517_1/CHARGE_DISCHARGE/CHARGE_#561.DTA
EXPLAIN
TAG	PWR800_CHARGE
TITLE	LABEL	PWR Cyclic Charge Discharge (Cell) - Charge Step	Test &Identifier
DATE	LABEL	22-6-2017	Date
TIME	LABEL	15:58:16	Time
NOTES	NOTES	3	&Notes...
	supercap test cell
	0.6mg
	6M KOH
PSTAT	PSTAT	IFC5000-01520	Potentiostat
CAPACITY	QUANT	1.00000E-003	Capacity (A-hr)
CELLTYPE	SELECTOR	1	&Cell Type
WORKINGCONNECTION	SELECTOR	0	&Working Lead
MAXCHARGETIME	VARIABLEANDUNITS	1.00000E+002	s	1.00000E+002	second(s)	Max &Charge Time
CHARGECURRENT	QUANT	6.00000E-003	&Charge Current (A)
VOLTAGEFINISH	TWOPARAM	F	1.00000E-003	3.60000E+003	&Voltage Finish	 I (A) < 	Max Time(s)
SAMPLETIME	QUANT	1.00000E-002	Sa&mple Period (s)
CHARGESTOPAT1	MULTIPARAM	4	1.00000E+000	Charge Stop At &1	Voltage > Limit	V
CHARGESTOPAT2	MULTIPARAM	0	0.00000E+000	Charge Stop At &2	None	N/A
AESBHCSELECTOR	TOGGLE	F	Save Both Half Cells
IRCOMP	TOGGLE	F	IR &Measure
EOC	QUANT	0	Open Circuit (V)
SEQUENCER	TOGGLE	TRUE	Run as Sequence
PSTATMODEL	IQUANT	53	Pstat Model
PSTATSECTION	LABEL	IFC5000-01520	Pstat Section
PSTATSERIALNO	LABEL	01520	Pstat Serial Number
CTRLMODE	IQUANT	0	Control Mode
ELECTROMETER	IQUANT	1	RE=0 or CS=1
IESTAB	IQUANT	0	I/E Stability
CASPEED	IQUANT	4	Control Amp Speed
CONVENTION	IQUANT	1	Current Convention
ICHRANGE	IQUANT	2	Ich Range
ICHRANGEMODE	TOGGLE	T	Ich Auto Range
ICHOFFSETENABLE	TOGGLE	F	Ich Offset Enable
ICHOFFSET	QUANT	0	Ich Offset (V)
ICHFILTER	IQUANT	1	Ich Filter
VCHRANGE	IQUANT	2	Vch Range
VCHRANGEMODE	TOGGLE	T	Vch Auto Range
VCHOFFSETENABLE	TOGGLE	F	Vch Offset Enable
VCHOFFSET	QUANT	0	Vch Offset (V)
VCHFILTER	IQUANT	1	Vch Filter
IERANGELOWERLIMIT	IQUANT	9	I/E Range Lower Limit
IERANGEMODE	TOGGLE	F	I/E AutoRange
IERANGE	IQUANT	10	I/E Range
ACHSELECT	IQUANT	1	Ach Select
ACHRANGE	IQUANT	2	Ach Range
ACHOFFSETENABLE	TOGGLE	F	Ach Offset Enable
ACHOFFSET	QUANT	0	Ach Offset (V)
ACHFILTER	IQUANT	1	Ach Filter
CABLEID	IQUANT	14	Cable ID
DCCALDATE	LABEL	20-10-2016	DC Calibration Date
ACCALDATE	LABEL	12/3/2015	AC Calibration Date
FRAMEWORKVERSION	QUANT	7.01	Framework Version
INSTRUMENTVERSION	LABEL	4.00	Instrument Version
CURVE	TABLE	57
	Pt	T	Vf	Im	Vu	Pwr	Sig	Ach	Temp	IERange	Over
	#	s	V	A	V	W	V	V	deg C	#	bits
	0	0.013333	6.35423E-001	5.99171E-003	0.00000E+000	3.80727E-003	3.59960E-001	-1.13779E+000	3.57790E+000	10	...........
	1	0.026667	6.44473E-001	5.99711E-003	0.00000E+000	3.86497E-003	3.59960E-001	-1.14533E+000	3.57790E+000	10	...........
	2	0.04	6.52742E-001	5.99301E-003	0.00000E+000	3.91189E-003	3.59960E-001	-1.14435E+000	3.57790E+000	10	...........
	3	0.053333	6.60549E-001	5.99512E-003	0.00000E+000	3.96007E-003	3.59960E-001	-1.13759E+000	3.57790E+000	10	...........
	4	0.066667	6.68101E-001	5.99371E-003	0.00000E+000	4.00440E-003	3.59960E-001	-1.14544E+000	3.57790E+000	10	...........
	5	0.08	6.75418E-001	5.99031E-003	0.00000E+000	4.04596E-003	3.59960E-001	-1.14442E+000	3.57790E+000	10	...........
	6	0.093333	6.82608E-001	5.99205E-003	0.00000E+000	4.09022E-003	3.59960E-001	-1.13738E+000	3.57790E+000	10	...........
	7	0.106667	6.89723E-001	5.99268E-003	0.00000E+000	4.13329E-003	3.59960E-001	-1.14506E+000	3.57790E+000	10	...........
	8	0.12	6.96718E-001	5.99777E-003	0.00000E+000	4.17875E-003	3.59960E-001	-1.14386E+000	3.57790E+000	10	...........
	9	0.133333	7.03616E-001	5.99254E-003	0.00000E+000	4.21645E-003	3.59960E-001	-1.13759E+000	3.57790E+000	10	...........
	10	0.146667	7.10461E-001	5.99120E-003	0.00000E+000	4.25652E-003	3.59960E-001	-1.14513E+000	3.57790E+000	10	...........
	11	0.16	7.17347E-001	5.99360E-003	0.00000E+000	4.29949E-003	3.59960E-001	-1.14419E+000	3.57790E+000	10	...........
	12	0.173333	7.24090E-001	5.99193E-003	0.00000E+000	4.33870E-003	3.59960E-001	-1.13735E+000	3.57790E+000	10	...........
	13	0.186667	7.30817E-001	5.99289E-003	0.00000E+000	4.37971E-003	3.59960E-001	-1.14538E+000	3.57790E+000	10	...........
	14	0.2	7.37524E-001	5.99564E-003	0.00000E+000	4.42193E-003	3.59960E-001	-1.14431E+000	3.57790E+000	10	...........
	15	0.213333	7.44213E-001	5.99516E-003	0.00000E+000	4.46168E-003	3.59960E-001	-1.13755E+000	3.57790E+000	10	...........
	16	0.226667	7.50804E-001	5.99001E-003	0.00000E+000	4.49732E-003	3.59960E-001	-1.14539E+000	3.57790E+000	10	...........
	17	0.24	7.57449E-001	5.99474E-003	0.00000E+000	4.54071E-003	3.59960E-001	-1.14397E+000	3.57790E+000	10	...........
	18	0.253333	7.64042E-001	5.99717E-003	0.00000E+000	4.58209E-003	3.59960E-001	-1.13749E+000	3.57790E+000	10	...........
	19	0.266667	7.70638E-001	5.99482E-003	0.00000E+000	4.61984E-003	3.59960E-001	-1.14530E+000	3.57790E+000	10	...........
	20	0.28	7.77183E-001	5.99597E-003	0.00000E+000	4.65997E-003	3.59960E-001	-1.14398E+000	3.57790E+000	10	...........
	21	0.293333	7.83707E-001	5.99230E-003	0.00000E+000	4.69620E-003	3.59960E-001	-1.13738E+000	3.57790E+000	10	...........
	22	0.306667	7.90235E-001	5.98739E-003	0.00000E+000	4.73144E-003	3.59960E-001	-1.14538E+000	3.57790E+000	10	...........
	23	0.32	7.96751E-001	5.99137E-003	0.00000E+000	4.77363E-003	3.59960E-001	-1.14417E+000	3.57790E+000	10	...........
	24	0.333333	8.03224E-001	5.99150E-003	0.00000E+000	4.81251E-003	3.59960E-001	-1.13780E+000	3.57790E+000	10	...........
	25	0.346667	8.09646E-001	5.99780E-003	0.00000E+000	4.85609E-003	3.59960E-001	-1.14575E+000	3.57790E+000	10	...........
	26	0.36	8.16112E-001	5.99451E-003	0.00000E+000	4.89219E-003	3.59960E-001	-1.14435E+000	3.57790E+000	10	...........
	27	0.373333	8.22561E-001	5.99473E-003	0.00000E+000	4.93103E-003	3.59960E-001	-1.13751E+000	3.57790E+000	10	...........
	28	0.386667	8.28955E-001	5.99717E-003	0.00000E+000	4.97138E-003	3.59960E-001	-1.14564E+000	3.57790E+000	10	...........
	29	0.4	8.35327E-001	5.99460E-003	0.00000E+000	5.00745E-003	3.59960E-001	-1.14424E+000	3.57790E+000	10	...........
	30	0.413333	8.41699E-001	5.98981E-003	0.00000E+000	5.04162E-003	3.59960E-001	-1.13757E+000	3.57790E+000	10	...........
	31	0.426667	8.48118E-001	5.99405E-003	0.00000E+000	5.08366E-003	3.59960E-001	-1.14537E+000	3.57790E+000	10	...........
	32	0.44	8.54455E-001	5.99206E-003	0.00000E+000	5.11995E-003	3.59960E-001	-1.14386E+000	3.57790E+000	10	...........
	33	0.453333	8.60781E-001	5.99338E-003	0.00000E+000	5.15899E-003	3.59960E-001	-1.13733E+000	3.57790E+000	10	...........
	34	0.466667	8.67099E-001	5.99516E-003	0.00000E+000	5.19839E-003	3.59960E-001	-1.14543E+000	3.57790E+000	10	...........
	35	0.48	8.73395E-001	5.99405E-003	0.00000E+000	5.23517E-003	3.59960E-001	-1.14407E+000	3.57790E+000	10	...........
	36	0.493333	8.79588E-001	5.99240E-003	0.00000E+000	5.27085E-003	3.59960E-001	-1.13734E+000	3.57790E+000	10	...........
	37	0.506667	8.85843E-001	5.99499E-003	0.00000E+000	5.31062E-003	3.59960E-001	-1.14516E+000	3.57790E+000	10	...........
	38	0.52	8.92042E-001	5.99799E-003	0.00000E+000	5.35046E-003	3.59960E-001	-1.14365E+000	3.57790E+000	10	...........
	39	0.533333	8.98226E-001	5.99583E-003	0.00000E+000	5.38561E-003	3.59960E-001	-1.13761E+000	3.57790E+000	10	...........
	40	0.546667	9.04326E-001	5.99385E-003	0.00000E+000	5.42040E-003	3.59960E-001	-1.14549E+000	3.57790E+000	10	...........
	41	0.56	9.10471E-001	5.99737E-003	0.00000E+000	5.46043E-003	3.59960E-001	-1.14381E+000	3.57790E+000	10	...........
	42	0.573333	9.16589E-001	5.99363E-003	0.00000E+000	5.49370E-003	3.59960E-001	-1.13745E+000	3.57730E+000	10	...........
	43	0.586667	9.22694E-001	5.99324E-003	0.00000E+000	5.52993E-003	3.59960E-001	-1.14553E+000	3.57730E+000	10	...........
	44	0.6	9.28681E-001	5.99299E-003	0.00000E+000	5.56558E-003	3.59960E-001	-1.14378E+000	3.57730E+000	10	...........
	45	0.613333	9.34632E-001	5.98762E-003	0.00000E+000	5.59622E-003	3.59960E-001	-1.13750E+000	3.57730E+000	10	...........
	46	0.626667	9.40611E-001	5.99498E-003	0.00000E+000	5.63894E-003	3.59960E-001	-1.14575E+000	3.57730E+000	10	...........
	47	0.64	9.46505E-001	5.99790E-003	0.00000E+000	5.67705E-003	3.59960E-001	-1.14373E+000	3.57730E+000	10	...........
	48	0.653333	9.52379E-001	5.99513E-003	0.00000E+000	5.70963E-003	3.59960E-001	-1.13769E+000	3.57730E+000	10	...........
	49	0.666667	9.58161E-001	5.99876E-003	0.00000E+000	5.74777E-003	3.59960E-001	-1.14608E+000	3.57730E+000	10	...........
	50	0.68	9.63913E-001	5.99568E-003	0.00000E+000	5.77931E-003	3.59960E-001	-1.14419E+000	3.57730E+000	10	...........
	51	0.693333	9.69678E-001	5.98626E-003	0.00000E+000	5.80474E-003	3.59960E-001	-1.13767E+000	3.57730E+000	10	...........
	52	0.706667	9.75351E-001	5.99297E-003	0.00000E+000	5.84525E-003	3.59960E-001	-1.14582E+000	3.57730E+000	10	...........
	53	0.72	9.81002E-001	5.99507E-003	0.00000E+000	5.88118E-003	3.59960E-001	-1.14389E+000	3.57730E+000	10	...........
	54	0.733333	9.86563E-001	5.98933E-003	0.00000E+000	5.90885E-003	3.59960E-001	-1.13756E+000	3.57730E+000	10	...........
	55	0.746667	9.92117E-001	5.99050E-003	0.00000E+000	5.94327E-003	3.59960E-001	-1.14567E+000	3.57730E+000	10	...........
	56	0.76	9.97621E-001	5.99086E-003	0.00000E+000	5.97661E-003	3.59960E-001	-1.14363E+000	3.57730E+000	10	...........
STARTTIMEOFFSET	QUANT	952.175	Start Time Offset (s)