File: Data/CV_CRGO300517_1/PWRCCD_CRGO300517_1/CHARGE_DISCHARGE/CHARGE_#967.DTA
EXPLAIN
TAG	PWR800_CHARGE
TITLE	LABEL	PWR Cyclic Charge Discharge (Cell) - Charge Step	Test &Identifier
DATE	LABEL	22-6-2017	Date
TIME	LABEL	16:13:26	Time
NOTES	NOTES	3	&Notes...
	supercap test cell
	0.6mg
	6M KOH
PSTAT	PSTAT	IFC5000-01520	Potentiostat
CAPACITY	QUANT	1.00000E-003	Capacity (A-hr)
CELLTYPE	SELECTOR	1	&Cell Type
WORKINGCONNECTION	SELECTOR	0	&Working Lead
MAXCHARGETIME	VARIABLEANDUNITS	1.00000E+002	s	1.00000E+002	second(s)	Max &Charge Time
CHARGECURRENT	QUANT	6.00000E-003	&Charge Current (A)
VOLTAGEFINISH	TWOPARAM	F	1.00000E-003	3.60000E+003	&Voltage Finish	 I (A) < 	Max Time(s)
SAMPLETIME	QUANT	1.00000E-002	Sa&mple Period (s)
CHARGESTOPAT1	MULTIPARAM	4	1.00000E+000	Charge Stop At &1	Voltage > Limit	V
CHARGESTOPAT2	MULTIPARAM	0	0.00000E+000	Charge Stop At &2	None	N/A
AESBHCSELECTOR	TOGGLE	F	Save Both Half Cells
IRCOMP	TOGGLE	F	IR &Measure
EOC	QUANT	0	Open Circuit (V)
SEQUENCER	TOGGLE	TRUE	Run as Sequence
PSTATMODEL	IQUANT	53	Pstat Model
PSTATSECTION	LABEL	IFC5000-01520	Pstat Section
PSTATSERIALNO	LABEL	01520	Pstat Serial Number
CTRLMODE	IQUANT	0	Control Mode
ELECTROMETER	IQUANT	1	RE=0 or CS=1
IESTAB	IQUANT	0	I/E Stability
CASPEED	IQUANT	4	Control Amp Speed
CONVENTION	IQUANT	1	Current Convention
ICHRANGE	IQUANT	2	Ich Range
ICHRANGEMODE	TOGGLE	T	Ich Auto Range
ICHOFFSETENABLE	TOGGLE	F	Ich Offset Enable
ICHOFFSET	QUANT	0	Ich Offset (V)
ICHFILTER	IQUANT	1	Ich Filter
VCHRANGE	IQUANT	2	Vch Range
VCHRANGEMODE	TOGGLE	T	Vch Auto Range
VCHOFFSETENABLE	TOGGLE	F	Vch Offset Enable
VCHOFFSET	QUANT	0	Vch Offset (V)
VCHFILTER	IQUANT	1	Vch Filter
IERANGELOWERLIMIT	IQUANT	9	I/E Range Lower Limit
IERANGEMODE	TOGGLE	F	I/E AutoRange
IERANGE	IQUANT	10	I/E Range
ACHSELECT	IQUANT	1	Ach Select
ACHRANGE	IQUANT	2	Ach Range
ACHOFFSETENABLE	TOGGLE	F	Ach Offset Enable
ACHOFFSET	QUANT	0	Ach Offset (V)
ACHFILTER	IQUANT	1	Ach Filter
CABLEID	IQUANT	14	Cable ID
DCCALDATE	LABEL	20-10-2016	DC Calibration Date
ACCALDATE	LABEL	12/3/2015	AC Calibration Date
FRAMEWORKVERSION	QUANT	7.01	Framework Version
INSTRUMENTVERSION	LABEL	4.00	Instrument Version
CURVE	TABLE	53
	Pt	T	Vf	Im	Vu	Pwr	Sig	Ach	Temp	IERange	Over
	#	s	V	A	V	W	V	V	deg C	#	bits
	0	0.013333	6.55338E-001	5.99319E-003	0.00000E+000	3.92756E-003	3.59960E-001	-1.17710E+000	3.57780E+000	10	...........
	1	0.026667	6.64705E-001	5.99378E-003	0.00000E+000	3.98410E-003	3.59960E-001	-1.18313E+000	3.57780E+000	10	...........
	2	0.04	6.73333E-001	5.99737E-003	0.00000E+000	4.03823E-003	3.59960E-001	-1.17328E+000	3.57780E+000	10	...........
	3	0.053333	6.81464E-001	5.99279E-003	0.00000E+000	4.08387E-003	3.59960E-001	-1.17707E+000	3.57780E+000	10	...........
	4	0.066667	6.89282E-001	5.99364E-003	0.00000E+000	4.13130E-003	3.59960E-001	-1.18276E+000	3.57780E+000	10	...........
	5	0.08	6.96936E-001	5.99135E-003	0.00000E+000	4.17559E-003	3.59960E-001	-1.17318E+000	3.57780E+000	10	...........
	6	0.093333	7.04476E-001	5.99858E-003	0.00000E+000	4.22586E-003	3.59960E-001	-1.17742E+000	3.57780E+000	10	...........
	7	0.106667	7.11837E-001	5.98932E-003	0.00000E+000	4.26342E-003	3.59960E-001	-1.18287E+000	3.57780E+000	10	...........
	8	0.12	7.19118E-001	5.98897E-003	0.00000E+000	4.30678E-003	3.59960E-001	-1.17315E+000	3.57780E+000	10	...........
	9	0.133333	7.26347E-001	5.99554E-003	0.00000E+000	4.35484E-003	3.59960E-001	-1.17713E+000	3.57780E+000	10	...........
	10	0.146667	7.33490E-001	5.99677E-003	0.00000E+000	4.39858E-003	3.59960E-001	-1.18277E+000	3.57780E+000	10	...........
	11	0.16	7.40562E-001	5.99116E-003	0.00000E+000	4.43683E-003	3.59960E-001	-1.17324E+000	3.57780E+000	10	...........
	12	0.173333	7.47626E-001	5.99375E-003	0.00000E+000	4.48108E-003	3.59960E-001	-1.17706E+000	3.57780E+000	10	...........
	13	0.186667	7.54612E-001	5.99527E-003	0.00000E+000	4.52410E-003	3.59960E-001	-1.18220E+000	3.57780E+000	10	...........
	14	0.2	7.61567E-001	5.99453E-003	0.00000E+000	4.56524E-003	3.59960E-001	-1.17254E+000	3.57780E+000	10	...........
	15	0.213333	7.68476E-001	5.99715E-003	0.00000E+000	4.60867E-003	3.59960E-001	-1.17694E+000	3.57780E+000	10	...........
	16	0.226667	7.75368E-001	5.99074E-003	0.00000E+000	4.64503E-003	3.59960E-001	-1.18209E+000	3.57780E+000	10	...........
	17	0.24	7.82266E-001	5.99384E-003	0.00000E+000	4.68878E-003	3.59960E-001	-1.17273E+000	3.57780E+000	10	...........
	18	0.253333	7.89064E-001	5.99499E-003	0.00000E+000	4.73043E-003	3.59960E-001	-1.17689E+000	3.57780E+000	10	...........
	19	0.266667	7.95909E-001	5.99106E-003	0.00000E+000	4.76833E-003	3.59960E-001	-1.18177E+000	3.57780E+000	10	...........
	20	0.28	8.02710E-001	5.99164E-003	0.00000E+000	4.80955E-003	3.59960E-001	-1.17266E+000	3.57780E+000	10	...........
	21	0.293333	8.09436E-001	5.99865E-003	0.00000E+000	4.85553E-003	3.59960E-001	-1.17695E+000	3.57780E+000	10	...........
	22	0.306667	8.16141E-001	5.99665E-003	0.00000E+000	4.89411E-003	3.59960E-001	-1.18197E+000	3.57780E+000	10	...........
	23	0.32	8.22828E-001	5.99397E-003	0.00000E+000	4.93201E-003	3.59960E-001	-1.17247E+000	3.57780E+000	10	...........
	24	0.333333	8.29490E-001	5.99399E-003	0.00000E+000	4.97195E-003	3.59960E-001	-1.17663E+000	3.57780E+000	10	...........
	25	0.346667	8.36087E-001	5.99110E-003	0.00000E+000	5.00908E-003	3.59960E-001	-1.18173E+000	3.57780E+000	10	...........
	26	0.36	8.42696E-001	5.99504E-003	0.00000E+000	5.05200E-003	3.59960E-001	-1.17246E+000	3.57780E+000	10	...........
	27	0.373333	8.49282E-001	5.99585E-003	0.00000E+000	5.09216E-003	3.59960E-001	-1.17674E+000	3.57780E+000	10	...........
	28	0.386667	8.55857E-001	5.99447E-003	0.00000E+000	5.13041E-003	3.59960E-001	-1.18168E+000	3.57780E+000	10	...........
	29	0.4	8.62384E-001	5.99534E-003	0.00000E+000	5.17028E-003	3.59960E-001	-1.17223E+000	3.57780E+000	10	...........
	30	0.413333	8.68842E-001	5.99087E-003	0.00000E+000	5.20512E-003	3.59960E-001	-1.17696E+000	3.57780E+000	10	...........
	31	0.426667	8.75353E-001	5.99389E-003	0.00000E+000	5.24676E-003	3.59960E-001	-1.18180E+000	3.57780E+000	10	...........
	32	0.44	8.81755E-001	5.99229E-003	0.00000E+000	5.28373E-003	3.59960E-001	-1.17263E+000	3.57780E+000	10	...........
	33	0.453333	8.88160E-001	5.99345E-003	0.00000E+000	5.32314E-003	3.59960E-001	-1.17666E+000	3.57780E+000	10	...........
	34	0.466667	8.94522E-001	5.99553E-003	0.00000E+000	5.36314E-003	3.59960E-001	-1.18142E+000	3.57780E+000	10	...........
	35	0.48	9.00865E-001	5.99254E-003	0.00000E+000	5.39847E-003	3.59960E-001	-1.17242E+000	3.57780E+000	10	...........
	36	0.493333	9.07146E-001	5.99282E-003	0.00000E+000	5.43636E-003	3.59960E-001	-1.17677E+000	3.57780E+000	10	...........
	37	0.506667	9.13407E-001	5.99530E-003	0.00000E+000	5.47615E-003	3.59960E-001	-1.18120E+000	3.57780E+000	10	...........
	38	0.52	9.19671E-001	5.99386E-003	0.00000E+000	5.51238E-003	3.59960E-001	-1.17199E+000	3.57780E+000	10	...........
	39	0.533333	9.25890E-001	6.00062E-003	0.00000E+000	5.55592E-003	3.59960E-001	-1.17654E+000	3.57780E+000	10	...........
	40	0.546667	9.31985E-001	5.99462E-003	0.00000E+000	5.58689E-003	3.59960E-001	-1.18109E+000	3.57780E+000	10	...........
	41	0.56	9.38060E-001	5.99786E-003	0.00000E+000	5.62635E-003	3.59960E-001	-1.17214E+000	3.57780E+000	10	...........
	42	0.573333	9.44066E-001	5.99754E-003	0.00000E+000	5.66207E-003	3.59960E-001	-1.17686E+000	3.57780E+000	10	...........
	43	0.586667	9.50083E-001	5.99571E-003	0.00000E+000	5.69642E-003	3.59960E-001	-1.18107E+000	3.57780E+000	10	...........
	44	0.6	9.56029E-001	5.99918E-003	0.00000E+000	5.73539E-003	3.59960E-001	-1.17192E+000	3.57780E+000	10	...........
	45	0.613333	9.61874E-001	5.99189E-003	0.00000E+000	5.76344E-003	3.59960E-001	-1.17649E+000	3.57780E+000	10	...........
	46	0.626667	9.67716E-001	5.99168E-003	0.00000E+000	5.79825E-003	3.59960E-001	-1.18121E+000	3.57780E+000	10	...........
	47	0.64	9.73539E-001	5.99480E-003	0.00000E+000	5.83618E-003	3.59960E-001	-1.17213E+000	3.57780E+000	10	...........
	48	0.653333	9.79249E-001	5.98657E-003	0.00000E+000	5.86234E-003	3.59960E-001	-1.17653E+000	3.57780E+000	10	...........
	49	0.666667	9.84955E-001	5.99253E-003	0.00000E+000	5.90237E-003	3.59960E-001	-1.18096E+000	3.57780E+000	10	...........
	50	0.68	9.90558E-001	5.99474E-003	0.00000E+000	5.93814E-003	3.59960E-001	-1.17217E+000	3.57780E+000	10	...........
	51	0.693333	9.96151E-001	5.99431E-003	0.00000E+000	5.97124E-003	3.59960E-001	-1.17684E+000	3.57780E+000	10	...........
	52	0.698333	9.99971E-001	5.99343E-003	0.00000E+000	5.99325E-003	3.59960E-001	-1.17304E+000	3.57780E+000	10	...........
STARTTIMEOFFSET	QUANT	1539.605	Start Time Offset (s)