File: Data/CV_CRGO300517_1/PWRCCD_CRGO300517_1/CHARGE_DISCHARGE/CHARGE_#188.DTA
EXPLAIN
TAG	PWR800_CHARGE
TITLE	LABEL	PWR Cyclic Charge Discharge (Cell) - Charge Step	Test &Identifier
DATE	LABEL	22-6-2017	Date
TIME	LABEL	15:43:18	Time
NOTES	NOTES	3	&Notes...
	supercap test cell
	0.6mg
	6M KOH
PSTAT	PSTAT	IFC5000-01520	Potentiostat
CAPACITY	QUANT	1.00000E-003	Capacity (A-hr)
CELLTYPE	SELECTOR	1	&Cell Type
WORKINGCONNECTION	SELECTOR	0	&Working Lead
MAXCHARGETIME	VARIABLEANDUNITS	1.00000E+002	s	1.00000E+002	second(s)	Max &Charge Time
CHARGECURRENT	QUANT	6.00000E-003	&Charge Current (A)
VOLTAGEFINISH	TWOPARAM	F	1.00000E-003	3.60000E+003	&Voltage Finish	 I (A) < 	Max Time(s)
SAMPLETIME	QUANT	1.00000E-002	Sa&mple Period (s)
CHARGESTOPAT1	MULTIPARAM	4	1.00000E+000	Charge Stop At &1	Voltage > Limit	V
CHARGESTOPAT2	MULTIPARAM	0	0.00000E+000	Charge Stop At &2	None	N/A
AESBHCSELECTOR	TOGGLE	F	Save Both Half Cells
IRCOMP	TOGGLE	F	IR &Measure
EOC	QUANT	0	Open Circuit (V)
SEQUENCER	TOGGLE	TRUE	Run as Sequence
PSTATMODEL	IQUANT	53	Pstat Model
PSTATSECTION	LABEL	IFC5000-01520	Pstat Section
PSTATSERIALNO	LABEL	01520	Pstat Serial Number
CTRLMODE	IQUANT	0	Control Mode
ELECTROMETER	IQUANT	1	RE=0 or CS=1
IESTAB	IQUANT	0	I/E Stability
CASPEED	IQUANT	4	Control Amp Speed
CONVENTION	IQUANT	1	Current Convention
ICHRANGE	IQUANT	2	Ich Range
ICHRANGEMODE	TOGGLE	T	Ich Auto Range
ICHOFFSETENABLE	TOGGLE	F	Ich Offset Enable
ICHOFFSET	QUANT	0	Ich Offset (V)
ICHFILTER	IQUANT	1	Ich Filter
VCHRANGE	IQUANT	2	Vch Range
VCHRANGEMODE	TOGGLE	T	Vch Auto Range
VCHOFFSETENABLE	TOGGLE	F	Vch Offset Enable
VCHOFFSET	QUANT	0	Vch Offset (V)
VCHFILTER	IQUANT	1	Vch Filter
IERANGELOWERLIMIT	IQUANT	9	I/E Range Lower Limit
IERANGEMODE	TOGGLE	F	I/E AutoRange
IERANGE	IQUANT	10	I/E Range
ACHSELECT	IQUANT	1	Ach Select
ACHRANGE	IQUANT	2	Ach Range
ACHOFFSETENABLE	TOGGLE	F	Ach Offset Enable
ACHOFFSET	QUANT	0	Ach Offset (V)
ACHFILTER	IQUANT	1	Ach Filter
CABLEID	IQUANT	14	Cable ID
DCCALDATE	LABEL	20-10-2016	DC Calibration Date
ACCALDATE	LABEL	12/3/2015	AC Calibration Date
FRAMEWORKVERSION	QUANT	7.01	Framework Version
INSTRUMENTVERSION	LABEL	4.00	Instrument Version
CURVE	TABLE	66
	Pt	T	Vf	Im	Vu	Pwr	Sig	Ach	Temp	IERange	Over
	#	s	V	A	V	W	V	V	deg C	#	bits
	0	0.013333	6.04340E-001	5.99144E-003	0.00000E+000	3.62087E-003	3.59960E-001	-1.09426E+000	3.57710E+000	10	...........
	1	0.026667	6.12795E-001	5.99138E-003	0.00000E+000	3.67149E-003	3.59960E-001	-1.08433E+000	3.57710E+000	10	...........
	2	0.04	6.20557E-001	5.99662E-003	0.00000E+000	3.72125E-003	3.59960E-001	-1.08437E+000	3.57710E+000	10	...........
	3	0.053333	6.27868E-001	5.99173E-003	0.00000E+000	3.76201E-003	3.59960E-001	-1.09420E+000	3.57710E+000	10	...........
	4	0.066667	6.34982E-001	5.99108E-003	0.00000E+000	3.80423E-003	3.59960E-001	-1.08413E+000	3.57710E+000	10	...........
	5	0.08	6.41899E-001	5.99586E-003	0.00000E+000	3.84874E-003	3.59960E-001	-1.08424E+000	3.57710E+000	10	...........
	6	0.093333	6.48612E-001	5.99327E-003	0.00000E+000	3.88730E-003	3.59960E-001	-1.09410E+000	3.57710E+000	10	...........
	7	0.106667	6.55280E-001	5.99789E-003	0.00000E+000	3.93030E-003	3.59960E-001	-1.08430E+000	3.57710E+000	10	...........
	8	0.12	6.61823E-001	5.99294E-003	0.00000E+000	3.96626E-003	3.59960E-001	-1.08405E+000	3.57710E+000	10	...........
	9	0.133333	6.68344E-001	5.99529E-003	0.00000E+000	4.00692E-003	3.59960E-001	-1.09393E+000	3.57710E+000	10	...........
	10	0.146667	6.74750E-001	5.99225E-003	0.00000E+000	4.04327E-003	3.59960E-001	-1.08416E+000	3.57710E+000	10	...........
	11	0.16	6.81095E-001	5.99061E-003	0.00000E+000	4.08017E-003	3.59960E-001	-1.08396E+000	3.57710E+000	10	...........
	12	0.173333	6.87407E-001	5.99401E-003	0.00000E+000	4.12033E-003	3.59960E-001	-1.09404E+000	3.57710E+000	10	...........
	13	0.186667	6.93720E-001	5.98799E-003	0.00000E+000	4.15399E-003	3.59960E-001	-1.08426E+000	3.57710E+000	10	...........
	14	0.2	6.99969E-001	5.99746E-003	0.00000E+000	4.19804E-003	3.59960E-001	-1.08376E+000	3.57710E+000	10	...........
	15	0.213333	7.06210E-001	5.99346E-003	0.00000E+000	4.23264E-003	3.59960E-001	-1.09386E+000	3.57710E+000	10	...........
	16	0.226667	7.12416E-001	5.99846E-003	0.00000E+000	4.27340E-003	3.59960E-001	-1.08417E+000	3.57710E+000	10	...........
	17	0.24	7.18634E-001	5.99011E-003	0.00000E+000	4.30469E-003	3.59960E-001	-1.08379E+000	3.57710E+000	10	...........
	18	0.253333	7.24854E-001	5.99334E-003	0.00000E+000	4.34430E-003	3.59960E-001	-1.09401E+000	3.57710E+000	10	...........
	19	0.266667	7.31012E-001	5.99651E-003	0.00000E+000	4.38352E-003	3.59960E-001	-1.08440E+000	3.57710E+000	10	...........
	20	0.28	7.37144E-001	5.99052E-003	0.00000E+000	4.41587E-003	3.59960E-001	-1.08344E+000	3.57710E+000	10	...........
	21	0.293333	7.43284E-001	5.99230E-003	0.00000E+000	4.45398E-003	3.59960E-001	-1.09383E+000	3.57710E+000	10	...........
	22	0.306667	7.49430E-001	5.99168E-003	0.00000E+000	4.49035E-003	3.59960E-001	-1.08412E+000	3.57710E+000	10	...........
	23	0.32	7.55579E-001	5.99366E-003	0.00000E+000	4.52868E-003	3.59960E-001	-1.08344E+000	3.57710E+000	10	...........
	24	0.333333	7.61691E-001	5.99285E-003	0.00000E+000	4.56470E-003	3.59960E-001	-1.09345E+000	3.57710E+000	10	...........
	25	0.346667	7.67826E-001	5.99689E-003	0.00000E+000	4.60457E-003	3.59960E-001	-1.08373E+000	3.57710E+000	10	...........
	26	0.36	7.73947E-001	5.99163E-003	0.00000E+000	4.63720E-003	3.59960E-001	-1.08285E+000	3.57710E+000	10	...........
	27	0.373333	7.80003E-001	5.99162E-003	0.00000E+000	4.67348E-003	3.59960E-001	-1.09347E+000	3.57710E+000	10	...........
	28	0.386667	7.86061E-001	5.99247E-003	0.00000E+000	4.71044E-003	3.59960E-001	-1.08385E+000	3.57710E+000	10	...........
	29	0.4	7.92127E-001	5.99795E-003	0.00000E+000	4.75114E-003	3.59960E-001	-1.08273E+000	3.57710E+000	10	...........
	30	0.413333	7.98227E-001	5.99085E-003	0.00000E+000	4.78206E-003	3.59960E-001	-1.09324E+000	3.57710E+000	10	...........
	31	0.426667	8.04255E-001	5.99284E-003	0.00000E+000	4.81978E-003	3.59960E-001	-1.08412E+000	3.57710E+000	10	...........
	32	0.44	8.10296E-001	5.99015E-003	0.00000E+000	4.85380E-003	3.59960E-001	-1.08276E+000	3.57710E+000	10	...........
	33	0.453333	8.16336E-001	5.99032E-003	0.00000E+000	4.89011E-003	3.59960E-001	-1.09326E+000	3.57710E+000	10	...........
	34	0.466667	8.22403E-001	5.99696E-003	0.00000E+000	4.93192E-003	3.59960E-001	-1.08392E+000	3.57710E+000	10	...........
	35	0.48	8.28426E-001	5.98944E-003	0.00000E+000	4.96181E-003	3.59960E-001	-1.08258E+000	3.57710E+000	10	...........
	36	0.493333	8.34475E-001	5.99164E-003	0.00000E+000	4.99988E-003	3.59960E-001	-1.09327E+000	3.57710E+000	10	...........
	37	0.506667	8.40513E-001	5.99582E-003	0.00000E+000	5.03956E-003	3.59960E-001	-1.08408E+000	3.57710E+000	10	...........
	38	0.52	8.46569E-001	5.99423E-003	0.00000E+000	5.07453E-003	3.59960E-001	-1.08273E+000	3.57710E+000	10	...........
	39	0.533333	8.52552E-001	5.99120E-003	0.00000E+000	5.10781E-003	3.59960E-001	-1.09303E+000	3.57710E+000	10	...........
	40	0.546667	8.58544E-001	5.99434E-003	0.00000E+000	5.14641E-003	3.59960E-001	-1.08405E+000	3.57710E+000	10	...........
	41	0.56	8.64504E-001	5.99654E-003	0.00000E+000	5.18404E-003	3.59960E-001	-1.08279E+000	3.57710E+000	10	...........
	42	0.573333	8.70506E-001	5.99141E-003	0.00000E+000	5.21556E-003	3.59960E-001	-1.09333E+000	3.57710E+000	10	...........
	43	0.586667	8.76451E-001	5.99146E-003	0.00000E+000	5.25122E-003	3.59960E-001	-1.08449E+000	3.57710E+000	10	...........
	44	0.6	8.82379E-001	5.99460E-003	0.00000E+000	5.28952E-003	3.59960E-001	-1.08259E+000	3.57710E+000	10	...........
	45	0.613333	8.88280E-001	5.99519E-003	0.00000E+000	5.32541E-003	3.59960E-001	-1.09301E+000	3.57710E+000	10	...........
	46	0.626667	8.94180E-001	5.99423E-003	0.00000E+000	5.35992E-003	3.59960E-001	-1.08443E+000	3.57710E+000	10	...........
	47	0.64	9.00043E-001	5.99458E-003	0.00000E+000	5.39539E-003	3.59960E-001	-1.08259E+000	3.57710E+000	10	...........
	48	0.653333	9.05893E-001	5.99574E-003	0.00000E+000	5.43150E-003	3.59960E-001	-1.09285E+000	3.57710E+000	10	...........
	49	0.666667	9.11741E-001	5.99231E-003	0.00000E+000	5.46344E-003	3.59960E-001	-1.08401E+000	3.57710E+000	10	...........
	50	0.68	9.17548E-001	5.99569E-003	0.00000E+000	5.50134E-003	3.59960E-001	-1.08205E+000	3.57710E+000	10	...........
	51	0.693333	9.23412E-001	5.99191E-003	0.00000E+000	5.53300E-003	3.59960E-001	-1.09303E+000	3.57710E+000	10	...........
	52	0.706667	9.29187E-001	5.99546E-003	0.00000E+000	5.57090E-003	3.59960E-001	-1.08449E+000	3.57710E+000	10	...........
	53	0.72	9.34881E-001	5.99190E-003	0.00000E+000	5.60172E-003	3.59960E-001	-1.08219E+000	3.57710E+000	10	...........
	54	0.733333	9.40636E-001	5.99279E-003	0.00000E+000	5.63703E-003	3.59960E-001	-1.09269E+000	3.57710E+000	10	...........
	55	0.746667	9.46325E-001	5.98909E-003	0.00000E+000	5.66762E-003	3.59960E-001	-1.08427E+000	3.57710E+000	10	...........
	56	0.76	9.52055E-001	5.99358E-003	0.00000E+000	5.70622E-003	3.59960E-001	-1.08223E+000	3.57710E+000	10	...........
	57	0.773333	9.57702E-001	5.99403E-003	0.00000E+000	5.74050E-003	3.59960E-001	-1.09268E+000	3.57710E+000	10	...........
	58	0.786667	9.63245E-001	5.99319E-003	0.00000E+000	5.77291E-003	3.59960E-001	-1.08441E+000	3.57710E+000	10	...........
	59	0.8	9.68841E-001	5.99726E-003	0.00000E+000	5.81040E-003	3.59960E-001	-1.08194E+000	3.57710E+000	10	...........
	60	0.813333	9.74431E-001	5.99866E-003	0.00000E+000	5.84528E-003	3.59960E-001	-1.09236E+000	3.57710E+000	10	...........
	61	0.826667	9.79920E-001	5.99537E-003	0.00000E+000	5.87498E-003	3.59960E-001	-1.08451E+000	3.57710E+000	10	...........
	62	0.84	9.85385E-001	5.99158E-003	0.00000E+000	5.90401E-003	3.59960E-001	-1.08212E+000	3.57710E+000	10	...........
	63	0.853333	9.90802E-001	5.99070E-003	0.00000E+000	5.93560E-003	3.59960E-001	-1.09244E+000	3.57710E+000	10	...........
	64	0.866667	9.96195E-001	5.99022E-003	0.00000E+000	5.96743E-003	3.59960E-001	-1.08466E+000	3.57710E+000	10	...........
	65	0.871667	9.99884E-001	5.99727E-003	0.00000E+000	5.99657E-003	3.59960E-001	-1.09292E+000	3.57710E+000	10	...........
STARTTIMEOFFSET	QUANT	352.2335	Start Time Offset (s)