File: Data/CV_CRGO300517_1/PWRCCD_CRGO300517_1/CHARGE_DISCHARGE/CHARGE_#697.DTA
EXPLAIN
TAG	PWR800_CHARGE
TITLE	LABEL	PWR Cyclic Charge Discharge (Cell) - Charge Step	Test &Identifier
DATE	LABEL	22-6-2017	Date
TIME	LABEL	16:03:26	Time
NOTES	NOTES	3	&Notes...
	supercap test cell
	0.6mg
	6M KOH
PSTAT	PSTAT	IFC5000-01520	Potentiostat
CAPACITY	QUANT	1.00000E-003	Capacity (A-hr)
CELLTYPE	SELECTOR	1	&Cell Type
WORKINGCONNECTION	SELECTOR	0	&Working Lead
MAXCHARGETIME	VARIABLEANDUNITS	1.00000E+002	s	1.00000E+002	second(s)	Max &Charge Time
CHARGECURRENT	QUANT	6.00000E-003	&Charge Current (A)
VOLTAGEFINISH	TWOPARAM	F	1.00000E-003	3.60000E+003	&Voltage Finish	 I (A) < 	Max Time(s)
SAMPLETIME	QUANT	1.00000E-002	Sa&mple Period (s)
CHARGESTOPAT1	MULTIPARAM	4	1.00000E+000	Charge Stop At &1	Voltage > Limit	V
CHARGESTOPAT2	MULTIPARAM	0	0.00000E+000	Charge Stop At &2	None	N/A
AESBHCSELECTOR	TOGGLE	F	Save Both Half Cells
IRCOMP	TOGGLE	F	IR &Measure
EOC	QUANT	0	Open Circuit (V)
SEQUENCER	TOGGLE	TRUE	Run as Sequence
PSTATMODEL	IQUANT	53	Pstat Model
PSTATSECTION	LABEL	IFC5000-01520	Pstat Section
PSTATSERIALNO	LABEL	01520	Pstat Serial Number
CTRLMODE	IQUANT	0	Control Mode
ELECTROMETER	IQUANT	1	RE=0 or CS=1
IESTAB	IQUANT	0	I/E Stability
CASPEED	IQUANT	4	Control Amp Speed
CONVENTION	IQUANT	1	Current Convention
ICHRANGE	IQUANT	2	Ich Range
ICHRANGEMODE	TOGGLE	T	Ich Auto Range
ICHOFFSETENABLE	TOGGLE	F	Ich Offset Enable
ICHOFFSET	QUANT	0	Ich Offset (V)
ICHFILTER	IQUANT	1	Ich Filter
VCHRANGE	IQUANT	2	Vch Range
VCHRANGEMODE	TOGGLE	T	Vch Auto Range
VCHOFFSETENABLE	TOGGLE	F	Vch Offset Enable
VCHOFFSET	QUANT	0	Vch Offset (V)
VCHFILTER	IQUANT	1	Vch Filter
IERANGELOWERLIMIT	IQUANT	9	I/E Range Lower Limit
IERANGEMODE	TOGGLE	F	I/E AutoRange
IERANGE	IQUANT	10	I/E Range
ACHSELECT	IQUANT	1	Ach Select
ACHRANGE	IQUANT	2	Ach Range
ACHOFFSETENABLE	TOGGLE	F	Ach Offset Enable
ACHOFFSET	QUANT	0	Ach Offset (V)
ACHFILTER	IQUANT	1	Ach Filter
CABLEID	IQUANT	14	Cable ID
DCCALDATE	LABEL	20-10-2016	DC Calibration Date
ACCALDATE	LABEL	12/3/2015	AC Calibration Date
FRAMEWORKVERSION	QUANT	7.01	Framework Version
INSTRUMENTVERSION	LABEL	4.00	Instrument Version
CURVE	TABLE	56
	Pt	T	Vf	Im	Vu	Pwr	Sig	Ach	Temp	IERange	Over
	#	s	V	A	V	W	V	V	deg C	#	bits
	0	0.013333	6.42627E-001	5.99466E-003	0.00000E+000	3.85233E-003	3.59960E-001	-1.15987E+000	3.57640E+000	10	...........
	1	0.026667	6.51721E-001	5.99248E-003	0.00000E+000	3.90543E-003	3.59960E-001	-1.15227E+000	3.57640E+000	10	...........
	2	0.04	6.60070E-001	5.99618E-003	0.00000E+000	3.95790E-003	3.59960E-001	-1.15907E+000	3.57640E+000	10	...........
	3	0.053333	6.67990E-001	5.99400E-003	0.00000E+000	4.00393E-003	3.59960E-001	-1.16012E+000	3.57640E+000	10	...........
	4	0.066667	6.75610E-001	5.99404E-003	0.00000E+000	4.04964E-003	3.59960E-001	-1.15226E+000	3.57640E+000	10	...........
	5	0.08	6.83034E-001	5.98743E-003	0.00000E+000	4.08962E-003	3.59960E-001	-1.15891E+000	3.57640E+000	10	...........
	6	0.093333	6.90303E-001	5.98990E-003	0.00000E+000	4.13485E-003	3.59960E-001	-1.15991E+000	3.57640E+000	10	...........
	7	0.106667	6.97500E-001	5.99884E-003	0.00000E+000	4.18419E-003	3.59960E-001	-1.15205E+000	3.57640E+000	10	...........
	8	0.12	7.04596E-001	5.99656E-003	0.00000E+000	4.22515E-003	3.59960E-001	-1.15890E+000	3.57640E+000	10	...........
	9	0.133333	7.11594E-001	5.99321E-003	0.00000E+000	4.26473E-003	3.59960E-001	-1.16000E+000	3.57640E+000	10	...........
	10	0.146667	7.18584E-001	5.99620E-003	0.00000E+000	4.30877E-003	3.59960E-001	-1.15195E+000	3.57640E+000	10	...........
	11	0.16	7.25462E-001	5.99453E-003	0.00000E+000	4.34881E-003	3.59960E-001	-1.15874E+000	3.57640E+000	10	...........
	12	0.173333	7.32330E-001	5.99640E-003	0.00000E+000	4.39134E-003	3.59960E-001	-1.15981E+000	3.57640E+000	10	...........
	13	0.186667	7.39116E-001	5.99691E-003	0.00000E+000	4.43241E-003	3.59960E-001	-1.15202E+000	3.57640E+000	10	...........
	14	0.2	7.45913E-001	5.99657E-003	0.00000E+000	4.47291E-003	3.59960E-001	-1.15901E+000	3.57640E+000	10	...........
	15	0.213333	7.52665E-001	5.99167E-003	0.00000E+000	4.50972E-003	3.59960E-001	-1.15973E+000	3.57640E+000	10	...........
	16	0.226667	7.59404E-001	5.99009E-003	0.00000E+000	4.54890E-003	3.59960E-001	-1.15194E+000	3.57640E+000	10	...........
	17	0.24	7.66146E-001	5.99192E-003	0.00000E+000	4.59069E-003	3.59960E-001	-1.15891E+000	3.57640E+000	10	...........
	18	0.253333	7.72806E-001	5.99486E-003	0.00000E+000	4.63286E-003	3.59960E-001	-1.15962E+000	3.57640E+000	10	...........
	19	0.266667	7.79502E-001	6.00085E-003	0.00000E+000	4.67768E-003	3.59960E-001	-1.15193E+000	3.57640E+000	10	...........
	20	0.28	7.86130E-001	5.99266E-003	0.00000E+000	4.71101E-003	3.59960E-001	-1.15873E+000	3.57640E+000	10	...........
	21	0.293333	7.92769E-001	5.99155E-003	0.00000E+000	4.74991E-003	3.59960E-001	-1.15935E+000	3.57640E+000	10	...........
	22	0.306667	7.99385E-001	5.99438E-003	0.00000E+000	4.79181E-003	3.59960E-001	-1.15159E+000	3.57640E+000	10	...........
	23	0.32	8.05965E-001	5.99402E-003	0.00000E+000	4.83097E-003	3.59960E-001	-1.15844E+000	3.57640E+000	10	...........
	24	0.333333	8.12493E-001	5.99055E-003	0.00000E+000	4.86728E-003	3.59960E-001	-1.15907E+000	3.57640E+000	10	...........
	25	0.346667	8.19043E-001	5.99398E-003	0.00000E+000	4.90933E-003	3.59960E-001	-1.15144E+000	3.57640E+000	10	...........
	26	0.36	8.25575E-001	5.99246E-003	0.00000E+000	4.94722E-003	3.59960E-001	-1.15806E+000	3.57640E+000	10	...........
	27	0.373333	8.32039E-001	5.99644E-003	0.00000E+000	4.98927E-003	3.59960E-001	-1.15915E+000	3.57640E+000	10	...........
	28	0.386667	8.38458E-001	5.98854E-003	0.00000E+000	5.02114E-003	3.59960E-001	-1.15125E+000	3.57640E+000	10	...........
	29	0.4	8.44932E-001	5.99463E-003	0.00000E+000	5.06505E-003	3.59960E-001	-1.15824E+000	3.57660E+000	10	...........
	30	0.413333	8.51379E-001	5.99236E-003	0.00000E+000	5.10177E-003	3.59960E-001	-1.15914E+000	3.57660E+000	10	...........
	31	0.426667	8.57759E-001	5.99292E-003	0.00000E+000	5.14048E-003	3.59960E-001	-1.15127E+000	3.57660E+000	10	...........
	32	0.44	8.64157E-001	5.99154E-003	0.00000E+000	5.17763E-003	3.59960E-001	-1.15820E+000	3.57660E+000	10	...........
	33	0.453333	8.70556E-001	5.99490E-003	0.00000E+000	5.21889E-003	3.59960E-001	-1.15900E+000	3.57660E+000	10	...........
	34	0.466667	8.76885E-001	5.99205E-003	0.00000E+000	5.25434E-003	3.59960E-001	-1.15122E+000	3.57660E+000	10	...........
	35	0.48	8.83200E-001	5.99503E-003	0.00000E+000	5.29481E-003	3.59960E-001	-1.15807E+000	3.57660E+000	10	...........
	36	0.493333	8.89442E-001	5.99104E-003	0.00000E+000	5.32868E-003	3.59960E-001	-1.15864E+000	3.57660E+000	10	...........
	37	0.506667	8.95673E-001	5.99390E-003	0.00000E+000	5.36857E-003	3.59960E-001	-1.15134E+000	3.57660E+000	10	...........
	38	0.52	9.01896E-001	5.99215E-003	0.00000E+000	5.40430E-003	3.59960E-001	-1.15832E+000	3.57660E+000	10	...........
	39	0.533333	9.08108E-001	5.99622E-003	0.00000E+000	5.44521E-003	3.59960E-001	-1.15900E+000	3.57660E+000	10	...........
	40	0.546667	9.14263E-001	5.99462E-003	0.00000E+000	5.48066E-003	3.59960E-001	-1.15105E+000	3.57660E+000	10	...........
	41	0.56	9.20396E-001	5.99185E-003	0.00000E+000	5.51488E-003	3.59960E-001	-1.15805E+000	3.57660E+000	10	...........
	42	0.573333	9.26477E-001	5.99333E-003	0.00000E+000	5.55268E-003	3.59960E-001	-1.15903E+000	3.57660E+000	10	...........
	43	0.586667	9.32500E-001	5.99446E-003	0.00000E+000	5.58983E-003	3.59960E-001	-1.15128E+000	3.57660E+000	10	...........
	44	0.6	9.38492E-001	5.99577E-003	0.00000E+000	5.62699E-003	3.59960E-001	-1.15831E+000	3.57660E+000	10	...........
	45	0.613333	9.44473E-001	5.99406E-003	0.00000E+000	5.66123E-003	3.59960E-001	-1.15871E+000	3.57660E+000	10	...........
	46	0.626667	9.50431E-001	5.99430E-003	0.00000E+000	5.69717E-003	3.59960E-001	-1.15063E+000	3.57660E+000	10	...........
	47	0.64	9.56225E-001	5.99223E-003	0.00000E+000	5.72992E-003	3.59960E-001	-1.15800E+000	3.57660E+000	10	...........
	48	0.653333	9.62040E-001	5.99670E-003	0.00000E+000	5.76907E-003	3.59960E-001	-1.15854E+000	3.57660E+000	10	...........
	49	0.666667	9.67848E-001	5.99721E-003	0.00000E+000	5.80439E-003	3.59960E-001	-1.15081E+000	3.57660E+000	10	...........
	50	0.68	9.73580E-001	5.99341E-003	0.00000E+000	5.83506E-003	3.59960E-001	-1.15789E+000	3.57660E+000	10	...........
	51	0.693333	9.79276E-001	5.99798E-003	0.00000E+000	5.87368E-003	3.59960E-001	-1.15844E+000	3.57660E+000	10	...........
	52	0.706667	9.84866E-001	5.99430E-003	0.00000E+000	5.90358E-003	3.59960E-001	-1.15083E+000	3.57660E+000	10	...........
	53	0.72	9.90448E-001	5.99495E-003	0.00000E+000	5.93769E-003	3.59960E-001	-1.15798E+000	3.57660E+000	10	...........
	54	0.733333	9.95980E-001	5.99270E-003	0.00000E+000	5.96861E-003	3.59960E-001	-1.15844E+000	3.57660E+000	10	...........
	55	0.738333	9.99771E-001	5.99062E-003	0.00000E+000	5.98925E-003	3.59960E-001	-1.15433E+000	3.57660E+000	10	...........
STARTTIMEOFFSET	QUANT	1154.817	Start Time Offset (s)