File: Data/CV_CRGO300517_1/PWRCCD_CRGO300517_1/CHARGE_DISCHARGE/CHARGE_#743.DTA
EXPLAIN
TAG	PWR800_CHARGE
TITLE	LABEL	PWR Cyclic Charge Discharge (Cell) - Charge Step	Test &Identifier
DATE	LABEL	22-6-2017	Date
TIME	LABEL	16:05:10	Time
NOTES	NOTES	3	&Notes...
	supercap test cell
	0.6mg
	6M KOH
PSTAT	PSTAT	IFC5000-01520	Potentiostat
CAPACITY	QUANT	1.00000E-003	Capacity (A-hr)
CELLTYPE	SELECTOR	1	&Cell Type
WORKINGCONNECTION	SELECTOR	0	&Working Lead
MAXCHARGETIME	VARIABLEANDUNITS	1.00000E+002	s	1.00000E+002	second(s)	Max &Charge Time
CHARGECURRENT	QUANT	6.00000E-003	&Charge Current (A)
VOLTAGEFINISH	TWOPARAM	F	1.00000E-003	3.60000E+003	&Voltage Finish	 I (A) < 	Max Time(s)
SAMPLETIME	QUANT	1.00000E-002	Sa&mple Period (s)
CHARGESTOPAT1	MULTIPARAM	4	1.00000E+000	Charge Stop At &1	Voltage > Limit	V
CHARGESTOPAT2	MULTIPARAM	0	0.00000E+000	Charge Stop At &2	None	N/A
AESBHCSELECTOR	TOGGLE	F	Save Both Half Cells
IRCOMP	TOGGLE	F	IR &Measure
EOC	QUANT	0	Open Circuit (V)
SEQUENCER	TOGGLE	TRUE	Run as Sequence
PSTATMODEL	IQUANT	53	Pstat Model
PSTATSECTION	LABEL	IFC5000-01520	Pstat Section
PSTATSERIALNO	LABEL	01520	Pstat Serial Number
CTRLMODE	IQUANT	0	Control Mode
ELECTROMETER	IQUANT	1	RE=0 or CS=1
IESTAB	IQUANT	0	I/E Stability
CASPEED	IQUANT	4	Control Amp Speed
CONVENTION	IQUANT	1	Current Convention
ICHRANGE	IQUANT	2	Ich Range
ICHRANGEMODE	TOGGLE	T	Ich Auto Range
ICHOFFSETENABLE	TOGGLE	F	Ich Offset Enable
ICHOFFSET	QUANT	0	Ich Offset (V)
ICHFILTER	IQUANT	1	Ich Filter
VCHRANGE	IQUANT	2	Vch Range
VCHRANGEMODE	TOGGLE	T	Vch Auto Range
VCHOFFSETENABLE	TOGGLE	F	Vch Offset Enable
VCHOFFSET	QUANT	0	Vch Offset (V)
VCHFILTER	IQUANT	1	Vch Filter
IERANGELOWERLIMIT	IQUANT	9	I/E Range Lower Limit
IERANGEMODE	TOGGLE	F	I/E AutoRange
IERANGE	IQUANT	10	I/E Range
ACHSELECT	IQUANT	1	Ach Select
ACHRANGE	IQUANT	2	Ach Range
ACHOFFSETENABLE	TOGGLE	F	Ach Offset Enable
ACHOFFSET	QUANT	0	Ach Offset (V)
ACHFILTER	IQUANT	1	Ach Filter
CABLEID	IQUANT	14	Cable ID
DCCALDATE	LABEL	20-10-2016	DC Calibration Date
ACCALDATE	LABEL	12/3/2015	AC Calibration Date
FRAMEWORKVERSION	QUANT	7.01	Framework Version
INSTRUMENTVERSION	LABEL	4.00	Instrument Version
CURVE	TABLE	55
	Pt	T	Vf	Im	Vu	Pwr	Sig	Ach	Temp	IERange	Over
	#	s	V	A	V	W	V	V	deg C	#	bits
	0	0.013333	6.45933E-001	5.99303E-003	0.00000E+000	3.87110E-003	3.59960E-001	-1.15328E+000	3.57640E+000	10	...........
	1	0.026667	6.55030E-001	5.99734E-003	0.00000E+000	3.92844E-003	3.59960E-001	-1.15276E+000	3.57640E+000	10	...........
	2	0.04	6.63406E-001	5.99472E-003	0.00000E+000	3.97693E-003	3.59960E-001	-1.16349E+000	3.57640E+000	10	...........
	3	0.053333	6.71365E-001	5.99043E-003	0.00000E+000	4.02177E-003	3.59960E-001	-1.15303E+000	3.57640E+000	10	...........
	4	0.066667	6.79053E-001	5.99182E-003	0.00000E+000	4.06876E-003	3.59960E-001	-1.15229E+000	3.57640E+000	10	...........
	5	0.08	6.86492E-001	5.99079E-003	0.00000E+000	4.11263E-003	3.59960E-001	-1.16299E+000	3.57640E+000	10	...........
	6	0.093333	6.93873E-001	5.99458E-003	0.00000E+000	4.15948E-003	3.59960E-001	-1.15287E+000	3.57640E+000	10	...........
	7	0.106667	7.01061E-001	5.99561E-003	0.00000E+000	4.20329E-003	3.59960E-001	-1.15235E+000	3.57640E+000	10	...........
	8	0.12	7.08179E-001	5.99646E-003	0.00000E+000	4.24657E-003	3.59960E-001	-1.16325E+000	3.57640E+000	10	...........
	9	0.133333	7.15212E-001	5.99417E-003	0.00000E+000	4.28710E-003	3.59960E-001	-1.15271E+000	3.57640E+000	10	...........
	10	0.146667	7.22235E-001	5.99236E-003	0.00000E+000	4.32789E-003	3.59960E-001	-1.15209E+000	3.57640E+000	10	...........
	11	0.16	7.29151E-001	5.99365E-003	0.00000E+000	4.37027E-003	3.59960E-001	-1.16297E+000	3.57640E+000	10	...........
	12	0.173333	7.36050E-001	5.98892E-003	0.00000E+000	4.40815E-003	3.59960E-001	-1.15257E+000	3.57640E+000	10	...........
	13	0.186667	7.42913E-001	5.99057E-003	0.00000E+000	4.45047E-003	3.59960E-001	-1.15254E+000	3.57640E+000	10	...........
	14	0.2	7.49715E-001	5.99481E-003	0.00000E+000	4.49440E-003	3.59960E-001	-1.16307E+000	3.57640E+000	10	...........
	15	0.213333	7.56483E-001	5.99489E-003	0.00000E+000	4.53503E-003	3.59960E-001	-1.15241E+000	3.57657E+000	10	...........
	16	0.226667	7.63263E-001	5.99585E-003	0.00000E+000	4.57641E-003	3.59960E-001	-1.15237E+000	3.57660E+000	10	...........
	17	0.24	7.70041E-001	5.99360E-003	0.00000E+000	4.61532E-003	3.59960E-001	-1.16324E+000	3.57660E+000	10	...........
	18	0.253333	7.76731E-001	5.99189E-003	0.00000E+000	4.65409E-003	3.59960E-001	-1.15247E+000	3.57660E+000	10	...........
	19	0.266667	7.83404E-001	5.99506E-003	0.00000E+000	4.69656E-003	3.59960E-001	-1.15267E+000	3.57660E+000	10	...........
	20	0.28	7.90048E-001	5.99026E-003	0.00000E+000	4.73259E-003	3.59960E-001	-1.16328E+000	3.57660E+000	10	...........
	21	0.293333	7.96701E-001	5.99698E-003	0.00000E+000	4.77780E-003	3.59960E-001	-1.15246E+000	3.57660E+000	10	...........
	22	0.306667	8.03289E-001	5.99336E-003	0.00000E+000	4.81440E-003	3.59960E-001	-1.15267E+000	3.57660E+000	10	...........
	23	0.32	8.09856E-001	5.99294E-003	0.00000E+000	4.85342E-003	3.59960E-001	-1.16333E+000	3.57660E+000	10	...........
	24	0.333333	8.16426E-001	5.99319E-003	0.00000E+000	4.89299E-003	3.59960E-001	-1.15238E+000	3.57660E+000	10	...........
	25	0.346667	8.23010E-001	5.99085E-003	0.00000E+000	4.93053E-003	3.59960E-001	-1.15264E+000	3.57660E+000	10	...........
	26	0.36	8.29517E-001	5.99378E-003	0.00000E+000	4.97194E-003	3.59960E-001	-1.16260E+000	3.57660E+000	10	...........
	27	0.373333	8.36037E-001	5.99464E-003	0.00000E+000	5.01174E-003	3.59960E-001	-1.15193E+000	3.57660E+000	10	...........
	28	0.386667	8.42525E-001	5.99728E-003	0.00000E+000	5.05285E-003	3.59960E-001	-1.15259E+000	3.57660E+000	10	...........
	29	0.4	8.49013E-001	5.99151E-003	0.00000E+000	5.08687E-003	3.59960E-001	-1.16264E+000	3.57660E+000	10	...........
	30	0.413333	8.55432E-001	5.99079E-003	0.00000E+000	5.12471E-003	3.59960E-001	-1.15183E+000	3.57660E+000	10	...........
	31	0.426667	8.61804E-001	5.99111E-003	0.00000E+000	5.16316E-003	3.59960E-001	-1.15262E+000	3.57660E+000	10	...........
	32	0.44	8.68218E-001	5.99656E-003	0.00000E+000	5.20632E-003	3.59960E-001	-1.16289E+000	3.57660E+000	10	...........
	33	0.453333	8.74591E-001	5.99735E-003	0.00000E+000	5.24523E-003	3.59960E-001	-1.15190E+000	3.57660E+000	10	...........
	34	0.466667	8.80937E-001	5.99476E-003	0.00000E+000	5.28101E-003	3.59960E-001	-1.15285E+000	3.57660E+000	10	...........
	35	0.48	8.87235E-001	5.98888E-003	0.00000E+000	5.31354E-003	3.59960E-001	-1.16267E+000	3.57660E+000	10	...........
	36	0.493333	8.93542E-001	5.99258E-003	0.00000E+000	5.35462E-003	3.59960E-001	-1.15181E+000	3.57660E+000	10	...........
	37	0.506667	8.99803E-001	5.99430E-003	0.00000E+000	5.39369E-003	3.59960E-001	-1.15299E+000	3.57660E+000	10	...........
	38	0.52	9.06012E-001	5.99202E-003	0.00000E+000	5.42884E-003	3.59960E-001	-1.16273E+000	3.57660E+000	10	...........
	39	0.533333	9.12228E-001	5.99512E-003	0.00000E+000	5.46891E-003	3.59960E-001	-1.15167E+000	3.57660E+000	10	...........
	40	0.546667	9.18344E-001	5.99112E-003	0.00000E+000	5.50191E-003	3.59960E-001	-1.15272E+000	3.57660E+000	10	...........
	41	0.56	9.24520E-001	5.99259E-003	0.00000E+000	5.54027E-003	3.59960E-001	-1.16250E+000	3.57660E+000	10	...........
	42	0.573333	9.30587E-001	5.99045E-003	0.00000E+000	5.57464E-003	3.59960E-001	-1.15186E+000	3.57660E+000	10	...........
	43	0.586667	9.36604E-001	5.99396E-003	0.00000E+000	5.61397E-003	3.59960E-001	-1.15329E+000	3.57660E+000	10	...........
	44	0.6	9.42595E-001	5.99381E-003	0.00000E+000	5.64974E-003	3.59960E-001	-1.16275E+000	3.57660E+000	10	...........
	45	0.613333	9.48591E-001	5.99402E-003	0.00000E+000	5.68588E-003	3.59960E-001	-1.15202E+000	3.57660E+000	10	...........
	46	0.626667	9.54477E-001	5.99390E-003	0.00000E+000	5.72104E-003	3.59960E-001	-1.15321E+000	3.57660E+000	10	...........
	47	0.64	9.60322E-001	5.99277E-003	0.00000E+000	5.75499E-003	3.59960E-001	-1.16265E+000	3.57660E+000	10	...........
	48	0.653333	9.66090E-001	5.99413E-003	0.00000E+000	5.79087E-003	3.59960E-001	-1.15190E+000	3.57660E+000	10	...........
	49	0.666667	9.71880E-001	5.99858E-003	0.00000E+000	5.82990E-003	3.59960E-001	-1.15330E+000	3.57660E+000	10	...........
	50	0.68	9.77593E-001	5.99349E-003	0.00000E+000	5.85919E-003	3.59960E-001	-1.16214E+000	3.57660E+000	10	...........
	51	0.693333	9.83236E-001	5.99498E-003	0.00000E+000	5.89448E-003	3.59960E-001	-1.15160E+000	3.57660E+000	10	...........
	52	0.706667	9.88831E-001	5.99241E-003	0.00000E+000	5.92549E-003	3.59960E-001	-1.15319E+000	3.57660E+000	10	...........
	53	0.72	9.94396E-001	5.98940E-003	0.00000E+000	5.95583E-003	3.59960E-001	-1.16215E+000	3.57660E+000	10	...........
	54	0.728333	9.98908E-001	5.99217E-003	0.00000E+000	5.98563E-003	3.59960E-001	-1.14393E+000	3.57660E+000	10	...........
STARTTIMEOFFSET	QUANT	1221.941	Start Time Offset (s)