File: Data/CV_CRGO300517_1/PWRCCD_CRGO300517_1/CHARGE_DISCHARGE/CHARGE_#170.DTA
EXPLAIN
TAG	PWR800_CHARGE
TITLE	LABEL	PWR Cyclic Charge Discharge (Cell) - Charge Step	Test &Identifier
DATE	LABEL	22-6-2017	Date
TIME	LABEL	15:42:32	Time
NOTES	NOTES	3	&Notes...
	supercap test cell
	0.6mg
	6M KOH
PSTAT	PSTAT	IFC5000-01520	Potentiostat
CAPACITY	QUANT	1.00000E-003	Capacity (A-hr)
CELLTYPE	SELECTOR	1	&Cell Type
WORKINGCONNECTION	SELECTOR	0	&Working Lead
MAXCHARGETIME	VARIABLEANDUNITS	1.00000E+002	s	1.00000E+002	second(s)	Max &Charge Time
CHARGECURRENT	QUANT	6.00000E-003	&Charge Current (A)
VOLTAGEFINISH	TWOPARAM	F	1.00000E-003	3.60000E+003	&Voltage Finish	 I (A) < 	Max Time(s)
SAMPLETIME	QUANT	1.00000E-002	Sa&mple Period (s)
CHARGESTOPAT1	MULTIPARAM	4	1.00000E+000	Charge Stop At &1	Voltage > Limit	V
CHARGESTOPAT2	MULTIPARAM	0	0.00000E+000	Charge Stop At &2	None	N/A
AESBHCSELECTOR	TOGGLE	F	Save Both Half Cells
IRCOMP	TOGGLE	F	IR &Measure
EOC	QUANT	0	Open Circuit (V)
SEQUENCER	TOGGLE	TRUE	Run as Sequence
PSTATMODEL	IQUANT	53	Pstat Model
PSTATSECTION	LABEL	IFC5000-01520	Pstat Section
PSTATSERIALNO	LABEL	01520	Pstat Serial Number
CTRLMODE	IQUANT	0	Control Mode
ELECTROMETER	IQUANT	1	RE=0 or CS=1
IESTAB	IQUANT	0	I/E Stability
CASPEED	IQUANT	4	Control Amp Speed
CONVENTION	IQUANT	1	Current Convention
ICHRANGE	IQUANT	2	Ich Range
ICHRANGEMODE	TOGGLE	T	Ich Auto Range
ICHOFFSETENABLE	TOGGLE	F	Ich Offset Enable
ICHOFFSET	QUANT	0	Ich Offset (V)
ICHFILTER	IQUANT	1	Ich Filter
VCHRANGE	IQUANT	2	Vch Range
VCHRANGEMODE	TOGGLE	T	Vch Auto Range
VCHOFFSETENABLE	TOGGLE	F	Vch Offset Enable
VCHOFFSET	QUANT	0	Vch Offset (V)
VCHFILTER	IQUANT	1	Vch Filter
IERANGELOWERLIMIT	IQUANT	9	I/E Range Lower Limit
IERANGEMODE	TOGGLE	F	I/E AutoRange
IERANGE	IQUANT	10	I/E Range
ACHSELECT	IQUANT	1	Ach Select
ACHRANGE	IQUANT	2	Ach Range
ACHOFFSETENABLE	TOGGLE	F	Ach Offset Enable
ACHOFFSET	QUANT	0	Ach Offset (V)
ACHFILTER	IQUANT	1	Ach Filter
CABLEID	IQUANT	14	Cable ID
DCCALDATE	LABEL	20-10-2016	DC Calibration Date
ACCALDATE	LABEL	12/3/2015	AC Calibration Date
FRAMEWORKVERSION	QUANT	7.01	Framework Version
INSTRUMENTVERSION	LABEL	4.00	Instrument Version
CURVE	TABLE	66
	Pt	T	Vf	Im	Vu	Pwr	Sig	Ach	Temp	IERange	Over
	#	s	V	A	V	W	V	V	deg C	#	bits
	0	0.013333	6.01923E-001	5.99200E-003	0.00000E+000	3.60672E-003	3.59960E-001	-1.07935E+000	3.57730E+000	10	...........
	1	0.026667	6.10311E-001	5.99540E-003	0.00000E+000	3.65906E-003	3.59960E-001	-1.08312E+000	3.57730E+000	10	...........
	2	0.04	6.18084E-001	5.99873E-003	0.00000E+000	3.70772E-003	3.59960E-001	-1.08816E+000	3.57730E+000	10	...........
	3	0.053333	6.25377E-001	5.99358E-003	0.00000E+000	3.74825E-003	3.59960E-001	-1.07909E+000	3.57730E+000	10	...........
	4	0.066667	6.32394E-001	5.99711E-003	0.00000E+000	3.79254E-003	3.59960E-001	-1.08272E+000	3.57730E+000	10	...........
	5	0.08	6.39261E-001	5.99462E-003	0.00000E+000	3.83212E-003	3.59960E-001	-1.08802E+000	3.57730E+000	10	...........
	6	0.093333	6.45963E-001	5.99373E-003	0.00000E+000	3.87173E-003	3.59960E-001	-1.07886E+000	3.57730E+000	10	...........
	7	0.106667	6.52564E-001	5.99302E-003	0.00000E+000	3.91083E-003	3.59960E-001	-1.08255E+000	3.57730E+000	10	...........
	8	0.12	6.59079E-001	5.99412E-003	0.00000E+000	3.95060E-003	3.59960E-001	-1.08826E+000	3.57730E+000	10	...........
	9	0.133333	6.65550E-001	5.99602E-003	0.00000E+000	3.99066E-003	3.59960E-001	-1.07892E+000	3.57730E+000	10	...........
	10	0.146667	6.71983E-001	5.99701E-003	0.00000E+000	4.02989E-003	3.59960E-001	-1.08242E+000	3.57730E+000	10	...........
	11	0.16	6.78316E-001	5.99144E-003	0.00000E+000	4.06409E-003	3.59960E-001	-1.08803E+000	3.57730E+000	10	...........
	12	0.173333	6.84576E-001	5.99353E-003	0.00000E+000	4.10303E-003	3.59960E-001	-1.07893E+000	3.57730E+000	10	...........
	13	0.186667	6.90850E-001	5.99135E-003	0.00000E+000	4.13912E-003	3.59960E-001	-1.08236E+000	3.57730E+000	10	...........
	14	0.2	6.97098E-001	5.99399E-003	0.00000E+000	4.17840E-003	3.59960E-001	-1.08847E+000	3.57730E+000	10	...........
	15	0.213333	7.03283E-001	5.99604E-003	0.00000E+000	4.21692E-003	3.59960E-001	-1.07869E+000	3.57730E+000	10	...........
	16	0.226667	7.09449E-001	5.99382E-003	0.00000E+000	4.25231E-003	3.59960E-001	-1.08207E+000	3.57730E+000	10	...........
	17	0.24	7.15628E-001	5.99545E-003	0.00000E+000	4.29051E-003	3.59960E-001	-1.08847E+000	3.57730E+000	10	...........
	18	0.253333	7.21787E-001	5.99619E-003	0.00000E+000	4.32797E-003	3.59960E-001	-1.07903E+000	3.57730E+000	10	...........
	19	0.266667	7.27912E-001	5.99071E-003	0.00000E+000	4.36071E-003	3.59960E-001	-1.08201E+000	3.57730E+000	10	...........
	20	0.28	7.34019E-001	5.99030E-003	0.00000E+000	4.39699E-003	3.59960E-001	-1.08845E+000	3.57730E+000	10	...........
	21	0.293333	7.40150E-001	5.99455E-003	0.00000E+000	4.43687E-003	3.59960E-001	-1.07889E+000	3.57730E+000	10	...........
	22	0.306667	7.46266E-001	5.99069E-003	0.00000E+000	4.47065E-003	3.59960E-001	-1.08191E+000	3.57730E+000	10	...........
	23	0.32	7.52387E-001	5.99490E-003	0.00000E+000	4.51049E-003	3.59960E-001	-1.08877E+000	3.57730E+000	10	...........
	24	0.333333	7.58452E-001	5.99474E-003	0.00000E+000	4.54672E-003	3.59960E-001	-1.07905E+000	3.57730E+000	10	...........
	25	0.346667	7.64532E-001	5.99183E-003	0.00000E+000	4.58095E-003	3.59960E-001	-1.08147E+000	3.57730E+000	10	...........
	26	0.36	7.70582E-001	5.99480E-003	0.00000E+000	4.61949E-003	3.59960E-001	-1.08838E+000	3.57730E+000	10	...........
	27	0.373333	7.76646E-001	5.99573E-003	0.00000E+000	4.65656E-003	3.59960E-001	-1.07837E+000	3.57730E+000	10	...........
	28	0.386667	7.82740E-001	5.99840E-003	0.00000E+000	4.69519E-003	3.59960E-001	-1.08113E+000	3.57730E+000	10	...........
	29	0.4	7.88792E-001	5.99519E-003	0.00000E+000	4.72896E-003	3.59960E-001	-1.08832E+000	3.57730E+000	10	...........
	30	0.413333	7.94808E-001	5.99344E-003	0.00000E+000	4.76363E-003	3.59960E-001	-1.07817E+000	3.57730E+000	10	...........
	31	0.426667	8.00837E-001	5.99372E-003	0.00000E+000	4.79999E-003	3.59960E-001	-1.08075E+000	3.57730E+000	10	...........
	32	0.44	8.06858E-001	5.99568E-003	0.00000E+000	4.83766E-003	3.59960E-001	-1.08815E+000	3.57730E+000	10	...........
	33	0.453333	8.12894E-001	5.99483E-003	0.00000E+000	4.87316E-003	3.59960E-001	-1.07846E+000	3.57730E+000	10	...........
	34	0.466667	8.18956E-001	5.98967E-003	0.00000E+000	4.90528E-003	3.59960E-001	-1.08074E+000	3.57730E+000	10	...........
	35	0.48	8.24971E-001	5.99250E-003	0.00000E+000	4.94363E-003	3.59960E-001	-1.08836E+000	3.57730E+000	10	...........
	36	0.493333	8.30979E-001	5.98864E-003	0.00000E+000	4.97643E-003	3.59960E-001	-1.07849E+000	3.57730E+000	10	...........
	37	0.506667	8.36932E-001	5.99646E-003	0.00000E+000	5.01863E-003	3.59960E-001	-1.08064E+000	3.57730E+000	10	...........
	38	0.52	8.42882E-001	5.99492E-003	0.00000E+000	5.05301E-003	3.59960E-001	-1.08851E+000	3.57730E+000	10	...........
	39	0.533333	8.48907E-001	5.99367E-003	0.00000E+000	5.08806E-003	3.59960E-001	-1.07845E+000	3.57730E+000	10	...........
	40	0.546667	8.54848E-001	5.99414E-003	0.00000E+000	5.12407E-003	3.59960E-001	-1.08037E+000	3.57730E+000	10	...........
	41	0.56	8.60774E-001	5.99322E-003	0.00000E+000	5.15880E-003	3.59960E-001	-1.08853E+000	3.57730E+000	10	...........
	42	0.573333	8.66763E-001	5.99758E-003	0.00000E+000	5.19848E-003	3.59960E-001	-1.07861E+000	3.57730E+000	10	...........
	43	0.586667	8.72699E-001	5.99428E-003	0.00000E+000	5.23121E-003	3.59960E-001	-1.08079E+000	3.57730E+000	10	...........
	44	0.6	8.78593E-001	5.99445E-003	0.00000E+000	5.26668E-003	3.59960E-001	-1.08896E+000	3.57730E+000	10	...........
	45	0.613333	8.84520E-001	5.99309E-003	0.00000E+000	5.30101E-003	3.59960E-001	-1.07886E+000	3.57730E+000	10	...........
	46	0.626667	8.90396E-001	5.99055E-003	0.00000E+000	5.33396E-003	3.59960E-001	-1.08033E+000	3.57730E+000	10	...........
	47	0.64	8.96282E-001	5.99627E-003	0.00000E+000	5.37435E-003	3.59960E-001	-1.08887E+000	3.57730E+000	10	...........
	48	0.653333	9.02118E-001	5.99262E-003	0.00000E+000	5.40605E-003	3.59960E-001	-1.07904E+000	3.57730E+000	10	...........
	49	0.666667	9.07955E-001	5.99503E-003	0.00000E+000	5.44322E-003	3.59960E-001	-1.08044E+000	3.57730E+000	10	...........
	50	0.68	9.13780E-001	5.99634E-003	0.00000E+000	5.47933E-003	3.59960E-001	-1.08893E+000	3.57730E+000	10	...........
	51	0.693333	9.19608E-001	5.99429E-003	0.00000E+000	5.51240E-003	3.59960E-001	-1.07853E+000	3.57730E+000	10	...........
	52	0.706667	9.25394E-001	5.99183E-003	0.00000E+000	5.54480E-003	3.59960E-001	-1.07996E+000	3.57730E+000	10	...........
	53	0.72	9.31134E-001	5.99093E-003	0.00000E+000	5.57836E-003	3.59960E-001	-1.08872E+000	3.57730E+000	10	...........
	54	0.733333	9.36853E-001	5.99602E-003	0.00000E+000	5.61739E-003	3.59960E-001	-1.07870E+000	3.57730E+000	10	...........
	55	0.746667	9.42533E-001	5.99464E-003	0.00000E+000	5.65014E-003	3.59960E-001	-1.07974E+000	3.57730E+000	10	...........
	56	0.76	9.48271E-001	5.99559E-003	0.00000E+000	5.68544E-003	3.59960E-001	-1.08859E+000	3.57730E+000	10	...........
	57	0.773333	9.53901E-001	5.99184E-003	0.00000E+000	5.71562E-003	3.59960E-001	-1.07860E+000	3.57830E+000	10	...........
	58	0.786667	9.59506E-001	5.99691E-003	0.00000E+000	5.75407E-003	3.59960E-001	-1.07974E+000	3.57830E+000	10	...........
	59	0.8	9.65071E-001	5.99615E-003	0.00000E+000	5.78671E-003	3.59960E-001	-1.08886E+000	3.57830E+000	10	...........
	60	0.813333	9.70666E-001	5.99687E-003	0.00000E+000	5.82095E-003	3.59960E-001	-1.07853E+000	3.57830E+000	10	...........
	61	0.826667	9.76198E-001	5.99377E-003	0.00000E+000	5.85110E-003	3.59960E-001	-1.07931E+000	3.57830E+000	10	...........
	62	0.84	9.81666E-001	5.99354E-003	0.00000E+000	5.88365E-003	3.59960E-001	-1.08875E+000	3.57830E+000	10	...........
	63	0.853333	9.87088E-001	5.99344E-003	0.00000E+000	5.91605E-003	3.59960E-001	-1.07854E+000	3.57830E+000	10	...........
	64	0.866667	9.92444E-001	5.99409E-003	0.00000E+000	5.94880E-003	3.59960E-001	-1.07930E+000	3.57830E+000	10	...........
	65	0.88	9.97841E-001	5.99657E-003	0.00000E+000	5.98362E-003	3.59960E-001	-1.08847E+000	3.57830E+000	10	...........
STARTTIMEOFFSET	QUANT	320.8767	Start Time Offset (s)