File: Data/CV_CRGO300517_1/PWRCCD_CRGO300517_1/CHARGE_DISCHARGE/CHARGE_#922.DTA
EXPLAIN
TAG	PWR800_CHARGE
TITLE	LABEL	PWR Cyclic Charge Discharge (Cell) - Charge Step	Test &Identifier
DATE	LABEL	22-6-2017	Date
TIME	LABEL	16:11:47	Time
NOTES	NOTES	3	&Notes...
	supercap test cell
	0.6mg
	6M KOH
PSTAT	PSTAT	IFC5000-01520	Potentiostat
CAPACITY	QUANT	1.00000E-003	Capacity (A-hr)
CELLTYPE	SELECTOR	1	&Cell Type
WORKINGCONNECTION	SELECTOR	0	&Working Lead
MAXCHARGETIME	VARIABLEANDUNITS	1.00000E+002	s	1.00000E+002	second(s)	Max &Charge Time
CHARGECURRENT	QUANT	6.00000E-003	&Charge Current (A)
VOLTAGEFINISH	TWOPARAM	F	1.00000E-003	3.60000E+003	&Voltage Finish	 I (A) < 	Max Time(s)
SAMPLETIME	QUANT	1.00000E-002	Sa&mple Period (s)
CHARGESTOPAT1	MULTIPARAM	4	1.00000E+000	Charge Stop At &1	Voltage > Limit	V
CHARGESTOPAT2	MULTIPARAM	0	0.00000E+000	Charge Stop At &2	None	N/A
AESBHCSELECTOR	TOGGLE	F	Save Both Half Cells
IRCOMP	TOGGLE	F	IR &Measure
EOC	QUANT	0	Open Circuit (V)
SEQUENCER	TOGGLE	TRUE	Run as Sequence
PSTATMODEL	IQUANT	53	Pstat Model
PSTATSECTION	LABEL	IFC5000-01520	Pstat Section
PSTATSERIALNO	LABEL	01520	Pstat Serial Number
CTRLMODE	IQUANT	0	Control Mode
ELECTROMETER	IQUANT	1	RE=0 or CS=1
IESTAB	IQUANT	0	I/E Stability
CASPEED	IQUANT	4	Control Amp Speed
CONVENTION	IQUANT	1	Current Convention
ICHRANGE	IQUANT	2	Ich Range
ICHRANGEMODE	TOGGLE	T	Ich Auto Range
ICHOFFSETENABLE	TOGGLE	F	Ich Offset Enable
ICHOFFSET	QUANT	0	Ich Offset (V)
ICHFILTER	IQUANT	1	Ich Filter
VCHRANGE	IQUANT	2	Vch Range
VCHRANGEMODE	TOGGLE	T	Vch Auto Range
VCHOFFSETENABLE	TOGGLE	F	Vch Offset Enable
VCHOFFSET	QUANT	0	Vch Offset (V)
VCHFILTER	IQUANT	1	Vch Filter
IERANGELOWERLIMIT	IQUANT	9	I/E Range Lower Limit
IERANGEMODE	TOGGLE	F	I/E AutoRange
IERANGE	IQUANT	10	I/E Range
ACHSELECT	IQUANT	1	Ach Select
ACHRANGE	IQUANT	2	Ach Range
ACHOFFSETENABLE	TOGGLE	F	Ach Offset Enable
ACHOFFSET	QUANT	0	Ach Offset (V)
ACHFILTER	IQUANT	1	Ach Filter
CABLEID	IQUANT	14	Cable ID
DCCALDATE	LABEL	20-10-2016	DC Calibration Date
ACCALDATE	LABEL	12/3/2015	AC Calibration Date
FRAMEWORKVERSION	QUANT	7.01	Framework Version
INSTRUMENTVERSION	LABEL	4.00	Instrument Version
CURVE	TABLE	53
	Pt	T	Vf	Im	Vu	Pwr	Sig	Ach	Temp	IERange	Over
	#	s	V	A	V	W	V	V	deg C	#	bits
	0	0.013333	6.54367E-001	5.99293E-003	0.00000E+000	3.92158E-003	3.59960E-001	-1.17577E+000	3.57670E+000	10	...........
	1	0.026667	6.63678E-001	5.99470E-003	0.00000E+000	3.97855E-003	3.59960E-001	-1.18079E+000	3.57670E+000	10	...........
	2	0.04	6.72214E-001	5.99101E-003	0.00000E+000	4.02724E-003	3.59960E-001	-1.17153E+000	3.57670E+000	10	...........
	3	0.053333	6.80321E-001	5.99408E-003	0.00000E+000	4.07790E-003	3.59960E-001	-1.17584E+000	3.57670E+000	10	...........
	4	0.066667	6.88124E-001	5.98753E-003	0.00000E+000	4.12016E-003	3.59960E-001	-1.18047E+000	3.57670E+000	10	...........
	5	0.08	6.95738E-001	5.99387E-003	0.00000E+000	4.17016E-003	3.59960E-001	-1.17125E+000	3.57670E+000	10	...........
	6	0.093333	7.03252E-001	5.99229E-003	0.00000E+000	4.21409E-003	3.59960E-001	-1.17552E+000	3.57670E+000	10	...........
	7	0.106667	7.10608E-001	5.99634E-003	0.00000E+000	4.26105E-003	3.59960E-001	-1.18069E+000	3.57670E+000	10	...........
	8	0.12	7.17866E-001	5.99664E-003	0.00000E+000	4.30478E-003	3.59960E-001	-1.17120E+000	3.57670E+000	10	...........
	9	0.133333	7.25046E-001	5.99409E-003	0.00000E+000	4.34599E-003	3.59960E-001	-1.17539E+000	3.57670E+000	10	...........
	10	0.146667	7.32134E-001	5.99578E-003	0.00000E+000	4.38972E-003	3.59960E-001	-1.18019E+000	3.57670E+000	10	...........
	11	0.16	7.39165E-001	5.99405E-003	0.00000E+000	4.43059E-003	3.59960E-001	-1.17118E+000	3.57670E+000	10	...........
	12	0.173333	7.46170E-001	5.99338E-003	0.00000E+000	4.47208E-003	3.59960E-001	-1.17566E+000	3.57670E+000	10	...........
	13	0.186667	7.53163E-001	6.00223E-003	0.00000E+000	4.52066E-003	3.59960E-001	-1.18065E+000	3.57670E+000	10	...........
	14	0.2	7.60065E-001	5.99407E-003	0.00000E+000	4.55589E-003	3.59960E-001	-1.17111E+000	3.57670E+000	10	...........
	15	0.213333	7.66970E-001	5.98993E-003	0.00000E+000	4.59410E-003	3.59960E-001	-1.17530E+000	3.57670E+000	10	...........
	16	0.226667	7.73832E-001	5.99225E-003	0.00000E+000	4.63699E-003	3.59960E-001	-1.18040E+000	3.57670E+000	10	...........
	17	0.24	7.80663E-001	5.99311E-003	0.00000E+000	4.67860E-003	3.59960E-001	-1.17131E+000	3.57670E+000	10	...........
	18	0.253333	7.87423E-001	5.99387E-003	0.00000E+000	4.71971E-003	3.59960E-001	-1.17562E+000	3.57670E+000	10	...........
	19	0.266667	7.94222E-001	5.99588E-003	0.00000E+000	4.76206E-003	3.59960E-001	-1.18020E+000	3.57670E+000	10	...........
	20	0.28	8.01003E-001	5.99449E-003	0.00000E+000	4.80160E-003	3.59960E-001	-1.17076E+000	3.57670E+000	10	...........
	21	0.293333	8.07735E-001	5.99730E-003	0.00000E+000	4.84423E-003	3.59960E-001	-1.17500E+000	3.57670E+000	10	...........
	22	0.306667	8.14398E-001	5.99441E-003	0.00000E+000	4.88183E-003	3.59960E-001	-1.18037E+000	3.57670E+000	10	...........
	23	0.32	8.21044E-001	5.99440E-003	0.00000E+000	4.92166E-003	3.59960E-001	-1.17091E+000	3.57670E+000	10	...........
	24	0.333333	8.27718E-001	5.99437E-003	0.00000E+000	4.96164E-003	3.59960E-001	-1.17508E+000	3.57670E+000	10	...........
	25	0.346667	8.34338E-001	5.99146E-003	0.00000E+000	4.99890E-003	3.59960E-001	-1.17988E+000	3.57670E+000	10	...........
	26	0.36	8.40948E-001	5.98845E-003	0.00000E+000	5.03597E-003	3.59960E-001	-1.17069E+000	3.57670E+000	10	...........
	27	0.373333	8.47525E-001	5.99272E-003	0.00000E+000	5.07898E-003	3.59960E-001	-1.17503E+000	3.57670E+000	10	...........
	28	0.386667	8.54019E-001	5.99338E-003	0.00000E+000	5.11846E-003	3.59960E-001	-1.18026E+000	3.57670E+000	10	...........
	29	0.4	8.60565E-001	5.99317E-003	0.00000E+000	5.15751E-003	3.59960E-001	-1.17064E+000	3.57670E+000	10	...........
	30	0.413333	8.67079E-001	5.99517E-003	0.00000E+000	5.19828E-003	3.59960E-001	-1.17498E+000	3.57670E+000	10	...........
	31	0.426667	8.73550E-001	5.99730E-003	0.00000E+000	5.23894E-003	3.59960E-001	-1.18010E+000	3.57670E+000	10	...........
	32	0.44	8.79952E-001	5.99200E-003	0.00000E+000	5.27267E-003	3.59960E-001	-1.17058E+000	3.57670E+000	10	...........
	33	0.453333	8.86373E-001	5.99950E-003	0.00000E+000	5.31779E-003	3.59960E-001	-1.17499E+000	3.57670E+000	10	...........
	34	0.466667	8.92692E-001	5.99099E-003	0.00000E+000	5.34810E-003	3.59960E-001	-1.17989E+000	3.57670E+000	10	...........
	35	0.48	8.99030E-001	6.00025E-003	0.00000E+000	5.39441E-003	3.59960E-001	-1.17056E+000	3.57670E+000	10	...........
	36	0.493333	9.05316E-001	5.99183E-003	0.00000E+000	5.42450E-003	3.59960E-001	-1.17496E+000	3.57670E+000	10	...........
	37	0.506667	9.11559E-001	5.99221E-003	0.00000E+000	5.46225E-003	3.59960E-001	-1.18011E+000	3.57722E+000	10	...........
	38	0.52	9.17789E-001	5.99250E-003	0.00000E+000	5.49985E-003	3.59960E-001	-1.17080E+000	3.57740E+000	10	...........
	39	0.533333	9.23948E-001	5.99341E-003	0.00000E+000	5.53760E-003	3.59960E-001	-1.17478E+000	3.57740E+000	10	...........
	40	0.546667	9.30109E-001	5.99813E-003	0.00000E+000	5.57892E-003	3.59960E-001	-1.18001E+000	3.57740E+000	10	...........
	41	0.56	9.36163E-001	5.99505E-003	0.00000E+000	5.61235E-003	3.59960E-001	-1.17070E+000	3.57740E+000	10	...........
	42	0.573333	9.42179E-001	5.99195E-003	0.00000E+000	5.64548E-003	3.59960E-001	-1.17503E+000	3.57740E+000	10	...........
	43	0.586667	9.48220E-001	5.99358E-003	0.00000E+000	5.68323E-003	3.59960E-001	-1.17970E+000	3.57740E+000	10	...........
	44	0.6	9.54161E-001	5.99441E-003	0.00000E+000	5.71963E-003	3.59960E-001	-1.17013E+000	3.57740E+000	10	...........
	45	0.613333	9.60039E-001	5.99119E-003	0.00000E+000	5.75178E-003	3.59960E-001	-1.17455E+000	3.57740E+000	10	...........
	46	0.626667	9.65914E-001	5.99285E-003	0.00000E+000	5.78858E-003	3.59960E-001	-1.17959E+000	3.57740E+000	10	...........
	47	0.64	9.71675E-001	5.99163E-003	0.00000E+000	5.82192E-003	3.59960E-001	-1.17051E+000	3.57740E+000	10	...........
	48	0.653333	9.77442E-001	5.99515E-003	0.00000E+000	5.85991E-003	3.59960E-001	-1.17475E+000	3.57740E+000	10	...........
	49	0.666667	9.83116E-001	5.99728E-003	0.00000E+000	5.89602E-003	3.59960E-001	-1.17950E+000	3.57740E+000	10	...........
	50	0.68	9.88815E-001	5.99045E-003	0.00000E+000	5.92345E-003	3.59960E-001	-1.17020E+000	3.57740E+000	10	...........
	51	0.693333	9.94382E-001	5.98940E-003	0.00000E+000	5.95575E-003	3.59960E-001	-1.17457E+000	3.57740E+000	10	...........
	52	0.701667	9.98846E-001	5.98867E-003	0.00000E+000	5.98175E-003	3.59960E-001	-1.17764E+000	3.57740E+000	10	...........
STARTTIMEOFFSET	QUANT	1476.897	Start Time Offset (s)