File: Data/CV_CRGO300517_1/PWRCCD_CRGO300517_1/CHARGE_DISCHARGE/CHARGE_#842.DTA
EXPLAIN
TAG	PWR800_CHARGE
TITLE	LABEL	PWR Cyclic Charge Discharge (Cell) - Charge Step	Test &Identifier
DATE	LABEL	22-6-2017	Date
TIME	LABEL	16:08:50	Time
NOTES	NOTES	3	&Notes...
	supercap test cell
	0.6mg
	6M KOH
PSTAT	PSTAT	IFC5000-01520	Potentiostat
CAPACITY	QUANT	1.00000E-003	Capacity (A-hr)
CELLTYPE	SELECTOR	1	&Cell Type
WORKINGCONNECTION	SELECTOR	0	&Working Lead
MAXCHARGETIME	VARIABLEANDUNITS	1.00000E+002	s	1.00000E+002	second(s)	Max &Charge Time
CHARGECURRENT	QUANT	6.00000E-003	&Charge Current (A)
VOLTAGEFINISH	TWOPARAM	F	1.00000E-003	3.60000E+003	&Voltage Finish	 I (A) < 	Max Time(s)
SAMPLETIME	QUANT	1.00000E-002	Sa&mple Period (s)
CHARGESTOPAT1	MULTIPARAM	4	1.00000E+000	Charge Stop At &1	Voltage > Limit	V
CHARGESTOPAT2	MULTIPARAM	0	0.00000E+000	Charge Stop At &2	None	N/A
AESBHCSELECTOR	TOGGLE	F	Save Both Half Cells
IRCOMP	TOGGLE	F	IR &Measure
EOC	QUANT	0	Open Circuit (V)
SEQUENCER	TOGGLE	TRUE	Run as Sequence
PSTATMODEL	IQUANT	53	Pstat Model
PSTATSECTION	LABEL	IFC5000-01520	Pstat Section
PSTATSERIALNO	LABEL	01520	Pstat Serial Number
CTRLMODE	IQUANT	0	Control Mode
ELECTROMETER	IQUANT	1	RE=0 or CS=1
IESTAB	IQUANT	0	I/E Stability
CASPEED	IQUANT	4	Control Amp Speed
CONVENTION	IQUANT	1	Current Convention
ICHRANGE	IQUANT	2	Ich Range
ICHRANGEMODE	TOGGLE	T	Ich Auto Range
ICHOFFSETENABLE	TOGGLE	F	Ich Offset Enable
ICHOFFSET	QUANT	0	Ich Offset (V)
ICHFILTER	IQUANT	1	Ich Filter
VCHRANGE	IQUANT	2	Vch Range
VCHRANGEMODE	TOGGLE	T	Vch Auto Range
VCHOFFSETENABLE	TOGGLE	F	Vch Offset Enable
VCHOFFSET	QUANT	0	Vch Offset (V)
VCHFILTER	IQUANT	1	Vch Filter
IERANGELOWERLIMIT	IQUANT	9	I/E Range Lower Limit
IERANGEMODE	TOGGLE	F	I/E AutoRange
IERANGE	IQUANT	10	I/E Range
ACHSELECT	IQUANT	1	Ach Select
ACHRANGE	IQUANT	2	Ach Range
ACHOFFSETENABLE	TOGGLE	F	Ach Offset Enable
ACHOFFSET	QUANT	0	Ach Offset (V)
ACHFILTER	IQUANT	1	Ach Filter
CABLEID	IQUANT	14	Cable ID
DCCALDATE	LABEL	20-10-2016	DC Calibration Date
ACCALDATE	LABEL	12/3/2015	AC Calibration Date
FRAMEWORKVERSION	QUANT	7.01	Framework Version
INSTRUMENTVERSION	LABEL	4.00	Instrument Version
CURVE	TABLE	54
	Pt	T	Vf	Im	Vu	Pwr	Sig	Ach	Temp	IERange	Over
	#	s	V	A	V	W	V	V	deg C	#	bits
	0	0.013333	6.50787E-001	5.99380E-003	0.00000E+000	3.90069E-003	3.59960E-001	-1.16153E+000	3.57770E+000	10	...........
	1	0.026667	6.60021E-001	5.99477E-003	0.00000E+000	3.95667E-003	3.59960E-001	-1.16893E+000	3.57770E+000	10	...........
	2	0.04	6.68535E-001	5.99765E-003	0.00000E+000	4.00964E-003	3.59960E-001	-1.16846E+000	3.57770E+000	10	...........
	3	0.053333	6.76548E-001	5.99307E-003	0.00000E+000	4.05460E-003	3.59960E-001	-1.16140E+000	3.57770E+000	10	...........
	4	0.066667	6.84279E-001	5.99417E-003	0.00000E+000	4.10168E-003	3.59960E-001	-1.16920E+000	3.57770E+000	10	...........
	5	0.08	6.91854E-001	5.99611E-003	0.00000E+000	4.14843E-003	3.59960E-001	-1.16835E+000	3.57770E+000	10	...........
	6	0.093333	6.99269E-001	5.99046E-003	0.00000E+000	4.18895E-003	3.59960E-001	-1.16128E+000	3.57770E+000	10	...........
	7	0.106667	7.06571E-001	5.99152E-003	0.00000E+000	4.23343E-003	3.59960E-001	-1.16890E+000	3.57770E+000	10	...........
	8	0.12	7.13736E-001	5.99175E-003	0.00000E+000	4.27652E-003	3.59960E-001	-1.16794E+000	3.57770E+000	10	...........
	9	0.133333	7.20931E-001	5.99504E-003	0.00000E+000	4.32201E-003	3.59960E-001	-1.16117E+000	3.57770E+000	10	...........
	10	0.146667	7.27908E-001	5.99257E-003	0.00000E+000	4.36204E-003	3.59960E-001	-1.16902E+000	3.57770E+000	10	...........
	11	0.16	7.34881E-001	5.99042E-003	0.00000E+000	4.40225E-003	3.59960E-001	-1.16779E+000	3.57770E+000	10	...........
	12	0.173333	7.41872E-001	5.98987E-003	0.00000E+000	4.44372E-003	3.59960E-001	-1.16112E+000	3.57770E+000	10	...........
	13	0.186667	7.48786E-001	5.99425E-003	0.00000E+000	4.48841E-003	3.59960E-001	-1.16908E+000	3.57770E+000	10	...........
	14	0.2	7.55666E-001	5.98838E-003	0.00000E+000	4.52521E-003	3.59960E-001	-1.16791E+000	3.57770E+000	10	...........
	15	0.213333	7.62487E-001	5.99419E-003	0.00000E+000	4.57049E-003	3.59960E-001	-1.16113E+000	3.57770E+000	10	...........
	16	0.226667	7.69322E-001	5.98487E-003	0.00000E+000	4.60430E-003	3.59960E-001	-1.16899E+000	3.57770E+000	10	...........
	17	0.24	7.76116E-001	5.99379E-003	0.00000E+000	4.65188E-003	3.59960E-001	-1.16749E+000	3.57770E+000	10	...........
	18	0.253333	7.82919E-001	5.99069E-003	0.00000E+000	4.69023E-003	3.59960E-001	-1.16090E+000	3.57770E+000	10	...........
	19	0.266667	7.89605E-001	5.99402E-003	0.00000E+000	4.73291E-003	3.59960E-001	-1.16892E+000	3.57770E+000	10	...........
	20	0.28	7.96371E-001	5.99456E-003	0.00000E+000	4.77390E-003	3.59960E-001	-1.16712E+000	3.57770E+000	10	...........
	21	0.293333	8.03031E-001	5.99514E-003	0.00000E+000	4.81428E-003	3.59960E-001	-1.16055E+000	3.57770E+000	10	...........
	22	0.306667	8.09656E-001	5.99464E-003	0.00000E+000	4.85359E-003	3.59960E-001	-1.16863E+000	3.57770E+000	10	...........
	23	0.32	8.16301E-001	5.99404E-003	0.00000E+000	4.89294E-003	3.59960E-001	-1.16698E+000	3.57770E+000	10	...........
	24	0.333333	8.22975E-001	5.99297E-003	0.00000E+000	4.93206E-003	3.59960E-001	-1.16080E+000	3.57770E+000	10	...........
	25	0.346667	8.29556E-001	5.98614E-003	0.00000E+000	4.96583E-003	3.59960E-001	-1.16895E+000	3.57770E+000	10	...........
	26	0.36	8.36140E-001	5.99604E-003	0.00000E+000	5.01353E-003	3.59960E-001	-1.16664E+000	3.57770E+000	10	...........
	27	0.373333	8.42637E-001	5.98876E-003	0.00000E+000	5.04635E-003	3.59960E-001	-1.16054E+000	3.57770E+000	10	...........
	28	0.386667	8.49185E-001	5.99419E-003	0.00000E+000	5.09017E-003	3.59960E-001	-1.16884E+000	3.57770E+000	10	...........
	29	0.4	8.55654E-001	5.99907E-003	0.00000E+000	5.13313E-003	3.59960E-001	-1.16662E+000	3.57770E+000	10	...........
	30	0.413333	8.62128E-001	5.99104E-003	0.00000E+000	5.16504E-003	3.59960E-001	-1.16058E+000	3.57770E+000	10	...........
	31	0.426667	8.68574E-001	5.98921E-003	0.00000E+000	5.20208E-003	3.59960E-001	-1.16882E+000	3.57770E+000	10	...........
	32	0.44	8.74987E-001	5.99313E-003	0.00000E+000	5.24391E-003	3.59960E-001	-1.16638E+000	3.57770E+000	10	...........
	33	0.453333	8.81409E-001	5.99370E-003	0.00000E+000	5.28290E-003	3.59960E-001	-1.16038E+000	3.57770E+000	10	...........
	34	0.466667	8.87755E-001	5.99810E-003	0.00000E+000	5.32484E-003	3.59960E-001	-1.16926E+000	3.57770E+000	10	...........
	35	0.48	8.94027E-001	5.99456E-003	0.00000E+000	5.35930E-003	3.59960E-001	-1.16655E+000	3.57770E+000	10	...........
	36	0.493333	9.00323E-001	5.99233E-003	0.00000E+000	5.39504E-003	3.59960E-001	-1.16058E+000	3.57770E+000	10	...........
	37	0.506667	9.06562E-001	5.99408E-003	0.00000E+000	5.43401E-003	3.59960E-001	-1.16907E+000	3.57745E+000	10	...........
	38	0.52	9.12748E-001	5.99343E-003	0.00000E+000	5.47049E-003	3.59960E-001	-1.16639E+000	3.57670E+000	10	...........
	39	0.533333	9.18929E-001	5.99327E-003	0.00000E+000	5.50739E-003	3.59960E-001	-1.16081E+000	3.57670E+000	10	...........
	40	0.546667	9.25090E-001	5.99091E-003	0.00000E+000	5.54213E-003	3.59960E-001	-1.16944E+000	3.57670E+000	10	...........
	41	0.56	9.31195E-001	5.99197E-003	0.00000E+000	5.57969E-003	3.59960E-001	-1.16628E+000	3.57670E+000	10	...........
	42	0.573333	9.37242E-001	5.99160E-003	0.00000E+000	5.61558E-003	3.59960E-001	-1.16039E+000	3.57670E+000	10	...........
	43	0.586667	9.43252E-001	5.99312E-003	0.00000E+000	5.65302E-003	3.59960E-001	-1.16916E+000	3.57670E+000	10	...........
	44	0.6	9.49211E-001	5.99047E-003	0.00000E+000	5.68623E-003	3.59960E-001	-1.16572E+000	3.57670E+000	10	...........
	45	0.613333	9.55132E-001	5.99081E-003	0.00000E+000	5.72202E-003	3.59960E-001	-1.16027E+000	3.57670E+000	10	...........
	46	0.626667	9.60951E-001	5.99124E-003	0.00000E+000	5.75728E-003	3.59960E-001	-1.16902E+000	3.57670E+000	10	...........
	47	0.64	9.66729E-001	5.99657E-003	0.00000E+000	5.79706E-003	3.59960E-001	-1.16557E+000	3.57670E+000	10	...........
	48	0.653333	9.72533E-001	5.99411E-003	0.00000E+000	5.82947E-003	3.59960E-001	-1.16008E+000	3.57670E+000	10	...........
	49	0.666667	9.78282E-001	5.99131E-003	0.00000E+000	5.86119E-003	3.59960E-001	-1.16921E+000	3.57670E+000	10	...........
	50	0.68	9.83885E-001	5.99406E-003	0.00000E+000	5.89747E-003	3.59960E-001	-1.16561E+000	3.57670E+000	10	...........
	51	0.693333	9.89525E-001	5.99235E-003	0.00000E+000	5.92958E-003	3.59960E-001	-1.16009E+000	3.57670E+000	10	...........
	52	0.706667	9.95090E-001	5.99385E-003	0.00000E+000	5.96442E-003	3.59960E-001	-1.16913E+000	3.57670E+000	10	...........
	53	0.713333	9.99269E-001	5.99759E-003	0.00000E+000	5.99320E-003	3.59960E-001	-1.15603E+000	3.57670E+000	10	...........
STARTTIMEOFFSET	QUANT	1364.079	Start Time Offset (s)