File: Data/CV_CRGO300517_1/PWRCCD_CRGO300517_1/CHARGE_DISCHARGE/CHARGE_#399.DTA
EXPLAIN
TAG	PWR800_CHARGE
TITLE	LABEL	PWR Cyclic Charge Discharge (Cell) - Charge Step	Test &Identifier
DATE	LABEL	22-6-2017	Date
TIME	LABEL	15:51:56	Time
NOTES	NOTES	3	&Notes...
	supercap test cell
	0.6mg
	6M KOH
PSTAT	PSTAT	IFC5000-01520	Potentiostat
CAPACITY	QUANT	1.00000E-003	Capacity (A-hr)
CELLTYPE	SELECTOR	1	&Cell Type
WORKINGCONNECTION	SELECTOR	0	&Working Lead
MAXCHARGETIME	VARIABLEANDUNITS	1.00000E+002	s	1.00000E+002	second(s)	Max &Charge Time
CHARGECURRENT	QUANT	6.00000E-003	&Charge Current (A)
VOLTAGEFINISH	TWOPARAM	F	1.00000E-003	3.60000E+003	&Voltage Finish	 I (A) < 	Max Time(s)
SAMPLETIME	QUANT	1.00000E-002	Sa&mple Period (s)
CHARGESTOPAT1	MULTIPARAM	4	1.00000E+000	Charge Stop At &1	Voltage > Limit	V
CHARGESTOPAT2	MULTIPARAM	0	0.00000E+000	Charge Stop At &2	None	N/A
AESBHCSELECTOR	TOGGLE	F	Save Both Half Cells
IRCOMP	TOGGLE	F	IR &Measure
EOC	QUANT	0	Open Circuit (V)
SEQUENCER	TOGGLE	TRUE	Run as Sequence
PSTATMODEL	IQUANT	53	Pstat Model
PSTATSECTION	LABEL	IFC5000-01520	Pstat Section
PSTATSERIALNO	LABEL	01520	Pstat Serial Number
CTRLMODE	IQUANT	0	Control Mode
ELECTROMETER	IQUANT	1	RE=0 or CS=1
IESTAB	IQUANT	0	I/E Stability
CASPEED	IQUANT	4	Control Amp Speed
CONVENTION	IQUANT	1	Current Convention
ICHRANGE	IQUANT	2	Ich Range
ICHRANGEMODE	TOGGLE	T	Ich Auto Range
ICHOFFSETENABLE	TOGGLE	F	Ich Offset Enable
ICHOFFSET	QUANT	0	Ich Offset (V)
ICHFILTER	IQUANT	1	Ich Filter
VCHRANGE	IQUANT	2	Vch Range
VCHRANGEMODE	TOGGLE	T	Vch Auto Range
VCHOFFSETENABLE	TOGGLE	F	Vch Offset Enable
VCHOFFSET	QUANT	0	Vch Offset (V)
VCHFILTER	IQUANT	1	Vch Filter
IERANGELOWERLIMIT	IQUANT	9	I/E Range Lower Limit
IERANGEMODE	TOGGLE	F	I/E AutoRange
IERANGE	IQUANT	10	I/E Range
ACHSELECT	IQUANT	1	Ach Select
ACHRANGE	IQUANT	2	Ach Range
ACHOFFSETENABLE	TOGGLE	F	Ach Offset Enable
ACHOFFSET	QUANT	0	Ach Offset (V)
ACHFILTER	IQUANT	1	Ach Filter
CABLEID	IQUANT	14	Cable ID
DCCALDATE	LABEL	20-10-2016	DC Calibration Date
ACCALDATE	LABEL	12/3/2015	AC Calibration Date
FRAMEWORKVERSION	QUANT	7.01	Framework Version
INSTRUMENTVERSION	LABEL	4.00	Instrument Version
CURVE	TABLE	60
	Pt	T	Vf	Im	Vu	Pwr	Sig	Ach	Temp	IERange	Over
	#	s	V	A	V	W	V	V	deg C	#	bits
	0	0.013333	6.24894E-001	5.99486E-003	0.00000E+000	3.74615E-003	3.59960E-001	-1.12545E+000	3.57680E+000	10	...........
	1	0.026667	6.33605E-001	5.99527E-003	0.00000E+000	3.79863E-003	3.59960E-001	-1.13242E+000	3.57680E+000	10	...........
	2	0.04	6.41682E-001	5.99316E-003	0.00000E+000	3.84570E-003	3.59960E-001	-1.12225E+000	3.57680E+000	10	...........
	3	0.053333	6.49336E-001	5.99822E-003	0.00000E+000	3.89486E-003	3.59960E-001	-1.12528E+000	3.57680E+000	10	...........
	4	0.066667	6.56677E-001	5.99513E-003	0.00000E+000	3.93686E-003	3.59960E-001	-1.13256E+000	3.57680E+000	10	...........
	5	0.08	6.63842E-001	5.99300E-003	0.00000E+000	3.97841E-003	3.59960E-001	-1.12212E+000	3.57680E+000	10	...........
	6	0.093333	6.70882E-001	5.99016E-003	0.00000E+000	4.01869E-003	3.59960E-001	-1.12506E+000	3.57680E+000	10	...........
	7	0.106667	6.77762E-001	5.99148E-003	0.00000E+000	4.06080E-003	3.59960E-001	-1.13245E+000	3.57680E+000	10	...........
	8	0.12	6.84574E-001	5.99514E-003	0.00000E+000	4.10411E-003	3.59960E-001	-1.12238E+000	3.57680E+000	10	...........
	9	0.133333	6.91311E-001	5.99901E-003	0.00000E+000	4.14718E-003	3.59960E-001	-1.12504E+000	3.57680E+000	10	...........
	10	0.146667	6.97956E-001	5.99111E-003	0.00000E+000	4.18153E-003	3.59960E-001	-1.13242E+000	3.57680E+000	10	...........
	11	0.16	7.04629E-001	5.99616E-003	0.00000E+000	4.22507E-003	3.59960E-001	-1.12222E+000	3.57680E+000	10	...........
	12	0.173333	7.11223E-001	5.99609E-003	0.00000E+000	4.26456E-003	3.59960E-001	-1.12511E+000	3.57680E+000	10	...........
	13	0.186667	7.17825E-001	5.99414E-003	0.00000E+000	4.30274E-003	3.59960E-001	-1.13230E+000	3.57680E+000	10	...........
	14	0.2	7.24380E-001	5.99191E-003	0.00000E+000	4.34042E-003	3.59960E-001	-1.12225E+000	3.57680E+000	10	...........
	15	0.213333	7.30902E-001	5.99691E-003	0.00000E+000	4.38315E-003	3.59960E-001	-1.12508E+000	3.57680E+000	10	...........
	16	0.226667	7.37374E-001	5.99290E-003	0.00000E+000	4.41901E-003	3.59960E-001	-1.13188E+000	3.57680E+000	10	...........
	17	0.24	7.43849E-001	5.99244E-003	0.00000E+000	4.45747E-003	3.59960E-001	-1.12157E+000	3.57680E+000	10	...........
	18	0.253333	7.50267E-001	5.99431E-003	0.00000E+000	4.49733E-003	3.59960E-001	-1.12477E+000	3.57680E+000	10	...........
	19	0.266667	7.56759E-001	5.99403E-003	0.00000E+000	4.53604E-003	3.59960E-001	-1.13211E+000	3.57680E+000	10	...........
	20	0.28	7.63166E-001	5.99069E-003	0.00000E+000	4.57190E-003	3.59960E-001	-1.12175E+000	3.57680E+000	10	...........
	21	0.293333	7.69584E-001	5.99579E-003	0.00000E+000	4.61427E-003	3.59960E-001	-1.12467E+000	3.57680E+000	10	...........
	22	0.306667	7.75957E-001	5.99570E-003	0.00000E+000	4.65241E-003	3.59960E-001	-1.13185E+000	3.57680E+000	10	...........
	23	0.32	7.82352E-001	5.99354E-003	0.00000E+000	4.68906E-003	3.59960E-001	-1.12174E+000	3.57680E+000	10	...........
	24	0.333333	7.88692E-001	5.99423E-003	0.00000E+000	4.72760E-003	3.59960E-001	-1.12449E+000	3.57680E+000	10	...........
	25	0.346667	7.95103E-001	5.99156E-003	0.00000E+000	4.76391E-003	3.59960E-001	-1.13196E+000	3.57680E+000	10	...........
	26	0.36	8.01426E-001	5.99223E-003	0.00000E+000	4.80232E-003	3.59960E-001	-1.12158E+000	3.57680E+000	10	...........
	27	0.373333	8.07747E-001	5.99487E-003	0.00000E+000	4.84233E-003	3.59960E-001	-1.12434E+000	3.57680E+000	10	...........
	28	0.386667	8.14010E-001	5.99628E-003	0.00000E+000	4.88104E-003	3.59960E-001	-1.13184E+000	3.57680E+000	10	...........
	29	0.4	8.20380E-001	5.99136E-003	0.00000E+000	4.91519E-003	3.59960E-001	-1.12146E+000	3.57680E+000	10	...........
	30	0.413333	8.26655E-001	5.99426E-003	0.00000E+000	4.95519E-003	3.59960E-001	-1.12445E+000	3.57680E+000	10	...........
	31	0.426667	8.32916E-001	5.99237E-003	0.00000E+000	4.99114E-003	3.59960E-001	-1.13175E+000	3.57680E+000	10	...........
	32	0.44	8.39187E-001	5.99831E-003	0.00000E+000	5.03370E-003	3.59960E-001	-1.12157E+000	3.57680E+000	10	...........
	33	0.453333	8.45399E-001	5.98955E-003	0.00000E+000	5.06356E-003	3.59960E-001	-1.12444E+000	3.57680E+000	10	...........
	34	0.466667	8.51648E-001	5.99195E-003	0.00000E+000	5.10303E-003	3.59960E-001	-1.13205E+000	3.57680E+000	10	...........
	35	0.48	8.57839E-001	5.99548E-003	0.00000E+000	5.14316E-003	3.59960E-001	-1.12164E+000	3.57680E+000	10	...........
	36	0.493333	8.64032E-001	5.99257E-003	0.00000E+000	5.17778E-003	3.59960E-001	-1.12445E+000	3.57680E+000	10	...........
	37	0.506667	8.70246E-001	5.99352E-003	0.00000E+000	5.21584E-003	3.59960E-001	-1.13184E+000	3.57680E+000	10	...........
	38	0.52	8.76420E-001	5.99369E-003	0.00000E+000	5.25298E-003	3.59960E-001	-1.12163E+000	3.57680E+000	10	...........
	39	0.533333	8.82554E-001	5.99334E-003	0.00000E+000	5.28945E-003	3.59960E-001	-1.12434E+000	3.57680E+000	10	...........
	40	0.546667	8.88644E-001	5.99263E-003	0.00000E+000	5.32532E-003	3.59960E-001	-1.13156E+000	3.57680E+000	10	...........
	41	0.56	8.94748E-001	5.99473E-003	0.00000E+000	5.36377E-003	3.59960E-001	-1.12102E+000	3.57680E+000	10	...........
	42	0.573333	9.00805E-001	5.99795E-003	0.00000E+000	5.40299E-003	3.59960E-001	-1.12407E+000	3.57680E+000	10	...........
	43	0.586667	9.06832E-001	5.99778E-003	0.00000E+000	5.43898E-003	3.59960E-001	-1.13165E+000	3.57680E+000	10	...........
	44	0.6	9.12884E-001	5.99766E-003	0.00000E+000	5.47517E-003	3.59960E-001	-1.12141E+000	3.57680E+000	10	...........
	45	0.613333	9.18846E-001	5.99073E-003	0.00000E+000	5.50456E-003	3.59960E-001	-1.12420E+000	3.57680E+000	10	...........
	46	0.626667	9.24852E-001	5.99061E-003	0.00000E+000	5.54043E-003	3.59960E-001	-1.13144E+000	3.57680E+000	10	...........
	47	0.64	9.30743E-001	5.99352E-003	0.00000E+000	5.57843E-003	3.59960E-001	-1.12107E+000	3.57680E+000	10	...........
	48	0.653333	9.36592E-001	5.99565E-003	0.00000E+000	5.61547E-003	3.59960E-001	-1.12405E+000	3.57680E+000	10	...........
	49	0.666667	9.42420E-001	5.99619E-003	0.00000E+000	5.65093E-003	3.59960E-001	-1.13171E+000	3.57680E+000	10	...........
	50	0.68	9.48282E-001	5.99687E-003	0.00000E+000	5.68672E-003	3.59960E-001	-1.12112E+000	3.57680E+000	10	...........
	51	0.693333	9.54059E-001	5.99493E-003	0.00000E+000	5.71952E-003	3.59960E-001	-1.12389E+000	3.57680E+000	10	...........
	52	0.706667	9.59769E-001	5.99309E-003	0.00000E+000	5.75198E-003	3.59960E-001	-1.13150E+000	3.57680E+000	10	...........
	53	0.72	9.65481E-001	5.99439E-003	0.00000E+000	5.78747E-003	3.59960E-001	-1.12120E+000	3.57680E+000	10	...........
	54	0.733333	9.71173E-001	5.99504E-003	0.00000E+000	5.82223E-003	3.59960E-001	-1.12407E+000	3.57680E+000	10	...........
	55	0.746667	9.76795E-001	5.99314E-003	0.00000E+000	5.85408E-003	3.59960E-001	-1.13152E+000	3.57680E+000	10	...........
	56	0.76	9.82365E-001	5.99500E-003	0.00000E+000	5.88928E-003	3.59960E-001	-1.12109E+000	3.57680E+000	10	...........
	57	0.773333	9.87916E-001	5.99528E-003	0.00000E+000	5.92283E-003	3.59960E-001	-1.12411E+000	3.57680E+000	10	...........
	58	0.786667	9.93390E-001	5.99770E-003	0.00000E+000	5.95806E-003	3.59960E-001	-1.13168E+000	3.57680E+000	10	...........
	59	0.798333	9.98505E-001	5.99440E-003	0.00000E+000	5.98544E-003	3.59960E-001	-1.11929E+000	3.57680E+000	10	...........
STARTTIMEOFFSET	QUANT	701.0817	Start Time Offset (s)