File: Data/CV_CRGO300517_1/PWRCCD_CRGO300517_1/CHARGE_DISCHARGE/CHARGE_#473.DTA
EXPLAIN
TAG	PWR800_CHARGE
TITLE	LABEL	PWR Cyclic Charge Discharge (Cell) - Charge Step	Test &Identifier
DATE	LABEL	22-6-2017	Date
TIME	LABEL	15:54:51	Time
NOTES	NOTES	3	&Notes...
	supercap test cell
	0.6mg
	6M KOH
PSTAT	PSTAT	IFC5000-01520	Potentiostat
CAPACITY	QUANT	1.00000E-003	Capacity (A-hr)
CELLTYPE	SELECTOR	1	&Cell Type
WORKINGCONNECTION	SELECTOR	0	&Working Lead
MAXCHARGETIME	VARIABLEANDUNITS	1.00000E+002	s	1.00000E+002	second(s)	Max &Charge Time
CHARGECURRENT	QUANT	6.00000E-003	&Charge Current (A)
VOLTAGEFINISH	TWOPARAM	F	1.00000E-003	3.60000E+003	&Voltage Finish	 I (A) < 	Max Time(s)
SAMPLETIME	QUANT	1.00000E-002	Sa&mple Period (s)
CHARGESTOPAT1	MULTIPARAM	4	1.00000E+000	Charge Stop At &1	Voltage > Limit	V
CHARGESTOPAT2	MULTIPARAM	0	0.00000E+000	Charge Stop At &2	None	N/A
AESBHCSELECTOR	TOGGLE	F	Save Both Half Cells
IRCOMP	TOGGLE	F	IR &Measure
EOC	QUANT	0	Open Circuit (V)
SEQUENCER	TOGGLE	TRUE	Run as Sequence
PSTATMODEL	IQUANT	53	Pstat Model
PSTATSECTION	LABEL	IFC5000-01520	Pstat Section
PSTATSERIALNO	LABEL	01520	Pstat Serial Number
CTRLMODE	IQUANT	0	Control Mode
ELECTROMETER	IQUANT	1	RE=0 or CS=1
IESTAB	IQUANT	0	I/E Stability
CASPEED	IQUANT	4	Control Amp Speed
CONVENTION	IQUANT	1	Current Convention
ICHRANGE	IQUANT	2	Ich Range
ICHRANGEMODE	TOGGLE	T	Ich Auto Range
ICHOFFSETENABLE	TOGGLE	F	Ich Offset Enable
ICHOFFSET	QUANT	0	Ich Offset (V)
ICHFILTER	IQUANT	1	Ich Filter
VCHRANGE	IQUANT	2	Vch Range
VCHRANGEMODE	TOGGLE	T	Vch Auto Range
VCHOFFSETENABLE	TOGGLE	F	Vch Offset Enable
VCHOFFSET	QUANT	0	Vch Offset (V)
VCHFILTER	IQUANT	1	Vch Filter
IERANGELOWERLIMIT	IQUANT	9	I/E Range Lower Limit
IERANGEMODE	TOGGLE	F	I/E AutoRange
IERANGE	IQUANT	10	I/E Range
ACHSELECT	IQUANT	1	Ach Select
ACHRANGE	IQUANT	2	Ach Range
ACHOFFSETENABLE	TOGGLE	F	Ach Offset Enable
ACHOFFSET	QUANT	0	Ach Offset (V)
ACHFILTER	IQUANT	1	Ach Filter
CABLEID	IQUANT	14	Cable ID
DCCALDATE	LABEL	20-10-2016	DC Calibration Date
ACCALDATE	LABEL	12/3/2015	AC Calibration Date
FRAMEWORKVERSION	QUANT	7.01	Framework Version
INSTRUMENTVERSION	LABEL	4.00	Instrument Version
CURVE	TABLE	59
	Pt	T	Vf	Im	Vu	Pwr	Sig	Ach	Temp	IERange	Over
	#	s	V	A	V	W	V	V	deg C	#	bits
	0	0.013333	6.30161E-001	5.99191E-003	0.00000E+000	3.77587E-003	3.59960E-001	-1.14275E+000	3.57650E+000	10	...........
	1	0.026667	6.39019E-001	5.99435E-003	0.00000E+000	3.83051E-003	3.59960E-001	-1.14242E+000	3.57650E+000	10	...........
	2	0.04	6.47174E-001	5.99807E-003	0.00000E+000	3.88179E-003	3.59960E-001	-1.13539E+000	3.57650E+000	10	...........
	3	0.053333	6.54908E-001	5.99304E-003	0.00000E+000	3.92489E-003	3.59960E-001	-1.14240E+000	3.57650E+000	10	...........
	4	0.066667	6.62353E-001	5.99924E-003	0.00000E+000	3.97361E-003	3.59960E-001	-1.14237E+000	3.57650E+000	10	...........
	5	0.08	6.69657E-001	5.99552E-003	0.00000E+000	4.01494E-003	3.59960E-001	-1.13494E+000	3.57650E+000	10	...........
	6	0.093333	6.76751E-001	5.99602E-003	0.00000E+000	4.05781E-003	3.59960E-001	-1.14209E+000	3.57650E+000	10	...........
	7	0.106667	6.83711E-001	5.99502E-003	0.00000E+000	4.09886E-003	3.59960E-001	-1.14161E+000	3.57650E+000	10	...........
	8	0.12	6.90603E-001	5.99374E-003	0.00000E+000	4.13930E-003	3.59960E-001	-1.13470E+000	3.57650E+000	10	...........
	9	0.133333	6.97447E-001	5.99312E-003	0.00000E+000	4.17989E-003	3.59960E-001	-1.14225E+000	3.57650E+000	10	...........
	10	0.146667	7.04193E-001	5.99642E-003	0.00000E+000	4.22264E-003	3.59960E-001	-1.14158E+000	3.57650E+000	10	...........
	11	0.16	7.10920E-001	5.99549E-003	0.00000E+000	4.26231E-003	3.59960E-001	-1.13454E+000	3.57650E+000	10	...........
	12	0.173333	7.17607E-001	5.99176E-003	0.00000E+000	4.29973E-003	3.59960E-001	-1.14206E+000	3.57650E+000	10	...........
	13	0.186667	7.24277E-001	5.99917E-003	0.00000E+000	4.34506E-003	3.59960E-001	-1.14142E+000	3.57650E+000	10	...........
	14	0.2	7.30916E-001	5.99308E-003	0.00000E+000	4.38044E-003	3.59960E-001	-1.13462E+000	3.57650E+000	10	...........
	15	0.213333	7.37504E-001	5.99672E-003	0.00000E+000	4.42261E-003	3.59960E-001	-1.14221E+000	3.57650E+000	10	...........
	16	0.226667	7.44068E-001	5.99203E-003	0.00000E+000	4.45848E-003	3.59960E-001	-1.14105E+000	3.57650E+000	10	...........
	17	0.24	7.50618E-001	5.99300E-003	0.00000E+000	4.49845E-003	3.59960E-001	-1.13467E+000	3.57650E+000	10	...........
	18	0.253333	7.57169E-001	6.00194E-003	0.00000E+000	4.54448E-003	3.59960E-001	-1.14270E+000	3.57650E+000	10	...........
	19	0.266667	7.63612E-001	5.99090E-003	0.00000E+000	4.57472E-003	3.59960E-001	-1.14138E+000	3.57650E+000	10	...........
	20	0.28	7.70113E-001	5.99569E-003	0.00000E+000	4.61736E-003	3.59960E-001	-1.13506E+000	3.57650E+000	10	...........
	21	0.293333	7.76564E-001	5.99221E-003	0.00000E+000	4.65333E-003	3.59960E-001	-1.14266E+000	3.57650E+000	10	...........
	22	0.306667	7.83035E-001	5.99252E-003	0.00000E+000	4.69235E-003	3.59960E-001	-1.14114E+000	3.57650E+000	10	...........
	23	0.32	7.89499E-001	5.99260E-003	0.00000E+000	4.73115E-003	3.59960E-001	-1.13509E+000	3.57650E+000	10	...........
	24	0.333333	7.95964E-001	5.99105E-003	0.00000E+000	4.76866E-003	3.59960E-001	-1.14326E+000	3.57650E+000	10	...........
	25	0.346667	8.02313E-001	5.99758E-003	0.00000E+000	4.81194E-003	3.59960E-001	-1.14088E+000	3.57650E+000	10	...........
	26	0.36	8.08738E-001	5.99433E-003	0.00000E+000	4.84785E-003	3.59960E-001	-1.13487E+000	3.57650E+000	10	...........
	27	0.373333	8.15064E-001	5.98844E-003	0.00000E+000	4.88096E-003	3.59960E-001	-1.14314E+000	3.57657E+000	10	...........
	28	0.386667	8.21458E-001	5.99332E-003	0.00000E+000	4.92326E-003	3.59960E-001	-1.14085E+000	3.57660E+000	10	...........
	29	0.4	8.27832E-001	5.99633E-003	0.00000E+000	4.96395E-003	3.59960E-001	-1.13515E+000	3.57660E+000	10	...........
	30	0.413333	8.34149E-001	5.99910E-003	0.00000E+000	5.00414E-003	3.59960E-001	-1.14353E+000	3.57660E+000	10	...........
	31	0.426667	8.40420E-001	5.99392E-003	0.00000E+000	5.03741E-003	3.59960E-001	-1.14060E+000	3.57660E+000	10	...........
	32	0.44	8.46751E-001	5.99344E-003	0.00000E+000	5.07495E-003	3.59960E-001	-1.13508E+000	3.57660E+000	10	...........
	33	0.453333	8.53052E-001	5.99171E-003	0.00000E+000	5.11124E-003	3.59960E-001	-1.14356E+000	3.57660E+000	10	...........
	34	0.466667	8.59288E-001	5.99278E-003	0.00000E+000	5.14952E-003	3.59960E-001	-1.14087E+000	3.57660E+000	10	...........
	35	0.48	8.65493E-001	5.98980E-003	0.00000E+000	5.18413E-003	3.59960E-001	-1.13538E+000	3.57660E+000	10	...........
	36	0.493333	8.71774E-001	5.99611E-003	0.00000E+000	5.22725E-003	3.59960E-001	-1.14402E+000	3.57660E+000	10	...........
	37	0.506667	8.77968E-001	5.99924E-003	0.00000E+000	5.26714E-003	3.59960E-001	-1.14085E+000	3.57660E+000	10	...........
	38	0.52	8.84161E-001	5.99743E-003	0.00000E+000	5.30270E-003	3.59960E-001	-1.13544E+000	3.57660E+000	10	...........
	39	0.533333	8.90275E-001	5.99715E-003	0.00000E+000	5.33911E-003	3.59960E-001	-1.14427E+000	3.57660E+000	10	...........
	40	0.546667	8.96424E-001	5.99067E-003	0.00000E+000	5.37019E-003	3.59960E-001	-1.14100E+000	3.57660E+000	10	...........
	41	0.56	9.02542E-001	5.99152E-003	0.00000E+000	5.40759E-003	3.59960E-001	-1.13560E+000	3.57660E+000	10	...........
	42	0.573333	9.08576E-001	5.99096E-003	0.00000E+000	5.44325E-003	3.59960E-001	-1.14470E+000	3.57660E+000	10	...........
	43	0.586667	9.14645E-001	5.99370E-003	0.00000E+000	5.48211E-003	3.59960E-001	-1.14108E+000	3.57660E+000	10	...........
	44	0.6	9.20690E-001	5.99276E-003	0.00000E+000	5.51747E-003	3.59960E-001	-1.13587E+000	3.57660E+000	10	...........
	45	0.613333	9.26701E-001	5.99817E-003	0.00000E+000	5.55851E-003	3.59960E-001	-1.14512E+000	3.57660E+000	10	...........
	46	0.626667	9.32630E-001	5.99353E-003	0.00000E+000	5.58975E-003	3.59960E-001	-1.14097E+000	3.57660E+000	10	...........
	47	0.64	9.38519E-001	5.99136E-003	0.00000E+000	5.62300E-003	3.59960E-001	-1.13607E+000	3.57660E+000	10	...........
	48	0.653333	9.44380E-001	5.99426E-003	0.00000E+000	5.66086E-003	3.59960E-001	-1.14553E+000	3.57660E+000	10	...........
	49	0.666667	9.50233E-001	5.98826E-003	0.00000E+000	5.69025E-003	3.59960E-001	-1.14051E+000	3.57660E+000	10	...........
	50	0.68	9.56030E-001	5.99458E-003	0.00000E+000	5.73100E-003	3.59960E-001	-1.13593E+000	3.57660E+000	10	...........
	51	0.693333	9.61771E-001	5.99039E-003	0.00000E+000	5.76138E-003	3.59960E-001	-1.14512E+000	3.57660E+000	10	...........
	52	0.706667	9.67478E-001	5.99134E-003	0.00000E+000	5.79649E-003	3.59960E-001	-1.14042E+000	3.57660E+000	10	...........
	53	0.72	9.73203E-001	5.99527E-003	0.00000E+000	5.83462E-003	3.59960E-001	-1.13587E+000	3.57660E+000	10	...........
	54	0.733333	9.78811E-001	5.99975E-003	0.00000E+000	5.87262E-003	3.59960E-001	-1.14576E+000	3.57660E+000	10	...........
	55	0.746667	9.84393E-001	5.98829E-003	0.00000E+000	5.89484E-003	3.59960E-001	-1.14065E+000	3.57660E+000	10	...........
	56	0.76	9.89953E-001	5.99513E-003	0.00000E+000	5.93489E-003	3.59960E-001	-1.13593E+000	3.57660E+000	10	...........
	57	0.773333	9.95432E-001	5.99777E-003	0.00000E+000	5.97037E-003	3.59960E-001	-1.14583E+000	3.57660E+000	10	...........
	58	0.78	9.99536E-001	5.99546E-003	0.00000E+000	5.99268E-003	3.59960E-001	-1.13079E+000	3.57660E+000	10	...........
STARTTIMEOFFSET	QUANT	817.2818	Start Time Offset (s)