File: Data/CV_CRGO300517_1/PWRCCD_CRGO300517_1/CHARGE_DISCHARGE/CHARGE_#385.DTA
EXPLAIN
TAG	PWR800_CHARGE
TITLE	LABEL	PWR Cyclic Charge Discharge (Cell) - Charge Step	Test &Identifier
DATE	LABEL	22-6-2017	Date
TIME	LABEL	15:51:22	Time
NOTES	NOTES	3	&Notes...
	supercap test cell
	0.6mg
	6M KOH
PSTAT	PSTAT	IFC5000-01520	Potentiostat
CAPACITY	QUANT	1.00000E-003	Capacity (A-hr)
CELLTYPE	SELECTOR	1	&Cell Type
WORKINGCONNECTION	SELECTOR	0	&Working Lead
MAXCHARGETIME	VARIABLEANDUNITS	1.00000E+002	s	1.00000E+002	second(s)	Max &Charge Time
CHARGECURRENT	QUANT	6.00000E-003	&Charge Current (A)
VOLTAGEFINISH	TWOPARAM	F	1.00000E-003	3.60000E+003	&Voltage Finish	 I (A) < 	Max Time(s)
SAMPLETIME	QUANT	1.00000E-002	Sa&mple Period (s)
CHARGESTOPAT1	MULTIPARAM	4	1.00000E+000	Charge Stop At &1	Voltage > Limit	V
CHARGESTOPAT2	MULTIPARAM	0	0.00000E+000	Charge Stop At &2	None	N/A
AESBHCSELECTOR	TOGGLE	F	Save Both Half Cells
IRCOMP	TOGGLE	F	IR &Measure
EOC	QUANT	0	Open Circuit (V)
SEQUENCER	TOGGLE	TRUE	Run as Sequence
PSTATMODEL	IQUANT	53	Pstat Model
PSTATSECTION	LABEL	IFC5000-01520	Pstat Section
PSTATSERIALNO	LABEL	01520	Pstat Serial Number
CTRLMODE	IQUANT	0	Control Mode
ELECTROMETER	IQUANT	1	RE=0 or CS=1
IESTAB	IQUANT	0	I/E Stability
CASPEED	IQUANT	4	Control Amp Speed
CONVENTION	IQUANT	1	Current Convention
ICHRANGE	IQUANT	2	Ich Range
ICHRANGEMODE	TOGGLE	T	Ich Auto Range
ICHOFFSETENABLE	TOGGLE	F	Ich Offset Enable
ICHOFFSET	QUANT	0	Ich Offset (V)
ICHFILTER	IQUANT	1	Ich Filter
VCHRANGE	IQUANT	2	Vch Range
VCHRANGEMODE	TOGGLE	T	Vch Auto Range
VCHOFFSETENABLE	TOGGLE	F	Vch Offset Enable
VCHOFFSET	QUANT	0	Vch Offset (V)
VCHFILTER	IQUANT	1	Vch Filter
IERANGELOWERLIMIT	IQUANT	9	I/E Range Lower Limit
IERANGEMODE	TOGGLE	F	I/E AutoRange
IERANGE	IQUANT	10	I/E Range
ACHSELECT	IQUANT	1	Ach Select
ACHRANGE	IQUANT	2	Ach Range
ACHOFFSETENABLE	TOGGLE	F	Ach Offset Enable
ACHOFFSET	QUANT	0	Ach Offset (V)
ACHFILTER	IQUANT	1	Ach Filter
CABLEID	IQUANT	14	Cable ID
DCCALDATE	LABEL	20-10-2016	DC Calibration Date
ACCALDATE	LABEL	12/3/2015	AC Calibration Date
FRAMEWORKVERSION	QUANT	7.01	Framework Version
INSTRUMENTVERSION	LABEL	4.00	Instrument Version
CURVE	TABLE	61
	Pt	T	Vf	Im	Vu	Pwr	Sig	Ach	Temp	IERange	Over
	#	s	V	A	V	W	V	V	deg C	#	bits
	0	0.013333	6.23790E-001	5.99231E-003	0.00000E+000	3.73794E-003	3.59960E-001	-1.12134E+000	3.57650E+000	10	...........
	1	0.026667	6.32548E-001	5.99106E-003	0.00000E+000	3.78963E-003	3.59960E-001	-1.12085E+000	3.57650E+000	10	...........
	2	0.04	6.40556E-001	5.99075E-003	0.00000E+000	3.83741E-003	3.59960E-001	-1.13158E+000	3.57650E+000	10	...........
	3	0.053333	6.48180E-001	5.99212E-003	0.00000E+000	3.88398E-003	3.59960E-001	-1.12093E+000	3.57650E+000	10	...........
	4	0.066667	6.55532E-001	5.99912E-003	0.00000E+000	3.93261E-003	3.59960E-001	-1.12103E+000	3.57650E+000	10	...........
	5	0.08	6.62703E-001	5.99038E-003	0.00000E+000	3.96984E-003	3.59960E-001	-1.13178E+000	3.57650E+000	10	...........
	6	0.093333	6.69724E-001	5.99171E-003	0.00000E+000	4.01279E-003	3.59960E-001	-1.12088E+000	3.57650E+000	10	...........
	7	0.106667	6.76652E-001	5.99215E-003	0.00000E+000	4.05460E-003	3.59960E-001	-1.12044E+000	3.57650E+000	10	...........
	8	0.12	6.83402E-001	5.99253E-003	0.00000E+000	4.09531E-003	3.59960E-001	-1.13172E+000	3.57650E+000	10	...........
	9	0.133333	6.90127E-001	5.99316E-003	0.00000E+000	4.13604E-003	3.59960E-001	-1.12142E+000	3.57650E+000	10	...........
	10	0.146667	6.96811E-001	5.98962E-003	0.00000E+000	4.17363E-003	3.59960E-001	-1.12100E+000	3.57650E+000	10	...........
	11	0.16	7.03431E-001	5.99335E-003	0.00000E+000	4.21591E-003	3.59960E-001	-1.13214E+000	3.57650E+000	10	...........
	12	0.173333	7.09987E-001	5.99608E-003	0.00000E+000	4.25713E-003	3.59960E-001	-1.12123E+000	3.57650E+000	10	...........
	13	0.186667	7.16522E-001	5.99433E-003	0.00000E+000	4.29507E-003	3.59960E-001	-1.12054E+000	3.57650E+000	10	...........
	14	0.2	7.23100E-001	5.99658E-003	0.00000E+000	4.33613E-003	3.59960E-001	-1.13210E+000	3.57650E+000	10	...........
	15	0.213333	7.29579E-001	5.99309E-003	0.00000E+000	4.37243E-003	3.59960E-001	-1.12131E+000	3.57650E+000	10	...........
	16	0.226667	7.36023E-001	5.99579E-003	0.00000E+000	4.41304E-003	3.59960E-001	-1.12015E+000	3.57650E+000	10	...........
	17	0.24	7.42511E-001	5.99714E-003	0.00000E+000	4.45294E-003	3.59960E-001	-1.13149E+000	3.57650E+000	10	...........
	18	0.253333	7.48927E-001	5.99788E-003	0.00000E+000	4.49198E-003	3.59960E-001	-1.12089E+000	3.57650E+000	10	...........
	19	0.266667	7.55301E-001	5.99239E-003	0.00000E+000	4.52606E-003	3.59960E-001	-1.12008E+000	3.57650E+000	10	...........
	20	0.28	7.61697E-001	5.98966E-003	0.00000E+000	4.56231E-003	3.59960E-001	-1.13131E+000	3.57650E+000	10	...........
	21	0.293333	7.68112E-001	5.99347E-003	0.00000E+000	4.60366E-003	3.59960E-001	-1.12069E+000	3.57650E+000	10	...........
	22	0.306667	7.74512E-001	5.99655E-003	0.00000E+000	4.64440E-003	3.59960E-001	-1.11996E+000	3.57650E+000	10	...........
	23	0.32	7.80867E-001	5.99361E-003	0.00000E+000	4.68021E-003	3.59960E-001	-1.13128E+000	3.57667E+000	10	...........
	24	0.333333	7.87223E-001	5.99319E-003	0.00000E+000	4.71797E-003	3.59960E-001	-1.12098E+000	3.57670E+000	10	...........
	25	0.346667	7.93574E-001	5.99180E-003	0.00000E+000	4.75494E-003	3.59960E-001	-1.11986E+000	3.57670E+000	10	...........
	26	0.36	7.99910E-001	5.99495E-003	0.00000E+000	4.79542E-003	3.59960E-001	-1.13133E+000	3.57670E+000	10	...........
	27	0.373333	8.06206E-001	5.99601E-003	0.00000E+000	4.83402E-003	3.59960E-001	-1.12090E+000	3.57670E+000	10	...........
	28	0.386667	8.12436E-001	5.99247E-003	0.00000E+000	4.86849E-003	3.59960E-001	-1.11989E+000	3.57670E+000	10	...........
	29	0.4	8.18764E-001	5.99692E-003	0.00000E+000	4.91007E-003	3.59960E-001	-1.13141E+000	3.57670E+000	10	...........
	30	0.413333	8.25046E-001	5.99692E-003	0.00000E+000	4.94773E-003	3.59960E-001	-1.12130E+000	3.57670E+000	10	...........
	31	0.426667	8.31310E-001	5.99116E-003	0.00000E+000	4.98052E-003	3.59960E-001	-1.12002E+000	3.57670E+000	10	...........
	32	0.44	8.37550E-001	5.99623E-003	0.00000E+000	5.02215E-003	3.59960E-001	-1.13116E+000	3.57670E+000	10	...........
	33	0.453333	8.43781E-001	5.99121E-003	0.00000E+000	5.05527E-003	3.59960E-001	-1.12127E+000	3.57670E+000	10	...........
	34	0.466667	8.49996E-001	5.99486E-003	0.00000E+000	5.09560E-003	3.59960E-001	-1.12010E+000	3.57670E+000	10	...........
	35	0.48	8.56193E-001	5.99801E-003	0.00000E+000	5.13545E-003	3.59960E-001	-1.13146E+000	3.57670E+000	10	...........
	36	0.493333	8.62357E-001	5.99322E-003	0.00000E+000	5.16829E-003	3.59960E-001	-1.12137E+000	3.57670E+000	10	...........
	37	0.506667	8.68570E-001	5.99163E-003	0.00000E+000	5.20415E-003	3.59960E-001	-1.11974E+000	3.57670E+000	10	...........
	38	0.52	8.74731E-001	5.99420E-003	0.00000E+000	5.24331E-003	3.59960E-001	-1.13112E+000	3.57670E+000	10	...........
	39	0.533333	8.80854E-001	5.99580E-003	0.00000E+000	5.28143E-003	3.59960E-001	-1.12140E+000	3.57670E+000	10	...........
	40	0.546667	8.86950E-001	5.99363E-003	0.00000E+000	5.31605E-003	3.59960E-001	-1.11962E+000	3.57670E+000	10	...........
	41	0.56	8.93003E-001	5.99677E-003	0.00000E+000	5.35514E-003	3.59960E-001	-1.13089E+000	3.57670E+000	10	...........
	42	0.573333	8.99123E-001	5.99086E-003	0.00000E+000	5.38652E-003	3.59960E-001	-1.12108E+000	3.57670E+000	10	...........
	43	0.586667	9.05135E-001	5.98991E-003	0.00000E+000	5.42168E-003	3.59960E-001	-1.11945E+000	3.57670E+000	10	...........
	44	0.6	9.11177E-001	5.99164E-003	0.00000E+000	5.45945E-003	3.59960E-001	-1.13088E+000	3.57670E+000	10	...........
	45	0.613333	9.17175E-001	5.99470E-003	0.00000E+000	5.49819E-003	3.59960E-001	-1.12146E+000	3.57670E+000	10	...........
	46	0.626667	9.23151E-001	5.99282E-003	0.00000E+000	5.53228E-003	3.59960E-001	-1.11974E+000	3.57670E+000	10	...........
	47	0.64	9.29085E-001	5.99550E-003	0.00000E+000	5.57033E-003	3.59960E-001	-1.13104E+000	3.57670E+000	10	...........
	48	0.653333	9.34952E-001	5.99686E-003	0.00000E+000	5.60678E-003	3.59960E-001	-1.12167E+000	3.57670E+000	10	...........
	49	0.666667	9.40791E-001	5.99684E-003	0.00000E+000	5.64177E-003	3.59960E-001	-1.11981E+000	3.57670E+000	10	...........
	50	0.68	9.46675E-001	5.99692E-003	0.00000E+000	5.67714E-003	3.59960E-001	-1.13114E+000	3.57670E+000	10	...........
	51	0.693333	9.52434E-001	5.98989E-003	0.00000E+000	5.70497E-003	3.59960E-001	-1.12194E+000	3.57670E+000	10	...........
	52	0.706667	9.58169E-001	5.99740E-003	0.00000E+000	5.74652E-003	3.59960E-001	-1.12001E+000	3.57670E+000	10	...........
	53	0.72	9.63863E-001	5.99938E-003	0.00000E+000	5.78258E-003	3.59960E-001	-1.13141E+000	3.57670E+000	10	...........
	54	0.733333	9.69488E-001	5.99488E-003	0.00000E+000	5.81196E-003	3.59960E-001	-1.12218E+000	3.57670E+000	10	...........
	55	0.746667	9.75169E-001	5.99281E-003	0.00000E+000	5.84400E-003	3.59960E-001	-1.11996E+000	3.57670E+000	10	...........
	56	0.76	9.80734E-001	5.99110E-003	0.00000E+000	5.87568E-003	3.59960E-001	-1.13155E+000	3.57670E+000	10	...........
	57	0.773333	9.86294E-001	5.99139E-003	0.00000E+000	5.90927E-003	3.59960E-001	-1.12228E+000	3.57670E+000	10	...........
	58	0.786667	9.91806E-001	5.99101E-003	0.00000E+000	5.94192E-003	3.59960E-001	-1.12015E+000	3.57670E+000	10	...........
	59	0.8	9.97262E-001	5.99121E-003	0.00000E+000	5.97481E-003	3.59960E-001	-1.13139E+000	3.57670E+000	10	...........
	60	0.801667	1.00035E+000	5.98870E-003	0.00000E+000	5.99082E-003	3.59960E-001	-1.10912E+000	3.57670E+000	10	...........
STARTTIMEOFFSET	QUANT	678.8083	Start Time Offset (s)