File: Data/CV_CRGO300517_1/PWRCCD_CRGO300517_1/CHARGE_DISCHARGE/CHARGE_#788.DTA
EXPLAIN
TAG	PWR800_CHARGE
TITLE	LABEL	PWR Cyclic Charge Discharge (Cell) - Charge Step	Test &Identifier
DATE	LABEL	22-6-2017	Date
TIME	LABEL	16:06:50	Time
NOTES	NOTES	3	&Notes...
	supercap test cell
	0.6mg
	6M KOH
PSTAT	PSTAT	IFC5000-01520	Potentiostat
CAPACITY	QUANT	1.00000E-003	Capacity (A-hr)
CELLTYPE	SELECTOR	1	&Cell Type
WORKINGCONNECTION	SELECTOR	0	&Working Lead
MAXCHARGETIME	VARIABLEANDUNITS	1.00000E+002	s	1.00000E+002	second(s)	Max &Charge Time
CHARGECURRENT	QUANT	6.00000E-003	&Charge Current (A)
VOLTAGEFINISH	TWOPARAM	F	1.00000E-003	3.60000E+003	&Voltage Finish	 I (A) < 	Max Time(s)
SAMPLETIME	QUANT	1.00000E-002	Sa&mple Period (s)
CHARGESTOPAT1	MULTIPARAM	4	1.00000E+000	Charge Stop At &1	Voltage > Limit	V
CHARGESTOPAT2	MULTIPARAM	0	0.00000E+000	Charge Stop At &2	None	N/A
AESBHCSELECTOR	TOGGLE	F	Save Both Half Cells
IRCOMP	TOGGLE	F	IR &Measure
EOC	QUANT	0	Open Circuit (V)
SEQUENCER	TOGGLE	TRUE	Run as Sequence
PSTATMODEL	IQUANT	53	Pstat Model
PSTATSECTION	LABEL	IFC5000-01520	Pstat Section
PSTATSERIALNO	LABEL	01520	Pstat Serial Number
CTRLMODE	IQUANT	0	Control Mode
ELECTROMETER	IQUANT	1	RE=0 or CS=1
IESTAB	IQUANT	0	I/E Stability
CASPEED	IQUANT	4	Control Amp Speed
CONVENTION	IQUANT	1	Current Convention
ICHRANGE	IQUANT	2	Ich Range
ICHRANGEMODE	TOGGLE	T	Ich Auto Range
ICHOFFSETENABLE	TOGGLE	F	Ich Offset Enable
ICHOFFSET	QUANT	0	Ich Offset (V)
ICHFILTER	IQUANT	1	Ich Filter
VCHRANGE	IQUANT	2	Vch Range
VCHRANGEMODE	TOGGLE	T	Vch Auto Range
VCHOFFSETENABLE	TOGGLE	F	Vch Offset Enable
VCHOFFSET	QUANT	0	Vch Offset (V)
VCHFILTER	IQUANT	1	Vch Filter
IERANGELOWERLIMIT	IQUANT	9	I/E Range Lower Limit
IERANGEMODE	TOGGLE	F	I/E AutoRange
IERANGE	IQUANT	10	I/E Range
ACHSELECT	IQUANT	1	Ach Select
ACHRANGE	IQUANT	2	Ach Range
ACHOFFSETENABLE	TOGGLE	F	Ach Offset Enable
ACHOFFSET	QUANT	0	Ach Offset (V)
ACHFILTER	IQUANT	1	Ach Filter
CABLEID	IQUANT	14	Cable ID
DCCALDATE	LABEL	20-10-2016	DC Calibration Date
ACCALDATE	LABEL	12/3/2015	AC Calibration Date
FRAMEWORKVERSION	QUANT	7.01	Framework Version
INSTRUMENTVERSION	LABEL	4.00	Instrument Version
CURVE	TABLE	55
	Pt	T	Vf	Im	Vu	Pwr	Sig	Ach	Temp	IERange	Over
	#	s	V	A	V	W	V	V	deg C	#	bits
	0	0.013333	6.48263E-001	5.99916E-003	0.00000E+000	3.88903E-003	3.59960E-001	-1.17130E+000	3.57660E+000	10	...........
	1	0.026667	6.57409E-001	5.99214E-003	0.00000E+000	3.93929E-003	3.59960E-001	-1.16306E+000	3.57660E+000	10	...........
	2	0.04	6.65862E-001	6.00296E-003	0.00000E+000	3.99714E-003	3.59960E-001	-1.16028E+000	3.57660E+000	10	...........
	3	0.053333	6.73862E-001	5.99396E-003	0.00000E+000	4.03910E-003	3.59960E-001	-1.17162E+000	3.57660E+000	10	...........
	4	0.066667	6.81567E-001	5.99591E-003	0.00000E+000	4.08662E-003	3.59960E-001	-1.16315E+000	3.57660E+000	10	...........
	5	0.08	6.89050E-001	5.99361E-003	0.00000E+000	4.12990E-003	3.59960E-001	-1.16043E+000	3.57660E+000	10	...........
	6	0.093333	6.96429E-001	5.99379E-003	0.00000E+000	4.17425E-003	3.59960E-001	-1.17142E+000	3.57660E+000	10	...........
	7	0.106667	7.03661E-001	5.99225E-003	0.00000E+000	4.21651E-003	3.59960E-001	-1.16307E+000	3.57660E+000	10	...........
	8	0.12	7.10861E-001	5.99213E-003	0.00000E+000	4.25957E-003	3.59960E-001	-1.16055E+000	3.57660E+000	10	...........
	9	0.133333	7.17943E-001	5.99314E-003	0.00000E+000	4.30274E-003	3.59960E-001	-1.17161E+000	3.57660E+000	10	...........
	10	0.146667	7.24994E-001	5.99010E-003	0.00000E+000	4.34278E-003	3.59960E-001	-1.16298E+000	3.57660E+000	10	...........
	11	0.16	7.31932E-001	5.99846E-003	0.00000E+000	4.39047E-003	3.59960E-001	-1.16027E+000	3.57660E+000	10	...........
	12	0.173333	7.38874E-001	5.99022E-003	0.00000E+000	4.42602E-003	3.59960E-001	-1.17126E+000	3.57660E+000	10	...........
	13	0.186667	7.45785E-001	5.99426E-003	0.00000E+000	4.47043E-003	3.59960E-001	-1.16254E+000	3.57660E+000	10	...........
	14	0.2	7.52620E-001	5.99650E-003	0.00000E+000	4.51309E-003	3.59960E-001	-1.16003E+000	3.57660E+000	10	...........
	15	0.213333	7.59436E-001	5.99860E-003	0.00000E+000	4.55555E-003	3.59960E-001	-1.17128E+000	3.57660E+000	10	...........
	16	0.226667	7.66241E-001	5.99752E-003	0.00000E+000	4.59554E-003	3.59960E-001	-1.16214E+000	3.57660E+000	10	...........
	17	0.24	7.72995E-001	5.99234E-003	0.00000E+000	4.63205E-003	3.59960E-001	-1.15993E+000	3.57660E+000	10	...........
	18	0.253333	7.79728E-001	5.99411E-003	0.00000E+000	4.67378E-003	3.59960E-001	-1.17135E+000	3.57660E+000	10	...........
	19	0.266667	7.86441E-001	5.99390E-003	0.00000E+000	4.71385E-003	3.59960E-001	-1.16203E+000	3.57660E+000	10	...........
	20	0.28	7.93144E-001	5.98869E-003	0.00000E+000	4.74989E-003	3.59960E-001	-1.15990E+000	3.57660E+000	10	...........
	21	0.293333	7.99819E-001	5.99120E-003	0.00000E+000	4.79188E-003	3.59960E-001	-1.17122E+000	3.57660E+000	10	...........
	22	0.306667	8.06470E-001	5.99600E-003	0.00000E+000	4.83560E-003	3.59960E-001	-1.16200E+000	3.57660E+000	10	...........
	23	0.32	8.13046E-001	5.99068E-003	0.00000E+000	4.87070E-003	3.59960E-001	-1.16006E+000	3.57660E+000	10	...........
	24	0.333333	8.19660E-001	5.99445E-003	0.00000E+000	4.91341E-003	3.59960E-001	-1.17126E+000	3.57660E+000	10	...........
	25	0.346667	8.26236E-001	5.99720E-003	0.00000E+000	4.95510E-003	3.59960E-001	-1.16177E+000	3.57660E+000	10	...........
	26	0.36	8.32800E-001	5.99391E-003	0.00000E+000	4.99172E-003	3.59960E-001	-1.15993E+000	3.57660E+000	10	...........
	27	0.373333	8.39316E-001	5.99548E-003	0.00000E+000	5.03210E-003	3.59960E-001	-1.17135E+000	3.57660E+000	10	...........
	28	0.386667	8.45874E-001	5.99510E-003	0.00000E+000	5.07110E-003	3.59960E-001	-1.16181E+000	3.57660E+000	10	...........
	29	0.4	8.52359E-001	5.98971E-003	0.00000E+000	5.10539E-003	3.59960E-001	-1.16033E+000	3.57660E+000	10	...........
	30	0.413333	8.58804E-001	5.98905E-003	0.00000E+000	5.14342E-003	3.59960E-001	-1.17151E+000	3.57660E+000	10	...........
	31	0.426667	8.65259E-001	5.99486E-003	0.00000E+000	5.18710E-003	3.59960E-001	-1.16178E+000	3.57660E+000	10	...........
	32	0.44	8.71674E-001	5.99657E-003	0.00000E+000	5.22705E-003	3.59960E-001	-1.16025E+000	3.57660E+000	10	...........
	33	0.453333	8.78041E-001	5.99592E-003	0.00000E+000	5.26467E-003	3.59960E-001	-1.17145E+000	3.57660E+000	10	...........
	34	0.466667	8.84389E-001	5.99419E-003	0.00000E+000	5.30119E-003	3.59960E-001	-1.16144E+000	3.57660E+000	10	...........
	35	0.48	8.90710E-001	5.99134E-003	0.00000E+000	5.33655E-003	3.59960E-001	-1.16032E+000	3.57660E+000	10	...........
	36	0.493333	8.96991E-001	5.99508E-003	0.00000E+000	5.37754E-003	3.59960E-001	-1.17102E+000	3.57660E+000	10	...........
	37	0.506667	9.03247E-001	5.99320E-003	0.00000E+000	5.41334E-003	3.59960E-001	-1.16078E+000	3.57660E+000	10	...........
	38	0.52	9.09472E-001	5.99566E-003	0.00000E+000	5.45288E-003	3.59960E-001	-1.16015E+000	3.57660E+000	10	...........
	39	0.533333	9.15640E-001	5.99165E-003	0.00000E+000	5.48620E-003	3.59960E-001	-1.17121E+000	3.57660E+000	10	...........
	40	0.546667	9.21824E-001	5.99653E-003	0.00000E+000	5.52775E-003	3.59960E-001	-1.16075E+000	3.57660E+000	10	...........
	41	0.56	9.27900E-001	5.99272E-003	0.00000E+000	5.56064E-003	3.59960E-001	-1.16002E+000	3.57660E+000	10	...........
	42	0.573333	9.33972E-001	5.99348E-003	0.00000E+000	5.59774E-003	3.59960E-001	-1.17101E+000	3.57660E+000	10	...........
	43	0.586667	9.39988E-001	5.99479E-003	0.00000E+000	5.63503E-003	3.59960E-001	-1.16072E+000	3.57660E+000	10	...........
	44	0.6	9.45970E-001	5.99258E-003	0.00000E+000	5.66880E-003	3.59960E-001	-1.16027E+000	3.57660E+000	10	...........
	45	0.613333	9.51906E-001	5.99401E-003	0.00000E+000	5.70574E-003	3.59960E-001	-1.17119E+000	3.57660E+000	10	...........
	46	0.626667	9.57791E-001	5.99224E-003	0.00000E+000	5.73931E-003	3.59960E-001	-1.16056E+000	3.57660E+000	10	...........
	47	0.64	9.63621E-001	5.99247E-003	0.00000E+000	5.77446E-003	3.59960E-001	-1.16010E+000	3.57660E+000	10	...........
	48	0.653333	9.69376E-001	5.99625E-003	0.00000E+000	5.81263E-003	3.59960E-001	-1.17098E+000	3.57660E+000	10	...........
	49	0.666667	9.75159E-001	5.99518E-003	0.00000E+000	5.84625E-003	3.59960E-001	-1.16050E+000	3.57660E+000	10	...........
	50	0.68	9.80817E-001	5.99556E-003	0.00000E+000	5.88055E-003	3.59960E-001	-1.16039E+000	3.57660E+000	10	...........
	51	0.693333	9.86405E-001	5.99527E-003	0.00000E+000	5.91377E-003	3.59960E-001	-1.17110E+000	3.57660E+000	10	...........
	52	0.706667	9.92017E-001	5.99245E-003	0.00000E+000	5.94461E-003	3.59960E-001	-1.16056E+000	3.57660E+000	10	...........
	53	0.72	9.97519E-001	5.99304E-003	0.00000E+000	5.97817E-003	3.59960E-001	-1.16063E+000	3.57660E+000	10	...........
	54	0.721667	1.00065E+000	5.98520E-003	0.00000E+000	5.98911E-003	3.59960E-001	-1.16333E+000	3.57660E+000	10	...........
STARTTIMEOFFSET	QUANT	1286.893	Start Time Offset (s)