File: Data/CV_CRGO300517_1/PWRCCD_CRGO300517_1/CHARGE_DISCHARGE/CHARGE_#398.DTA
EXPLAIN
TAG	PWR800_CHARGE
TITLE	LABEL	PWR Cyclic Charge Discharge (Cell) - Charge Step	Test &Identifier
DATE	LABEL	22-6-2017	Date
TIME	LABEL	15:51:53	Time
NOTES	NOTES	3	&Notes...
	supercap test cell
	0.6mg
	6M KOH
PSTAT	PSTAT	IFC5000-01520	Potentiostat
CAPACITY	QUANT	1.00000E-003	Capacity (A-hr)
CELLTYPE	SELECTOR	1	&Cell Type
WORKINGCONNECTION	SELECTOR	0	&Working Lead
MAXCHARGETIME	VARIABLEANDUNITS	1.00000E+002	s	1.00000E+002	second(s)	Max &Charge Time
CHARGECURRENT	QUANT	6.00000E-003	&Charge Current (A)
VOLTAGEFINISH	TWOPARAM	F	1.00000E-003	3.60000E+003	&Voltage Finish	 I (A) < 	Max Time(s)
SAMPLETIME	QUANT	1.00000E-002	Sa&mple Period (s)
CHARGESTOPAT1	MULTIPARAM	4	1.00000E+000	Charge Stop At &1	Voltage > Limit	V
CHARGESTOPAT2	MULTIPARAM	0	0.00000E+000	Charge Stop At &2	None	N/A
AESBHCSELECTOR	TOGGLE	F	Save Both Half Cells
IRCOMP	TOGGLE	F	IR &Measure
EOC	QUANT	0	Open Circuit (V)
SEQUENCER	TOGGLE	TRUE	Run as Sequence
PSTATMODEL	IQUANT	53	Pstat Model
PSTATSECTION	LABEL	IFC5000-01520	Pstat Section
PSTATSERIALNO	LABEL	01520	Pstat Serial Number
CTRLMODE	IQUANT	0	Control Mode
ELECTROMETER	IQUANT	1	RE=0 or CS=1
IESTAB	IQUANT	0	I/E Stability
CASPEED	IQUANT	4	Control Amp Speed
CONVENTION	IQUANT	1	Current Convention
ICHRANGE	IQUANT	2	Ich Range
ICHRANGEMODE	TOGGLE	T	Ich Auto Range
ICHOFFSETENABLE	TOGGLE	F	Ich Offset Enable
ICHOFFSET	QUANT	0	Ich Offset (V)
ICHFILTER	IQUANT	1	Ich Filter
VCHRANGE	IQUANT	2	Vch Range
VCHRANGEMODE	TOGGLE	T	Vch Auto Range
VCHOFFSETENABLE	TOGGLE	F	Vch Offset Enable
VCHOFFSET	QUANT	0	Vch Offset (V)
VCHFILTER	IQUANT	1	Vch Filter
IERANGELOWERLIMIT	IQUANT	9	I/E Range Lower Limit
IERANGEMODE	TOGGLE	F	I/E AutoRange
IERANGE	IQUANT	10	I/E Range
ACHSELECT	IQUANT	1	Ach Select
ACHRANGE	IQUANT	2	Ach Range
ACHOFFSETENABLE	TOGGLE	F	Ach Offset Enable
ACHOFFSET	QUANT	0	Ach Offset (V)
ACHFILTER	IQUANT	1	Ach Filter
CABLEID	IQUANT	14	Cable ID
DCCALDATE	LABEL	20-10-2016	DC Calibration Date
ACCALDATE	LABEL	12/3/2015	AC Calibration Date
FRAMEWORKVERSION	QUANT	7.01	Framework Version
INSTRUMENTVERSION	LABEL	4.00	Instrument Version
CURVE	TABLE	60
	Pt	T	Vf	Im	Vu	Pwr	Sig	Ach	Temp	IERange	Over
	#	s	V	A	V	W	V	V	deg C	#	bits
	0	0.013333	6.24892E-001	5.99212E-003	0.00000E+000	3.74443E-003	3.59960E-001	-1.12201E+000	3.57750E+000	10	...........
	1	0.026667	6.33622E-001	5.99468E-003	0.00000E+000	3.79836E-003	3.59960E-001	-1.12667E+000	3.57750E+000	10	...........
	2	0.04	6.41686E-001	5.99135E-003	0.00000E+000	3.84457E-003	3.59960E-001	-1.13023E+000	3.57750E+000	10	...........
	3	0.053333	6.49289E-001	5.99178E-003	0.00000E+000	3.89040E-003	3.59960E-001	-1.12148E+000	3.57750E+000	10	...........
	4	0.066667	6.56655E-001	5.99371E-003	0.00000E+000	3.93580E-003	3.59960E-001	-1.12625E+000	3.57750E+000	10	...........
	5	0.08	6.63791E-001	5.99075E-003	0.00000E+000	3.97660E-003	3.59960E-001	-1.12987E+000	3.57750E+000	10	...........
	6	0.093333	6.70819E-001	5.99791E-003	0.00000E+000	4.02351E-003	3.59960E-001	-1.12164E+000	3.57750E+000	10	...........
	7	0.106667	6.77719E-001	5.99425E-003	0.00000E+000	4.06242E-003	3.59960E-001	-1.12632E+000	3.57750E+000	10	...........
	8	0.12	6.84511E-001	5.99263E-003	0.00000E+000	4.10202E-003	3.59960E-001	-1.13005E+000	3.57750E+000	10	...........
	9	0.133333	6.91290E-001	5.99811E-003	0.00000E+000	4.14643E-003	3.59960E-001	-1.12117E+000	3.57750E+000	10	...........
	10	0.146667	6.97995E-001	5.99771E-003	0.00000E+000	4.18637E-003	3.59960E-001	-1.12600E+000	3.57750E+000	10	...........
	11	0.16	7.04627E-001	5.99611E-003	0.00000E+000	4.22502E-003	3.59960E-001	-1.13004E+000	3.57750E+000	10	...........
	12	0.173333	7.11217E-001	5.99600E-003	0.00000E+000	4.26446E-003	3.59960E-001	-1.12135E+000	3.57750E+000	10	...........
	13	0.186667	7.17841E-001	5.99725E-003	0.00000E+000	4.30507E-003	3.59960E-001	-1.12593E+000	3.57750E+000	10	...........
	14	0.2	7.24368E-001	5.99424E-003	0.00000E+000	4.34204E-003	3.59960E-001	-1.12956E+000	3.57750E+000	10	...........
	15	0.213333	7.30848E-001	5.99450E-003	0.00000E+000	4.38107E-003	3.59960E-001	-1.12105E+000	3.57750E+000	10	...........
	16	0.226667	7.37278E-001	5.99278E-003	0.00000E+000	4.41835E-003	3.59960E-001	-1.12618E+000	3.57750E+000	10	...........
	17	0.24	7.43760E-001	5.99449E-003	0.00000E+000	4.45847E-003	3.59960E-001	-1.13005E+000	3.57750E+000	10	...........
	18	0.253333	7.50190E-001	5.99255E-003	0.00000E+000	4.49555E-003	3.59960E-001	-1.12093E+000	3.57750E+000	10	...........
	19	0.266667	7.56620E-001	5.99590E-003	0.00000E+000	4.53662E-003	3.59960E-001	-1.12567E+000	3.57750E+000	10	...........
	20	0.28	7.63021E-001	5.99532E-003	0.00000E+000	4.57456E-003	3.59960E-001	-1.12978E+000	3.57750E+000	10	...........
	21	0.293333	7.69401E-001	5.99899E-003	0.00000E+000	4.61563E-003	3.59960E-001	-1.12126E+000	3.57750E+000	10	...........
	22	0.306667	7.75807E-001	5.99633E-003	0.00000E+000	4.65199E-003	3.59960E-001	-1.12587E+000	3.57750E+000	10	...........
	23	0.32	7.82196E-001	5.99307E-003	0.00000E+000	4.68776E-003	3.59960E-001	-1.12956E+000	3.57750E+000	10	...........
	24	0.333333	7.88550E-001	5.98921E-003	0.00000E+000	4.72279E-003	3.59960E-001	-1.12074E+000	3.57750E+000	10	...........
	25	0.346667	7.94928E-001	5.99601E-003	0.00000E+000	4.76640E-003	3.59960E-001	-1.12560E+000	3.57750E+000	10	...........
	26	0.36	8.01249E-001	5.99246E-003	0.00000E+000	4.80145E-003	3.59960E-001	-1.12946E+000	3.57750E+000	10	...........
	27	0.373333	8.07542E-001	5.98900E-003	0.00000E+000	4.83637E-003	3.59960E-001	-1.12057E+000	3.57750E+000	10	...........
	28	0.386667	8.13879E-001	5.99587E-003	0.00000E+000	4.87991E-003	3.59960E-001	-1.12523E+000	3.57750E+000	10	...........
	29	0.4	8.20231E-001	5.99475E-003	0.00000E+000	4.91708E-003	3.59960E-001	-1.12927E+000	3.57750E+000	10	...........
	30	0.413333	8.26520E-001	5.99120E-003	0.00000E+000	4.95185E-003	3.59960E-001	-1.12064E+000	3.57750E+000	10	...........
	31	0.426667	8.32767E-001	5.99481E-003	0.00000E+000	4.99228E-003	3.59960E-001	-1.12548E+000	3.57750E+000	10	...........
	32	0.44	8.38997E-001	5.99427E-003	0.00000E+000	5.02918E-003	3.59960E-001	-1.12942E+000	3.57750E+000	10	...........
	33	0.453333	8.45254E-001	5.99353E-003	0.00000E+000	5.06606E-003	3.59960E-001	-1.12034E+000	3.57750E+000	10	...........
	34	0.466667	8.51468E-001	5.99404E-003	0.00000E+000	5.10373E-003	3.59960E-001	-1.12509E+000	3.57750E+000	10	...........
	35	0.48	8.57691E-001	5.99091E-003	0.00000E+000	5.13835E-003	3.59960E-001	-1.12929E+000	3.57750E+000	10	...........
	36	0.493333	8.63861E-001	5.99746E-003	0.00000E+000	5.18098E-003	3.59960E-001	-1.12059E+000	3.57750E+000	10	...........
	37	0.506667	8.70087E-001	5.99239E-003	0.00000E+000	5.21391E-003	3.59960E-001	-1.12529E+000	3.57750E+000	10	...........
	38	0.52	8.76237E-001	5.99361E-003	0.00000E+000	5.25183E-003	3.59960E-001	-1.12927E+000	3.57750E+000	10	...........
	39	0.533333	8.82396E-001	5.99263E-003	0.00000E+000	5.28787E-003	3.59960E-001	-1.12035E+000	3.57750E+000	10	...........
	40	0.546667	8.88491E-001	5.99750E-003	0.00000E+000	5.32873E-003	3.59960E-001	-1.12509E+000	3.57750E+000	10	...........
	41	0.56	8.94590E-001	5.99477E-003	0.00000E+000	5.36286E-003	3.59960E-001	-1.12951E+000	3.57750E+000	10	...........
	42	0.573333	9.00660E-001	5.99500E-003	0.00000E+000	5.39946E-003	3.59960E-001	-1.12049E+000	3.57750E+000	10	...........
	43	0.586667	9.06676E-001	5.99407E-003	0.00000E+000	5.43468E-003	3.59960E-001	-1.12539E+000	3.57750E+000	10	...........
	44	0.6	9.12689E-001	5.99953E-003	0.00000E+000	5.47570E-003	3.59960E-001	-1.12915E+000	3.57750E+000	10	...........
	45	0.613333	9.18694E-001	5.99190E-003	0.00000E+000	5.50473E-003	3.59960E-001	-1.12057E+000	3.57750E+000	10	...........
	46	0.626667	9.24672E-001	5.98984E-003	0.00000E+000	5.53864E-003	3.59960E-001	-1.12543E+000	3.57750E+000	10	...........
	47	0.64	9.30576E-001	5.99302E-003	0.00000E+000	5.57696E-003	3.59960E-001	-1.12962E+000	3.57750E+000	10	...........
	48	0.653333	9.36445E-001	5.99744E-003	0.00000E+000	5.61628E-003	3.59960E-001	-1.12073E+000	3.57750E+000	10	...........
	49	0.666667	9.42278E-001	5.99262E-003	0.00000E+000	5.64671E-003	3.59960E-001	-1.12501E+000	3.57750E+000	10	...........
	50	0.68	9.48126E-001	5.99483E-003	0.00000E+000	5.68386E-003	3.59960E-001	-1.12895E+000	3.57750E+000	10	...........
	51	0.693333	9.53924E-001	5.99743E-003	0.00000E+000	5.72110E-003	3.59960E-001	-1.12059E+000	3.57750E+000	10	...........
	52	0.706667	9.59682E-001	5.99740E-003	0.00000E+000	5.75559E-003	3.59960E-001	-1.12511E+000	3.57750E+000	10	...........
	53	0.72	9.65337E-001	5.99263E-003	0.00000E+000	5.78491E-003	3.59960E-001	-1.12917E+000	3.57750E+000	10	...........
	54	0.733333	9.71027E-001	5.99182E-003	0.00000E+000	5.81822E-003	3.59960E-001	-1.12008E+000	3.57750E+000	10	...........
	55	0.746667	9.76707E-001	5.99616E-003	0.00000E+000	5.85649E-003	3.59960E-001	-1.12499E+000	3.57750E+000	10	...........
	56	0.76	9.82227E-001	5.99059E-003	0.00000E+000	5.88412E-003	3.59960E-001	-1.12921E+000	3.57750E+000	10	...........
	57	0.773333	9.87758E-001	5.99466E-003	0.00000E+000	5.92127E-003	3.59960E-001	-1.12038E+000	3.57750E+000	10	...........
	58	0.786667	9.93210E-001	5.99263E-003	0.00000E+000	5.95194E-003	3.59960E-001	-1.12493E+000	3.57750E+000	10	...........
	59	0.798333	9.98385E-001	5.99347E-003	0.00000E+000	5.98379E-003	3.59960E-001	-1.12857E+000	3.57750E+000	10	...........
STARTTIMEOFFSET	QUANT	699.4934	Start Time Offset (s)