File: Data/CV_CRGO300517_1/PWRCCD_CRGO300517_1/CHARGE_DISCHARGE/CHARGE_#534.DTA
EXPLAIN
TAG	PWR800_CHARGE
TITLE	LABEL	PWR Cyclic Charge Discharge (Cell) - Charge Step	Test &Identifier
DATE	LABEL	22-6-2017	Date
TIME	LABEL	15:57:14	Time
NOTES	NOTES	3	&Notes...
	supercap test cell
	0.6mg
	6M KOH
PSTAT	PSTAT	IFC5000-01520	Potentiostat
CAPACITY	QUANT	1.00000E-003	Capacity (A-hr)
CELLTYPE	SELECTOR	1	&Cell Type
WORKINGCONNECTION	SELECTOR	0	&Working Lead
MAXCHARGETIME	VARIABLEANDUNITS	1.00000E+002	s	1.00000E+002	second(s)	Max &Charge Time
CHARGECURRENT	QUANT	6.00000E-003	&Charge Current (A)
VOLTAGEFINISH	TWOPARAM	F	1.00000E-003	3.60000E+003	&Voltage Finish	 I (A) < 	Max Time(s)
SAMPLETIME	QUANT	1.00000E-002	Sa&mple Period (s)
CHARGESTOPAT1	MULTIPARAM	4	1.00000E+000	Charge Stop At &1	Voltage > Limit	V
CHARGESTOPAT2	MULTIPARAM	0	0.00000E+000	Charge Stop At &2	None	N/A
AESBHCSELECTOR	TOGGLE	F	Save Both Half Cells
IRCOMP	TOGGLE	F	IR &Measure
EOC	QUANT	0	Open Circuit (V)
SEQUENCER	TOGGLE	TRUE	Run as Sequence
PSTATMODEL	IQUANT	53	Pstat Model
PSTATSECTION	LABEL	IFC5000-01520	Pstat Section
PSTATSERIALNO	LABEL	01520	Pstat Serial Number
CTRLMODE	IQUANT	0	Control Mode
ELECTROMETER	IQUANT	1	RE=0 or CS=1
IESTAB	IQUANT	0	I/E Stability
CASPEED	IQUANT	4	Control Amp Speed
CONVENTION	IQUANT	1	Current Convention
ICHRANGE	IQUANT	2	Ich Range
ICHRANGEMODE	TOGGLE	T	Ich Auto Range
ICHOFFSETENABLE	TOGGLE	F	Ich Offset Enable
ICHOFFSET	QUANT	0	Ich Offset (V)
ICHFILTER	IQUANT	1	Ich Filter
VCHRANGE	IQUANT	2	Vch Range
VCHRANGEMODE	TOGGLE	T	Vch Auto Range
VCHOFFSETENABLE	TOGGLE	F	Vch Offset Enable
VCHOFFSET	QUANT	0	Vch Offset (V)
VCHFILTER	IQUANT	1	Vch Filter
IERANGELOWERLIMIT	IQUANT	9	I/E Range Lower Limit
IERANGEMODE	TOGGLE	F	I/E AutoRange
IERANGE	IQUANT	10	I/E Range
ACHSELECT	IQUANT	1	Ach Select
ACHRANGE	IQUANT	2	Ach Range
ACHOFFSETENABLE	TOGGLE	F	Ach Offset Enable
ACHOFFSET	QUANT	0	Ach Offset (V)
ACHFILTER	IQUANT	1	Ach Filter
CABLEID	IQUANT	14	Cable ID
DCCALDATE	LABEL	20-10-2016	DC Calibration Date
ACCALDATE	LABEL	12/3/2015	AC Calibration Date
FRAMEWORKVERSION	QUANT	7.01	Framework Version
INSTRUMENTVERSION	LABEL	4.00	Instrument Version
CURVE	TABLE	58
	Pt	T	Vf	Im	Vu	Pwr	Sig	Ach	Temp	IERange	Over
	#	s	V	A	V	W	V	V	deg C	#	bits
	0	0.013333	6.33726E-001	5.99500E-003	0.00000E+000	3.79919E-003	3.59960E-001	-1.13292E+000	3.57770E+000	10	...........
	1	0.026667	6.42711E-001	5.99120E-003	0.00000E+000	3.85061E-003	3.59960E-001	-1.14345E+000	3.57770E+000	10	...........
	2	0.04	6.50909E-001	5.99319E-003	0.00000E+000	3.90102E-003	3.59960E-001	-1.13764E+000	3.57770E+000	10	...........
	3	0.053333	6.58707E-001	5.98944E-003	0.00000E+000	3.94528E-003	3.59960E-001	-1.13361E+000	3.57770E+000	10	...........
	4	0.066667	6.66211E-001	6.00097E-003	0.00000E+000	3.99791E-003	3.59960E-001	-1.14395E+000	3.57770E+000	10	...........
	5	0.08	6.73457E-001	5.98882E-003	0.00000E+000	4.03321E-003	3.59960E-001	-1.13741E+000	3.57770E+000	10	...........
	6	0.093333	6.80628E-001	5.99337E-003	0.00000E+000	4.07926E-003	3.59960E-001	-1.13375E+000	3.57770E+000	10	...........
	7	0.106667	6.87686E-001	5.99378E-003	0.00000E+000	4.12184E-003	3.59960E-001	-1.14420E+000	3.57770E+000	10	...........
	8	0.12	6.94640E-001	5.99276E-003	0.00000E+000	4.16281E-003	3.59960E-001	-1.13747E+000	3.57770E+000	10	...........
	9	0.133333	7.01530E-001	5.99640E-003	0.00000E+000	4.20665E-003	3.59960E-001	-1.13344E+000	3.57770E+000	10	...........
	10	0.146667	7.08334E-001	5.99334E-003	0.00000E+000	4.24529E-003	3.59960E-001	-1.14367E+000	3.57770E+000	10	...........
	11	0.16	7.15102E-001	5.99365E-003	0.00000E+000	4.28607E-003	3.59960E-001	-1.13669E+000	3.57770E+000	10	...........
	12	0.173333	7.21892E-001	5.99349E-003	0.00000E+000	4.32665E-003	3.59960E-001	-1.13311E+000	3.57770E+000	10	...........
	13	0.186667	7.28566E-001	5.99659E-003	0.00000E+000	4.36891E-003	3.59960E-001	-1.14377E+000	3.57770E+000	10	...........
	14	0.2	7.35197E-001	5.99543E-003	0.00000E+000	4.40782E-003	3.59960E-001	-1.13656E+000	3.57770E+000	10	...........
	15	0.213333	7.41895E-001	5.99478E-003	0.00000E+000	4.44750E-003	3.59960E-001	-1.13306E+000	3.57770E+000	10	...........
	16	0.226667	7.48514E-001	5.98774E-003	0.00000E+000	4.48191E-003	3.59960E-001	-1.14413E+000	3.57770E+000	10	...........
	17	0.24	7.55128E-001	5.99690E-003	0.00000E+000	4.52843E-003	3.59960E-001	-1.13699E+000	3.57770E+000	10	...........
	18	0.253333	7.61667E-001	5.99177E-003	0.00000E+000	4.56373E-003	3.59960E-001	-1.13315E+000	3.57770E+000	10	...........
	19	0.266667	7.68268E-001	5.99470E-003	0.00000E+000	4.60554E-003	3.59960E-001	-1.14383E+000	3.57770E+000	10	...........
	20	0.28	7.74782E-001	5.99746E-003	0.00000E+000	4.64673E-003	3.59960E-001	-1.13691E+000	3.57770E+000	10	...........
	21	0.293333	7.81268E-001	5.99175E-003	0.00000E+000	4.68116E-003	3.59960E-001	-1.13342E+000	3.57770E+000	10	...........
	22	0.306667	7.87776E-001	5.99506E-003	0.00000E+000	4.72276E-003	3.59960E-001	-1.14394E+000	3.57770E+000	10	...........
	23	0.32	7.94229E-001	5.99376E-003	0.00000E+000	4.76042E-003	3.59960E-001	-1.13632E+000	3.57770E+000	10	...........
	24	0.333333	8.00698E-001	5.99626E-003	0.00000E+000	4.80120E-003	3.59960E-001	-1.13292E+000	3.57770E+000	10	...........
	25	0.346667	8.07120E-001	5.99637E-003	0.00000E+000	4.83979E-003	3.59960E-001	-1.14392E+000	3.57770E+000	10	...........
	26	0.36	8.13578E-001	5.99362E-003	0.00000E+000	4.87628E-003	3.59960E-001	-1.13644E+000	3.57770E+000	10	...........
	27	0.373333	8.20026E-001	5.99517E-003	0.00000E+000	4.91619E-003	3.59960E-001	-1.13334E+000	3.57770E+000	10	...........
	28	0.386667	8.26434E-001	5.99536E-003	0.00000E+000	4.95476E-003	3.59960E-001	-1.14419E+000	3.57770E+000	10	...........
	29	0.4	8.32810E-001	5.99507E-003	0.00000E+000	4.99276E-003	3.59960E-001	-1.13657E+000	3.57770E+000	10	...........
	30	0.413333	8.39108E-001	5.99563E-003	0.00000E+000	5.03098E-003	3.59960E-001	-1.13364E+000	3.57770E+000	10	...........
	31	0.426667	8.45477E-001	5.99306E-003	0.00000E+000	5.06699E-003	3.59960E-001	-1.14430E+000	3.57770E+000	10	...........
	32	0.44	8.51792E-001	5.99555E-003	0.00000E+000	5.10696E-003	3.59960E-001	-1.13641E+000	3.57770E+000	10	...........
	33	0.453333	8.58118E-001	5.99666E-003	0.00000E+000	5.14584E-003	3.59960E-001	-1.13320E+000	3.57770E+000	10	...........
	34	0.466667	8.64409E-001	5.99454E-003	0.00000E+000	5.18174E-003	3.59960E-001	-1.14368E+000	3.57770E+000	10	...........
	35	0.48	8.70691E-001	5.98990E-003	0.00000E+000	5.21535E-003	3.59960E-001	-1.13589E+000	3.57770E+000	10	...........
	36	0.493333	8.76932E-001	5.99786E-003	0.00000E+000	5.25972E-003	3.59960E-001	-1.13287E+000	3.57770E+000	10	...........
	37	0.506667	8.83136E-001	5.99366E-003	0.00000E+000	5.29321E-003	3.59960E-001	-1.14390E+000	3.57770E+000	10	...........
	38	0.52	8.89354E-001	5.99382E-003	0.00000E+000	5.33063E-003	3.59960E-001	-1.13576E+000	3.57770E+000	10	...........
	39	0.533333	8.95509E-001	6.00014E-003	0.00000E+000	5.37318E-003	3.59960E-001	-1.13285E+000	3.57770E+000	10	...........
	40	0.546667	9.01669E-001	5.99434E-003	0.00000E+000	5.40491E-003	3.59960E-001	-1.14391E+000	3.57770E+000	10	...........
	41	0.56	9.07766E-001	5.99313E-003	0.00000E+000	5.44036E-003	3.59960E-001	-1.13596E+000	3.57770E+000	10	...........
	42	0.573333	9.13810E-001	5.99307E-003	0.00000E+000	5.47653E-003	3.59960E-001	-1.13325E+000	3.57770E+000	10	...........
	43	0.586667	9.19877E-001	5.99834E-003	0.00000E+000	5.51773E-003	3.59960E-001	-1.14399E+000	3.57770E+000	10	...........
	44	0.6	9.25909E-001	5.99632E-003	0.00000E+000	5.55204E-003	3.59960E-001	-1.13584E+000	3.57770E+000	10	...........
	45	0.613333	9.31921E-001	5.99295E-003	0.00000E+000	5.58496E-003	3.59960E-001	-1.13326E+000	3.57770E+000	10	...........
	46	0.626667	9.37833E-001	5.98797E-003	0.00000E+000	5.61572E-003	3.59960E-001	-1.14412E+000	3.57770E+000	10	...........
	47	0.64	9.43752E-001	5.99402E-003	0.00000E+000	5.65687E-003	3.59960E-001	-1.13576E+000	3.57770E+000	10	...........
	48	0.653333	9.49648E-001	5.99087E-003	0.00000E+000	5.68922E-003	3.59960E-001	-1.13306E+000	3.57770E+000	10	...........
	49	0.666667	9.55449E-001	5.99274E-003	0.00000E+000	5.72575E-003	3.59960E-001	-1.14403E+000	3.57770E+000	10	...........
	50	0.68	9.61256E-001	5.99215E-003	0.00000E+000	5.75999E-003	3.59960E-001	-1.13591E+000	3.57770E+000	10	...........
	51	0.693333	9.67027E-001	5.99270E-003	0.00000E+000	5.79510E-003	3.59960E-001	-1.13326E+000	3.57770E+000	10	...........
	52	0.706667	9.72741E-001	5.99598E-003	0.00000E+000	5.83254E-003	3.59960E-001	-1.14433E+000	3.57770E+000	10	...........
	53	0.72	9.78440E-001	5.99099E-003	0.00000E+000	5.86182E-003	3.59960E-001	-1.13571E+000	3.57770E+000	10	...........
	54	0.733333	9.84052E-001	5.99393E-003	0.00000E+000	5.89833E-003	3.59960E-001	-1.13332E+000	3.57770E+000	10	...........
	55	0.746667	9.89630E-001	5.99626E-003	0.00000E+000	5.93408E-003	3.59960E-001	-1.14441E+000	3.57770E+000	10	...........
	56	0.76	9.95120E-001	5.99231E-003	0.00000E+000	5.96307E-003	3.59960E-001	-1.13595E+000	3.57770E+000	10	...........
	57	0.766667	9.99211E-001	5.99246E-003	0.00000E+000	5.98773E-003	3.59960E-001	-1.14219E+000	3.57770E+000	10	...........
STARTTIMEOFFSET	QUANT	911.1533	Start Time Offset (s)