File: Data/CV_CRGO300517_1/PWRCCD_CRGO300517_1/CHARGE_DISCHARGE/CHARGE_#357.DTA
EXPLAIN
TAG	PWR800_CHARGE
TITLE	LABEL	PWR Cyclic Charge Discharge (Cell) - Charge Step	Test &Identifier
DATE	LABEL	22-6-2017	Date
TIME	LABEL	15:50:15	Time
NOTES	NOTES	3	&Notes...
	supercap test cell
	0.6mg
	6M KOH
PSTAT	PSTAT	IFC5000-01520	Potentiostat
CAPACITY	QUANT	1.00000E-003	Capacity (A-hr)
CELLTYPE	SELECTOR	1	&Cell Type
WORKINGCONNECTION	SELECTOR	0	&Working Lead
MAXCHARGETIME	VARIABLEANDUNITS	1.00000E+002	s	1.00000E+002	second(s)	Max &Charge Time
CHARGECURRENT	QUANT	6.00000E-003	&Charge Current (A)
VOLTAGEFINISH	TWOPARAM	F	1.00000E-003	3.60000E+003	&Voltage Finish	 I (A) < 	Max Time(s)
SAMPLETIME	QUANT	1.00000E-002	Sa&mple Period (s)
CHARGESTOPAT1	MULTIPARAM	4	1.00000E+000	Charge Stop At &1	Voltage > Limit	V
CHARGESTOPAT2	MULTIPARAM	0	0.00000E+000	Charge Stop At &2	None	N/A
AESBHCSELECTOR	TOGGLE	F	Save Both Half Cells
IRCOMP	TOGGLE	F	IR &Measure
EOC	QUANT	0	Open Circuit (V)
SEQUENCER	TOGGLE	TRUE	Run as Sequence
PSTATMODEL	IQUANT	53	Pstat Model
PSTATSECTION	LABEL	IFC5000-01520	Pstat Section
PSTATSERIALNO	LABEL	01520	Pstat Serial Number
CTRLMODE	IQUANT	0	Control Mode
ELECTROMETER	IQUANT	1	RE=0 or CS=1
IESTAB	IQUANT	0	I/E Stability
CASPEED	IQUANT	4	Control Amp Speed
CONVENTION	IQUANT	1	Current Convention
ICHRANGE	IQUANT	2	Ich Range
ICHRANGEMODE	TOGGLE	T	Ich Auto Range
ICHOFFSETENABLE	TOGGLE	F	Ich Offset Enable
ICHOFFSET	QUANT	0	Ich Offset (V)
ICHFILTER	IQUANT	1	Ich Filter
VCHRANGE	IQUANT	2	Vch Range
VCHRANGEMODE	TOGGLE	T	Vch Auto Range
VCHOFFSETENABLE	TOGGLE	F	Vch Offset Enable
VCHOFFSET	QUANT	0	Vch Offset (V)
VCHFILTER	IQUANT	1	Vch Filter
IERANGELOWERLIMIT	IQUANT	9	I/E Range Lower Limit
IERANGEMODE	TOGGLE	F	I/E AutoRange
IERANGE	IQUANT	10	I/E Range
ACHSELECT	IQUANT	1	Ach Select
ACHRANGE	IQUANT	2	Ach Range
ACHOFFSETENABLE	TOGGLE	F	Ach Offset Enable
ACHOFFSET	QUANT	0	Ach Offset (V)
ACHFILTER	IQUANT	1	Ach Filter
CABLEID	IQUANT	14	Cable ID
DCCALDATE	LABEL	20-10-2016	DC Calibration Date
ACCALDATE	LABEL	12/3/2015	AC Calibration Date
FRAMEWORKVERSION	QUANT	7.01	Framework Version
INSTRUMENTVERSION	LABEL	4.00	Instrument Version
CURVE	TABLE	61
	Pt	T	Vf	Im	Vu	Pwr	Sig	Ach	Temp	IERange	Over
	#	s	V	A	V	W	V	V	deg C	#	bits
	0	0.013333	6.21679E-001	5.99355E-003	0.00000E+000	3.72607E-003	3.59960E-001	-1.11918E+000	3.57800E+000	10	...........
	1	0.026667	6.30390E-001	5.99979E-003	0.00000E+000	3.78221E-003	3.59960E-001	-1.13060E+000	3.57800E+000	10	...........
	2	0.04	6.38403E-001	5.99665E-003	0.00000E+000	3.82828E-003	3.59960E-001	-1.12178E+000	3.57800E+000	10	...........
	3	0.053333	6.46018E-001	5.99391E-003	0.00000E+000	3.87217E-003	3.59960E-001	-1.11863E+000	3.57800E+000	10	...........
	4	0.066667	6.53310E-001	5.99512E-003	0.00000E+000	3.91667E-003	3.59960E-001	-1.13015E+000	3.57800E+000	10	...........
	5	0.08	6.60430E-001	5.99447E-003	0.00000E+000	3.95893E-003	3.59960E-001	-1.12190E+000	3.57800E+000	10	...........
	6	0.093333	6.67451E-001	5.98972E-003	0.00000E+000	3.99785E-003	3.59960E-001	-1.11846E+000	3.57800E+000	10	...........
	7	0.106667	6.74287E-001	5.99338E-003	0.00000E+000	4.04126E-003	3.59960E-001	-1.12977E+000	3.57800E+000	10	...........
	8	0.12	6.81076E-001	5.99577E-003	0.00000E+000	4.08358E-003	3.59960E-001	-1.12156E+000	3.57800E+000	10	...........
	9	0.133333	6.87777E-001	5.99868E-003	0.00000E+000	4.12576E-003	3.59960E-001	-1.11850E+000	3.57800E+000	10	...........
	10	0.146667	6.94445E-001	5.99661E-003	0.00000E+000	4.16431E-003	3.59960E-001	-1.12971E+000	3.57800E+000	10	...........
	11	0.16	7.01020E-001	5.99481E-003	0.00000E+000	4.20248E-003	3.59960E-001	-1.12186E+000	3.57800E+000	10	...........
	12	0.173333	7.07531E-001	5.99432E-003	0.00000E+000	4.24117E-003	3.59960E-001	-1.11831E+000	3.57800E+000	10	...........
	13	0.186667	7.14057E-001	5.99404E-003	0.00000E+000	4.28009E-003	3.59960E-001	-1.12948E+000	3.57800E+000	10	...........
	14	0.2	7.20623E-001	5.99443E-003	0.00000E+000	4.31972E-003	3.59960E-001	-1.12186E+000	3.57800E+000	10	...........
	15	0.213333	7.27076E-001	5.99568E-003	0.00000E+000	4.35931E-003	3.59960E-001	-1.11828E+000	3.57800E+000	10	...........
	16	0.226667	7.33483E-001	5.99128E-003	0.00000E+000	4.39450E-003	3.59960E-001	-1.12912E+000	3.57800E+000	10	...........
	17	0.24	7.39950E-001	5.99671E-003	0.00000E+000	4.43727E-003	3.59960E-001	-1.12191E+000	3.57800E+000	10	...........
	18	0.253333	7.46343E-001	5.99794E-003	0.00000E+000	4.47652E-003	3.59960E-001	-1.11804E+000	3.57800E+000	10	...........
	19	0.266667	7.52735E-001	5.99230E-003	0.00000E+000	4.51061E-003	3.59960E-001	-1.12931E+000	3.57800E+000	10	...........
	20	0.28	7.59107E-001	5.99288E-003	0.00000E+000	4.54924E-003	3.59960E-001	-1.12215E+000	3.57800E+000	10	...........
	21	0.293333	7.65435E-001	5.99110E-003	0.00000E+000	4.58580E-003	3.59960E-001	-1.11841E+000	3.57800E+000	10	...........
	22	0.306667	7.71812E-001	5.99347E-003	0.00000E+000	4.62583E-003	3.59960E-001	-1.12928E+000	3.57800E+000	10	...........
	23	0.32	7.78157E-001	5.99452E-003	0.00000E+000	4.66468E-003	3.59960E-001	-1.12200E+000	3.57800E+000	10	...........
	24	0.333333	7.84471E-001	5.99393E-003	0.00000E+000	4.70206E-003	3.59960E-001	-1.11804E+000	3.57800E+000	10	...........
	25	0.346667	7.90777E-001	5.99385E-003	0.00000E+000	4.73980E-003	3.59960E-001	-1.12896E+000	3.57800E+000	10	...........
	26	0.36	7.97126E-001	5.99370E-003	0.00000E+000	4.77774E-003	3.59960E-001	-1.12194E+000	3.57800E+000	10	...........
	27	0.373333	8.03390E-001	5.99631E-003	0.00000E+000	4.81737E-003	3.59960E-001	-1.11767E+000	3.57800E+000	10	...........
	28	0.386667	8.09622E-001	5.99144E-003	0.00000E+000	4.85081E-003	3.59960E-001	-1.12833E+000	3.57800E+000	10	...........
	29	0.4	8.15912E-001	5.99197E-003	0.00000E+000	4.88892E-003	3.59960E-001	-1.12140E+000	3.57800E+000	10	...........
	30	0.413333	8.22172E-001	5.99647E-003	0.00000E+000	4.93013E-003	3.59960E-001	-1.11735E+000	3.57800E+000	10	...........
	31	0.426667	8.28388E-001	5.99679E-003	0.00000E+000	4.96766E-003	3.59960E-001	-1.12829E+000	3.57800E+000	10	...........
	32	0.44	8.34623E-001	5.99348E-003	0.00000E+000	5.00229E-003	3.59960E-001	-1.12160E+000	3.57800E+000	10	...........
	33	0.453333	8.40814E-001	5.99912E-003	0.00000E+000	5.04414E-003	3.59960E-001	-1.11716E+000	3.57800E+000	10	...........
	34	0.466667	8.47046E-001	5.99133E-003	0.00000E+000	5.07493E-003	3.59960E-001	-1.12782E+000	3.57723E+000	10	...........
	35	0.48	8.53242E-001	6.00151E-003	0.00000E+000	5.12074E-003	3.59960E-001	-1.12186E+000	3.57680E+000	10	...........
	36	0.493333	8.59419E-001	5.99192E-003	0.00000E+000	5.14958E-003	3.59960E-001	-1.11735E+000	3.57680E+000	10	...........
	37	0.506667	8.65577E-001	5.99416E-003	0.00000E+000	5.18840E-003	3.59960E-001	-1.12771E+000	3.57680E+000	10	...........
	38	0.52	8.71787E-001	5.99706E-003	0.00000E+000	5.22815E-003	3.59960E-001	-1.12156E+000	3.57680E+000	10	...........
	39	0.533333	8.77874E-001	5.99117E-003	0.00000E+000	5.25949E-003	3.59960E-001	-1.11712E+000	3.57680E+000	10	...........
	40	0.546667	8.83959E-001	5.98961E-003	0.00000E+000	5.29457E-003	3.59960E-001	-1.12757E+000	3.57680E+000	10	...........
	41	0.56	8.90050E-001	5.99370E-003	0.00000E+000	5.33469E-003	3.59960E-001	-1.12197E+000	3.57680E+000	10	...........
	42	0.573333	8.96119E-001	5.99837E-003	0.00000E+000	5.37526E-003	3.59960E-001	-1.11720E+000	3.57680E+000	10	...........
	43	0.586667	9.02160E-001	5.99314E-003	0.00000E+000	5.40678E-003	3.59960E-001	-1.12749E+000	3.57680E+000	10	...........
	44	0.6	9.08132E-001	5.99222E-003	0.00000E+000	5.44173E-003	3.59960E-001	-1.12208E+000	3.57680E+000	10	...........
	45	0.613333	9.14126E-001	5.99724E-003	0.00000E+000	5.48224E-003	3.59960E-001	-1.11734E+000	3.57680E+000	10	...........
	46	0.626667	9.20133E-001	5.99376E-003	0.00000E+000	5.51506E-003	3.59960E-001	-1.12752E+000	3.57680E+000	10	...........
	47	0.64	9.26067E-001	5.99333E-003	0.00000E+000	5.55023E-003	3.59960E-001	-1.12200E+000	3.57680E+000	10	...........
	48	0.653333	9.32005E-001	6.00291E-003	0.00000E+000	5.59474E-003	3.59960E-001	-1.11704E+000	3.57680E+000	10	...........
	49	0.666667	9.37825E-001	5.99930E-003	0.00000E+000	5.62629E-003	3.59960E-001	-1.12719E+000	3.57680E+000	10	...........
	50	0.68	9.43607E-001	5.98846E-003	0.00000E+000	5.65075E-003	3.59960E-001	-1.12187E+000	3.57680E+000	10	...........
	51	0.693333	9.49428E-001	5.99104E-003	0.00000E+000	5.68806E-003	3.59960E-001	-1.11691E+000	3.57680E+000	10	...........
	52	0.706667	9.55191E-001	5.99518E-003	0.00000E+000	5.72654E-003	3.59960E-001	-1.12685E+000	3.57680E+000	10	...........
	53	0.72	9.60902E-001	5.99019E-003	0.00000E+000	5.75599E-003	3.59960E-001	-1.12186E+000	3.57680E+000	10	...........
	54	0.733333	9.66579E-001	6.00003E-003	0.00000E+000	5.79950E-003	3.59960E-001	-1.11670E+000	3.57680E+000	10	...........
	55	0.746667	9.72182E-001	6.00045E-003	0.00000E+000	5.83353E-003	3.59960E-001	-1.12692E+000	3.57680E+000	10	...........
	56	0.76	9.77808E-001	5.99643E-003	0.00000E+000	5.86336E-003	3.59960E-001	-1.12221E+000	3.57680E+000	10	...........
	57	0.773333	9.83365E-001	6.00243E-003	0.00000E+000	5.90258E-003	3.59960E-001	-1.11696E+000	3.57680E+000	10	...........
	58	0.786667	9.88850E-001	5.99367E-003	0.00000E+000	5.92684E-003	3.59960E-001	-1.12650E+000	3.57680E+000	10	...........
	59	0.8	9.94342E-001	5.99523E-003	0.00000E+000	5.96131E-003	3.59960E-001	-1.12221E+000	3.57680E+000	10	...........
	60	0.808333	9.98752E-001	5.99646E-003	0.00000E+000	5.98898E-003	3.59960E-001	-1.11780E+000	3.57680E+000	10	...........
STARTTIMEOFFSET	QUANT	633.9431	Start Time Offset (s)