File: Data/CV_CRGO300517_1/PWRCCD_CRGO300517_1/CHARGE_DISCHARGE/CHARGE_#515.DTA
EXPLAIN
TAG	PWR800_CHARGE
TITLE	LABEL	PWR Cyclic Charge Discharge (Cell) - Charge Step	Test &Identifier
DATE	LABEL	22-6-2017	Date
TIME	LABEL	15:56:30	Time
NOTES	NOTES	3	&Notes...
	supercap test cell
	0.6mg
	6M KOH
PSTAT	PSTAT	IFC5000-01520	Potentiostat
CAPACITY	QUANT	1.00000E-003	Capacity (A-hr)
CELLTYPE	SELECTOR	1	&Cell Type
WORKINGCONNECTION	SELECTOR	0	&Working Lead
MAXCHARGETIME	VARIABLEANDUNITS	1.00000E+002	s	1.00000E+002	second(s)	Max &Charge Time
CHARGECURRENT	QUANT	6.00000E-003	&Charge Current (A)
VOLTAGEFINISH	TWOPARAM	F	1.00000E-003	3.60000E+003	&Voltage Finish	 I (A) < 	Max Time(s)
SAMPLETIME	QUANT	1.00000E-002	Sa&mple Period (s)
CHARGESTOPAT1	MULTIPARAM	4	1.00000E+000	Charge Stop At &1	Voltage > Limit	V
CHARGESTOPAT2	MULTIPARAM	0	0.00000E+000	Charge Stop At &2	None	N/A
AESBHCSELECTOR	TOGGLE	F	Save Both Half Cells
IRCOMP	TOGGLE	F	IR &Measure
EOC	QUANT	0	Open Circuit (V)
SEQUENCER	TOGGLE	TRUE	Run as Sequence
PSTATMODEL	IQUANT	53	Pstat Model
PSTATSECTION	LABEL	IFC5000-01520	Pstat Section
PSTATSERIALNO	LABEL	01520	Pstat Serial Number
CTRLMODE	IQUANT	0	Control Mode
ELECTROMETER	IQUANT	1	RE=0 or CS=1
IESTAB	IQUANT	0	I/E Stability
CASPEED	IQUANT	4	Control Amp Speed
CONVENTION	IQUANT	1	Current Convention
ICHRANGE	IQUANT	2	Ich Range
ICHRANGEMODE	TOGGLE	T	Ich Auto Range
ICHOFFSETENABLE	TOGGLE	F	Ich Offset Enable
ICHOFFSET	QUANT	0	Ich Offset (V)
ICHFILTER	IQUANT	1	Ich Filter
VCHRANGE	IQUANT	2	Vch Range
VCHRANGEMODE	TOGGLE	T	Vch Auto Range
VCHOFFSETENABLE	TOGGLE	F	Vch Offset Enable
VCHOFFSET	QUANT	0	Vch Offset (V)
VCHFILTER	IQUANT	1	Vch Filter
IERANGELOWERLIMIT	IQUANT	9	I/E Range Lower Limit
IERANGEMODE	TOGGLE	F	I/E AutoRange
IERANGE	IQUANT	10	I/E Range
ACHSELECT	IQUANT	1	Ach Select
ACHRANGE	IQUANT	2	Ach Range
ACHOFFSETENABLE	TOGGLE	F	Ach Offset Enable
ACHOFFSET	QUANT	0	Ach Offset (V)
ACHFILTER	IQUANT	1	Ach Filter
CABLEID	IQUANT	14	Cable ID
DCCALDATE	LABEL	20-10-2016	DC Calibration Date
ACCALDATE	LABEL	12/3/2015	AC Calibration Date
FRAMEWORKVERSION	QUANT	7.01	Framework Version
INSTRUMENTVERSION	LABEL	4.00	Instrument Version
CURVE	TABLE	58
	Pt	T	Vf	Im	Vu	Pwr	Sig	Ach	Temp	IERange	Over
	#	s	V	A	V	W	V	V	deg C	#	bits
	0	0.013333	6.32980E-001	5.99084E-003	0.00000E+000	3.79208E-003	3.59960E-001	-1.12456E+000	3.57750E+000	10	...........
	1	0.026667	6.41894E-001	5.99287E-003	0.00000E+000	3.84679E-003	3.59960E-001	-1.13554E+000	3.57750E+000	10	...........
	2	0.04	6.50058E-001	5.99561E-003	0.00000E+000	3.89749E-003	3.59960E-001	-1.12772E+000	3.57750E+000	10	...........
	3	0.053333	6.57814E-001	5.99344E-003	0.00000E+000	3.94257E-003	3.59960E-001	-1.12491E+000	3.57750E+000	10	...........
	4	0.066667	6.65251E-001	5.99504E-003	0.00000E+000	3.98821E-003	3.59960E-001	-1.13581E+000	3.57750E+000	10	...........
	5	0.08	6.72569E-001	5.99375E-003	0.00000E+000	4.03121E-003	3.59960E-001	-1.12797E+000	3.57750E+000	10	...........
	6	0.093333	6.79704E-001	5.99373E-003	0.00000E+000	4.07396E-003	3.59960E-001	-1.12535E+000	3.57750E+000	10	...........
	7	0.106667	6.86689E-001	5.99203E-003	0.00000E+000	4.11466E-003	3.59960E-001	-1.13619E+000	3.57750E+000	10	...........
	8	0.12	6.93633E-001	5.99816E-003	0.00000E+000	4.16052E-003	3.59960E-001	-1.12836E+000	3.57750E+000	10	...........
	9	0.133333	7.00517E-001	5.99394E-003	0.00000E+000	4.19886E-003	3.59960E-001	-1.12566E+000	3.57750E+000	10	...........
	10	0.146667	7.07291E-001	5.99204E-003	0.00000E+000	4.23811E-003	3.59960E-001	-1.13682E+000	3.57750E+000	10	...........
	11	0.16	7.14047E-001	5.99536E-003	0.00000E+000	4.28097E-003	3.59960E-001	-1.12839E+000	3.57750E+000	10	...........
	12	0.173333	7.20823E-001	5.98884E-003	0.00000E+000	4.31689E-003	3.59960E-001	-1.12578E+000	3.57750E+000	10	...........
	13	0.186667	7.27476E-001	5.99801E-003	0.00000E+000	4.36340E-003	3.59960E-001	-1.13694E+000	3.57750E+000	10	...........
	14	0.2	7.34108E-001	5.99462E-003	0.00000E+000	4.40070E-003	3.59960E-001	-1.12831E+000	3.57750E+000	10	...........
	15	0.213333	7.40709E-001	5.99386E-003	0.00000E+000	4.43971E-003	3.59960E-001	-1.12579E+000	3.57750E+000	10	...........
	16	0.226667	7.47294E-001	5.99719E-003	0.00000E+000	4.48167E-003	3.59960E-001	-1.13694E+000	3.57750E+000	10	...........
	17	0.24	7.53864E-001	5.99555E-003	0.00000E+000	4.51983E-003	3.59960E-001	-1.12856E+000	3.57750E+000	10	...........
	18	0.253333	7.60408E-001	5.99296E-003	0.00000E+000	4.55709E-003	3.59960E-001	-1.12609E+000	3.57750E+000	10	...........
	19	0.266667	7.66944E-001	5.99140E-003	0.00000E+000	4.59507E-003	3.59960E-001	-1.13716E+000	3.57750E+000	10	...........
	20	0.28	7.73479E-001	5.99086E-003	0.00000E+000	4.63380E-003	3.59960E-001	-1.12888E+000	3.57750E+000	10	...........
	21	0.293333	7.79959E-001	5.99476E-003	0.00000E+000	4.67567E-003	3.59960E-001	-1.12638E+000	3.57750E+000	10	...........
	22	0.306667	7.86455E-001	5.99135E-003	0.00000E+000	4.71193E-003	3.59960E-001	-1.13727E+000	3.57750E+000	10	...........
	23	0.32	7.92901E-001	5.99216E-003	0.00000E+000	4.75119E-003	3.59960E-001	-1.12904E+000	3.57750E+000	10	...........
	24	0.333333	7.99386E-001	5.98994E-003	0.00000E+000	4.78828E-003	3.59960E-001	-1.12668E+000	3.57750E+000	10	...........
	25	0.346667	8.05812E-001	5.99773E-003	0.00000E+000	4.83305E-003	3.59960E-001	-1.13785E+000	3.57750E+000	10	...........
	26	0.36	8.12205E-001	5.99466E-003	0.00000E+000	4.86889E-003	3.59960E-001	-1.12933E+000	3.57750E+000	10	...........
	27	0.373333	8.18651E-001	5.99584E-003	0.00000E+000	4.90850E-003	3.59960E-001	-1.12665E+000	3.57750E+000	10	...........
	28	0.386667	8.25009E-001	5.99415E-003	0.00000E+000	4.94523E-003	3.59960E-001	-1.13794E+000	3.57750E+000	10	...........
	29	0.4	8.31378E-001	5.99534E-003	0.00000E+000	4.98439E-003	3.59960E-001	-1.12944E+000	3.57750E+000	10	...........
	30	0.413333	8.37738E-001	5.99281E-003	0.00000E+000	5.02040E-003	3.59960E-001	-1.12714E+000	3.57750E+000	10	...........
	31	0.426667	8.44048E-001	5.99695E-003	0.00000E+000	5.06171E-003	3.59960E-001	-1.13820E+000	3.57750E+000	10	...........
	32	0.44	8.50409E-001	5.99615E-003	0.00000E+000	5.09918E-003	3.59960E-001	-1.12978E+000	3.57750E+000	10	...........
	33	0.453333	8.56651E-001	5.99172E-003	0.00000E+000	5.13281E-003	3.59960E-001	-1.12733E+000	3.57750E+000	10	...........
	34	0.466667	8.62928E-001	5.99264E-003	0.00000E+000	5.17122E-003	3.59960E-001	-1.13841E+000	3.57750E+000	10	...........
	35	0.48	8.69213E-001	5.99250E-003	0.00000E+000	5.20876E-003	3.59960E-001	-1.12992E+000	3.57750E+000	10	...........
	36	0.493333	8.75410E-001	5.99260E-003	0.00000E+000	5.24599E-003	3.59960E-001	-1.12782E+000	3.57750E+000	10	...........
	37	0.506667	8.81610E-001	5.99356E-003	0.00000E+000	5.28399E-003	3.59960E-001	-1.13855E+000	3.57750E+000	10	...........
	38	0.52	8.87789E-001	5.99810E-003	0.00000E+000	5.32504E-003	3.59960E-001	-1.12956E+000	3.57750E+000	10	...........
	39	0.533333	8.93957E-001	5.99312E-003	0.00000E+000	5.35760E-003	3.59960E-001	-1.12747E+000	3.57750E+000	10	...........
	40	0.546667	9.00126E-001	5.99341E-003	0.00000E+000	5.39482E-003	3.59960E-001	-1.13831E+000	3.57750E+000	10	...........
	41	0.56	9.06221E-001	5.99855E-003	0.00000E+000	5.43601E-003	3.59960E-001	-1.12979E+000	3.57750E+000	10	...........
	42	0.573333	9.12279E-001	5.99560E-003	0.00000E+000	5.46966E-003	3.59960E-001	-1.12770E+000	3.57750E+000	10	...........
	43	0.586667	9.18355E-001	5.99444E-003	0.00000E+000	5.50502E-003	3.59960E-001	-1.13842E+000	3.57750E+000	10	...........
	44	0.6	9.24404E-001	5.99608E-003	0.00000E+000	5.54279E-003	3.59960E-001	-1.12981E+000	3.57750E+000	10	...........
	45	0.613333	9.30359E-001	5.99300E-003	0.00000E+000	5.57564E-003	3.59960E-001	-1.12782E+000	3.57750E+000	10	...........
	46	0.626667	9.36292E-001	5.99404E-003	0.00000E+000	5.61217E-003	3.59960E-001	-1.13874E+000	3.57750E+000	10	...........
	47	0.64	9.42153E-001	5.99168E-003	0.00000E+000	5.64508E-003	3.59960E-001	-1.12997E+000	3.57750E+000	10	...........
	48	0.653333	9.48072E-001	5.99296E-003	0.00000E+000	5.68176E-003	3.59960E-001	-1.12790E+000	3.57750E+000	10	...........
	49	0.666667	9.53911E-001	5.99174E-003	0.00000E+000	5.71558E-003	3.59960E-001	-1.13880E+000	3.57750E+000	10	...........
	50	0.68	9.59697E-001	6.00368E-003	0.00000E+000	5.76171E-003	3.59960E-001	-1.13003E+000	3.57750E+000	10	...........
	51	0.693333	9.65366E-001	5.98932E-003	0.00000E+000	5.78188E-003	3.59960E-001	-1.12798E+000	3.57750E+000	10	...........
	52	0.706667	9.71107E-001	5.99592E-003	0.00000E+000	5.82268E-003	3.59960E-001	-1.13904E+000	3.57750E+000	10	...........
	53	0.72	9.76799E-001	5.99186E-003	0.00000E+000	5.85285E-003	3.59960E-001	-1.12993E+000	3.57750E+000	10	...........
	54	0.733333	9.82422E-001	5.99401E-003	0.00000E+000	5.88865E-003	3.59960E-001	-1.12797E+000	3.57750E+000	10	...........
	55	0.746667	9.87973E-001	5.99371E-003	0.00000E+000	5.92162E-003	3.59960E-001	-1.13919E+000	3.57750E+000	10	...........
	56	0.76	9.93505E-001	5.99614E-003	0.00000E+000	5.95720E-003	3.59960E-001	-1.13018E+000	3.57750E+000	10	...........
	57	0.77	9.98330E-001	5.99008E-003	0.00000E+000	5.98007E-003	3.59960E-001	-1.13065E+000	3.57750E+000	10	...........
STARTTIMEOFFSET	QUANT	882.0752	Start Time Offset (s)