File: Data/CV_CRGO300517_1/PWRCCD_CRGO300517_1/CHARGE_DISCHARGE/CHARGE_#572.DTA
EXPLAIN
TAG	PWR800_CHARGE
TITLE	LABEL	PWR Cyclic Charge Discharge (Cell) - Charge Step	Test &Identifier
DATE	LABEL	22-6-2017	Date
TIME	LABEL	15:58:42	Time
NOTES	NOTES	3	&Notes...
	supercap test cell
	0.6mg
	6M KOH
PSTAT	PSTAT	IFC5000-01520	Potentiostat
CAPACITY	QUANT	1.00000E-003	Capacity (A-hr)
CELLTYPE	SELECTOR	1	&Cell Type
WORKINGCONNECTION	SELECTOR	0	&Working Lead
MAXCHARGETIME	VARIABLEANDUNITS	1.00000E+002	s	1.00000E+002	second(s)	Max &Charge Time
CHARGECURRENT	QUANT	6.00000E-003	&Charge Current (A)
VOLTAGEFINISH	TWOPARAM	F	1.00000E-003	3.60000E+003	&Voltage Finish	 I (A) < 	Max Time(s)
SAMPLETIME	QUANT	1.00000E-002	Sa&mple Period (s)
CHARGESTOPAT1	MULTIPARAM	4	1.00000E+000	Charge Stop At &1	Voltage > Limit	V
CHARGESTOPAT2	MULTIPARAM	0	0.00000E+000	Charge Stop At &2	None	N/A
AESBHCSELECTOR	TOGGLE	F	Save Both Half Cells
IRCOMP	TOGGLE	F	IR &Measure
EOC	QUANT	0	Open Circuit (V)
SEQUENCER	TOGGLE	TRUE	Run as Sequence
PSTATMODEL	IQUANT	53	Pstat Model
PSTATSECTION	LABEL	IFC5000-01520	Pstat Section
PSTATSERIALNO	LABEL	01520	Pstat Serial Number
CTRLMODE	IQUANT	0	Control Mode
ELECTROMETER	IQUANT	1	RE=0 or CS=1
IESTAB	IQUANT	0	I/E Stability
CASPEED	IQUANT	4	Control Amp Speed
CONVENTION	IQUANT	1	Current Convention
ICHRANGE	IQUANT	2	Ich Range
ICHRANGEMODE	TOGGLE	T	Ich Auto Range
ICHOFFSETENABLE	TOGGLE	F	Ich Offset Enable
ICHOFFSET	QUANT	0	Ich Offset (V)
ICHFILTER	IQUANT	1	Ich Filter
VCHRANGE	IQUANT	2	Vch Range
VCHRANGEMODE	TOGGLE	T	Vch Auto Range
VCHOFFSETENABLE	TOGGLE	F	Vch Offset Enable
VCHOFFSET	QUANT	0	Vch Offset (V)
VCHFILTER	IQUANT	1	Vch Filter
IERANGELOWERLIMIT	IQUANT	9	I/E Range Lower Limit
IERANGEMODE	TOGGLE	F	I/E AutoRange
IERANGE	IQUANT	10	I/E Range
ACHSELECT	IQUANT	1	Ach Select
ACHRANGE	IQUANT	2	Ach Range
ACHOFFSETENABLE	TOGGLE	F	Ach Offset Enable
ACHOFFSET	QUANT	0	Ach Offset (V)
ACHFILTER	IQUANT	1	Ach Filter
CABLEID	IQUANT	14	Cable ID
DCCALDATE	LABEL	20-10-2016	DC Calibration Date
ACCALDATE	LABEL	12/3/2015	AC Calibration Date
FRAMEWORKVERSION	QUANT	7.01	Framework Version
INSTRUMENTVERSION	LABEL	4.00	Instrument Version
CURVE	TABLE	57
	Pt	T	Vf	Im	Vu	Pwr	Sig	Ach	Temp	IERange	Over
	#	s	V	A	V	W	V	V	deg C	#	bits
	0	0.013333	6.36730E-001	5.99260E-003	0.00000E+000	3.81567E-003	3.59960E-001	-1.14527E+000	3.57640E+000	10	...........
	1	0.026667	6.45668E-001	5.99185E-003	0.00000E+000	3.86875E-003	3.59960E-001	-1.15451E+000	3.57640E+000	10	...........
	2	0.04	6.53897E-001	5.99466E-003	0.00000E+000	3.91989E-003	3.59960E-001	-1.14386E+000	3.57640E+000	10	...........
	3	0.053333	6.61656E-001	5.99470E-003	0.00000E+000	3.96643E-003	3.59960E-001	-1.14517E+000	3.57640E+000	10	...........
	4	0.066667	6.69184E-001	5.99136E-003	0.00000E+000	4.00932E-003	3.59960E-001	-1.15403E+000	3.57640E+000	10	...........
	5	0.08	6.76506E-001	5.99422E-003	0.00000E+000	4.05512E-003	3.59960E-001	-1.14338E+000	3.57640E+000	10	...........
	6	0.093333	6.83697E-001	5.99175E-003	0.00000E+000	4.09654E-003	3.59960E-001	-1.14474E+000	3.57640E+000	10	...........
	7	0.106667	6.90813E-001	5.98729E-003	0.00000E+000	4.13610E-003	3.59960E-001	-1.15370E+000	3.57640E+000	10	...........
	8	0.12	6.97842E-001	5.99236E-003	0.00000E+000	4.18172E-003	3.59960E-001	-1.14309E+000	3.57640E+000	10	...........
	9	0.133333	7.04752E-001	5.99394E-003	0.00000E+000	4.22424E-003	3.59960E-001	-1.14457E+000	3.57640E+000	10	...........
	10	0.146667	7.11592E-001	5.99643E-003	0.00000E+000	4.26701E-003	3.59960E-001	-1.15365E+000	3.57640E+000	10	...........
	11	0.16	7.18437E-001	5.99807E-003	0.00000E+000	4.30924E-003	3.59960E-001	-1.14300E+000	3.57640E+000	10	...........
	12	0.173333	7.25169E-001	5.99701E-003	0.00000E+000	4.34885E-003	3.59960E-001	-1.14464E+000	3.57640E+000	10	...........
	13	0.186667	7.31837E-001	5.99128E-003	0.00000E+000	4.38464E-003	3.59960E-001	-1.15351E+000	3.57640E+000	10	...........
	14	0.2	7.38496E-001	5.99082E-003	0.00000E+000	4.42420E-003	3.59960E-001	-1.14275E+000	3.57640E+000	10	...........
	15	0.213333	7.45184E-001	5.99623E-003	0.00000E+000	4.46829E-003	3.59960E-001	-1.14438E+000	3.57643E+000	10	...........
	16	0.226667	7.51818E-001	5.99480E-003	0.00000E+000	4.50700E-003	3.59960E-001	-1.15350E+000	3.57660E+000	10	...........
	17	0.24	7.58467E-001	5.99691E-003	0.00000E+000	4.54846E-003	3.59960E-001	-1.14288E+000	3.57660E+000	10	...........
	18	0.253333	7.65045E-001	5.99075E-003	0.00000E+000	4.58319E-003	3.59960E-001	-1.14428E+000	3.57660E+000	10	...........
	19	0.266667	7.71626E-001	5.99375E-003	0.00000E+000	4.62493E-003	3.59960E-001	-1.15336E+000	3.57660E+000	10	...........
	20	0.28	7.78161E-001	5.99182E-003	0.00000E+000	4.66260E-003	3.59960E-001	-1.14296E+000	3.57660E+000	10	...........
	21	0.293333	7.84678E-001	5.99367E-003	0.00000E+000	4.70310E-003	3.59960E-001	-1.14436E+000	3.57660E+000	10	...........
	22	0.306667	7.91189E-001	5.99428E-003	0.00000E+000	4.74261E-003	3.59960E-001	-1.15352E+000	3.57660E+000	10	...........
	23	0.32	7.97704E-001	5.98777E-003	0.00000E+000	4.77647E-003	3.59960E-001	-1.14286E+000	3.57660E+000	10	...........
	24	0.333333	8.04175E-001	5.99938E-003	0.00000E+000	4.82456E-003	3.59960E-001	-1.14474E+000	3.57660E+000	10	...........
	25	0.346667	8.10622E-001	5.99041E-003	0.00000E+000	4.85596E-003	3.59960E-001	-1.15333E+000	3.57660E+000	10	...........
	26	0.36	8.17096E-001	5.99750E-003	0.00000E+000	4.90054E-003	3.59960E-001	-1.14274E+000	3.57660E+000	10	...........
	27	0.373333	8.23537E-001	5.99334E-003	0.00000E+000	4.93574E-003	3.59960E-001	-1.14431E+000	3.57660E+000	10	...........
	28	0.386667	8.29972E-001	5.99302E-003	0.00000E+000	4.97404E-003	3.59960E-001	-1.15318E+000	3.57660E+000	10	...........
	29	0.4	8.36311E-001	5.99137E-003	0.00000E+000	5.01065E-003	3.59960E-001	-1.14227E+000	3.57660E+000	10	...........
	30	0.413333	8.42710E-001	5.99335E-003	0.00000E+000	5.05066E-003	3.59960E-001	-1.14399E+000	3.57660E+000	10	...........
	31	0.426667	8.49054E-001	5.99676E-003	0.00000E+000	5.09158E-003	3.59960E-001	-1.15303E+000	3.57660E+000	10	...........
	32	0.44	8.55389E-001	5.99069E-003	0.00000E+000	5.12438E-003	3.59960E-001	-1.14246E+000	3.57660E+000	10	...........
	33	0.453333	8.61715E-001	5.99345E-003	0.00000E+000	5.16465E-003	3.59960E-001	-1.14388E+000	3.57660E+000	10	...........
	34	0.466667	8.68009E-001	5.99353E-003	0.00000E+000	5.20244E-003	3.59960E-001	-1.15298E+000	3.57660E+000	10	...........
	35	0.48	8.74315E-001	5.99561E-003	0.00000E+000	5.24205E-003	3.59960E-001	-1.14224E+000	3.57660E+000	10	...........
	36	0.493333	8.80574E-001	5.99451E-003	0.00000E+000	5.27861E-003	3.59960E-001	-1.14409E+000	3.57660E+000	10	...........
	37	0.506667	8.86820E-001	5.99478E-003	0.00000E+000	5.31629E-003	3.59960E-001	-1.15288E+000	3.57660E+000	10	...........
	38	0.52	8.93029E-001	5.99456E-003	0.00000E+000	5.35332E-003	3.59960E-001	-1.14240E+000	3.57660E+000	10	...........
	39	0.533333	8.99177E-001	5.99580E-003	0.00000E+000	5.39129E-003	3.59960E-001	-1.14393E+000	3.57660E+000	10	...........
	40	0.546667	9.05319E-001	5.99014E-003	0.00000E+000	5.42299E-003	3.59960E-001	-1.15282E+000	3.57660E+000	10	...........
	41	0.56	9.11424E-001	5.99510E-003	0.00000E+000	5.46407E-003	3.59960E-001	-1.14220E+000	3.57660E+000	10	...........
	42	0.573333	9.17506E-001	5.98989E-003	0.00000E+000	5.49576E-003	3.59960E-001	-1.14408E+000	3.57660E+000	10	...........
	43	0.586667	9.23638E-001	5.99654E-003	0.00000E+000	5.53864E-003	3.59960E-001	-1.15286E+000	3.57660E+000	10	...........
	44	0.6	9.29619E-001	5.99176E-003	0.00000E+000	5.57005E-003	3.59960E-001	-1.14211E+000	3.57660E+000	10	...........
	45	0.613333	9.35579E-001	5.99296E-003	0.00000E+000	5.60688E-003	3.59960E-001	-1.14403E+000	3.57660E+000	10	...........
	46	0.626667	9.41469E-001	5.99555E-003	0.00000E+000	5.64463E-003	3.59960E-001	-1.15280E+000	3.57660E+000	10	...........
	47	0.64	9.47392E-001	5.99312E-003	0.00000E+000	5.67784E-003	3.59960E-001	-1.14249E+000	3.57660E+000	10	...........
	48	0.653333	9.53248E-001	5.99751E-003	0.00000E+000	5.71711E-003	3.59960E-001	-1.14403E+000	3.57660E+000	10	...........
	49	0.666667	9.59021E-001	5.99919E-003	0.00000E+000	5.75336E-003	3.59960E-001	-1.15299E+000	3.57660E+000	10	...........
	50	0.68	9.64806E-001	6.00048E-003	0.00000E+000	5.78930E-003	3.59960E-001	-1.14245E+000	3.57660E+000	10	...........
	51	0.693333	9.70524E-001	5.99136E-003	0.00000E+000	5.81476E-003	3.59960E-001	-1.14400E+000	3.57660E+000	10	...........
	52	0.706667	9.76199E-001	5.99463E-003	0.00000E+000	5.85195E-003	3.59960E-001	-1.15288E+000	3.57660E+000	10	...........
	53	0.72	9.81821E-001	5.99301E-003	0.00000E+000	5.88406E-003	3.59960E-001	-1.14204E+000	3.57660E+000	10	...........
	54	0.733333	9.87373E-001	5.99222E-003	0.00000E+000	5.91655E-003	3.59960E-001	-1.14364E+000	3.57660E+000	10	...........
	55	0.746667	9.92921E-001	5.99647E-003	0.00000E+000	5.95403E-003	3.59960E-001	-1.15259E+000	3.57660E+000	10	...........
	56	0.758333	9.98082E-001	5.99480E-003	0.00000E+000	5.98331E-003	3.59960E-001	-1.14000E+000	3.57660E+000	10	...........
STARTTIMEOFFSET	QUANT	968.81	Start Time Offset (s)