File: Data/CV_CRGO300517_1/PWRCCD_CRGO300517_1/CHARGE_DISCHARGE/CHARGE_#874.DTA
EXPLAIN
TAG	PWR800_CHARGE
TITLE	LABEL	PWR Cyclic Charge Discharge (Cell) - Charge Step	Test &Identifier
DATE	LABEL	22-6-2017	Date
TIME	LABEL	16:10:01	Time
NOTES	NOTES	3	&Notes...
	supercap test cell
	0.6mg
	6M KOH
PSTAT	PSTAT	IFC5000-01520	Potentiostat
CAPACITY	QUANT	1.00000E-003	Capacity (A-hr)
CELLTYPE	SELECTOR	1	&Cell Type
WORKINGCONNECTION	SELECTOR	0	&Working Lead
MAXCHARGETIME	VARIABLEANDUNITS	1.00000E+002	s	1.00000E+002	second(s)	Max &Charge Time
CHARGECURRENT	QUANT	6.00000E-003	&Charge Current (A)
VOLTAGEFINISH	TWOPARAM	F	1.00000E-003	3.60000E+003	&Voltage Finish	 I (A) < 	Max Time(s)
SAMPLETIME	QUANT	1.00000E-002	Sa&mple Period (s)
CHARGESTOPAT1	MULTIPARAM	4	1.00000E+000	Charge Stop At &1	Voltage > Limit	V
CHARGESTOPAT2	MULTIPARAM	0	0.00000E+000	Charge Stop At &2	None	N/A
AESBHCSELECTOR	TOGGLE	F	Save Both Half Cells
IRCOMP	TOGGLE	F	IR &Measure
EOC	QUANT	0	Open Circuit (V)
SEQUENCER	TOGGLE	TRUE	Run as Sequence
PSTATMODEL	IQUANT	53	Pstat Model
PSTATSECTION	LABEL	IFC5000-01520	Pstat Section
PSTATSERIALNO	LABEL	01520	Pstat Serial Number
CTRLMODE	IQUANT	0	Control Mode
ELECTROMETER	IQUANT	1	RE=0 or CS=1
IESTAB	IQUANT	0	I/E Stability
CASPEED	IQUANT	4	Control Amp Speed
CONVENTION	IQUANT	1	Current Convention
ICHRANGE	IQUANT	2	Ich Range
ICHRANGEMODE	TOGGLE	T	Ich Auto Range
ICHOFFSETENABLE	TOGGLE	F	Ich Offset Enable
ICHOFFSET	QUANT	0	Ich Offset (V)
ICHFILTER	IQUANT	1	Ich Filter
VCHRANGE	IQUANT	2	Vch Range
VCHRANGEMODE	TOGGLE	T	Vch Auto Range
VCHOFFSETENABLE	TOGGLE	F	Vch Offset Enable
VCHOFFSET	QUANT	0	Vch Offset (V)
VCHFILTER	IQUANT	1	Vch Filter
IERANGELOWERLIMIT	IQUANT	9	I/E Range Lower Limit
IERANGEMODE	TOGGLE	F	I/E AutoRange
IERANGE	IQUANT	10	I/E Range
ACHSELECT	IQUANT	1	Ach Select
ACHRANGE	IQUANT	2	Ach Range
ACHOFFSETENABLE	TOGGLE	F	Ach Offset Enable
ACHOFFSET	QUANT	0	Ach Offset (V)
ACHFILTER	IQUANT	1	Ach Filter
CABLEID	IQUANT	14	Cable ID
DCCALDATE	LABEL	20-10-2016	DC Calibration Date
ACCALDATE	LABEL	12/3/2015	AC Calibration Date
FRAMEWORKVERSION	QUANT	7.01	Framework Version
INSTRUMENTVERSION	LABEL	4.00	Instrument Version
CURVE	TABLE	54
	Pt	T	Vf	Im	Vu	Pwr	Sig	Ach	Temp	IERange	Over
	#	s	V	A	V	W	V	V	deg C	#	bits
	0	0.013333	6.52140E-001	5.99676E-003	0.00000E+000	3.91073E-003	3.59960E-001	-1.16297E+000	3.57780E+000	10	...........
	1	0.026667	6.61361E-001	5.99466E-003	0.00000E+000	3.96463E-003	3.59960E-001	-1.16976E+000	3.57780E+000	10	...........
	2	0.04	6.69851E-001	5.99480E-003	0.00000E+000	4.01562E-003	3.59960E-001	-1.16893E+000	3.57780E+000	10	...........
	3	0.053333	6.77899E-001	5.99044E-003	0.00000E+000	4.06091E-003	3.59960E-001	-1.16190E+000	3.57780E+000	10	...........
	4	0.066667	6.85672E-001	5.99466E-003	0.00000E+000	4.11037E-003	3.59960E-001	-1.16956E+000	3.57780E+000	10	...........
	5	0.08	6.93263E-001	5.98930E-003	0.00000E+000	4.15216E-003	3.59960E-001	-1.16884E+000	3.57780E+000	10	...........
	6	0.093333	7.00681E-001	5.99623E-003	0.00000E+000	4.20144E-003	3.59960E-001	-1.16165E+000	3.57780E+000	10	...........
	7	0.106667	7.07954E-001	5.99497E-003	0.00000E+000	4.24416E-003	3.59960E-001	-1.16898E+000	3.57780E+000	10	...........
	8	0.12	7.15169E-001	5.99540E-003	0.00000E+000	4.28772E-003	3.59960E-001	-1.16838E+000	3.57780E+000	10	...........
	9	0.133333	7.22380E-001	5.99297E-003	0.00000E+000	4.32920E-003	3.59960E-001	-1.16176E+000	3.57780E+000	10	...........
	10	0.146667	7.29430E-001	5.99612E-003	0.00000E+000	4.37375E-003	3.59960E-001	-1.16935E+000	3.57780E+000	10	...........
	11	0.16	7.36423E-001	5.99569E-003	0.00000E+000	4.41536E-003	3.59960E-001	-1.16801E+000	3.57780E+000	10	...........
	12	0.173333	7.43374E-001	5.99111E-003	0.00000E+000	4.45364E-003	3.59960E-001	-1.16091E+000	3.57780E+000	10	...........
	13	0.186667	7.50333E-001	5.99755E-003	0.00000E+000	4.50016E-003	3.59960E-001	-1.16898E+000	3.57780E+000	10	...........
	14	0.2	7.57269E-001	5.99415E-003	0.00000E+000	4.53918E-003	3.59960E-001	-1.16806E+000	3.57780E+000	10	...........
	15	0.213333	7.64118E-001	5.99633E-003	0.00000E+000	4.58190E-003	3.59960E-001	-1.16114E+000	3.57780E+000	10	...........
	16	0.226667	7.70961E-001	5.99658E-003	0.00000E+000	4.62312E-003	3.59960E-001	-1.16885E+000	3.57780E+000	10	...........
	17	0.24	7.77731E-001	5.99799E-003	0.00000E+000	4.66482E-003	3.59960E-001	-1.16748E+000	3.57780E+000	10	...........
	18	0.253333	7.84523E-001	5.99551E-003	0.00000E+000	4.70362E-003	3.59960E-001	-1.16099E+000	3.57780E+000	10	...........
	19	0.266667	7.91248E-001	5.98724E-003	0.00000E+000	4.73739E-003	3.59960E-001	-1.16929E+000	3.57780E+000	10	...........
	20	0.28	7.97997E-001	5.99444E-003	0.00000E+000	4.78354E-003	3.59960E-001	-1.16788E+000	3.57780E+000	10	...........
	21	0.293333	8.04679E-001	5.99330E-003	0.00000E+000	4.82268E-003	3.59960E-001	-1.16103E+000	3.57780E+000	10	...........
	22	0.306667	8.11328E-001	5.99120E-003	0.00000E+000	4.86083E-003	3.59960E-001	-1.16880E+000	3.57780E+000	10	...........
	23	0.32	8.18013E-001	5.98861E-003	0.00000E+000	4.89876E-003	3.59960E-001	-1.16731E+000	3.57780E+000	10	...........
	24	0.333333	8.24649E-001	5.99028E-003	0.00000E+000	4.93988E-003	3.59960E-001	-1.16133E+000	3.57780E+000	10	...........
	25	0.346667	8.31260E-001	5.99337E-003	0.00000E+000	4.98205E-003	3.59960E-001	-1.16889E+000	3.57780E+000	10	...........
	26	0.36	8.37840E-001	5.99368E-003	0.00000E+000	5.02174E-003	3.59960E-001	-1.16680E+000	3.57780E+000	10	...........
	27	0.373333	8.44380E-001	5.98868E-003	0.00000E+000	5.05672E-003	3.59960E-001	-1.16049E+000	3.57780E+000	10	...........
	28	0.386667	8.50924E-001	5.99803E-003	0.00000E+000	5.10386E-003	3.59960E-001	-1.16873E+000	3.57780E+000	10	...........
	29	0.4	8.57410E-001	5.99449E-003	0.00000E+000	5.13974E-003	3.59960E-001	-1.16699E+000	3.57780E+000	10	...........
	30	0.413333	8.63857E-001	5.99653E-003	0.00000E+000	5.18015E-003	3.59960E-001	-1.16051E+000	3.57780E+000	10	...........
	31	0.426667	8.70362E-001	5.99482E-003	0.00000E+000	5.21767E-003	3.59960E-001	-1.16861E+000	3.57780E+000	10	...........
	32	0.44	8.76748E-001	5.99437E-003	0.00000E+000	5.25555E-003	3.59960E-001	-1.16637E+000	3.57780E+000	10	...........
	33	0.453333	8.83123E-001	5.99385E-003	0.00000E+000	5.29331E-003	3.59960E-001	-1.16023E+000	3.57780E+000	10	...........
	34	0.466667	8.89488E-001	5.99602E-003	0.00000E+000	5.33339E-003	3.59960E-001	-1.16881E+000	3.57780E+000	10	...........
	35	0.48	8.95809E-001	5.98679E-003	0.00000E+000	5.36302E-003	3.59960E-001	-1.16633E+000	3.57780E+000	10	...........
	36	0.493333	9.02097E-001	5.99794E-003	0.00000E+000	5.41072E-003	3.59960E-001	-1.16012E+000	3.57780E+000	10	...........
	37	0.506667	9.08356E-001	5.99545E-003	0.00000E+000	5.44600E-003	3.59960E-001	-1.16833E+000	3.57780E+000	10	...........
	38	0.52	9.14536E-001	5.99223E-003	0.00000E+000	5.48011E-003	3.59960E-001	-1.16637E+000	3.57780E+000	10	...........
	39	0.533333	9.20735E-001	5.99644E-003	0.00000E+000	5.52113E-003	3.59960E-001	-1.16051E+000	3.57780E+000	10	...........
	40	0.546667	9.26887E-001	5.99629E-003	0.00000E+000	5.55789E-003	3.59960E-001	-1.16870E+000	3.57780E+000	10	...........
	41	0.56	9.32955E-001	5.99522E-003	0.00000E+000	5.59327E-003	3.59960E-001	-1.16590E+000	3.57780E+000	10	...........
	42	0.573333	9.38955E-001	5.99366E-003	0.00000E+000	5.62777E-003	3.59960E-001	-1.16003E+000	3.57780E+000	10	...........
	43	0.586667	9.44959E-001	5.99089E-003	0.00000E+000	5.66114E-003	3.59960E-001	-1.16884E+000	3.57780E+000	10	...........
	44	0.6	9.50946E-001	5.99053E-003	0.00000E+000	5.69667E-003	3.59960E-001	-1.16604E+000	3.57780E+000	10	...........
	45	0.613333	9.56882E-001	5.99311E-003	0.00000E+000	5.73470E-003	3.59960E-001	-1.16045E+000	3.57780E+000	10	...........
	46	0.626667	9.62706E-001	5.99329E-003	0.00000E+000	5.76978E-003	3.59960E-001	-1.16870E+000	3.57780E+000	10	...........
	47	0.64	9.68475E-001	5.99087E-003	0.00000E+000	5.80201E-003	3.59960E-001	-1.16563E+000	3.57780E+000	10	...........
	48	0.653333	9.74278E-001	5.99368E-003	0.00000E+000	5.83951E-003	3.59960E-001	-1.16033E+000	3.57780E+000	10	...........
	49	0.666667	9.80025E-001	5.99347E-003	0.00000E+000	5.87375E-003	3.59960E-001	-1.16870E+000	3.57780E+000	10	...........
	50	0.68	9.85662E-001	5.99174E-003	0.00000E+000	5.90583E-003	3.59960E-001	-1.16554E+000	3.57780E+000	10	...........
	51	0.693333	9.91267E-001	5.99287E-003	0.00000E+000	5.94054E-003	3.59960E-001	-1.15943E+000	3.57780E+000	10	...........
	52	0.706667	9.96824E-001	5.99546E-003	0.00000E+000	5.97642E-003	3.59960E-001	-1.16817E+000	3.57780E+000	10	...........
	53	0.71	1.00027E+000	5.99483E-003	0.00000E+000	5.99645E-003	3.59960E-001	-1.14819E+000	3.57780E+000	10	...........
STARTTIMEOFFSET	QUANT	1409.429	Start Time Offset (s)