File: Data/CV_CRGO300517_1/PWRCCD_CRGO300517_1/CHARGE_DISCHARGE/CHARGE_#745.DTA
EXPLAIN
TAG	PWR800_CHARGE
TITLE	LABEL	PWR Cyclic Charge Discharge (Cell) - Charge Step	Test &Identifier
DATE	LABEL	22-6-2017	Date
TIME	LABEL	16:05:14	Time
NOTES	NOTES	3	&Notes...
	supercap test cell
	0.6mg
	6M KOH
PSTAT	PSTAT	IFC5000-01520	Potentiostat
CAPACITY	QUANT	1.00000E-003	Capacity (A-hr)
CELLTYPE	SELECTOR	1	&Cell Type
WORKINGCONNECTION	SELECTOR	0	&Working Lead
MAXCHARGETIME	VARIABLEANDUNITS	1.00000E+002	s	1.00000E+002	second(s)	Max &Charge Time
CHARGECURRENT	QUANT	6.00000E-003	&Charge Current (A)
VOLTAGEFINISH	TWOPARAM	F	1.00000E-003	3.60000E+003	&Voltage Finish	 I (A) < 	Max Time(s)
SAMPLETIME	QUANT	1.00000E-002	Sa&mple Period (s)
CHARGESTOPAT1	MULTIPARAM	4	1.00000E+000	Charge Stop At &1	Voltage > Limit	V
CHARGESTOPAT2	MULTIPARAM	0	0.00000E+000	Charge Stop At &2	None	N/A
AESBHCSELECTOR	TOGGLE	F	Save Both Half Cells
IRCOMP	TOGGLE	F	IR &Measure
EOC	QUANT	0	Open Circuit (V)
SEQUENCER	TOGGLE	TRUE	Run as Sequence
PSTATMODEL	IQUANT	53	Pstat Model
PSTATSECTION	LABEL	IFC5000-01520	Pstat Section
PSTATSERIALNO	LABEL	01520	Pstat Serial Number
CTRLMODE	IQUANT	0	Control Mode
ELECTROMETER	IQUANT	1	RE=0 or CS=1
IESTAB	IQUANT	0	I/E Stability
CASPEED	IQUANT	4	Control Amp Speed
CONVENTION	IQUANT	1	Current Convention
ICHRANGE	IQUANT	2	Ich Range
ICHRANGEMODE	TOGGLE	T	Ich Auto Range
ICHOFFSETENABLE	TOGGLE	F	Ich Offset Enable
ICHOFFSET	QUANT	0	Ich Offset (V)
ICHFILTER	IQUANT	1	Ich Filter
VCHRANGE	IQUANT	2	Vch Range
VCHRANGEMODE	TOGGLE	T	Vch Auto Range
VCHOFFSETENABLE	TOGGLE	F	Vch Offset Enable
VCHOFFSET	QUANT	0	Vch Offset (V)
VCHFILTER	IQUANT	1	Vch Filter
IERANGELOWERLIMIT	IQUANT	9	I/E Range Lower Limit
IERANGEMODE	TOGGLE	F	I/E AutoRange
IERANGE	IQUANT	10	I/E Range
ACHSELECT	IQUANT	1	Ach Select
ACHRANGE	IQUANT	2	Ach Range
ACHOFFSETENABLE	TOGGLE	F	Ach Offset Enable
ACHOFFSET	QUANT	0	Ach Offset (V)
ACHFILTER	IQUANT	1	Ach Filter
CABLEID	IQUANT	14	Cable ID
DCCALDATE	LABEL	20-10-2016	DC Calibration Date
ACCALDATE	LABEL	12/3/2015	AC Calibration Date
FRAMEWORKVERSION	QUANT	7.01	Framework Version
INSTRUMENTVERSION	LABEL	4.00	Instrument Version
CURVE	TABLE	55
	Pt	T	Vf	Im	Vu	Pwr	Sig	Ach	Temp	IERange	Over
	#	s	V	A	V	W	V	V	deg C	#	bits
	0	0.013333	6.46042E-001	5.99378E-003	0.00000E+000	3.87223E-003	3.59960E-001	-1.16120E+000	3.57780E+000	10	...........
	1	0.026667	6.55168E-001	5.99554E-003	0.00000E+000	3.92809E-003	3.59960E-001	-1.15394E+000	3.57780E+000	10	...........
	2	0.04	6.63583E-001	5.99123E-003	0.00000E+000	3.97568E-003	3.59960E-001	-1.16150E+000	3.57780E+000	10	...........
	3	0.053333	6.71593E-001	5.99415E-003	0.00000E+000	4.02562E-003	3.59960E-001	-1.16119E+000	3.57780E+000	10	...........
	4	0.066667	6.79307E-001	5.99111E-003	0.00000E+000	4.06980E-003	3.59960E-001	-1.15371E+000	3.57780E+000	10	...........
	5	0.08	6.86784E-001	5.99812E-003	0.00000E+000	4.11942E-003	3.59960E-001	-1.16114E+000	3.57780E+000	10	...........
	6	0.093333	6.94166E-001	5.99054E-003	0.00000E+000	4.15843E-003	3.59960E-001	-1.16052E+000	3.57780E+000	10	...........
	7	0.106667	7.01381E-001	5.99624E-003	0.00000E+000	4.20565E-003	3.59960E-001	-1.15339E+000	3.57780E+000	10	...........
	8	0.12	7.08520E-001	5.99313E-003	0.00000E+000	4.24626E-003	3.59960E-001	-1.16154E+000	3.57780E+000	10	...........
	9	0.133333	7.15570E-001	5.99155E-003	0.00000E+000	4.28737E-003	3.59960E-001	-1.16056E+000	3.57780E+000	10	...........
	10	0.146667	7.22579E-001	5.99460E-003	0.00000E+000	4.33158E-003	3.59960E-001	-1.15348E+000	3.57780E+000	10	...........
	11	0.16	7.29491E-001	5.99176E-003	0.00000E+000	4.37094E-003	3.59960E-001	-1.16139E+000	3.57780E+000	10	...........
	12	0.173333	7.36382E-001	5.99293E-003	0.00000E+000	4.41308E-003	3.59960E-001	-1.16033E+000	3.57780E+000	10	...........
	13	0.186667	7.43260E-001	5.99301E-003	0.00000E+000	4.45437E-003	3.59960E-001	-1.15362E+000	3.57780E+000	10	...........
	14	0.2	7.50098E-001	5.99328E-003	0.00000E+000	4.49555E-003	3.59960E-001	-1.16169E+000	3.57780E+000	10	...........
	15	0.213333	7.56835E-001	5.99245E-003	0.00000E+000	4.53530E-003	3.59960E-001	-1.16019E+000	3.57780E+000	10	...........
	16	0.226667	7.63617E-001	5.98782E-003	0.00000E+000	4.57240E-003	3.59960E-001	-1.15332E+000	3.57780E+000	10	...........
	17	0.24	7.70372E-001	5.99316E-003	0.00000E+000	4.61696E-003	3.59960E-001	-1.16165E+000	3.57780E+000	10	...........
	18	0.253333	7.77067E-001	5.99322E-003	0.00000E+000	4.65713E-003	3.59960E-001	-1.16021E+000	3.57780E+000	10	...........
	19	0.266667	7.83756E-001	5.99204E-003	0.00000E+000	4.69630E-003	3.59960E-001	-1.15350E+000	3.57780E+000	10	...........
	20	0.28	7.90415E-001	5.99662E-003	0.00000E+000	4.73982E-003	3.59960E-001	-1.16165E+000	3.57780E+000	10	...........
	21	0.293333	7.97081E-001	5.99655E-003	0.00000E+000	4.77974E-003	3.59960E-001	-1.15983E+000	3.57780E+000	10	...........
	22	0.306667	8.03650E-001	5.99127E-003	0.00000E+000	4.81488E-003	3.59960E-001	-1.15363E+000	3.57780E+000	10	...........
	23	0.32	8.10263E-001	5.99467E-003	0.00000E+000	4.85725E-003	3.59960E-001	-1.16185E+000	3.57780E+000	10	...........
	24	0.333333	8.16874E-001	5.99719E-003	0.00000E+000	4.89895E-003	3.59960E-001	-1.15988E+000	3.57780E+000	10	...........
	25	0.346667	8.23467E-001	5.99163E-003	0.00000E+000	4.93391E-003	3.59960E-001	-1.15352E+000	3.57780E+000	10	...........
	26	0.36	8.29977E-001	5.99685E-003	0.00000E+000	4.97725E-003	3.59960E-001	-1.16175E+000	3.57780E+000	10	...........
	27	0.373333	8.36492E-001	5.99755E-003	0.00000E+000	5.01690E-003	3.59960E-001	-1.15977E+000	3.57780E+000	10	...........
	28	0.386667	8.42977E-001	5.99623E-003	0.00000E+000	5.05469E-003	3.59960E-001	-1.15345E+000	3.57780E+000	10	...........
	29	0.4	8.49508E-001	5.99572E-003	0.00000E+000	5.09341E-003	3.59960E-001	-1.16165E+000	3.57780E+000	10	...........
	30	0.413333	8.55947E-001	5.99458E-003	0.00000E+000	5.13105E-003	3.59960E-001	-1.15931E+000	3.57780E+000	10	...........
	31	0.426667	8.62351E-001	5.99228E-003	0.00000E+000	5.16745E-003	3.59960E-001	-1.15334E+000	3.57780E+000	10	...........
	32	0.44	8.68762E-001	5.99254E-003	0.00000E+000	5.20609E-003	3.59960E-001	-1.16162E+000	3.57780E+000	10	...........
	33	0.453333	8.75140E-001	5.99544E-003	0.00000E+000	5.24685E-003	3.59960E-001	-1.15931E+000	3.57780E+000	10	...........
	34	0.466667	8.81504E-001	5.98900E-003	0.00000E+000	5.27933E-003	3.59960E-001	-1.15329E+000	3.57780E+000	10	...........
	35	0.48	8.87815E-001	5.98789E-003	0.00000E+000	5.31614E-003	3.59960E-001	-1.16164E+000	3.57780E+000	10	...........
	36	0.493333	8.94117E-001	5.99601E-003	0.00000E+000	5.36114E-003	3.59960E-001	-1.15911E+000	3.57780E+000	10	...........
	37	0.506667	9.00363E-001	5.99708E-003	0.00000E+000	5.39955E-003	3.59960E-001	-1.15325E+000	3.57780E+000	10	...........
	38	0.52	9.06572E-001	5.99624E-003	0.00000E+000	5.43603E-003	3.59960E-001	-1.16206E+000	3.57780E+000	10	...........
	39	0.533333	9.12738E-001	5.99719E-003	0.00000E+000	5.47386E-003	3.59960E-001	-1.15917E+000	3.57780E+000	10	...........
	40	0.546667	9.18908E-001	5.99181E-003	0.00000E+000	5.50592E-003	3.59960E-001	-1.15335E+000	3.57780E+000	10	...........
	41	0.56	9.25059E-001	5.99051E-003	0.00000E+000	5.54157E-003	3.59960E-001	-1.16191E+000	3.57780E+000	10	...........
	42	0.573333	9.31085E-001	5.99472E-003	0.00000E+000	5.58159E-003	3.59960E-001	-1.15882E+000	3.57780E+000	10	...........
	43	0.586667	9.37103E-001	5.99232E-003	0.00000E+000	5.61542E-003	3.59960E-001	-1.15350E+000	3.57780E+000	10	...........
	44	0.6	9.43067E-001	5.99008E-003	0.00000E+000	5.64904E-003	3.59960E-001	-1.16238E+000	3.57780E+000	10	...........
	45	0.613333	9.49020E-001	5.99358E-003	0.00000E+000	5.68803E-003	3.59960E-001	-1.15895E+000	3.57780E+000	10	...........
	46	0.626667	9.54969E-001	5.99285E-003	0.00000E+000	5.72299E-003	3.59960E-001	-1.15339E+000	3.57780E+000	10	...........
	47	0.64	9.60811E-001	5.99443E-003	0.00000E+000	5.75951E-003	3.59960E-001	-1.16236E+000	3.57780E+000	10	...........
	48	0.653333	9.66592E-001	5.99431E-003	0.00000E+000	5.79405E-003	3.59960E-001	-1.15901E+000	3.57780E+000	10	...........
	49	0.666667	9.72339E-001	5.99442E-003	0.00000E+000	5.82860E-003	3.59960E-001	-1.15354E+000	3.57780E+000	10	...........
	50	0.68	9.78062E-001	5.99182E-003	0.00000E+000	5.86037E-003	3.59960E-001	-1.16240E+000	3.57780E+000	10	...........
	51	0.693333	9.83692E-001	5.99139E-003	0.00000E+000	5.89368E-003	3.59960E-001	-1.15864E+000	3.57780E+000	10	...........
	52	0.706667	9.89301E-001	5.99604E-003	0.00000E+000	5.93189E-003	3.59960E-001	-1.15300E+000	3.57780E+000	10	...........
	53	0.72	9.94877E-001	5.99207E-003	0.00000E+000	5.96137E-003	3.59960E-001	-1.16221E+000	3.57780E+000	10	...........
	54	0.726667	9.99016E-001	5.99823E-003	0.00000E+000	5.99233E-003	3.59960E-001	-1.14900E+000	3.57780E+000	10	...........
STARTTIMEOFFSET	QUANT	1224.841	Start Time Offset (s)