File: Data/CV_CRGO300517_1/PWRCCD_CRGO300517_1/CHARGE_DISCHARGE/CHARGE_#257.DTA
EXPLAIN
TAG	PWR800_CHARGE
TITLE	LABEL	PWR Cyclic Charge Discharge (Cell) - Charge Step	Test &Identifier
DATE	LABEL	22-6-2017	Date
TIME	LABEL	15:46:10	Time
NOTES	NOTES	3	&Notes...
	supercap test cell
	0.6mg
	6M KOH
PSTAT	PSTAT	IFC5000-01520	Potentiostat
CAPACITY	QUANT	1.00000E-003	Capacity (A-hr)
CELLTYPE	SELECTOR	1	&Cell Type
WORKINGCONNECTION	SELECTOR	0	&Working Lead
MAXCHARGETIME	VARIABLEANDUNITS	1.00000E+002	s	1.00000E+002	second(s)	Max &Charge Time
CHARGECURRENT	QUANT	6.00000E-003	&Charge Current (A)
VOLTAGEFINISH	TWOPARAM	F	1.00000E-003	3.60000E+003	&Voltage Finish	 I (A) < 	Max Time(s)
SAMPLETIME	QUANT	1.00000E-002	Sa&mple Period (s)
CHARGESTOPAT1	MULTIPARAM	4	1.00000E+000	Charge Stop At &1	Voltage > Limit	V
CHARGESTOPAT2	MULTIPARAM	0	0.00000E+000	Charge Stop At &2	None	N/A
AESBHCSELECTOR	TOGGLE	F	Save Both Half Cells
IRCOMP	TOGGLE	F	IR &Measure
EOC	QUANT	0	Open Circuit (V)
SEQUENCER	TOGGLE	TRUE	Run as Sequence
PSTATMODEL	IQUANT	53	Pstat Model
PSTATSECTION	LABEL	IFC5000-01520	Pstat Section
PSTATSERIALNO	LABEL	01520	Pstat Serial Number
CTRLMODE	IQUANT	0	Control Mode
ELECTROMETER	IQUANT	1	RE=0 or CS=1
IESTAB	IQUANT	0	I/E Stability
CASPEED	IQUANT	4	Control Amp Speed
CONVENTION	IQUANT	1	Current Convention
ICHRANGE	IQUANT	2	Ich Range
ICHRANGEMODE	TOGGLE	T	Ich Auto Range
ICHOFFSETENABLE	TOGGLE	F	Ich Offset Enable
ICHOFFSET	QUANT	0	Ich Offset (V)
ICHFILTER	IQUANT	1	Ich Filter
VCHRANGE	IQUANT	2	Vch Range
VCHRANGEMODE	TOGGLE	T	Vch Auto Range
VCHOFFSETENABLE	TOGGLE	F	Vch Offset Enable
VCHOFFSET	QUANT	0	Vch Offset (V)
VCHFILTER	IQUANT	1	Vch Filter
IERANGELOWERLIMIT	IQUANT	9	I/E Range Lower Limit
IERANGEMODE	TOGGLE	F	I/E AutoRange
IERANGE	IQUANT	10	I/E Range
ACHSELECT	IQUANT	1	Ach Select
ACHRANGE	IQUANT	2	Ach Range
ACHOFFSETENABLE	TOGGLE	F	Ach Offset Enable
ACHOFFSET	QUANT	0	Ach Offset (V)
ACHFILTER	IQUANT	1	Ach Filter
CABLEID	IQUANT	14	Cable ID
DCCALDATE	LABEL	20-10-2016	DC Calibration Date
ACCALDATE	LABEL	12/3/2015	AC Calibration Date
FRAMEWORKVERSION	QUANT	7.01	Framework Version
INSTRUMENTVERSION	LABEL	4.00	Instrument Version
CURVE	TABLE	64
	Pt	T	Vf	Im	Vu	Pwr	Sig	Ach	Temp	IERange	Over
	#	s	V	A	V	W	V	V	deg C	#	bits
	0	0.013333	6.11974E-001	5.99132E-003	0.00000E+000	3.66653E-003	3.59960E-001	-1.09964E+000	3.57700E+000	10	...........
	1	0.026667	6.20570E-001	5.99240E-003	0.00000E+000	3.71871E-003	3.59960E-001	-1.10880E+000	3.57700E+000	10	...........
	2	0.04	6.28445E-001	5.99159E-003	0.00000E+000	3.76539E-003	3.59960E-001	-1.09947E+000	3.57700E+000	10	...........
	3	0.053333	6.35879E-001	5.99127E-003	0.00000E+000	3.80972E-003	3.59960E-001	-1.09920E+000	3.57700E+000	10	...........
	4	0.066667	6.43088E-001	5.99308E-003	0.00000E+000	3.85408E-003	3.59960E-001	-1.10872E+000	3.57700E+000	10	...........
	5	0.08	6.50062E-001	5.99393E-003	0.00000E+000	3.89642E-003	3.59960E-001	-1.09928E+000	3.57700E+000	10	...........
	6	0.093333	6.56892E-001	5.99346E-003	0.00000E+000	3.93706E-003	3.59960E-001	-1.09923E+000	3.57700E+000	10	...........
	7	0.106667	6.63636E-001	5.99237E-003	0.00000E+000	3.97675E-003	3.59960E-001	-1.10829E+000	3.57700E+000	10	...........
	8	0.12	6.70265E-001	5.99395E-003	0.00000E+000	4.01753E-003	3.59960E-001	-1.09880E+000	3.57700E+000	10	...........
	9	0.133333	6.76843E-001	5.99476E-003	0.00000E+000	4.05751E-003	3.59960E-001	-1.09880E+000	3.57700E+000	10	...........
	10	0.146667	6.83382E-001	6.00134E-003	0.00000E+000	4.10121E-003	3.59960E-001	-1.10832E+000	3.57700E+000	10	...........
	11	0.16	6.89863E-001	5.99484E-003	0.00000E+000	4.13562E-003	3.59960E-001	-1.09871E+000	3.57700E+000	10	...........
	12	0.173333	6.96305E-001	5.99249E-003	0.00000E+000	4.17260E-003	3.59960E-001	-1.09860E+000	3.57700E+000	10	...........
	13	0.186667	7.02685E-001	5.99471E-003	0.00000E+000	4.21239E-003	3.59960E-001	-1.10793E+000	3.57700E+000	10	...........
	14	0.2	7.09006E-001	5.99325E-003	0.00000E+000	4.24925E-003	3.59960E-001	-1.09884E+000	3.57700E+000	10	...........
	15	0.213333	7.15373E-001	5.99455E-003	0.00000E+000	4.28834E-003	3.59960E-001	-1.09864E+000	3.57700E+000	10	...........
	16	0.226667	7.21690E-001	5.99447E-003	0.00000E+000	4.32615E-003	3.59960E-001	-1.10796E+000	3.57700E+000	10	...........
	17	0.24	7.28001E-001	5.99506E-003	0.00000E+000	4.36441E-003	3.59960E-001	-1.09862E+000	3.57700E+000	10	...........
	18	0.253333	7.34316E-001	5.99634E-003	0.00000E+000	4.40320E-003	3.59960E-001	-1.09867E+000	3.57700E+000	10	...........
	19	0.266667	7.40589E-001	5.99725E-003	0.00000E+000	4.44150E-003	3.59960E-001	-1.10797E+000	3.57700E+000	10	...........
	20	0.28	7.46869E-001	5.99433E-003	0.00000E+000	4.47698E-003	3.59960E-001	-1.09857E+000	3.57700E+000	10	...........
	21	0.293333	7.53110E-001	5.99741E-003	0.00000E+000	4.51671E-003	3.59960E-001	-1.09867E+000	3.57700E+000	10	...........
	22	0.306667	7.59329E-001	5.99178E-003	0.00000E+000	4.54973E-003	3.59960E-001	-1.10792E+000	3.57700E+000	10	...........
	23	0.32	7.65557E-001	5.99597E-003	0.00000E+000	4.59026E-003	3.59960E-001	-1.09872E+000	3.57700E+000	10	...........
	24	0.333333	7.71745E-001	5.99513E-003	0.00000E+000	4.62671E-003	3.59960E-001	-1.09876E+000	3.57700E+000	10	...........
	25	0.346667	7.77904E-001	5.99561E-003	0.00000E+000	4.66401E-003	3.59960E-001	-1.10813E+000	3.57700E+000	10	...........
	26	0.36	7.84134E-001	5.99368E-003	0.00000E+000	4.69985E-003	3.59960E-001	-1.09891E+000	3.57700E+000	10	...........
	27	0.373333	7.90313E-001	5.99535E-003	0.00000E+000	4.73820E-003	3.59960E-001	-1.09848E+000	3.57700E+000	10	...........
	28	0.386667	7.96531E-001	5.99117E-003	0.00000E+000	4.77216E-003	3.59960E-001	-1.10788E+000	3.57700E+000	10	...........
	29	0.4	8.02684E-001	5.99327E-003	0.00000E+000	4.81070E-003	3.59960E-001	-1.09870E+000	3.57700E+000	10	...........
	30	0.413333	8.08843E-001	6.00069E-003	0.00000E+000	4.85361E-003	3.59960E-001	-1.09862E+000	3.57700E+000	10	...........
	31	0.426667	8.14968E-001	5.99881E-003	0.00000E+000	4.88884E-003	3.59960E-001	-1.10779E+000	3.57700E+000	10	...........
	32	0.44	8.21125E-001	5.99013E-003	0.00000E+000	4.91865E-003	3.59960E-001	-1.09818E+000	3.57700E+000	10	...........
	33	0.453333	8.27231E-001	5.99245E-003	0.00000E+000	4.95714E-003	3.59960E-001	-1.09809E+000	3.57700E+000	10	...........
	34	0.466667	8.33352E-001	5.99368E-003	0.00000E+000	4.99485E-003	3.59960E-001	-1.10760E+000	3.57700E+000	10	...........
	35	0.48	8.39451E-001	5.99285E-003	0.00000E+000	5.03071E-003	3.59960E-001	-1.09833E+000	3.57700E+000	10	...........
	36	0.493333	8.45592E-001	5.99559E-003	0.00000E+000	5.06982E-003	3.59960E-001	-1.09796E+000	3.57700E+000	10	...........
	37	0.506667	8.51683E-001	5.99477E-003	0.00000E+000	5.10564E-003	3.59960E-001	-1.10752E+000	3.57700E+000	10	...........
	38	0.52	8.57739E-001	5.99442E-003	0.00000E+000	5.14164E-003	3.59960E-001	-1.09809E+000	3.57700E+000	10	...........
	39	0.533333	8.63780E-001	5.99428E-003	0.00000E+000	5.17774E-003	3.59960E-001	-1.09804E+000	3.57700E+000	10	...........
	40	0.546667	8.69875E-001	5.99771E-003	0.00000E+000	5.21726E-003	3.59960E-001	-1.10780E+000	3.57700E+000	10	...........
	41	0.56	8.75896E-001	5.99068E-003	0.00000E+000	5.24721E-003	3.59960E-001	-1.09814E+000	3.57700E+000	10	...........
	42	0.573333	8.81923E-001	5.99393E-003	0.00000E+000	5.28618E-003	3.59960E-001	-1.09788E+000	3.57700E+000	10	...........
	43	0.586667	8.87902E-001	5.99524E-003	0.00000E+000	5.32319E-003	3.59960E-001	-1.10736E+000	3.57700E+000	10	...........
	44	0.6	8.93897E-001	5.99393E-003	0.00000E+000	5.35795E-003	3.59960E-001	-1.09802E+000	3.57700E+000	10	...........
	45	0.613333	8.99856E-001	5.99417E-003	0.00000E+000	5.39389E-003	3.59960E-001	-1.09782E+000	3.57700E+000	10	...........
	46	0.626667	9.05763E-001	5.99433E-003	0.00000E+000	5.42945E-003	3.59960E-001	-1.10733E+000	3.57700E+000	10	...........
	47	0.64	9.11743E-001	5.99278E-003	0.00000E+000	5.46387E-003	3.59960E-001	-1.09801E+000	3.57700E+000	10	...........
	48	0.653333	9.17657E-001	5.99634E-003	0.00000E+000	5.50258E-003	3.59960E-001	-1.09803E+000	3.57700E+000	10	...........
	49	0.666667	9.23551E-001	5.99829E-003	0.00000E+000	5.53972E-003	3.59960E-001	-1.10757E+000	3.57700E+000	10	...........
	50	0.68	9.29373E-001	5.99522E-003	0.00000E+000	5.57180E-003	3.59960E-001	-1.09828E+000	3.57700E+000	10	...........
	51	0.693333	9.35125E-001	5.99577E-003	0.00000E+000	5.60680E-003	3.59960E-001	-1.09788E+000	3.57700E+000	10	...........
	52	0.706667	9.40905E-001	5.99384E-003	0.00000E+000	5.63964E-003	3.59960E-001	-1.10736E+000	3.57700E+000	10	...........
	53	0.72	9.46685E-001	5.99266E-003	0.00000E+000	5.67317E-003	3.59960E-001	-1.09803E+000	3.57700E+000	10	...........
	54	0.733333	9.52414E-001	6.00052E-003	0.00000E+000	5.71498E-003	3.59960E-001	-1.09804E+000	3.57700E+000	10	...........
	55	0.746667	9.58110E-001	5.99186E-003	0.00000E+000	5.74086E-003	3.59960E-001	-1.10718E+000	3.57700E+000	10	...........
	56	0.76	9.63748E-001	5.99193E-003	0.00000E+000	5.77472E-003	3.59960E-001	-1.09771E+000	3.57700E+000	10	...........
	57	0.773333	9.69320E-001	5.99249E-003	0.00000E+000	5.80864E-003	3.59960E-001	-1.09740E+000	3.57700E+000	10	...........
	58	0.786667	9.74956E-001	5.99293E-003	0.00000E+000	5.84284E-003	3.59960E-001	-1.10707E+000	3.57700E+000	10	...........
	59	0.8	9.80461E-001	5.99298E-003	0.00000E+000	5.87588E-003	3.59960E-001	-1.09809E+000	3.57700E+000	10	...........
	60	0.813333	9.85945E-001	5.99340E-003	0.00000E+000	5.90916E-003	3.59960E-001	-1.09761E+000	3.57810E+000	10	...........
	61	0.826667	9.91398E-001	5.99502E-003	0.00000E+000	5.94345E-003	3.59960E-001	-1.10703E+000	3.57810E+000	10	...........
	62	0.84	9.96782E-001	5.99284E-003	0.00000E+000	5.97355E-003	3.59960E-001	-1.09752E+000	3.57810E+000	10	...........
	63	0.843333	1.00016E+000	5.98908E-003	0.00000E+000	5.99003E-003	3.59960E-001	-1.10943E+000	3.57810E+000	10	...........
STARTTIMEOFFSET	QUANT	469.7117	Start Time Offset (s)