File: Data/CV_CRGO300517_1/PWRCCD_CRGO300517_1/CHARGE_DISCHARGE/CHARGE_#784.DTA
EXPLAIN
TAG	PWR800_CHARGE
TITLE	LABEL	PWR Cyclic Charge Discharge (Cell) - Charge Step	Test &Identifier
DATE	LABEL	22-6-2017	Date
TIME	LABEL	16:06:41	Time
NOTES	NOTES	3	&Notes...
	supercap test cell
	0.6mg
	6M KOH
PSTAT	PSTAT	IFC5000-01520	Potentiostat
CAPACITY	QUANT	1.00000E-003	Capacity (A-hr)
CELLTYPE	SELECTOR	1	&Cell Type
WORKINGCONNECTION	SELECTOR	0	&Working Lead
MAXCHARGETIME	VARIABLEANDUNITS	1.00000E+002	s	1.00000E+002	second(s)	Max &Charge Time
CHARGECURRENT	QUANT	6.00000E-003	&Charge Current (A)
VOLTAGEFINISH	TWOPARAM	F	1.00000E-003	3.60000E+003	&Voltage Finish	 I (A) < 	Max Time(s)
SAMPLETIME	QUANT	1.00000E-002	Sa&mple Period (s)
CHARGESTOPAT1	MULTIPARAM	4	1.00000E+000	Charge Stop At &1	Voltage > Limit	V
CHARGESTOPAT2	MULTIPARAM	0	0.00000E+000	Charge Stop At &2	None	N/A
AESBHCSELECTOR	TOGGLE	F	Save Both Half Cells
IRCOMP	TOGGLE	F	IR &Measure
EOC	QUANT	0	Open Circuit (V)
SEQUENCER	TOGGLE	TRUE	Run as Sequence
PSTATMODEL	IQUANT	53	Pstat Model
PSTATSECTION	LABEL	IFC5000-01520	Pstat Section
PSTATSERIALNO	LABEL	01520	Pstat Serial Number
CTRLMODE	IQUANT	0	Control Mode
ELECTROMETER	IQUANT	1	RE=0 or CS=1
IESTAB	IQUANT	0	I/E Stability
CASPEED	IQUANT	4	Control Amp Speed
CONVENTION	IQUANT	1	Current Convention
ICHRANGE	IQUANT	2	Ich Range
ICHRANGEMODE	TOGGLE	T	Ich Auto Range
ICHOFFSETENABLE	TOGGLE	F	Ich Offset Enable
ICHOFFSET	QUANT	0	Ich Offset (V)
ICHFILTER	IQUANT	1	Ich Filter
VCHRANGE	IQUANT	2	Vch Range
VCHRANGEMODE	TOGGLE	T	Vch Auto Range
VCHOFFSETENABLE	TOGGLE	F	Vch Offset Enable
VCHOFFSET	QUANT	0	Vch Offset (V)
VCHFILTER	IQUANT	1	Vch Filter
IERANGELOWERLIMIT	IQUANT	9	I/E Range Lower Limit
IERANGEMODE	TOGGLE	F	I/E AutoRange
IERANGE	IQUANT	10	I/E Range
ACHSELECT	IQUANT	1	Ach Select
ACHRANGE	IQUANT	2	Ach Range
ACHOFFSETENABLE	TOGGLE	F	Ach Offset Enable
ACHOFFSET	QUANT	0	Ach Offset (V)
ACHFILTER	IQUANT	1	Ach Filter
CABLEID	IQUANT	14	Cable ID
DCCALDATE	LABEL	20-10-2016	DC Calibration Date
ACCALDATE	LABEL	12/3/2015	AC Calibration Date
FRAMEWORKVERSION	QUANT	7.01	Framework Version
INSTRUMENTVERSION	LABEL	4.00	Instrument Version
CURVE	TABLE	55
	Pt	T	Vf	Im	Vu	Pwr	Sig	Ach	Temp	IERange	Over
	#	s	V	A	V	W	V	V	deg C	#	bits
	0	0.013333	6.47554E-001	5.99341E-003	0.00000E+000	3.88105E-003	3.59960E-001	-1.16544E+000	3.57650E+000	10	...........
	1	0.026667	6.56718E-001	5.99325E-003	0.00000E+000	3.93588E-003	3.59960E-001	-1.15992E+000	3.57650E+000	10	...........
	2	0.04	6.65141E-001	5.99453E-003	0.00000E+000	3.98721E-003	3.59960E-001	-1.16884E+000	3.57650E+000	10	...........
	3	0.053333	6.73199E-001	5.99252E-003	0.00000E+000	4.03416E-003	3.59960E-001	-1.16474E+000	3.57650E+000	10	...........
	4	0.066667	6.80900E-001	5.99172E-003	0.00000E+000	4.07976E-003	3.59960E-001	-1.15978E+000	3.57650E+000	10	...........
	5	0.08	6.88355E-001	5.99024E-003	0.00000E+000	4.12342E-003	3.59960E-001	-1.16903E+000	3.57650E+000	10	...........
	6	0.093333	6.95807E-001	5.99327E-003	0.00000E+000	4.17016E-003	3.59960E-001	-1.16429E+000	3.57650E+000	10	...........
	7	0.106667	7.03009E-001	5.99073E-003	0.00000E+000	4.21153E-003	3.59960E-001	-1.15897E+000	3.57650E+000	10	...........
	8	0.12	7.10166E-001	5.99184E-003	0.00000E+000	4.25520E-003	3.59960E-001	-1.16860E+000	3.57650E+000	10	...........
	9	0.133333	7.17256E-001	5.99277E-003	0.00000E+000	4.29835E-003	3.59960E-001	-1.16398E+000	3.57650E+000	10	...........
	10	0.146667	7.24297E-001	5.98985E-003	0.00000E+000	4.33843E-003	3.59960E-001	-1.15926E+000	3.57650E+000	10	...........
	11	0.16	7.31237E-001	5.99874E-003	0.00000E+000	4.38650E-003	3.59960E-001	-1.16857E+000	3.57650E+000	10	...........
	12	0.173333	7.38131E-001	5.99433E-003	0.00000E+000	4.42460E-003	3.59960E-001	-1.16379E+000	3.57650E+000	10	...........
	13	0.186667	7.45085E-001	5.99716E-003	0.00000E+000	4.46839E-003	3.59960E-001	-1.15916E+000	3.57650E+000	10	...........
	14	0.2	7.51944E-001	5.99375E-003	0.00000E+000	4.50696E-003	3.59960E-001	-1.16906E+000	3.57650E+000	10	...........
	15	0.213333	7.58745E-001	5.99362E-003	0.00000E+000	4.54763E-003	3.59960E-001	-1.16419E+000	3.57650E+000	10	...........
	16	0.226667	7.65527E-001	5.98975E-003	0.00000E+000	4.58532E-003	3.59960E-001	-1.15936E+000	3.57650E+000	10	...........
	17	0.24	7.72331E-001	5.99255E-003	0.00000E+000	4.62823E-003	3.59960E-001	-1.16930E+000	3.57650E+000	10	...........
	18	0.253333	7.79042E-001	5.99538E-003	0.00000E+000	4.67065E-003	3.59960E-001	-1.16395E+000	3.57650E+000	10	...........
	19	0.266667	7.85747E-001	5.99573E-003	0.00000E+000	4.71113E-003	3.59960E-001	-1.15952E+000	3.57650E+000	10	...........
	20	0.28	7.92431E-001	5.99272E-003	0.00000E+000	4.74881E-003	3.59960E-001	-1.16979E+000	3.57650E+000	10	...........
	21	0.293333	7.99103E-001	5.99191E-003	0.00000E+000	4.78816E-003	3.59960E-001	-1.16417E+000	3.57650E+000	10	...........
	22	0.306667	8.05767E-001	5.99726E-003	0.00000E+000	4.83240E-003	3.59960E-001	-1.15978E+000	3.57650E+000	10	...........
	23	0.32	8.12383E-001	5.99457E-003	0.00000E+000	4.86989E-003	3.59960E-001	-1.16976E+000	3.57650E+000	10	...........
	24	0.333333	8.18980E-001	5.99256E-003	0.00000E+000	4.90778E-003	3.59960E-001	-1.16418E+000	3.57650E+000	10	...........
	25	0.346667	8.25563E-001	5.99490E-003	0.00000E+000	4.94917E-003	3.59960E-001	-1.15965E+000	3.57650E+000	10	...........
	26	0.36	8.32113E-001	5.99376E-003	0.00000E+000	4.98749E-003	3.59960E-001	-1.16978E+000	3.57650E+000	10	...........
	27	0.373333	8.38623E-001	5.99091E-003	0.00000E+000	5.02412E-003	3.59960E-001	-1.16395E+000	3.57650E+000	10	...........
	28	0.386667	8.45118E-001	5.99115E-003	0.00000E+000	5.06323E-003	3.59960E-001	-1.15973E+000	3.57650E+000	10	...........
	29	0.4	8.51590E-001	5.99433E-003	0.00000E+000	5.10472E-003	3.59960E-001	-1.16995E+000	3.57650E+000	10	...........
	30	0.413333	8.58040E-001	5.99278E-003	0.00000E+000	5.14205E-003	3.59960E-001	-1.16386E+000	3.57650E+000	10	...........
	31	0.426667	8.64463E-001	5.98996E-003	0.00000E+000	5.17810E-003	3.59960E-001	-1.15961E+000	3.57650E+000	10	...........
	32	0.44	8.70889E-001	5.98876E-003	0.00000E+000	5.21555E-003	3.59960E-001	-1.16993E+000	3.57650E+000	10	...........
	33	0.453333	8.77246E-001	5.99984E-003	0.00000E+000	5.26334E-003	3.59960E-001	-1.16357E+000	3.57650E+000	10	...........
	34	0.466667	8.83615E-001	5.99498E-003	0.00000E+000	5.29725E-003	3.59960E-001	-1.15963E+000	3.57650E+000	10	...........
	35	0.48	8.89948E-001	5.99210E-003	0.00000E+000	5.33266E-003	3.59960E-001	-1.17027E+000	3.57650E+000	10	...........
	36	0.493333	8.96247E-001	5.98995E-003	0.00000E+000	5.36848E-003	3.59960E-001	-1.16373E+000	3.57650E+000	10	...........
	37	0.506667	9.02507E-001	5.99371E-003	0.00000E+000	5.40936E-003	3.59960E-001	-1.15983E+000	3.57650E+000	10	...........
	38	0.52	9.08713E-001	5.99376E-003	0.00000E+000	5.44661E-003	3.59960E-001	-1.17051E+000	3.57650E+000	10	...........
	39	0.533333	9.14898E-001	5.99796E-003	0.00000E+000	5.48752E-003	3.59960E-001	-1.16390E+000	3.57650E+000	10	...........
	40	0.546667	9.21120E-001	5.99482E-003	0.00000E+000	5.52195E-003	3.59960E-001	-1.15981E+000	3.57650E+000	10	...........
	41	0.56	9.27243E-001	5.99470E-003	0.00000E+000	5.55854E-003	3.59960E-001	-1.17035E+000	3.57650E+000	10	...........
	42	0.573333	9.33289E-001	5.99213E-003	0.00000E+000	5.59239E-003	3.59960E-001	-1.16376E+000	3.57650E+000	10	...........
	43	0.586667	9.39328E-001	5.99638E-003	0.00000E+000	5.63256E-003	3.59960E-001	-1.15987E+000	3.57650E+000	10	...........
	44	0.6	9.45277E-001	5.98980E-003	0.00000E+000	5.66202E-003	3.59960E-001	-1.17068E+000	3.57650E+000	10	...........
	45	0.613333	9.51218E-001	5.99168E-003	0.00000E+000	5.69940E-003	3.59960E-001	-1.16386E+000	3.57650E+000	10	...........
	46	0.626667	9.57118E-001	5.99685E-003	0.00000E+000	5.73969E-003	3.59960E-001	-1.16014E+000	3.57650E+000	10	...........
	47	0.64	9.62979E-001	5.98856E-003	0.00000E+000	5.76685E-003	3.59960E-001	-1.17087E+000	3.57650E+000	10	...........
	48	0.653333	9.68759E-001	5.99403E-003	0.00000E+000	5.80677E-003	3.59960E-001	-1.16375E+000	3.57650E+000	10	...........
	49	0.666667	9.74525E-001	5.99492E-003	0.00000E+000	5.84219E-003	3.59960E-001	-1.16017E+000	3.57650E+000	10	...........
	50	0.68	9.80189E-001	5.99623E-003	0.00000E+000	5.87744E-003	3.59960E-001	-1.17103E+000	3.57650E+000	10	...........
	51	0.693333	9.85799E-001	5.99451E-003	0.00000E+000	5.90938E-003	3.59960E-001	-1.16386E+000	3.57650E+000	10	...........
	52	0.706667	9.91387E-001	5.99281E-003	0.00000E+000	5.94119E-003	3.59960E-001	-1.16028E+000	3.57650E+000	10	...........
	53	0.72	9.96935E-001	5.99287E-003	0.00000E+000	5.97451E-003	3.59960E-001	-1.17130E+000	3.57650E+000	10	...........
	54	0.721667	1.00003E+000	5.99246E-003	0.00000E+000	5.99266E-003	3.59960E-001	-1.14842E+000	3.57650E+000	10	...........
STARTTIMEOFFSET	QUANT	1281.147	Start Time Offset (s)