File: Data/CV_CRGO300517_1/PWRCCD_CRGO300517_1/CHARGE_DISCHARGE/CHARGE_#80.DTA
EXPLAIN
TAG	PWR800_CHARGE
TITLE	LABEL	PWR Cyclic Charge Discharge (Cell) - Charge Step	Test &Identifier
DATE	LABEL	22-6-2017	Date
TIME	LABEL	15:38:37	Time
NOTES	NOTES	3	&Notes...
	supercap test cell
	0.6mg
	6M KOH
PSTAT	PSTAT	IFC5000-01520	Potentiostat
CAPACITY	QUANT	1.00000E-003	Capacity (A-hr)
CELLTYPE	SELECTOR	1	&Cell Type
WORKINGCONNECTION	SELECTOR	0	&Working Lead
MAXCHARGETIME	VARIABLEANDUNITS	1.00000E+002	s	1.00000E+002	second(s)	Max &Charge Time
CHARGECURRENT	QUANT	6.00000E-003	&Charge Current (A)
VOLTAGEFINISH	TWOPARAM	F	1.00000E-003	3.60000E+003	&Voltage Finish	 I (A) < 	Max Time(s)
SAMPLETIME	QUANT	1.00000E-002	Sa&mple Period (s)
CHARGESTOPAT1	MULTIPARAM	4	1.00000E+000	Charge Stop At &1	Voltage > Limit	V
CHARGESTOPAT2	MULTIPARAM	0	0.00000E+000	Charge Stop At &2	None	N/A
AESBHCSELECTOR	TOGGLE	F	Save Both Half Cells
IRCOMP	TOGGLE	F	IR &Measure
EOC	QUANT	0	Open Circuit (V)
SEQUENCER	TOGGLE	TRUE	Run as Sequence
PSTATMODEL	IQUANT	53	Pstat Model
PSTATSECTION	LABEL	IFC5000-01520	Pstat Section
PSTATSERIALNO	LABEL	01520	Pstat Serial Number
CTRLMODE	IQUANT	0	Control Mode
ELECTROMETER	IQUANT	1	RE=0 or CS=1
IESTAB	IQUANT	0	I/E Stability
CASPEED	IQUANT	4	Control Amp Speed
CONVENTION	IQUANT	1	Current Convention
ICHRANGE	IQUANT	2	Ich Range
ICHRANGEMODE	TOGGLE	T	Ich Auto Range
ICHOFFSETENABLE	TOGGLE	F	Ich Offset Enable
ICHOFFSET	QUANT	0	Ich Offset (V)
ICHFILTER	IQUANT	1	Ich Filter
VCHRANGE	IQUANT	2	Vch Range
VCHRANGEMODE	TOGGLE	T	Vch Auto Range
VCHOFFSETENABLE	TOGGLE	F	Vch Offset Enable
VCHOFFSET	QUANT	0	Vch Offset (V)
VCHFILTER	IQUANT	1	Vch Filter
IERANGELOWERLIMIT	IQUANT	9	I/E Range Lower Limit
IERANGEMODE	TOGGLE	F	I/E AutoRange
IERANGE	IQUANT	10	I/E Range
ACHSELECT	IQUANT	1	Ach Select
ACHRANGE	IQUANT	2	Ach Range
ACHOFFSETENABLE	TOGGLE	F	Ach Offset Enable
ACHOFFSET	QUANT	0	Ach Offset (V)
ACHFILTER	IQUANT	1	Ach Filter
CABLEID	IQUANT	14	Cable ID
DCCALDATE	LABEL	20-10-2016	DC Calibration Date
ACCALDATE	LABEL	12/3/2015	AC Calibration Date
FRAMEWORKVERSION	QUANT	7.01	Framework Version
INSTRUMENTVERSION	LABEL	4.00	Instrument Version
CURVE	TABLE	71
	Pt	T	Vf	Im	Vu	Pwr	Sig	Ach	Temp	IERange	Over
	#	s	V	A	V	W	V	V	deg C	#	bits
	0	0.013333	5.83576E-001	5.99529E-003	0.00000E+000	3.49871E-003	3.59960E-001	-1.06533E+000	3.57730E+000	10	...........
	1	0.026667	5.91791E-001	5.99413E-003	0.00000E+000	3.54727E-003	3.59960E-001	-1.05316E+000	3.57730E+000	10	...........
	2	0.04	5.99333E-001	5.99648E-003	0.00000E+000	3.59389E-003	3.59960E-001	-1.05391E+000	3.57730E+000	10	...........
	3	0.053333	6.06416E-001	5.99229E-003	0.00000E+000	3.63382E-003	3.59960E-001	-1.06498E+000	3.57730E+000	10	...........
	4	0.066667	6.13305E-001	5.99093E-003	0.00000E+000	3.67427E-003	3.59960E-001	-1.05322E+000	3.57730E+000	10	...........
	5	0.08	6.19985E-001	5.99403E-003	0.00000E+000	3.71621E-003	3.59960E-001	-1.05399E+000	3.57730E+000	10	...........
	6	0.093333	6.26481E-001	5.99237E-003	0.00000E+000	3.75411E-003	3.59960E-001	-1.06488E+000	3.57730E+000	10	...........
	7	0.106667	6.32876E-001	5.99687E-003	0.00000E+000	3.79527E-003	3.59960E-001	-1.05282E+000	3.57730E+000	10	...........
	8	0.12	6.39176E-001	5.99269E-003	0.00000E+000	3.83038E-003	3.59960E-001	-1.05385E+000	3.57730E+000	10	...........
	9	0.133333	6.45430E-001	5.98885E-003	0.00000E+000	3.86538E-003	3.59960E-001	-1.06526E+000	3.57730E+000	10	...........
	10	0.146667	6.51619E-001	5.99766E-003	0.00000E+000	3.90819E-003	3.59960E-001	-1.05323E+000	3.57730E+000	10	...........
	11	0.16	6.57755E-001	5.98998E-003	0.00000E+000	3.93994E-003	3.59960E-001	-1.05376E+000	3.57730E+000	10	...........
	12	0.173333	6.63841E-001	5.99094E-003	0.00000E+000	3.97703E-003	3.59960E-001	-1.06517E+000	3.57730E+000	10	...........
	13	0.186667	6.69924E-001	5.99534E-003	0.00000E+000	4.01642E-003	3.59960E-001	-1.05326E+000	3.57730E+000	10	...........
	14	0.2	6.75934E-001	5.99543E-003	0.00000E+000	4.05252E-003	3.59960E-001	-1.05404E+000	3.57730E+000	10	...........
	15	0.213333	6.81956E-001	5.99565E-003	0.00000E+000	4.08877E-003	3.59960E-001	-1.06511E+000	3.57730E+000	10	...........
	16	0.226667	6.87927E-001	5.99440E-003	0.00000E+000	4.12371E-003	3.59960E-001	-1.05288E+000	3.57730E+000	10	...........
	17	0.24	6.93882E-001	5.99505E-003	0.00000E+000	4.15986E-003	3.59960E-001	-1.05324E+000	3.57730E+000	10	...........
	18	0.253333	6.99800E-001	5.99445E-003	0.00000E+000	4.19492E-003	3.59960E-001	-1.06459E+000	3.57730E+000	10	...........
	19	0.266667	7.05738E-001	5.99294E-003	0.00000E+000	4.22944E-003	3.59960E-001	-1.05284E+000	3.57730E+000	10	...........
	20	0.28	7.11665E-001	5.99380E-003	0.00000E+000	4.26558E-003	3.59960E-001	-1.05331E+000	3.57730E+000	10	...........
	21	0.293333	7.17642E-001	5.99574E-003	0.00000E+000	4.30280E-003	3.59960E-001	-1.06438E+000	3.57730E+000	10	...........
	22	0.306667	7.23557E-001	5.99399E-003	0.00000E+000	4.33699E-003	3.59960E-001	-1.05251E+000	3.57730E+000	10	...........
	23	0.32	7.29405E-001	5.99405E-003	0.00000E+000	4.37209E-003	3.59960E-001	-1.05332E+000	3.57730E+000	10	...........
	24	0.333333	7.35244E-001	5.99386E-003	0.00000E+000	4.40695E-003	3.59960E-001	-1.06463E+000	3.57730E+000	10	...........
	25	0.346667	7.41123E-001	5.99664E-003	0.00000E+000	4.44425E-003	3.59960E-001	-1.05259E+000	3.57730E+000	10	...........
	26	0.36	7.47022E-001	5.99379E-003	0.00000E+000	4.47749E-003	3.59960E-001	-1.05315E+000	3.57730E+000	10	...........
	27	0.373333	7.52823E-001	5.99412E-003	0.00000E+000	4.51251E-003	3.59960E-001	-1.06432E+000	3.57730E+000	10	...........
	28	0.386667	7.58712E-001	5.99327E-003	0.00000E+000	4.54717E-003	3.59960E-001	-1.05293E+000	3.57730E+000	10	...........
	29	0.4	7.64523E-001	5.99570E-003	0.00000E+000	4.58385E-003	3.59960E-001	-1.05331E+000	3.57730E+000	10	...........
	30	0.413333	7.70397E-001	5.99628E-003	0.00000E+000	4.61952E-003	3.59960E-001	-1.06444E+000	3.57730E+000	10	...........
	31	0.426667	7.76253E-001	5.99066E-003	0.00000E+000	4.65027E-003	3.59960E-001	-1.05245E+000	3.57730E+000	10	...........
	32	0.44	7.82100E-001	5.99618E-003	0.00000E+000	4.68961E-003	3.59960E-001	-1.05291E+000	3.57730E+000	10	...........
	33	0.453333	7.87947E-001	5.99548E-003	0.00000E+000	4.72412E-003	3.59960E-001	-1.06437E+000	3.57730E+000	10	...........
	34	0.466667	7.93818E-001	5.99570E-003	0.00000E+000	4.75949E-003	3.59960E-001	-1.05277E+000	3.57730E+000	10	...........
	35	0.48	7.99660E-001	5.99496E-003	0.00000E+000	4.79393E-003	3.59960E-001	-1.05312E+000	3.57730E+000	10	...........
	36	0.493333	8.05445E-001	5.99527E-003	0.00000E+000	4.82886E-003	3.59960E-001	-1.06421E+000	3.57730E+000	10	...........
	37	0.506667	8.11245E-001	5.99521E-003	0.00000E+000	4.86359E-003	3.59960E-001	-1.05246E+000	3.57730E+000	10	...........
	38	0.52	8.17089E-001	5.99358E-003	0.00000E+000	4.89729E-003	3.59960E-001	-1.05304E+000	3.57730E+000	10	...........
	39	0.533333	8.22931E-001	5.99643E-003	0.00000E+000	4.93465E-003	3.59960E-001	-1.06447E+000	3.57730E+000	10	...........
	40	0.546667	8.28724E-001	5.99431E-003	0.00000E+000	4.96763E-003	3.59960E-001	-1.05268E+000	3.57730E+000	10	...........
	41	0.56	8.34539E-001	5.99475E-003	0.00000E+000	5.00285E-003	3.59960E-001	-1.05244E+000	3.57730E+000	10	...........
	42	0.573333	8.40360E-001	5.99134E-003	0.00000E+000	5.03488E-003	3.59960E-001	-1.06373E+000	3.57730E+000	10	...........
	43	0.586667	8.46218E-001	5.99225E-003	0.00000E+000	5.07075E-003	3.59960E-001	-1.05209E+000	3.57730E+000	10	...........
	44	0.6	8.51991E-001	5.99729E-003	0.00000E+000	5.10963E-003	3.59960E-001	-1.05251E+000	3.57730E+000	10	...........
	45	0.613333	8.57769E-001	5.99679E-003	0.00000E+000	5.14386E-003	3.59960E-001	-1.06401E+000	3.57730E+000	10	...........
	46	0.626667	8.63572E-001	5.99469E-003	0.00000E+000	5.17685E-003	3.59960E-001	-1.05198E+000	3.57730E+000	10	...........
	47	0.64	8.69363E-001	5.98907E-003	0.00000E+000	5.20667E-003	3.59960E-001	-1.05218E+000	3.57730E+000	10	...........
	48	0.653333	8.75132E-001	5.99201E-003	0.00000E+000	5.24379E-003	3.59960E-001	-1.06386E+000	3.57730E+000	10	...........
	49	0.666667	8.80921E-001	5.99574E-003	0.00000E+000	5.28178E-003	3.59960E-001	-1.05222E+000	3.57730E+000	10	...........
	50	0.68	8.86701E-001	5.99273E-003	0.00000E+000	5.31376E-003	3.59960E-001	-1.05234E+000	3.57850E+000	10	...........
	51	0.693333	8.92389E-001	5.99539E-003	0.00000E+000	5.35022E-003	3.59960E-001	-1.06370E+000	3.57850E+000	10	...........
	52	0.706667	8.98099E-001	5.99327E-003	0.00000E+000	5.38255E-003	3.59960E-001	-1.05177E+000	3.57850E+000	10	...........
	53	0.72	9.03793E-001	5.99254E-003	0.00000E+000	5.41602E-003	3.59960E-001	-1.05219E+000	3.57850E+000	10	...........
	54	0.733333	9.09507E-001	5.99361E-003	0.00000E+000	5.45123E-003	3.59960E-001	-1.06388E+000	3.57850E+000	10	...........
	55	0.746667	9.15190E-001	5.99224E-003	0.00000E+000	5.48404E-003	3.59960E-001	-1.05203E+000	3.57850E+000	10	...........
	56	0.76	9.20896E-001	5.99184E-003	0.00000E+000	5.51786E-003	3.59960E-001	-1.05192E+000	3.57850E+000	10	...........
	57	0.773333	9.26603E-001	5.99179E-003	0.00000E+000	5.55201E-003	3.59960E-001	-1.06361E+000	3.57850E+000	10	...........
	58	0.786667	9.32229E-001	5.99399E-003	0.00000E+000	5.58777E-003	3.59960E-001	-1.05231E+000	3.57850E+000	10	...........
	59	0.8	9.37822E-001	5.99430E-003	0.00000E+000	5.62159E-003	3.59960E-001	-1.05233E+000	3.57850E+000	10	...........
	60	0.813333	9.43429E-001	5.99246E-003	0.00000E+000	5.65346E-003	3.59960E-001	-1.06383E+000	3.57850E+000	10	...........
	61	0.826667	9.49000E-001	5.99556E-003	0.00000E+000	5.68979E-003	3.59960E-001	-1.05214E+000	3.57850E+000	10	...........
	62	0.84	9.54540E-001	5.99459E-003	0.00000E+000	5.72208E-003	3.59960E-001	-1.05194E+000	3.57850E+000	10	...........
	63	0.853333	9.60038E-001	5.99277E-003	0.00000E+000	5.75329E-003	3.59960E-001	-1.06380E+000	3.57850E+000	10	...........
	64	0.866667	9.65540E-001	5.99174E-003	0.00000E+000	5.78526E-003	3.59960E-001	-1.05236E+000	3.57850E+000	10	...........
	65	0.88	9.71052E-001	5.99203E-003	0.00000E+000	5.81857E-003	3.59960E-001	-1.05189E+000	3.57850E+000	10	...........
	66	0.893333	9.76512E-001	5.99357E-003	0.00000E+000	5.85279E-003	3.59960E-001	-1.06330E+000	3.57850E+000	10	...........
	67	0.906667	9.81909E-001	5.99400E-003	0.00000E+000	5.88556E-003	3.59960E-001	-1.05158E+000	3.57850E+000	10	...........
	68	0.92	9.87280E-001	5.99570E-003	0.00000E+000	5.91944E-003	3.59960E-001	-1.05158E+000	3.57850E+000	10	...........
	69	0.933333	9.92637E-001	5.99401E-003	0.00000E+000	5.94988E-003	3.59960E-001	-1.06354E+000	3.57850E+000	10	...........
	70	0.946667	9.97958E-001	5.99286E-003	0.00000E+000	5.98063E-003	3.59960E-001	-1.05159E+000	3.57850E+000	10	...........
STARTTIMEOFFSET	QUANT	157.965	Start Time Offset (s)