File: Data/CV_CRGO300517_1/PWRCCD_CRGO300517_1/CHARGE_DISCHARGE/CHARGE_#589.DTA
EXPLAIN
TAG	PWR800_CHARGE
TITLE	LABEL	PWR Cyclic Charge Discharge (Cell) - Charge Step	Test &Identifier
DATE	LABEL	22-6-2017	Date
TIME	LABEL	15:59:21	Time
NOTES	NOTES	3	&Notes...
	supercap test cell
	0.6mg
	6M KOH
PSTAT	PSTAT	IFC5000-01520	Potentiostat
CAPACITY	QUANT	1.00000E-003	Capacity (A-hr)
CELLTYPE	SELECTOR	1	&Cell Type
WORKINGCONNECTION	SELECTOR	0	&Working Lead
MAXCHARGETIME	VARIABLEANDUNITS	1.00000E+002	s	1.00000E+002	second(s)	Max &Charge Time
CHARGECURRENT	QUANT	6.00000E-003	&Charge Current (A)
VOLTAGEFINISH	TWOPARAM	F	1.00000E-003	3.60000E+003	&Voltage Finish	 I (A) < 	Max Time(s)
SAMPLETIME	QUANT	1.00000E-002	Sa&mple Period (s)
CHARGESTOPAT1	MULTIPARAM	4	1.00000E+000	Charge Stop At &1	Voltage > Limit	V
CHARGESTOPAT2	MULTIPARAM	0	0.00000E+000	Charge Stop At &2	None	N/A
AESBHCSELECTOR	TOGGLE	F	Save Both Half Cells
IRCOMP	TOGGLE	F	IR &Measure
EOC	QUANT	0	Open Circuit (V)
SEQUENCER	TOGGLE	TRUE	Run as Sequence
PSTATMODEL	IQUANT	53	Pstat Model
PSTATSECTION	LABEL	IFC5000-01520	Pstat Section
PSTATSERIALNO	LABEL	01520	Pstat Serial Number
CTRLMODE	IQUANT	0	Control Mode
ELECTROMETER	IQUANT	1	RE=0 or CS=1
IESTAB	IQUANT	0	I/E Stability
CASPEED	IQUANT	4	Control Amp Speed
CONVENTION	IQUANT	1	Current Convention
ICHRANGE	IQUANT	2	Ich Range
ICHRANGEMODE	TOGGLE	T	Ich Auto Range
ICHOFFSETENABLE	TOGGLE	F	Ich Offset Enable
ICHOFFSET	QUANT	0	Ich Offset (V)
ICHFILTER	IQUANT	1	Ich Filter
VCHRANGE	IQUANT	2	Vch Range
VCHRANGEMODE	TOGGLE	T	Vch Auto Range
VCHOFFSETENABLE	TOGGLE	F	Vch Offset Enable
VCHOFFSET	QUANT	0	Vch Offset (V)
VCHFILTER	IQUANT	1	Vch Filter
IERANGELOWERLIMIT	IQUANT	9	I/E Range Lower Limit
IERANGEMODE	TOGGLE	F	I/E AutoRange
IERANGE	IQUANT	10	I/E Range
ACHSELECT	IQUANT	1	Ach Select
ACHRANGE	IQUANT	2	Ach Range
ACHOFFSETENABLE	TOGGLE	F	Ach Offset Enable
ACHOFFSET	QUANT	0	Ach Offset (V)
ACHFILTER	IQUANT	1	Ach Filter
CABLEID	IQUANT	14	Cable ID
DCCALDATE	LABEL	20-10-2016	DC Calibration Date
ACCALDATE	LABEL	12/3/2015	AC Calibration Date
FRAMEWORKVERSION	QUANT	7.01	Framework Version
INSTRUMENTVERSION	LABEL	4.00	Instrument Version
CURVE	TABLE	57
	Pt	T	Vf	Im	Vu	Pwr	Sig	Ach	Temp	IERange	Over
	#	s	V	A	V	W	V	V	deg C	#	bits
	0	0.013333	6.37447E-001	5.99554E-003	0.00000E+000	3.82184E-003	3.59960E-001	-1.15611E+000	3.57640E+000	10	...........
	1	0.026667	6.46467E-001	5.99118E-003	0.00000E+000	3.87310E-003	3.59960E-001	-1.14816E+000	3.57640E+000	10	...........
	2	0.04	6.54694E-001	5.99528E-003	0.00000E+000	3.92507E-003	3.59960E-001	-1.14496E+000	3.57640E+000	10	...........
	3	0.053333	6.62498E-001	5.99627E-003	0.00000E+000	3.97252E-003	3.59960E-001	-1.15605E+000	3.57640E+000	10	...........
	4	0.066667	6.70043E-001	5.98971E-003	0.00000E+000	4.01337E-003	3.59960E-001	-1.14811E+000	3.57640E+000	10	...........
	5	0.08	6.77401E-001	5.99279E-003	0.00000E+000	4.05952E-003	3.59960E-001	-1.14495E+000	3.57640E+000	10	...........
	6	0.093333	6.84615E-001	5.99449E-003	0.00000E+000	4.10392E-003	3.59960E-001	-1.15566E+000	3.57640E+000	10	...........
	7	0.106667	6.91679E-001	5.99113E-003	0.00000E+000	4.14394E-003	3.59960E-001	-1.14761E+000	3.57640E+000	10	...........
	8	0.12	6.98683E-001	5.99607E-003	0.00000E+000	4.18935E-003	3.59960E-001	-1.14439E+000	3.57640E+000	10	...........
	9	0.133333	7.05595E-001	5.99108E-003	0.00000E+000	4.22728E-003	3.59960E-001	-1.15530E+000	3.57663E+000	10	...........
	10	0.146667	7.12440E-001	5.99532E-003	0.00000E+000	4.27131E-003	3.59960E-001	-1.14764E+000	3.57670E+000	10	...........
	11	0.16	7.19315E-001	5.99447E-003	0.00000E+000	4.31191E-003	3.59960E-001	-1.14427E+000	3.57670E+000	10	...........
	12	0.173333	7.26119E-001	5.99299E-003	0.00000E+000	4.35162E-003	3.59960E-001	-1.15517E+000	3.57670E+000	10	...........
	13	0.186667	7.32824E-001	5.99671E-003	0.00000E+000	4.39453E-003	3.59960E-001	-1.14775E+000	3.57670E+000	10	...........
	14	0.2	7.39546E-001	5.99211E-003	0.00000E+000	4.43145E-003	3.59960E-001	-1.14445E+000	3.57670E+000	10	...........
	15	0.213333	7.46248E-001	5.99303E-003	0.00000E+000	4.47228E-003	3.59960E-001	-1.15518E+000	3.57670E+000	10	...........
	16	0.226667	7.52868E-001	5.99813E-003	0.00000E+000	4.51580E-003	3.59960E-001	-1.14747E+000	3.57670E+000	10	...........
	17	0.24	7.59453E-001	5.98998E-003	0.00000E+000	4.54911E-003	3.59960E-001	-1.14427E+000	3.57670E+000	10	...........
	18	0.253333	7.66045E-001	5.99324E-003	0.00000E+000	4.59109E-003	3.59960E-001	-1.15509E+000	3.57670E+000	10	...........
	19	0.266667	7.72660E-001	5.99023E-003	0.00000E+000	4.62841E-003	3.59960E-001	-1.14740E+000	3.57670E+000	10	...........
	20	0.28	7.79246E-001	5.99369E-003	0.00000E+000	4.67056E-003	3.59960E-001	-1.14410E+000	3.57670E+000	10	...........
	21	0.293333	7.85802E-001	5.99835E-003	0.00000E+000	4.71352E-003	3.59960E-001	-1.15489E+000	3.57670E+000	10	...........
	22	0.306667	7.92322E-001	5.99172E-003	0.00000E+000	4.74737E-003	3.59960E-001	-1.14732E+000	3.57670E+000	10	...........
	23	0.32	7.98841E-001	5.99730E-003	0.00000E+000	4.79089E-003	3.59960E-001	-1.14421E+000	3.57670E+000	10	...........
	24	0.333333	8.05328E-001	5.99564E-003	0.00000E+000	4.82846E-003	3.59960E-001	-1.15519E+000	3.57670E+000	10	...........
	25	0.346667	8.11791E-001	5.99654E-003	0.00000E+000	4.86794E-003	3.59960E-001	-1.14754E+000	3.57670E+000	10	...........
	26	0.36	8.18257E-001	5.99351E-003	0.00000E+000	4.90423E-003	3.59960E-001	-1.14393E+000	3.57670E+000	10	...........
	27	0.373333	8.24690E-001	5.99532E-003	0.00000E+000	4.94429E-003	3.59960E-001	-1.15494E+000	3.57670E+000	10	...........
	28	0.386667	8.31120E-001	5.99452E-003	0.00000E+000	4.98217E-003	3.59960E-001	-1.14724E+000	3.57670E+000	10	...........
	29	0.4	8.37530E-001	5.99491E-003	0.00000E+000	5.02092E-003	3.59960E-001	-1.14414E+000	3.57670E+000	10	...........
	30	0.413333	8.43958E-001	5.99463E-003	0.00000E+000	5.05921E-003	3.59960E-001	-1.15468E+000	3.57670E+000	10	...........
	31	0.426667	8.50350E-001	5.99518E-003	0.00000E+000	5.09800E-003	3.59960E-001	-1.14660E+000	3.57670E+000	10	...........
	32	0.44	8.56711E-001	5.99154E-003	0.00000E+000	5.13302E-003	3.59960E-001	-1.14352E+000	3.57670E+000	10	...........
	33	0.453333	8.63030E-001	5.99522E-003	0.00000E+000	5.17405E-003	3.59960E-001	-1.15456E+000	3.57670E+000	10	...........
	34	0.466667	8.69337E-001	5.99309E-003	0.00000E+000	5.21002E-003	3.59960E-001	-1.14702E+000	3.57670E+000	10	...........
	35	0.48	8.75632E-001	5.99913E-003	0.00000E+000	5.25303E-003	3.59960E-001	-1.14355E+000	3.57670E+000	10	...........
	36	0.493333	8.81885E-001	5.99470E-003	0.00000E+000	5.28664E-003	3.59960E-001	-1.15437E+000	3.57670E+000	10	...........
	37	0.506667	8.88100E-001	5.99774E-003	0.00000E+000	5.32660E-003	3.59960E-001	-1.14684E+000	3.57670E+000	10	...........
	38	0.52	8.94317E-001	5.99499E-003	0.00000E+000	5.36142E-003	3.59960E-001	-1.14363E+000	3.57670E+000	10	...........
	39	0.533333	9.00483E-001	5.98897E-003	0.00000E+000	5.39297E-003	3.59960E-001	-1.15422E+000	3.57670E+000	10	...........
	40	0.546667	9.06617E-001	5.99240E-003	0.00000E+000	5.43282E-003	3.59960E-001	-1.14660E+000	3.57670E+000	10	...........
	41	0.56	9.12735E-001	5.99149E-003	0.00000E+000	5.46864E-003	3.59960E-001	-1.14299E+000	3.57670E+000	10	...........
	42	0.573333	9.18836E-001	5.99563E-003	0.00000E+000	5.50900E-003	3.59960E-001	-1.15429E+000	3.57670E+000	10	...........
	43	0.586667	9.24917E-001	5.99197E-003	0.00000E+000	5.54207E-003	3.59960E-001	-1.14668E+000	3.57670E+000	10	...........
	44	0.6	9.30863E-001	5.99103E-003	0.00000E+000	5.57683E-003	3.59960E-001	-1.14328E+000	3.57670E+000	10	...........
	45	0.613333	9.36851E-001	5.99206E-003	0.00000E+000	5.61367E-003	3.59960E-001	-1.15415E+000	3.57670E+000	10	...........
	46	0.626667	9.42729E-001	5.99447E-003	0.00000E+000	5.65116E-003	3.59960E-001	-1.14654E+000	3.57670E+000	10	...........
	47	0.64	9.48660E-001	5.99393E-003	0.00000E+000	5.68620E-003	3.59960E-001	-1.14330E+000	3.57670E+000	10	...........
	48	0.653333	9.54516E-001	5.98998E-003	0.00000E+000	5.71754E-003	3.59960E-001	-1.15421E+000	3.57670E+000	10	...........
	49	0.666667	9.60289E-001	5.99574E-003	0.00000E+000	5.75765E-003	3.59960E-001	-1.14680E+000	3.57670E+000	10	...........
	50	0.68	9.65994E-001	5.99769E-003	0.00000E+000	5.79373E-003	3.59960E-001	-1.14338E+000	3.57670E+000	10	...........
	51	0.693333	9.71692E-001	5.99221E-003	0.00000E+000	5.82258E-003	3.59960E-001	-1.15398E+000	3.57670E+000	10	...........
	52	0.706667	9.77431E-001	5.99876E-003	0.00000E+000	5.86337E-003	3.59960E-001	-1.14657E+000	3.57670E+000	10	...........
	53	0.72	9.83039E-001	5.99337E-003	0.00000E+000	5.89172E-003	3.59960E-001	-1.14334E+000	3.57670E+000	10	...........
	54	0.733333	9.88627E-001	5.98867E-003	0.00000E+000	5.92056E-003	3.59960E-001	-1.15396E+000	3.57670E+000	10	...........
	55	0.746667	9.94143E-001	5.99489E-003	0.00000E+000	5.95977E-003	3.59960E-001	-1.14632E+000	3.57670E+000	10	...........
	56	0.755	9.98625E-001	5.99256E-003	0.00000E+000	5.98432E-003	3.59960E-001	-1.14639E+000	3.57670E+000	10	...........
STARTTIMEOFFSET	QUANT	994.425	Start Time Offset (s)