File: Data/CV_CRGO300517_1/PWRCCD_CRGO300517_1/CHARGE_DISCHARGE/CHARGE_#520.DTA
EXPLAIN
TAG	PWR800_CHARGE
TITLE	LABEL	PWR Cyclic Charge Discharge (Cell) - Charge Step	Test &Identifier
DATE	LABEL	22-6-2017	Date
TIME	LABEL	15:56:42	Time
NOTES	NOTES	3	&Notes...
	supercap test cell
	0.6mg
	6M KOH
PSTAT	PSTAT	IFC5000-01520	Potentiostat
CAPACITY	QUANT	1.00000E-003	Capacity (A-hr)
CELLTYPE	SELECTOR	1	&Cell Type
WORKINGCONNECTION	SELECTOR	0	&Working Lead
MAXCHARGETIME	VARIABLEANDUNITS	1.00000E+002	s	1.00000E+002	second(s)	Max &Charge Time
CHARGECURRENT	QUANT	6.00000E-003	&Charge Current (A)
VOLTAGEFINISH	TWOPARAM	F	1.00000E-003	3.60000E+003	&Voltage Finish	 I (A) < 	Max Time(s)
SAMPLETIME	QUANT	1.00000E-002	Sa&mple Period (s)
CHARGESTOPAT1	MULTIPARAM	4	1.00000E+000	Charge Stop At &1	Voltage > Limit	V
CHARGESTOPAT2	MULTIPARAM	0	0.00000E+000	Charge Stop At &2	None	N/A
AESBHCSELECTOR	TOGGLE	F	Save Both Half Cells
IRCOMP	TOGGLE	F	IR &Measure
EOC	QUANT	0	Open Circuit (V)
SEQUENCER	TOGGLE	TRUE	Run as Sequence
PSTATMODEL	IQUANT	53	Pstat Model
PSTATSECTION	LABEL	IFC5000-01520	Pstat Section
PSTATSERIALNO	LABEL	01520	Pstat Serial Number
CTRLMODE	IQUANT	0	Control Mode
ELECTROMETER	IQUANT	1	RE=0 or CS=1
IESTAB	IQUANT	0	I/E Stability
CASPEED	IQUANT	4	Control Amp Speed
CONVENTION	IQUANT	1	Current Convention
ICHRANGE	IQUANT	2	Ich Range
ICHRANGEMODE	TOGGLE	T	Ich Auto Range
ICHOFFSETENABLE	TOGGLE	F	Ich Offset Enable
ICHOFFSET	QUANT	0	Ich Offset (V)
ICHFILTER	IQUANT	1	Ich Filter
VCHRANGE	IQUANT	2	Vch Range
VCHRANGEMODE	TOGGLE	T	Vch Auto Range
VCHOFFSETENABLE	TOGGLE	F	Vch Offset Enable
VCHOFFSET	QUANT	0	Vch Offset (V)
VCHFILTER	IQUANT	1	Vch Filter
IERANGELOWERLIMIT	IQUANT	9	I/E Range Lower Limit
IERANGEMODE	TOGGLE	F	I/E AutoRange
IERANGE	IQUANT	10	I/E Range
ACHSELECT	IQUANT	1	Ach Select
ACHRANGE	IQUANT	2	Ach Range
ACHOFFSETENABLE	TOGGLE	F	Ach Offset Enable
ACHOFFSET	QUANT	0	Ach Offset (V)
ACHFILTER	IQUANT	1	Ach Filter
CABLEID	IQUANT	14	Cable ID
DCCALDATE	LABEL	20-10-2016	DC Calibration Date
ACCALDATE	LABEL	12/3/2015	AC Calibration Date
FRAMEWORKVERSION	QUANT	7.01	Framework Version
INSTRUMENTVERSION	LABEL	4.00	Instrument Version
CURVE	TABLE	58
	Pt	T	Vf	Im	Vu	Pwr	Sig	Ach	Temp	IERange	Over
	#	s	V	A	V	W	V	V	deg C	#	bits
	0	0.013333	6.33388E-001	5.99358E-003	0.00000E+000	3.79627E-003	3.59960E-001	-1.12075E+000	3.57700E+000	10	...........
	1	0.026667	6.42309E-001	5.99459E-003	0.00000E+000	3.85038E-003	3.59960E-001	-1.11576E+000	3.57700E+000	10	...........
	2	0.04	6.50499E-001	5.99470E-003	0.00000E+000	3.89954E-003	3.59960E-001	-1.12481E+000	3.57700E+000	10	...........
	3	0.053333	6.58256E-001	5.99447E-003	0.00000E+000	3.94590E-003	3.59960E-001	-1.12073E+000	3.57700E+000	10	...........
	4	0.066667	6.65773E-001	5.99525E-003	0.00000E+000	3.99148E-003	3.59960E-001	-1.11613E+000	3.57700E+000	10	...........
	5	0.08	6.73048E-001	5.99652E-003	0.00000E+000	4.03595E-003	3.59960E-001	-1.12535E+000	3.57700E+000	10	...........
	6	0.093333	6.80141E-001	5.98913E-003	0.00000E+000	4.07345E-003	3.59960E-001	-1.12118E+000	3.57700E+000	10	...........
	7	0.106667	6.87165E-001	5.99619E-003	0.00000E+000	4.12037E-003	3.59960E-001	-1.11615E+000	3.57700E+000	10	...........
	8	0.12	6.94147E-001	5.99145E-003	0.00000E+000	4.15895E-003	3.59960E-001	-1.12586E+000	3.57700E+000	10	...........
	9	0.133333	7.01012E-001	5.99812E-003	0.00000E+000	4.20476E-003	3.59960E-001	-1.12176E+000	3.57700E+000	10	...........
	10	0.146667	7.07767E-001	5.99622E-003	0.00000E+000	4.24393E-003	3.59960E-001	-1.11674E+000	3.57700E+000	10	...........
	11	0.16	7.14556E-001	5.99370E-003	0.00000E+000	4.28283E-003	3.59960E-001	-1.12611E+000	3.57700E+000	10	...........
	12	0.173333	7.21303E-001	5.98985E-003	0.00000E+000	4.32050E-003	3.59960E-001	-1.12142E+000	3.57700E+000	10	...........
	13	0.186667	7.27942E-001	5.98886E-003	0.00000E+000	4.35954E-003	3.59960E-001	-1.11663E+000	3.57700E+000	10	...........
	14	0.2	7.34530E-001	5.99324E-003	0.00000E+000	4.40221E-003	3.59960E-001	-1.12647E+000	3.57700E+000	10	...........
	15	0.213333	7.41187E-001	5.98993E-003	0.00000E+000	4.43966E-003	3.59960E-001	-1.12163E+000	3.57704E+000	10	...........
	16	0.226667	7.47802E-001	5.99521E-003	0.00000E+000	4.48323E-003	3.59960E-001	-1.11690E+000	3.57730E+000	10	...........
	17	0.24	7.54382E-001	5.99599E-003	0.00000E+000	4.52327E-003	3.59960E-001	-1.12673E+000	3.57730E+000	10	...........
	18	0.253333	7.60942E-001	5.99907E-003	0.00000E+000	4.56494E-003	3.59960E-001	-1.12199E+000	3.57730E+000	10	...........
	19	0.266667	7.67446E-001	5.99510E-003	0.00000E+000	4.60091E-003	3.59960E-001	-1.11737E+000	3.57730E+000	10	...........
	20	0.28	7.73977E-001	5.99458E-003	0.00000E+000	4.63967E-003	3.59960E-001	-1.12718E+000	3.57730E+000	10	...........
	21	0.293333	7.80509E-001	5.99508E-003	0.00000E+000	4.67922E-003	3.59960E-001	-1.12210E+000	3.57730E+000	10	...........
	22	0.306667	7.86984E-001	5.98994E-003	0.00000E+000	4.71399E-003	3.59960E-001	-1.11753E+000	3.57730E+000	10	...........
	23	0.32	7.93485E-001	5.99570E-003	0.00000E+000	4.75750E-003	3.59960E-001	-1.12731E+000	3.57730E+000	10	...........
	24	0.333333	7.99931E-001	5.99681E-003	0.00000E+000	4.79703E-003	3.59960E-001	-1.12259E+000	3.57730E+000	10	...........
	25	0.346667	8.06355E-001	5.99268E-003	0.00000E+000	4.83222E-003	3.59960E-001	-1.11788E+000	3.57730E+000	10	...........
	26	0.36	8.12740E-001	5.99243E-003	0.00000E+000	4.87028E-003	3.59960E-001	-1.12772E+000	3.57730E+000	10	...........
	27	0.373333	8.19153E-001	5.99668E-003	0.00000E+000	4.91220E-003	3.59960E-001	-1.12267E+000	3.57730E+000	10	...........
	28	0.386667	8.25531E-001	5.98959E-003	0.00000E+000	4.94459E-003	3.59960E-001	-1.11820E+000	3.57730E+000	10	...........
	29	0.4	8.31912E-001	5.99342E-003	0.00000E+000	4.98599E-003	3.59960E-001	-1.12833E+000	3.57730E+000	10	...........
	30	0.413333	8.38232E-001	5.99821E-003	0.00000E+000	5.02789E-003	3.59960E-001	-1.12316E+000	3.57730E+000	10	...........
	31	0.426667	8.44615E-001	5.99159E-003	0.00000E+000	5.06059E-003	3.59960E-001	-1.11840E+000	3.57730E+000	10	...........
	32	0.44	8.50960E-001	5.99276E-003	0.00000E+000	5.09960E-003	3.59960E-001	-1.12838E+000	3.57730E+000	10	...........
	33	0.453333	8.57220E-001	5.99307E-003	0.00000E+000	5.13738E-003	3.59960E-001	-1.12300E+000	3.57730E+000	10	...........
	34	0.466667	8.63481E-001	5.99129E-003	0.00000E+000	5.17336E-003	3.59960E-001	-1.11867E+000	3.57730E+000	10	...........
	35	0.48	8.69775E-001	5.99263E-003	0.00000E+000	5.21224E-003	3.59960E-001	-1.12865E+000	3.57730E+000	10	...........
	36	0.493333	8.76039E-001	5.99615E-003	0.00000E+000	5.25286E-003	3.59960E-001	-1.12308E+000	3.57730E+000	10	...........
	37	0.506667	8.82289E-001	5.99470E-003	0.00000E+000	5.28906E-003	3.59960E-001	-1.11885E+000	3.57730E+000	10	...........
	38	0.52	8.88483E-001	5.99559E-003	0.00000E+000	5.32697E-003	3.59960E-001	-1.12883E+000	3.57730E+000	10	...........
	39	0.533333	8.94634E-001	5.99217E-003	0.00000E+000	5.36080E-003	3.59960E-001	-1.12340E+000	3.57730E+000	10	...........
	40	0.546667	9.00780E-001	5.99741E-003	0.00000E+000	5.40235E-003	3.59960E-001	-1.11920E+000	3.57730E+000	10	...........
	41	0.56	9.06891E-001	5.99828E-003	0.00000E+000	5.43978E-003	3.59960E-001	-1.12903E+000	3.57730E+000	10	...........
	42	0.573333	9.12959E-001	5.99343E-003	0.00000E+000	5.47175E-003	3.59960E-001	-1.12351E+000	3.57730E+000	10	...........
	43	0.586667	9.19037E-001	5.99200E-003	0.00000E+000	5.50686E-003	3.59960E-001	-1.11913E+000	3.57730E+000	10	...........
	44	0.6	9.25124E-001	5.99471E-003	0.00000E+000	5.54585E-003	3.59960E-001	-1.12928E+000	3.57730E+000	10	...........
	45	0.613333	9.31077E-001	5.99295E-003	0.00000E+000	5.57990E-003	3.59960E-001	-1.12372E+000	3.57730E+000	10	...........
	46	0.626667	9.36949E-001	5.99478E-003	0.00000E+000	5.61681E-003	3.59960E-001	-1.11941E+000	3.57730E+000	10	...........
	47	0.64	9.42842E-001	5.99207E-003	0.00000E+000	5.64957E-003	3.59960E-001	-1.12983E+000	3.57730E+000	10	...........
	48	0.653333	9.48731E-001	5.99085E-003	0.00000E+000	5.68371E-003	3.59960E-001	-1.12379E+000	3.57730E+000	10	...........
	49	0.666667	9.54556E-001	5.99764E-003	0.00000E+000	5.72508E-003	3.59960E-001	-1.11982E+000	3.57730E+000	10	...........
	50	0.68	9.60297E-001	5.99605E-003	0.00000E+000	5.75799E-003	3.59960E-001	-1.12996E+000	3.57730E+000	10	...........
	51	0.693333	9.66065E-001	5.99553E-003	0.00000E+000	5.79208E-003	3.59960E-001	-1.12411E+000	3.57730E+000	10	...........
	52	0.706667	9.71806E-001	5.99146E-003	0.00000E+000	5.82253E-003	3.59960E-001	-1.11991E+000	3.57730E+000	10	...........
	53	0.72	9.77482E-001	5.99865E-003	0.00000E+000	5.86357E-003	3.59960E-001	-1.13029E+000	3.57730E+000	10	...........
	54	0.733333	9.83085E-001	5.99203E-003	0.00000E+000	5.89067E-003	3.59960E-001	-1.12453E+000	3.57730E+000	10	...........
	55	0.746667	9.88610E-001	5.98882E-003	0.00000E+000	5.92060E-003	3.59960E-001	-1.12019E+000	3.57730E+000	10	...........
	56	0.76	9.94119E-001	5.99407E-003	0.00000E+000	5.95882E-003	3.59960E-001	-1.13069E+000	3.57730E+000	10	...........
	57	0.77	9.98927E-001	5.99261E-003	0.00000E+000	5.98618E-003	3.59960E-001	-1.12108E+000	3.57730E+000	10	...........
STARTTIMEOFFSET	QUANT	889.7435	Start Time Offset (s)