File: Data/CV_CRGO300517_1/PWRCCD_CRGO300517_1/CHARGE_DISCHARGE/CHARGE_#981.DTA
EXPLAIN
TAG	PWR800_CHARGE
TITLE	LABEL	PWR Cyclic Charge Discharge (Cell) - Charge Step	Test &Identifier
DATE	LABEL	22-6-2017	Date
TIME	LABEL	16:13:57	Time
NOTES	NOTES	3	&Notes...
	supercap test cell
	0.6mg
	6M KOH
PSTAT	PSTAT	IFC5000-01520	Potentiostat
CAPACITY	QUANT	1.00000E-003	Capacity (A-hr)
CELLTYPE	SELECTOR	1	&Cell Type
WORKINGCONNECTION	SELECTOR	0	&Working Lead
MAXCHARGETIME	VARIABLEANDUNITS	1.00000E+002	s	1.00000E+002	second(s)	Max &Charge Time
CHARGECURRENT	QUANT	6.00000E-003	&Charge Current (A)
VOLTAGEFINISH	TWOPARAM	F	1.00000E-003	3.60000E+003	&Voltage Finish	 I (A) < 	Max Time(s)
SAMPLETIME	QUANT	1.00000E-002	Sa&mple Period (s)
CHARGESTOPAT1	MULTIPARAM	4	1.00000E+000	Charge Stop At &1	Voltage > Limit	V
CHARGESTOPAT2	MULTIPARAM	0	0.00000E+000	Charge Stop At &2	None	N/A
AESBHCSELECTOR	TOGGLE	F	Save Both Half Cells
IRCOMP	TOGGLE	F	IR &Measure
EOC	QUANT	0	Open Circuit (V)
SEQUENCER	TOGGLE	TRUE	Run as Sequence
PSTATMODEL	IQUANT	53	Pstat Model
PSTATSECTION	LABEL	IFC5000-01520	Pstat Section
PSTATSERIALNO	LABEL	01520	Pstat Serial Number
CTRLMODE	IQUANT	0	Control Mode
ELECTROMETER	IQUANT	1	RE=0 or CS=1
IESTAB	IQUANT	0	I/E Stability
CASPEED	IQUANT	4	Control Amp Speed
CONVENTION	IQUANT	1	Current Convention
ICHRANGE	IQUANT	2	Ich Range
ICHRANGEMODE	TOGGLE	T	Ich Auto Range
ICHOFFSETENABLE	TOGGLE	F	Ich Offset Enable
ICHOFFSET	QUANT	0	Ich Offset (V)
ICHFILTER	IQUANT	1	Ich Filter
VCHRANGE	IQUANT	2	Vch Range
VCHRANGEMODE	TOGGLE	T	Vch Auto Range
VCHOFFSETENABLE	TOGGLE	F	Vch Offset Enable
VCHOFFSET	QUANT	0	Vch Offset (V)
VCHFILTER	IQUANT	1	Vch Filter
IERANGELOWERLIMIT	IQUANT	9	I/E Range Lower Limit
IERANGEMODE	TOGGLE	F	I/E AutoRange
IERANGE	IQUANT	10	I/E Range
ACHSELECT	IQUANT	1	Ach Select
ACHRANGE	IQUANT	2	Ach Range
ACHOFFSETENABLE	TOGGLE	F	Ach Offset Enable
ACHOFFSET	QUANT	0	Ach Offset (V)
ACHFILTER	IQUANT	1	Ach Filter
CABLEID	IQUANT	14	Cable ID
DCCALDATE	LABEL	20-10-2016	DC Calibration Date
ACCALDATE	LABEL	12/3/2015	AC Calibration Date
FRAMEWORKVERSION	QUANT	7.01	Framework Version
INSTRUMENTVERSION	LABEL	4.00	Instrument Version
CURVE	TABLE	53
	Pt	T	Vf	Im	Vu	Pwr	Sig	Ach	Temp	IERange	Over
	#	s	V	A	V	W	V	V	deg C	#	bits
	0	0.013333	6.56458E-001	5.99670E-003	0.00000E+000	3.93658E-003	3.59960E-001	-1.17451E+000	3.57650E+000	10	...........
	1	0.026667	6.65850E-001	5.99481E-003	0.00000E+000	3.99165E-003	3.59960E-001	-1.17686E+000	3.57650E+000	10	...........
	2	0.04	6.74480E-001	5.99219E-003	0.00000E+000	4.04161E-003	3.59960E-001	-1.18510E+000	3.57650E+000	10	...........
	3	0.053333	6.82645E-001	5.99597E-003	0.00000E+000	4.09312E-003	3.59960E-001	-1.17459E+000	3.57650E+000	10	...........
	4	0.066667	6.90511E-001	5.99847E-003	0.00000E+000	4.14201E-003	3.59960E-001	-1.17664E+000	3.57650E+000	10	...........
	5	0.08	6.98184E-001	5.99663E-003	0.00000E+000	4.18675E-003	3.59960E-001	-1.18499E+000	3.57650E+000	10	...........
	6	0.093333	7.05651E-001	5.99574E-003	0.00000E+000	4.23090E-003	3.59960E-001	-1.17451E+000	3.57650E+000	10	...........
	7	0.106667	7.13075E-001	5.99581E-003	0.00000E+000	4.27547E-003	3.59960E-001	-1.17669E+000	3.57650E+000	10	...........
	8	0.12	7.20438E-001	5.99101E-003	0.00000E+000	4.31615E-003	3.59960E-001	-1.18457E+000	3.57650E+000	10	...........
	9	0.133333	7.27607E-001	5.99395E-003	0.00000E+000	4.36124E-003	3.59960E-001	-1.17378E+000	3.57650E+000	10	...........
	10	0.146667	7.34725E-001	5.99643E-003	0.00000E+000	4.40573E-003	3.59960E-001	-1.17641E+000	3.57681E+000	10	...........
	11	0.16	7.41812E-001	5.99435E-003	0.00000E+000	4.44669E-003	3.59960E-001	-1.18474E+000	3.57700E+000	10	...........
	12	0.173333	7.48845E-001	5.99004E-003	0.00000E+000	4.48561E-003	3.59960E-001	-1.17413E+000	3.57700E+000	10	...........
	13	0.186667	7.55839E-001	5.98938E-003	0.00000E+000	4.52700E-003	3.59960E-001	-1.17609E+000	3.57700E+000	10	...........
	14	0.2	7.62791E-001	5.99585E-003	0.00000E+000	4.57358E-003	3.59960E-001	-1.18439E+000	3.57700E+000	10	...........
	15	0.213333	7.69684E-001	5.98914E-003	0.00000E+000	4.60974E-003	3.59960E-001	-1.17387E+000	3.57700E+000	10	...........
	16	0.226667	7.76560E-001	5.99319E-003	0.00000E+000	4.65407E-003	3.59960E-001	-1.17621E+000	3.57700E+000	10	...........
	17	0.24	7.83426E-001	5.99639E-003	0.00000E+000	4.69773E-003	3.59960E-001	-1.18440E+000	3.57700E+000	10	...........
	18	0.253333	7.90241E-001	5.99620E-003	0.00000E+000	4.73845E-003	3.59960E-001	-1.17387E+000	3.57700E+000	10	...........
	19	0.266667	7.97030E-001	5.99299E-003	0.00000E+000	4.77659E-003	3.59960E-001	-1.17618E+000	3.57700E+000	10	...........
	20	0.28	8.03811E-001	5.98914E-003	0.00000E+000	4.81414E-003	3.59960E-001	-1.18407E+000	3.57700E+000	10	...........
	21	0.293333	8.10555E-001	5.99474E-003	0.00000E+000	4.85907E-003	3.59960E-001	-1.17379E+000	3.57700E+000	10	...........
	22	0.306667	8.17283E-001	5.99016E-003	0.00000E+000	4.89566E-003	3.59960E-001	-1.17605E+000	3.57700E+000	10	...........
	23	0.32	8.24000E-001	5.99873E-003	0.00000E+000	4.94295E-003	3.59960E-001	-1.18411E+000	3.57700E+000	10	...........
	24	0.333333	8.30703E-001	5.99476E-003	0.00000E+000	4.97986E-003	3.59960E-001	-1.17366E+000	3.57700E+000	10	...........
	25	0.346667	8.37355E-001	5.99385E-003	0.00000E+000	5.01898E-003	3.59960E-001	-1.17632E+000	3.57700E+000	10	...........
	26	0.36	8.43961E-001	5.99146E-003	0.00000E+000	5.05656E-003	3.59960E-001	-1.18434E+000	3.57700E+000	10	...........
	27	0.373333	8.50592E-001	5.99555E-003	0.00000E+000	5.09977E-003	3.59960E-001	-1.17382E+000	3.57700E+000	10	...........
	28	0.386667	8.57131E-001	5.99455E-003	0.00000E+000	5.13812E-003	3.59960E-001	-1.17643E+000	3.57700E+000	10	...........
	29	0.4	8.63660E-001	5.99438E-003	0.00000E+000	5.17710E-003	3.59960E-001	-1.18403E+000	3.57700E+000	10	...........
	30	0.413333	8.70200E-001	5.99071E-003	0.00000E+000	5.21312E-003	3.59960E-001	-1.17369E+000	3.57700E+000	10	...........
	31	0.426667	8.76637E-001	5.99737E-003	0.00000E+000	5.25752E-003	3.59960E-001	-1.17649E+000	3.57700E+000	10	...........
	32	0.44	8.83047E-001	5.98979E-003	0.00000E+000	5.28926E-003	3.59960E-001	-1.18394E+000	3.57700E+000	10	...........
	33	0.453333	8.89447E-001	5.99172E-003	0.00000E+000	5.32931E-003	3.59960E-001	-1.17344E+000	3.57700E+000	10	...........
	34	0.466667	8.95827E-001	5.99655E-003	0.00000E+000	5.37187E-003	3.59960E-001	-1.17594E+000	3.57700E+000	10	...........
	35	0.48	9.02149E-001	5.99303E-003	0.00000E+000	5.40661E-003	3.59960E-001	-1.18362E+000	3.57700E+000	10	...........
	36	0.493333	9.08480E-001	5.99695E-003	0.00000E+000	5.44811E-003	3.59960E-001	-1.17323E+000	3.57700E+000	10	...........
	37	0.506667	9.14726E-001	5.99344E-003	0.00000E+000	5.48235E-003	3.59960E-001	-1.17617E+000	3.57700E+000	10	...........
	38	0.52	9.20957E-001	5.99561E-003	0.00000E+000	5.52170E-003	3.59960E-001	-1.18354E+000	3.57700E+000	10	...........
	39	0.533333	9.27143E-001	5.99516E-003	0.00000E+000	5.55837E-003	3.59960E-001	-1.17305E+000	3.57700E+000	10	...........
	40	0.546667	9.33222E-001	5.98868E-003	0.00000E+000	5.58877E-003	3.59960E-001	-1.17609E+000	3.57700E+000	10	...........
	41	0.56	9.39269E-001	5.99574E-003	0.00000E+000	5.63161E-003	3.59960E-001	-1.18341E+000	3.57700E+000	10	...........
	42	0.573333	9.45262E-001	5.99396E-003	0.00000E+000	5.66586E-003	3.59960E-001	-1.17344E+000	3.57700E+000	10	...........
	43	0.586667	9.51277E-001	5.99257E-003	0.00000E+000	5.70060E-003	3.59960E-001	-1.17623E+000	3.57700E+000	10	...........
	44	0.6	9.57232E-001	5.99782E-003	0.00000E+000	5.74130E-003	3.59960E-001	-1.18356E+000	3.57700E+000	10	...........
	45	0.613333	9.63079E-001	5.99487E-003	0.00000E+000	5.77353E-003	3.59960E-001	-1.17323E+000	3.57700E+000	10	...........
	46	0.626667	9.68884E-001	5.99433E-003	0.00000E+000	5.80781E-003	3.59960E-001	-1.17609E+000	3.57700E+000	10	...........
	47	0.64	9.74717E-001	5.99427E-003	0.00000E+000	5.84272E-003	3.59960E-001	-1.18347E+000	3.57700E+000	10	...........
	48	0.653333	9.80463E-001	5.99457E-003	0.00000E+000	5.87746E-003	3.59960E-001	-1.17329E+000	3.57700E+000	10	...........
	49	0.666667	9.86104E-001	5.99653E-003	0.00000E+000	5.91321E-003	3.59960E-001	-1.17650E+000	3.57700E+000	10	...........
	50	0.68	9.91700E-001	5.99192E-003	0.00000E+000	5.94219E-003	3.59960E-001	-1.18344E+000	3.57700E+000	10	...........
	51	0.693333	9.97287E-001	5.98971E-003	0.00000E+000	5.97346E-003	3.59960E-001	-1.17330E+000	3.57700E+000	10	...........
	52	0.695	1.00044E+000	6.00247E-003	0.00000E+000	6.00514E-003	3.59960E-001	-1.18815E+000	3.57700E+000	10	...........
STARTTIMEOFFSET	QUANT	1559.012	Start Time Offset (s)