File: Data/CV_CRGO300517_1/PWRCCD_CRGO300517_1/CHARGE_DISCHARGE/CHARGE_#815.DTA
EXPLAIN
TAG	PWR800_CHARGE
TITLE	LABEL	PWR Cyclic Charge Discharge (Cell) - Charge Step	Test &Identifier
DATE	LABEL	22-6-2017	Date
TIME	LABEL	16:07:50	Time
NOTES	NOTES	3	&Notes...
	supercap test cell
	0.6mg
	6M KOH
PSTAT	PSTAT	IFC5000-01520	Potentiostat
CAPACITY	QUANT	1.00000E-003	Capacity (A-hr)
CELLTYPE	SELECTOR	1	&Cell Type
WORKINGCONNECTION	SELECTOR	0	&Working Lead
MAXCHARGETIME	VARIABLEANDUNITS	1.00000E+002	s	1.00000E+002	second(s)	Max &Charge Time
CHARGECURRENT	QUANT	6.00000E-003	&Charge Current (A)
VOLTAGEFINISH	TWOPARAM	F	1.00000E-003	3.60000E+003	&Voltage Finish	 I (A) < 	Max Time(s)
SAMPLETIME	QUANT	1.00000E-002	Sa&mple Period (s)
CHARGESTOPAT1	MULTIPARAM	4	1.00000E+000	Charge Stop At &1	Voltage > Limit	V
CHARGESTOPAT2	MULTIPARAM	0	0.00000E+000	Charge Stop At &2	None	N/A
AESBHCSELECTOR	TOGGLE	F	Save Both Half Cells
IRCOMP	TOGGLE	F	IR &Measure
EOC	QUANT	0	Open Circuit (V)
SEQUENCER	TOGGLE	TRUE	Run as Sequence
PSTATMODEL	IQUANT	53	Pstat Model
PSTATSECTION	LABEL	IFC5000-01520	Pstat Section
PSTATSERIALNO	LABEL	01520	Pstat Serial Number
CTRLMODE	IQUANT	0	Control Mode
ELECTROMETER	IQUANT	1	RE=0 or CS=1
IESTAB	IQUANT	0	I/E Stability
CASPEED	IQUANT	4	Control Amp Speed
CONVENTION	IQUANT	1	Current Convention
ICHRANGE	IQUANT	2	Ich Range
ICHRANGEMODE	TOGGLE	T	Ich Auto Range
ICHOFFSETENABLE	TOGGLE	F	Ich Offset Enable
ICHOFFSET	QUANT	0	Ich Offset (V)
ICHFILTER	IQUANT	1	Ich Filter
VCHRANGE	IQUANT	2	Vch Range
VCHRANGEMODE	TOGGLE	T	Vch Auto Range
VCHOFFSETENABLE	TOGGLE	F	Vch Offset Enable
VCHOFFSET	QUANT	0	Vch Offset (V)
VCHFILTER	IQUANT	1	Vch Filter
IERANGELOWERLIMIT	IQUANT	9	I/E Range Lower Limit
IERANGEMODE	TOGGLE	F	I/E AutoRange
IERANGE	IQUANT	10	I/E Range
ACHSELECT	IQUANT	1	Ach Select
ACHRANGE	IQUANT	2	Ach Range
ACHOFFSETENABLE	TOGGLE	F	Ach Offset Enable
ACHOFFSET	QUANT	0	Ach Offset (V)
ACHFILTER	IQUANT	1	Ach Filter
CABLEID	IQUANT	14	Cable ID
DCCALDATE	LABEL	20-10-2016	DC Calibration Date
ACCALDATE	LABEL	12/3/2015	AC Calibration Date
FRAMEWORKVERSION	QUANT	7.01	Framework Version
INSTRUMENTVERSION	LABEL	4.00	Instrument Version
CURVE	TABLE	54
	Pt	T	Vf	Im	Vu	Pwr	Sig	Ach	Temp	IERange	Over
	#	s	V	A	V	W	V	V	deg C	#	bits
	0	0.013333	6.49299E-001	5.99169E-003	0.00000E+000	3.89040E-003	3.59960E-001	-1.15934E+000	3.57680E+000	10	...........
	1	0.026667	6.58483E-001	5.99134E-003	0.00000E+000	3.94519E-003	3.59960E-001	-1.16848E+000	3.57680E+000	10	...........
	2	0.04	6.67012E-001	5.99375E-003	0.00000E+000	3.99790E-003	3.59960E-001	-1.16486E+000	3.57680E+000	10	...........
	3	0.053333	6.75036E-001	5.99271E-003	0.00000E+000	4.04529E-003	3.59960E-001	-1.15937E+000	3.57680E+000	10	...........
	4	0.066667	6.82739E-001	5.99060E-003	0.00000E+000	4.09002E-003	3.59960E-001	-1.16837E+000	3.57680E+000	10	...........
	5	0.08	6.90264E-001	5.99750E-003	0.00000E+000	4.13986E-003	3.59960E-001	-1.16441E+000	3.57680E+000	10	...........
	6	0.093333	6.97670E-001	5.99657E-003	0.00000E+000	4.18362E-003	3.59960E-001	-1.15935E+000	3.57680E+000	10	...........
	7	0.106667	7.04931E-001	5.99289E-003	0.00000E+000	4.22458E-003	3.59960E-001	-1.16861E+000	3.57680E+000	10	...........
	8	0.12	7.12051E-001	5.99421E-003	0.00000E+000	4.26818E-003	3.59960E-001	-1.16457E+000	3.57680E+000	10	...........
	9	0.133333	7.19206E-001	5.99540E-003	0.00000E+000	4.31193E-003	3.59960E-001	-1.15924E+000	3.57680E+000	10	...........
	10	0.146667	7.26234E-001	5.98845E-003	0.00000E+000	4.34902E-003	3.59960E-001	-1.16845E+000	3.57680E+000	10	...........
	11	0.16	7.33197E-001	5.98932E-003	0.00000E+000	4.39135E-003	3.59960E-001	-1.16440E+000	3.57680E+000	10	...........
	12	0.173333	7.40163E-001	5.99118E-003	0.00000E+000	4.43445E-003	3.59960E-001	-1.15915E+000	3.57680E+000	10	...........
	13	0.186667	7.47064E-001	5.99284E-003	0.00000E+000	4.47704E-003	3.59960E-001	-1.16822E+000	3.57680E+000	10	...........
	14	0.2	7.53928E-001	5.99592E-003	0.00000E+000	4.52049E-003	3.59960E-001	-1.16394E+000	3.57680E+000	10	...........
	15	0.213333	7.60762E-001	5.99405E-003	0.00000E+000	4.56005E-003	3.59960E-001	-1.15872E+000	3.57680E+000	10	...........
	16	0.226667	7.67527E-001	5.99330E-003	0.00000E+000	4.60002E-003	3.59960E-001	-1.16776E+000	3.57680E+000	10	...........
	17	0.24	7.74333E-001	5.99527E-003	0.00000E+000	4.64234E-003	3.59960E-001	-1.16383E+000	3.57680E+000	10	...........
	18	0.253333	7.81087E-001	5.99369E-003	0.00000E+000	4.68159E-003	3.59960E-001	-1.15871E+000	3.57680E+000	10	...........
	19	0.266667	7.87808E-001	5.99754E-003	0.00000E+000	4.72491E-003	3.59960E-001	-1.16790E+000	3.57680E+000	10	...........
	20	0.28	7.94515E-001	5.99714E-003	0.00000E+000	4.76482E-003	3.59960E-001	-1.16354E+000	3.57680E+000	10	...........
	21	0.293333	8.01199E-001	5.99118E-003	0.00000E+000	4.80013E-003	3.59960E-001	-1.15827E+000	3.57680E+000	10	...........
	22	0.306667	8.07860E-001	5.99321E-003	0.00000E+000	4.84168E-003	3.59960E-001	-1.16777E+000	3.57680E+000	10	...........
	23	0.32	8.14469E-001	5.99138E-003	0.00000E+000	4.87980E-003	3.59960E-001	-1.16380E+000	3.57680E+000	10	...........
	24	0.333333	8.21089E-001	5.99176E-003	0.00000E+000	4.91977E-003	3.59960E-001	-1.15841E+000	3.57680E+000	10	...........
	25	0.346667	8.27683E-001	5.99767E-003	0.00000E+000	4.96417E-003	3.59960E-001	-1.16779E+000	3.57680E+000	10	...........
	26	0.36	8.34230E-001	5.99615E-003	0.00000E+000	5.00217E-003	3.59960E-001	-1.16326E+000	3.57680E+000	10	...........
	27	0.373333	8.40781E-001	5.99234E-003	0.00000E+000	5.03825E-003	3.59960E-001	-1.15812E+000	3.57680E+000	10	...........
	28	0.386667	8.47257E-001	5.99246E-003	0.00000E+000	5.07715E-003	3.59960E-001	-1.16779E+000	3.57697E+000	10	...........
	29	0.4	8.53754E-001	5.99709E-003	0.00000E+000	5.12004E-003	3.59960E-001	-1.16367E+000	3.57700E+000	10	...........
	30	0.413333	8.60241E-001	5.99990E-003	0.00000E+000	5.16136E-003	3.59960E-001	-1.15834E+000	3.57700E+000	10	...........
	31	0.426667	8.66692E-001	5.99319E-003	0.00000E+000	5.19425E-003	3.59960E-001	-1.16770E+000	3.57700E+000	10	...........
	32	0.44	8.73133E-001	5.99693E-003	0.00000E+000	5.23612E-003	3.59960E-001	-1.16331E+000	3.57700E+000	10	...........
	33	0.453333	8.79486E-001	5.99305E-003	0.00000E+000	5.27080E-003	3.59960E-001	-1.15830E+000	3.57700E+000	10	...........
	34	0.466667	8.85853E-001	5.99458E-003	0.00000E+000	5.31032E-003	3.59960E-001	-1.16793E+000	3.57700E+000	10	...........
	35	0.48	8.92145E-001	5.99214E-003	0.00000E+000	5.34586E-003	3.59960E-001	-1.16339E+000	3.57700E+000	10	...........
	36	0.493333	8.98431E-001	5.99453E-003	0.00000E+000	5.38568E-003	3.59960E-001	-1.15816E+000	3.57700E+000	10	...........
	37	0.506667	9.04667E-001	5.99578E-003	0.00000E+000	5.42419E-003	3.59960E-001	-1.16727E+000	3.57700E+000	10	...........
	38	0.52	9.10935E-001	5.99233E-003	0.00000E+000	5.45862E-003	3.59960E-001	-1.16290E+000	3.57700E+000	10	...........
	39	0.533333	9.17095E-001	5.99146E-003	0.00000E+000	5.49473E-003	3.59960E-001	-1.15793E+000	3.57700E+000	10	...........
	40	0.546667	9.23291E-001	5.99709E-003	0.00000E+000	5.53705E-003	3.59960E-001	-1.16759E+000	3.57700E+000	10	...........
	41	0.56	9.29388E-001	5.98819E-003	0.00000E+000	5.56535E-003	3.59960E-001	-1.16275E+000	3.57700E+000	10	...........
	42	0.573333	9.35431E-001	5.99351E-003	0.00000E+000	5.60652E-003	3.59960E-001	-1.15768E+000	3.57700E+000	10	...........
	43	0.586667	9.41435E-001	5.99230E-003	0.00000E+000	5.64136E-003	3.59960E-001	-1.16745E+000	3.57700E+000	10	...........
	44	0.6	9.47410E-001	5.99112E-003	0.00000E+000	5.67605E-003	3.59960E-001	-1.16304E+000	3.57700E+000	10	...........
	45	0.613333	9.53328E-001	5.99373E-003	0.00000E+000	5.71399E-003	3.59960E-001	-1.15796E+000	3.57700E+000	10	...........
	46	0.626667	9.59201E-001	5.99376E-003	0.00000E+000	5.74922E-003	3.59960E-001	-1.16675E+000	3.57700E+000	10	...........
	47	0.64	9.65036E-001	5.99505E-003	0.00000E+000	5.78544E-003	3.59960E-001	-1.16246E+000	3.57700E+000	10	...........
	48	0.653333	9.70779E-001	5.99362E-003	0.00000E+000	5.81849E-003	3.59960E-001	-1.15761E+000	3.57700E+000	10	...........
	49	0.666667	9.76512E-001	5.99279E-003	0.00000E+000	5.85203E-003	3.59960E-001	-1.16736E+000	3.57700E+000	10	...........
	50	0.68	9.82209E-001	5.99523E-003	0.00000E+000	5.88857E-003	3.59960E-001	-1.16249E+000	3.57700E+000	10	...........
	51	0.693333	9.87858E-001	5.99593E-003	0.00000E+000	5.92313E-003	3.59960E-001	-1.15689E+000	3.57700E+000	10	...........
	52	0.706667	9.93385E-001	5.99478E-003	0.00000E+000	5.95513E-003	3.59960E-001	-1.16674E+000	3.57700E+000	10	...........
	53	0.718333	9.98571E-001	5.98948E-003	0.00000E+000	5.98091E-003	3.59960E-001	-1.16109E+000	3.57700E+000	10	...........
STARTTIMEOFFSET	QUANT	1325.599	Start Time Offset (s)