File: Data/CV_CRGO300517_1/PWRCCD_CRGO300517_1/CHARGE_DISCHARGE/CHARGE_#928.DTA
EXPLAIN
TAG	PWR800_CHARGE
TITLE	LABEL	PWR Cyclic Charge Discharge (Cell) - Charge Step	Test &Identifier
DATE	LABEL	22-6-2017	Date
TIME	LABEL	16:12:00	Time
NOTES	NOTES	3	&Notes...
	supercap test cell
	0.6mg
	6M KOH
PSTAT	PSTAT	IFC5000-01520	Potentiostat
CAPACITY	QUANT	1.00000E-003	Capacity (A-hr)
CELLTYPE	SELECTOR	1	&Cell Type
WORKINGCONNECTION	SELECTOR	0	&Working Lead
MAXCHARGETIME	VARIABLEANDUNITS	1.00000E+002	s	1.00000E+002	second(s)	Max &Charge Time
CHARGECURRENT	QUANT	6.00000E-003	&Charge Current (A)
VOLTAGEFINISH	TWOPARAM	F	1.00000E-003	3.60000E+003	&Voltage Finish	 I (A) < 	Max Time(s)
SAMPLETIME	QUANT	1.00000E-002	Sa&mple Period (s)
CHARGESTOPAT1	MULTIPARAM	4	1.00000E+000	Charge Stop At &1	Voltage > Limit	V
CHARGESTOPAT2	MULTIPARAM	0	0.00000E+000	Charge Stop At &2	None	N/A
AESBHCSELECTOR	TOGGLE	F	Save Both Half Cells
IRCOMP	TOGGLE	F	IR &Measure
EOC	QUANT	0	Open Circuit (V)
SEQUENCER	TOGGLE	TRUE	Run as Sequence
PSTATMODEL	IQUANT	53	Pstat Model
PSTATSECTION	LABEL	IFC5000-01520	Pstat Section
PSTATSERIALNO	LABEL	01520	Pstat Serial Number
CTRLMODE	IQUANT	0	Control Mode
ELECTROMETER	IQUANT	1	RE=0 or CS=1
IESTAB	IQUANT	0	I/E Stability
CASPEED	IQUANT	4	Control Amp Speed
CONVENTION	IQUANT	1	Current Convention
ICHRANGE	IQUANT	2	Ich Range
ICHRANGEMODE	TOGGLE	T	Ich Auto Range
ICHOFFSETENABLE	TOGGLE	F	Ich Offset Enable
ICHOFFSET	QUANT	0	Ich Offset (V)
ICHFILTER	IQUANT	1	Ich Filter
VCHRANGE	IQUANT	2	Vch Range
VCHRANGEMODE	TOGGLE	T	Vch Auto Range
VCHOFFSETENABLE	TOGGLE	F	Vch Offset Enable
VCHOFFSET	QUANT	0	Vch Offset (V)
VCHFILTER	IQUANT	1	Vch Filter
IERANGELOWERLIMIT	IQUANT	9	I/E Range Lower Limit
IERANGEMODE	TOGGLE	F	I/E AutoRange
IERANGE	IQUANT	10	I/E Range
ACHSELECT	IQUANT	1	Ach Select
ACHRANGE	IQUANT	2	Ach Range
ACHOFFSETENABLE	TOGGLE	F	Ach Offset Enable
ACHOFFSET	QUANT	0	Ach Offset (V)
ACHFILTER	IQUANT	1	Ach Filter
CABLEID	IQUANT	14	Cable ID
DCCALDATE	LABEL	20-10-2016	DC Calibration Date
ACCALDATE	LABEL	12/3/2015	AC Calibration Date
FRAMEWORKVERSION	QUANT	7.01	Framework Version
INSTRUMENTVERSION	LABEL	4.00	Instrument Version
CURVE	TABLE	53
	Pt	T	Vf	Im	Vu	Pwr	Sig	Ach	Temp	IERange	Over
	#	s	V	A	V	W	V	V	deg C	#	bits
	0	0.013333	6.53994E-001	5.99216E-003	0.00000E+000	3.91884E-003	3.59960E-001	-1.17005E+000	3.57640E+000	10	...........
	1	0.026667	6.63337E-001	5.99087E-003	0.00000E+000	3.97397E-003	3.59960E-001	-1.17626E+000	3.57640E+000	10	...........
	2	0.04	6.71896E-001	5.99279E-003	0.00000E+000	4.02653E-003	3.59960E-001	-1.17821E+000	3.57640E+000	10	...........
	3	0.053333	6.79984E-001	5.99594E-003	0.00000E+000	4.07715E-003	3.59960E-001	-1.17013E+000	3.57640E+000	10	...........
	4	0.066667	6.87765E-001	5.98827E-003	0.00000E+000	4.11852E-003	3.59960E-001	-1.17604E+000	3.57640E+000	10	...........
	5	0.08	6.95435E-001	5.99541E-003	0.00000E+000	4.16942E-003	3.59960E-001	-1.17786E+000	3.57640E+000	10	...........
	6	0.093333	7.02898E-001	5.99077E-003	0.00000E+000	4.21090E-003	3.59960E-001	-1.16986E+000	3.57640E+000	10	...........
	7	0.106667	7.10251E-001	5.99192E-003	0.00000E+000	4.25577E-003	3.59960E-001	-1.17623E+000	3.57640E+000	10	...........
	8	0.12	7.17540E-001	5.99634E-003	0.00000E+000	4.30261E-003	3.59960E-001	-1.17759E+000	3.57640E+000	10	...........
	9	0.133333	7.24736E-001	5.99755E-003	0.00000E+000	4.34664E-003	3.59960E-001	-1.16926E+000	3.57640E+000	10	...........
	10	0.146667	7.31882E-001	5.99391E-003	0.00000E+000	4.38683E-003	3.59960E-001	-1.17562E+000	3.57640E+000	10	...........
	11	0.16	7.38926E-001	5.99198E-003	0.00000E+000	4.42763E-003	3.59960E-001	-1.17724E+000	3.57640E+000	10	...........
	12	0.173333	7.45945E-001	5.99379E-003	0.00000E+000	4.47104E-003	3.59960E-001	-1.16930E+000	3.57640E+000	10	...........
	13	0.186667	7.52914E-001	5.99595E-003	0.00000E+000	4.51443E-003	3.59960E-001	-1.17567E+000	3.57640E+000	10	...........
	14	0.2	7.59833E-001	5.99419E-003	0.00000E+000	4.55458E-003	3.59960E-001	-1.17680E+000	3.57640E+000	10	...........
	15	0.213333	7.66733E-001	5.99445E-003	0.00000E+000	4.59614E-003	3.59960E-001	-1.16911E+000	3.57640E+000	10	...........
	16	0.226667	7.73609E-001	5.99516E-003	0.00000E+000	4.63791E-003	3.59960E-001	-1.17569E+000	3.57640E+000	10	...........
	17	0.24	7.80478E-001	5.99087E-003	0.00000E+000	4.67574E-003	3.59960E-001	-1.17705E+000	3.57640E+000	10	...........
	18	0.253333	7.87225E-001	5.99129E-003	0.00000E+000	4.71649E-003	3.59960E-001	-1.16882E+000	3.57640E+000	10	...........
	19	0.266667	7.94078E-001	5.99595E-003	0.00000E+000	4.76125E-003	3.59960E-001	-1.17515E+000	3.57640E+000	10	...........
	20	0.28	8.00822E-001	5.99489E-003	0.00000E+000	4.80083E-003	3.59960E-001	-1.17634E+000	3.57640E+000	10	...........
	21	0.293333	8.07563E-001	5.99504E-003	0.00000E+000	4.84137E-003	3.59960E-001	-1.16879E+000	3.57640E+000	10	...........
	22	0.306667	8.14272E-001	5.99832E-003	0.00000E+000	4.88426E-003	3.59960E-001	-1.17503E+000	3.57640E+000	10	...........
	23	0.32	8.20980E-001	5.99259E-003	0.00000E+000	4.91980E-003	3.59960E-001	-1.17582E+000	3.57640E+000	10	...........
	24	0.333333	8.27605E-001	5.99029E-003	0.00000E+000	4.95759E-003	3.59960E-001	-1.16784E+000	3.57640E+000	10	...........
	25	0.346667	8.34250E-001	5.99116E-003	0.00000E+000	4.99813E-003	3.59960E-001	-1.17459E+000	3.57640E+000	10	...........
	26	0.36	8.40840E-001	5.99796E-003	0.00000E+000	5.04333E-003	3.59960E-001	-1.17562E+000	3.57640E+000	10	...........
	27	0.373333	8.47366E-001	5.99554E-003	0.00000E+000	5.08042E-003	3.59960E-001	-1.16785E+000	3.57640E+000	10	...........
	28	0.386667	8.53921E-001	5.99577E-003	0.00000E+000	5.11992E-003	3.59960E-001	-1.17454E+000	3.57643E+000	10	...........
	29	0.4	8.60406E-001	5.99088E-003	0.00000E+000	5.15459E-003	3.59960E-001	-1.17528E+000	3.57660E+000	10	...........
	30	0.413333	8.66906E-001	5.99440E-003	0.00000E+000	5.19658E-003	3.59960E-001	-1.16764E+000	3.57660E+000	10	...........
	31	0.426667	8.73406E-001	5.99191E-003	0.00000E+000	5.23337E-003	3.59960E-001	-1.17470E+000	3.57660E+000	10	...........
	32	0.44	8.79837E-001	5.98964E-003	0.00000E+000	5.26991E-003	3.59960E-001	-1.17509E+000	3.57660E+000	10	...........
	33	0.453333	8.86233E-001	5.99512E-003	0.00000E+000	5.31307E-003	3.59960E-001	-1.16742E+000	3.57660E+000	10	...........
	34	0.466667	8.92604E-001	5.99535E-003	0.00000E+000	5.35147E-003	3.59960E-001	-1.17422E+000	3.57660E+000	10	...........
	35	0.48	8.98963E-001	5.99452E-003	0.00000E+000	5.38885E-003	3.59960E-001	-1.17473E+000	3.57660E+000	10	...........
	36	0.493333	9.05229E-001	5.99230E-003	0.00000E+000	5.42440E-003	3.59960E-001	-1.16722E+000	3.57660E+000	10	...........
	37	0.506667	9.11485E-001	5.98955E-003	0.00000E+000	5.45938E-003	3.59960E-001	-1.17421E+000	3.57660E+000	10	...........
	38	0.52	9.17705E-001	5.98945E-003	0.00000E+000	5.49655E-003	3.59960E-001	-1.17454E+000	3.57660E+000	10	...........
	39	0.533333	9.23972E-001	5.99529E-003	0.00000E+000	5.53948E-003	3.59960E-001	-1.16704E+000	3.57660E+000	10	...........
	40	0.546667	9.30076E-001	5.99434E-003	0.00000E+000	5.57519E-003	3.59960E-001	-1.17420E+000	3.57660E+000	10	...........
	41	0.56	9.36102E-001	5.99322E-003	0.00000E+000	5.61026E-003	3.59960E-001	-1.17463E+000	3.57660E+000	10	...........
	42	0.573333	9.42130E-001	5.98917E-003	0.00000E+000	5.64258E-003	3.59960E-001	-1.16703E+000	3.57660E+000	10	...........
	43	0.586667	9.48180E-001	5.98914E-003	0.00000E+000	5.67878E-003	3.59960E-001	-1.17390E+000	3.57660E+000	10	...........
	44	0.6	9.54107E-001	5.99323E-003	0.00000E+000	5.71818E-003	3.59960E-001	-1.17377E+000	3.57660E+000	10	...........
	45	0.613333	9.59997E-001	5.99199E-003	0.00000E+000	5.75229E-003	3.59960E-001	-1.16627E+000	3.57660E+000	10	...........
	46	0.626667	9.65809E-001	5.99469E-003	0.00000E+000	5.78972E-003	3.59960E-001	-1.17318E+000	3.57660E+000	10	...........
	47	0.64	9.71632E-001	5.99680E-003	0.00000E+000	5.82668E-003	3.59960E-001	-1.17323E+000	3.57660E+000	10	...........
	48	0.653333	9.77367E-001	5.99556E-003	0.00000E+000	5.85987E-003	3.59960E-001	-1.16557E+000	3.57660E+000	10	...........
	49	0.666667	9.83050E-001	5.99895E-003	0.00000E+000	5.89727E-003	3.59960E-001	-1.17267E+000	3.57660E+000	10	...........
	50	0.68	9.88701E-001	5.99375E-003	0.00000E+000	5.92603E-003	3.59960E-001	-1.17264E+000	3.57660E+000	10	...........
	51	0.693333	9.94256E-001	5.99438E-003	0.00000E+000	5.95994E-003	3.59960E-001	-1.16569E+000	3.57660E+000	10	...........
	52	0.701667	9.98796E-001	6.00042E-003	0.00000E+000	5.99319E-003	3.59960E-001	-1.17920E+000	3.57660E+000	10	...........
STARTTIMEOFFSET	QUANT	1485.291	Start Time Offset (s)