File: Data/CV_CRGO300517_1/PWRCCD_CRGO300517_1/CHARGE_DISCHARGE/CHARGE_#982.DTA
EXPLAIN
TAG	PWR800_CHARGE
TITLE	LABEL	PWR Cyclic Charge Discharge (Cell) - Charge Step	Test &Identifier
DATE	LABEL	22-6-2017	Date
TIME	LABEL	16:13:59	Time
NOTES	NOTES	3	&Notes...
	supercap test cell
	0.6mg
	6M KOH
PSTAT	PSTAT	IFC5000-01520	Potentiostat
CAPACITY	QUANT	1.00000E-003	Capacity (A-hr)
CELLTYPE	SELECTOR	1	&Cell Type
WORKINGCONNECTION	SELECTOR	0	&Working Lead
MAXCHARGETIME	VARIABLEANDUNITS	1.00000E+002	s	1.00000E+002	second(s)	Max &Charge Time
CHARGECURRENT	QUANT	6.00000E-003	&Charge Current (A)
VOLTAGEFINISH	TWOPARAM	F	1.00000E-003	3.60000E+003	&Voltage Finish	 I (A) < 	Max Time(s)
SAMPLETIME	QUANT	1.00000E-002	Sa&mple Period (s)
CHARGESTOPAT1	MULTIPARAM	4	1.00000E+000	Charge Stop At &1	Voltage > Limit	V
CHARGESTOPAT2	MULTIPARAM	0	0.00000E+000	Charge Stop At &2	None	N/A
AESBHCSELECTOR	TOGGLE	F	Save Both Half Cells
IRCOMP	TOGGLE	F	IR &Measure
EOC	QUANT	0	Open Circuit (V)
SEQUENCER	TOGGLE	TRUE	Run as Sequence
PSTATMODEL	IQUANT	53	Pstat Model
PSTATSECTION	LABEL	IFC5000-01520	Pstat Section
PSTATSERIALNO	LABEL	01520	Pstat Serial Number
CTRLMODE	IQUANT	0	Control Mode
ELECTROMETER	IQUANT	1	RE=0 or CS=1
IESTAB	IQUANT	0	I/E Stability
CASPEED	IQUANT	4	Control Amp Speed
CONVENTION	IQUANT	1	Current Convention
ICHRANGE	IQUANT	2	Ich Range
ICHRANGEMODE	TOGGLE	T	Ich Auto Range
ICHOFFSETENABLE	TOGGLE	F	Ich Offset Enable
ICHOFFSET	QUANT	0	Ich Offset (V)
ICHFILTER	IQUANT	1	Ich Filter
VCHRANGE	IQUANT	2	Vch Range
VCHRANGEMODE	TOGGLE	T	Vch Auto Range
VCHOFFSETENABLE	TOGGLE	F	Vch Offset Enable
VCHOFFSET	QUANT	0	Vch Offset (V)
VCHFILTER	IQUANT	1	Vch Filter
IERANGELOWERLIMIT	IQUANT	9	I/E Range Lower Limit
IERANGEMODE	TOGGLE	F	I/E AutoRange
IERANGE	IQUANT	10	I/E Range
ACHSELECT	IQUANT	1	Ach Select
ACHRANGE	IQUANT	2	Ach Range
ACHOFFSETENABLE	TOGGLE	F	Ach Offset Enable
ACHOFFSET	QUANT	0	Ach Offset (V)
ACHFILTER	IQUANT	1	Ach Filter
CABLEID	IQUANT	14	Cable ID
DCCALDATE	LABEL	20-10-2016	DC Calibration Date
ACCALDATE	LABEL	12/3/2015	AC Calibration Date
FRAMEWORKVERSION	QUANT	7.01	Framework Version
INSTRUMENTVERSION	LABEL	4.00	Instrument Version
CURVE	TABLE	52
	Pt	T	Vf	Im	Vu	Pwr	Sig	Ach	Temp	IERange	Over
	#	s	V	A	V	W	V	V	deg C	#	bits
	0	0.013333	6.57214E-001	5.99325E-003	0.00000E+000	3.93884E-003	3.59960E-001	-1.18318E+000	3.57700E+000	10	...........
	1	0.026667	6.66533E-001	5.99050E-003	0.00000E+000	3.99286E-003	3.59960E-001	-1.17453E+000	3.57700E+000	10	...........
	2	0.04	6.75114E-001	5.99228E-003	0.00000E+000	4.04547E-003	3.59960E-001	-1.18007E+000	3.57700E+000	10	...........
	3	0.053333	6.83261E-001	5.99282E-003	0.00000E+000	4.09466E-003	3.59960E-001	-1.18307E+000	3.57700E+000	10	...........
	4	0.066667	6.91115E-001	5.99573E-003	0.00000E+000	4.14374E-003	3.59960E-001	-1.17445E+000	3.57700E+000	10	...........
	5	0.08	6.98776E-001	5.98863E-003	0.00000E+000	4.18471E-003	3.59960E-001	-1.17988E+000	3.57700E+000	10	...........
	6	0.093333	7.06270E-001	5.99190E-003	0.00000E+000	4.23190E-003	3.59960E-001	-1.18305E+000	3.57700E+000	10	...........
	7	0.106667	7.13646E-001	5.99127E-003	0.00000E+000	4.27564E-003	3.59960E-001	-1.17459E+000	3.57700E+000	10	...........
	8	0.12	7.20955E-001	5.99415E-003	0.00000E+000	4.32151E-003	3.59960E-001	-1.18009E+000	3.57700E+000	10	...........
	9	0.133333	7.28190E-001	5.99327E-003	0.00000E+000	4.36424E-003	3.59960E-001	-1.18267E+000	3.57700E+000	10	...........
	10	0.146667	7.35324E-001	5.99388E-003	0.00000E+000	4.40744E-003	3.59960E-001	-1.17445E+000	3.57700E+000	10	...........
	11	0.16	7.42430E-001	5.99210E-003	0.00000E+000	4.44872E-003	3.59960E-001	-1.18012E+000	3.57700E+000	10	...........
	12	0.173333	7.49446E-001	5.99286E-003	0.00000E+000	4.49133E-003	3.59960E-001	-1.18258E+000	3.57700E+000	10	...........
	13	0.186667	7.56466E-001	5.99296E-003	0.00000E+000	4.53347E-003	3.59960E-001	-1.17405E+000	3.57700E+000	10	...........
	14	0.2	7.63436E-001	5.99467E-003	0.00000E+000	4.57655E-003	3.59960E-001	-1.17979E+000	3.57700E+000	10	...........
	15	0.213333	7.70352E-001	5.99292E-003	0.00000E+000	4.61665E-003	3.59960E-001	-1.18200E+000	3.57700E+000	10	...........
	16	0.226667	7.77230E-001	5.99095E-003	0.00000E+000	4.65635E-003	3.59960E-001	-1.17398E+000	3.57700E+000	10	...........
	17	0.24	7.84098E-001	5.99546E-003	0.00000E+000	4.70103E-003	3.59960E-001	-1.17969E+000	3.57700E+000	10	...........
	18	0.253333	7.90944E-001	5.99637E-003	0.00000E+000	4.74279E-003	3.59960E-001	-1.18220E+000	3.57700E+000	10	...........
	19	0.266667	7.97772E-001	5.99289E-003	0.00000E+000	4.78096E-003	3.59960E-001	-1.17372E+000	3.57700E+000	10	...........
	20	0.28	8.04505E-001	5.99644E-003	0.00000E+000	4.82417E-003	3.59960E-001	-1.17967E+000	3.57700E+000	10	...........
	21	0.293333	8.11227E-001	5.99347E-003	0.00000E+000	4.86206E-003	3.59960E-001	-1.18191E+000	3.57700E+000	10	...........
	22	0.306667	8.17962E-001	5.99394E-003	0.00000E+000	4.90281E-003	3.59960E-001	-1.17384E+000	3.57700E+000	10	...........
	23	0.32	8.24649E-001	5.99290E-003	0.00000E+000	4.94204E-003	3.59960E-001	-1.17974E+000	3.57700E+000	10	...........
	24	0.333333	8.31297E-001	5.99091E-003	0.00000E+000	4.98023E-003	3.59960E-001	-1.18189E+000	3.57700E+000	10	...........
	25	0.346667	8.37922E-001	5.98961E-003	0.00000E+000	5.01882E-003	3.59960E-001	-1.17343E+000	3.57700E+000	10	...........
	26	0.36	8.44562E-001	5.99520E-003	0.00000E+000	5.06331E-003	3.59960E-001	-1.17977E+000	3.57700E+000	10	...........
	27	0.373333	8.51165E-001	5.99394E-003	0.00000E+000	5.10183E-003	3.59960E-001	-1.18169E+000	3.57700E+000	10	...........
	28	0.386667	8.57684E-001	5.99561E-003	0.00000E+000	5.14233E-003	3.59960E-001	-1.17368E+000	3.57700E+000	10	...........
	29	0.4	8.64211E-001	5.99605E-003	0.00000E+000	5.18186E-003	3.59960E-001	-1.17994E+000	3.57700E+000	10	...........
	30	0.413333	8.70720E-001	5.99213E-003	0.00000E+000	5.21747E-003	3.59960E-001	-1.18168E+000	3.57700E+000	10	...........
	31	0.426667	8.77200E-001	5.99167E-003	0.00000E+000	5.25590E-003	3.59960E-001	-1.17368E+000	3.57700E+000	10	...........
	32	0.44	8.83596E-001	5.99474E-003	0.00000E+000	5.29693E-003	3.59960E-001	-1.18021E+000	3.57700E+000	10	...........
	33	0.453333	8.90001E-001	5.99468E-003	0.00000E+000	5.33527E-003	3.59960E-001	-1.18173E+000	3.57700E+000	10	...........
	34	0.466667	8.96392E-001	5.98982E-003	0.00000E+000	5.36922E-003	3.59960E-001	-1.17388E+000	3.57700E+000	10	...........
	35	0.48	9.02704E-001	5.99226E-003	0.00000E+000	5.40924E-003	3.59960E-001	-1.18005E+000	3.57700E+000	10	...........
	36	0.493333	9.09024E-001	5.99734E-003	0.00000E+000	5.45172E-003	3.59960E-001	-1.18142E+000	3.57700E+000	10	...........
	37	0.506667	9.15278E-001	5.99163E-003	0.00000E+000	5.48401E-003	3.59960E-001	-1.17319E+000	3.57700E+000	10	...........
	38	0.52	9.21517E-001	5.99650E-003	0.00000E+000	5.52588E-003	3.59960E-001	-1.17981E+000	3.57700E+000	10	...........
	39	0.533333	9.27671E-001	5.99136E-003	0.00000E+000	5.55801E-003	3.59960E-001	-1.18096E+000	3.57700E+000	10	...........
	40	0.546667	9.33731E-001	5.99270E-003	0.00000E+000	5.59556E-003	3.59960E-001	-1.17304E+000	3.57700E+000	10	...........
	41	0.56	9.39823E-001	5.99472E-003	0.00000E+000	5.63398E-003	3.59960E-001	-1.17971E+000	3.57700E+000	10	...........
	42	0.573333	9.45843E-001	5.99410E-003	0.00000E+000	5.66948E-003	3.59960E-001	-1.18105E+000	3.57700E+000	10	...........
	43	0.586667	9.51825E-001	5.99313E-003	0.00000E+000	5.70441E-003	3.59960E-001	-1.17325E+000	3.57700E+000	10	...........
	44	0.6	9.57742E-001	5.98992E-003	0.00000E+000	5.73680E-003	3.59960E-001	-1.17977E+000	3.57700E+000	10	...........
	45	0.613333	9.63603E-001	5.99452E-003	0.00000E+000	5.77634E-003	3.59960E-001	-1.18073E+000	3.57700E+000	10	...........
	46	0.626667	9.69420E-001	5.99488E-003	0.00000E+000	5.81155E-003	3.59960E-001	-1.17303E+000	3.57700E+000	10	...........
	47	0.64	9.75256E-001	5.99663E-003	0.00000E+000	5.84825E-003	3.59960E-001	-1.17978E+000	3.57700E+000	10	...........
	48	0.653333	9.80932E-001	5.99222E-003	0.00000E+000	5.87796E-003	3.59960E-001	-1.18089E+000	3.57700E+000	10	...........
	49	0.666667	9.86553E-001	5.99079E-003	0.00000E+000	5.91023E-003	3.59960E-001	-1.17298E+000	3.57700E+000	10	...........
	50	0.68	9.92172E-001	5.99911E-003	0.00000E+000	5.95215E-003	3.59960E-001	-1.17994E+000	3.57700E+000	10	...........
	51	0.693333	9.97761E-001	5.99571E-003	0.00000E+000	5.98228E-003	3.59960E-001	-1.18052E+000	3.57700E+000	10	...........
STARTTIMEOFFSET	QUANT	1560.396	Start Time Offset (s)