File: Data/CV_CRGO300517_1/PWRCCD_CRGO300517_1/CHARGE_DISCHARGE/CHARGE_#427.DTA
EXPLAIN
TAG	PWR800_CHARGE
TITLE	LABEL	PWR Cyclic Charge Discharge (Cell) - Charge Step	Test &Identifier
DATE	LABEL	22-6-2017	Date
TIME	LABEL	15:53:02	Time
NOTES	NOTES	3	&Notes...
	supercap test cell
	0.6mg
	6M KOH
PSTAT	PSTAT	IFC5000-01520	Potentiostat
CAPACITY	QUANT	1.00000E-003	Capacity (A-hr)
CELLTYPE	SELECTOR	1	&Cell Type
WORKINGCONNECTION	SELECTOR	0	&Working Lead
MAXCHARGETIME	VARIABLEANDUNITS	1.00000E+002	s	1.00000E+002	second(s)	Max &Charge Time
CHARGECURRENT	QUANT	6.00000E-003	&Charge Current (A)
VOLTAGEFINISH	TWOPARAM	F	1.00000E-003	3.60000E+003	&Voltage Finish	 I (A) < 	Max Time(s)
SAMPLETIME	QUANT	1.00000E-002	Sa&mple Period (s)
CHARGESTOPAT1	MULTIPARAM	4	1.00000E+000	Charge Stop At &1	Voltage > Limit	V
CHARGESTOPAT2	MULTIPARAM	0	0.00000E+000	Charge Stop At &2	None	N/A
AESBHCSELECTOR	TOGGLE	F	Save Both Half Cells
IRCOMP	TOGGLE	F	IR &Measure
EOC	QUANT	0	Open Circuit (V)
SEQUENCER	TOGGLE	TRUE	Run as Sequence
PSTATMODEL	IQUANT	53	Pstat Model
PSTATSECTION	LABEL	IFC5000-01520	Pstat Section
PSTATSERIALNO	LABEL	01520	Pstat Serial Number
CTRLMODE	IQUANT	0	Control Mode
ELECTROMETER	IQUANT	1	RE=0 or CS=1
IESTAB	IQUANT	0	I/E Stability
CASPEED	IQUANT	4	Control Amp Speed
CONVENTION	IQUANT	1	Current Convention
ICHRANGE	IQUANT	2	Ich Range
ICHRANGEMODE	TOGGLE	T	Ich Auto Range
ICHOFFSETENABLE	TOGGLE	F	Ich Offset Enable
ICHOFFSET	QUANT	0	Ich Offset (V)
ICHFILTER	IQUANT	1	Ich Filter
VCHRANGE	IQUANT	2	Vch Range
VCHRANGEMODE	TOGGLE	T	Vch Auto Range
VCHOFFSETENABLE	TOGGLE	F	Vch Offset Enable
VCHOFFSET	QUANT	0	Vch Offset (V)
VCHFILTER	IQUANT	1	Vch Filter
IERANGELOWERLIMIT	IQUANT	9	I/E Range Lower Limit
IERANGEMODE	TOGGLE	F	I/E AutoRange
IERANGE	IQUANT	10	I/E Range
ACHSELECT	IQUANT	1	Ach Select
ACHRANGE	IQUANT	2	Ach Range
ACHOFFSETENABLE	TOGGLE	F	Ach Offset Enable
ACHOFFSET	QUANT	0	Ach Offset (V)
ACHFILTER	IQUANT	1	Ach Filter
CABLEID	IQUANT	14	Cable ID
DCCALDATE	LABEL	20-10-2016	DC Calibration Date
ACCALDATE	LABEL	12/3/2015	AC Calibration Date
FRAMEWORKVERSION	QUANT	7.01	Framework Version
INSTRUMENTVERSION	LABEL	4.00	Instrument Version
CURVE	TABLE	60
	Pt	T	Vf	Im	Vu	Pwr	Sig	Ach	Temp	IERange	Over
	#	s	V	A	V	W	V	V	deg C	#	bits
	0	0.013333	6.26377E-001	5.99453E-003	0.00000E+000	3.75484E-003	3.59960E-001	-1.14150E+000	3.57790E+000	10	...........
	1	0.026667	6.35165E-001	5.99463E-003	0.00000E+000	3.80758E-003	3.59960E-001	-1.13112E+000	3.57790E+000	10	...........
	2	0.04	6.43291E-001	5.99449E-003	0.00000E+000	3.85620E-003	3.59960E-001	-1.13286E+000	3.57790E+000	10	...........
	3	0.053333	6.50934E-001	5.99579E-003	0.00000E+000	3.90286E-003	3.59960E-001	-1.14132E+000	3.57790E+000	10	...........
	4	0.066667	6.58298E-001	5.99523E-003	0.00000E+000	3.94665E-003	3.59960E-001	-1.13128E+000	3.57790E+000	10	...........
	5	0.08	6.65510E-001	5.99545E-003	0.00000E+000	3.99003E-003	3.59960E-001	-1.13304E+000	3.57790E+000	10	...........
	6	0.093333	6.72597E-001	5.99828E-003	0.00000E+000	4.03442E-003	3.59960E-001	-1.14147E+000	3.57790E+000	10	...........
	7	0.106667	6.79524E-001	5.99505E-003	0.00000E+000	4.07378E-003	3.59960E-001	-1.13105E+000	3.57790E+000	10	...........
	8	0.12	6.86317E-001	5.99418E-003	0.00000E+000	4.11390E-003	3.59960E-001	-1.13323E+000	3.57790E+000	10	...........
	9	0.133333	6.93139E-001	5.99562E-003	0.00000E+000	4.15580E-003	3.59960E-001	-1.14132E+000	3.57790E+000	10	...........
	10	0.146667	6.99877E-001	5.99386E-003	0.00000E+000	4.19497E-003	3.59960E-001	-1.13073E+000	3.57790E+000	10	...........
	11	0.16	7.06542E-001	5.99454E-003	0.00000E+000	4.23539E-003	3.59960E-001	-1.13264E+000	3.57790E+000	10	...........
	12	0.173333	7.13167E-001	5.99394E-003	0.00000E+000	4.27468E-003	3.59960E-001	-1.14044E+000	3.57790E+000	10	...........
	13	0.186667	7.19802E-001	5.99266E-003	0.00000E+000	4.31353E-003	3.59960E-001	-1.13033E+000	3.57790E+000	10	...........
	14	0.2	7.26335E-001	5.99274E-003	0.00000E+000	4.35274E-003	3.59960E-001	-1.13277E+000	3.57790E+000	10	...........
	15	0.213333	7.32893E-001	5.99381E-003	0.00000E+000	4.39282E-003	3.59960E-001	-1.14038E+000	3.57790E+000	10	...........
	16	0.226667	7.39360E-001	5.99103E-003	0.00000E+000	4.42953E-003	3.59960E-001	-1.13012E+000	3.57790E+000	10	...........
	17	0.24	7.45871E-001	5.99795E-003	0.00000E+000	4.47370E-003	3.59960E-001	-1.13262E+000	3.57790E+000	10	...........
	18	0.253333	7.52337E-001	5.98825E-003	0.00000E+000	4.50519E-003	3.59960E-001	-1.14013E+000	3.57790E+000	10	...........
	19	0.266667	7.58827E-001	5.99486E-003	0.00000E+000	4.54906E-003	3.59960E-001	-1.13014E+000	3.57790E+000	10	...........
	20	0.28	7.65240E-001	5.99010E-003	0.00000E+000	4.58386E-003	3.59960E-001	-1.13259E+000	3.57790E+000	10	...........
	21	0.293333	7.71705E-001	5.99517E-003	0.00000E+000	4.62650E-003	3.59960E-001	-1.13989E+000	3.57790E+000	10	...........
	22	0.306667	7.78093E-001	5.99617E-003	0.00000E+000	4.66558E-003	3.59960E-001	-1.12970E+000	3.57790E+000	10	...........
	23	0.32	7.84571E-001	5.99719E-003	0.00000E+000	4.70522E-003	3.59960E-001	-1.13257E+000	3.57790E+000	10	...........
	24	0.333333	7.90944E-001	5.99427E-003	0.00000E+000	4.74113E-003	3.59960E-001	-1.13996E+000	3.57790E+000	10	...........
	25	0.346667	7.97335E-001	5.99481E-003	0.00000E+000	4.77988E-003	3.59960E-001	-1.12962E+000	3.57790E+000	10	...........
	26	0.36	8.03663E-001	5.99421E-003	0.00000E+000	4.81732E-003	3.59960E-001	-1.13244E+000	3.57790E+000	10	...........
	27	0.373333	8.09995E-001	5.99113E-003	0.00000E+000	4.85279E-003	3.59960E-001	-1.13946E+000	3.57790E+000	10	...........
	28	0.386667	8.16324E-001	5.99686E-003	0.00000E+000	4.89538E-003	3.59960E-001	-1.12954E+000	3.57790E+000	10	...........
	29	0.4	8.22627E-001	5.99340E-003	0.00000E+000	4.93033E-003	3.59960E-001	-1.13284E+000	3.57790E+000	10	...........
	30	0.413333	8.28934E-001	5.99220E-003	0.00000E+000	4.96714E-003	3.59960E-001	-1.13971E+000	3.57790E+000	10	...........
	31	0.426667	8.35198E-001	5.99087E-003	0.00000E+000	5.00356E-003	3.59960E-001	-1.12960E+000	3.57790E+000	10	...........
	32	0.44	8.41474E-001	5.99546E-003	0.00000E+000	5.04502E-003	3.59960E-001	-1.13267E+000	3.57790E+000	10	...........
	33	0.453333	8.47805E-001	5.99575E-003	0.00000E+000	5.08323E-003	3.59960E-001	-1.13954E+000	3.57790E+000	10	...........
	34	0.466667	8.54056E-001	5.99451E-003	0.00000E+000	5.11965E-003	3.59960E-001	-1.12965E+000	3.57790E+000	10	...........
	35	0.48	8.60260E-001	5.99404E-003	0.00000E+000	5.15643E-003	3.59960E-001	-1.13225E+000	3.57790E+000	10	...........
	36	0.493333	8.66450E-001	5.99365E-003	0.00000E+000	5.19319E-003	3.59960E-001	-1.13860E+000	3.57790E+000	10	...........
	37	0.506667	8.72686E-001	5.99357E-003	0.00000E+000	5.23051E-003	3.59960E-001	-1.12894E+000	3.57790E+000	10	...........
	38	0.52	8.78810E-001	5.98881E-003	0.00000E+000	5.26302E-003	3.59960E-001	-1.13246E+000	3.57762E+000	10	...........
	39	0.533333	8.84953E-001	5.99223E-003	0.00000E+000	5.30284E-003	3.59960E-001	-1.13880E+000	3.57680E+000	10	...........
	40	0.546667	8.91112E-001	5.99516E-003	0.00000E+000	5.34236E-003	3.59960E-001	-1.12867E+000	3.57680E+000	10	...........
	41	0.56	8.97242E-001	5.99433E-003	0.00000E+000	5.37837E-003	3.59960E-001	-1.13208E+000	3.57680E+000	10	...........
	42	0.573333	9.03328E-001	5.99216E-003	0.00000E+000	5.41289E-003	3.59960E-001	-1.13863E+000	3.57680E+000	10	...........
	43	0.586667	9.09342E-001	5.99279E-003	0.00000E+000	5.44949E-003	3.59960E-001	-1.12907E+000	3.57680E+000	10	...........
	44	0.6	9.15373E-001	5.98750E-003	0.00000E+000	5.48080E-003	3.59960E-001	-1.13262E+000	3.57680E+000	10	...........
	45	0.613333	9.21402E-001	5.99297E-003	0.00000E+000	5.52193E-003	3.59960E-001	-1.13829E+000	3.57680E+000	10	...........
	46	0.626667	9.27361E-001	5.99557E-003	0.00000E+000	5.56006E-003	3.59960E-001	-1.12886E+000	3.57680E+000	10	...........
	47	0.64	9.33253E-001	5.99013E-003	0.00000E+000	5.59031E-003	3.59960E-001	-1.13273E+000	3.57680E+000	10	...........
	48	0.653333	9.39135E-001	5.99430E-003	0.00000E+000	5.62946E-003	3.59960E-001	-1.13833E+000	3.57680E+000	10	...........
	49	0.666667	9.44980E-001	5.99662E-003	0.00000E+000	5.66668E-003	3.59960E-001	-1.12883E+000	3.57680E+000	10	...........
	50	0.68	9.50832E-001	5.99300E-003	0.00000E+000	5.69833E-003	3.59960E-001	-1.13277E+000	3.57680E+000	10	...........
	51	0.693333	9.56585E-001	5.99432E-003	0.00000E+000	5.73408E-003	3.59960E-001	-1.13853E+000	3.57680E+000	10	...........
	52	0.706667	9.62326E-001	5.99710E-003	0.00000E+000	5.77117E-003	3.59960E-001	-1.12913E+000	3.57680E+000	10	...........
	53	0.72	9.68015E-001	5.99110E-003	0.00000E+000	5.79947E-003	3.59960E-001	-1.13311E+000	3.57680E+000	10	...........
	54	0.733333	9.73714E-001	5.99785E-003	0.00000E+000	5.84019E-003	3.59960E-001	-1.13869E+000	3.57680E+000	10	...........
	55	0.746667	9.79306E-001	5.99538E-003	0.00000E+000	5.87131E-003	3.59960E-001	-1.12907E+000	3.57680E+000	10	...........
	56	0.76	9.84883E-001	5.99386E-003	0.00000E+000	5.90326E-003	3.59960E-001	-1.13345E+000	3.57680E+000	10	...........
	57	0.773333	9.90405E-001	5.99314E-003	0.00000E+000	5.93564E-003	3.59960E-001	-1.13852E+000	3.57680E+000	10	...........
	58	0.786667	9.95854E-001	5.99276E-003	0.00000E+000	5.96791E-003	3.59960E-001	-1.12904E+000	3.57680E+000	10	...........
	59	0.791667	9.99631E-001	5.99226E-003	0.00000E+000	5.99005E-003	3.59960E-001	-1.14303E+000	3.57680E+000	10	...........
STARTTIMEOFFSET	QUANT	745.3633	Start Time Offset (s)