File: Data/CV_CRGO300517_1/PWRCCD_CRGO300517_1/CHARGE_DISCHARGE/CHARGE_#886.DTA
EXPLAIN
TAG	PWR800_CHARGE
TITLE	LABEL	PWR Cyclic Charge Discharge (Cell) - Charge Step	Test &Identifier
DATE	LABEL	22-6-2017	Date
TIME	LABEL	16:10:27	Time
NOTES	NOTES	3	&Notes...
	supercap test cell
	0.6mg
	6M KOH
PSTAT	PSTAT	IFC5000-01520	Potentiostat
CAPACITY	QUANT	1.00000E-003	Capacity (A-hr)
CELLTYPE	SELECTOR	1	&Cell Type
WORKINGCONNECTION	SELECTOR	0	&Working Lead
MAXCHARGETIME	VARIABLEANDUNITS	1.00000E+002	s	1.00000E+002	second(s)	Max &Charge Time
CHARGECURRENT	QUANT	6.00000E-003	&Charge Current (A)
VOLTAGEFINISH	TWOPARAM	F	1.00000E-003	3.60000E+003	&Voltage Finish	 I (A) < 	Max Time(s)
SAMPLETIME	QUANT	1.00000E-002	Sa&mple Period (s)
CHARGESTOPAT1	MULTIPARAM	4	1.00000E+000	Charge Stop At &1	Voltage > Limit	V
CHARGESTOPAT2	MULTIPARAM	0	0.00000E+000	Charge Stop At &2	None	N/A
AESBHCSELECTOR	TOGGLE	F	Save Both Half Cells
IRCOMP	TOGGLE	F	IR &Measure
EOC	QUANT	0	Open Circuit (V)
SEQUENCER	TOGGLE	TRUE	Run as Sequence
PSTATMODEL	IQUANT	53	Pstat Model
PSTATSECTION	LABEL	IFC5000-01520	Pstat Section
PSTATSERIALNO	LABEL	01520	Pstat Serial Number
CTRLMODE	IQUANT	0	Control Mode
ELECTROMETER	IQUANT	1	RE=0 or CS=1
IESTAB	IQUANT	0	I/E Stability
CASPEED	IQUANT	4	Control Amp Speed
CONVENTION	IQUANT	1	Current Convention
ICHRANGE	IQUANT	2	Ich Range
ICHRANGEMODE	TOGGLE	T	Ich Auto Range
ICHOFFSETENABLE	TOGGLE	F	Ich Offset Enable
ICHOFFSET	QUANT	0	Ich Offset (V)
ICHFILTER	IQUANT	1	Ich Filter
VCHRANGE	IQUANT	2	Vch Range
VCHRANGEMODE	TOGGLE	T	Vch Auto Range
VCHOFFSETENABLE	TOGGLE	F	Vch Offset Enable
VCHOFFSET	QUANT	0	Vch Offset (V)
VCHFILTER	IQUANT	1	Vch Filter
IERANGELOWERLIMIT	IQUANT	9	I/E Range Lower Limit
IERANGEMODE	TOGGLE	F	I/E AutoRange
IERANGE	IQUANT	10	I/E Range
ACHSELECT	IQUANT	1	Ach Select
ACHRANGE	IQUANT	2	Ach Range
ACHOFFSETENABLE	TOGGLE	F	Ach Offset Enable
ACHOFFSET	QUANT	0	Ach Offset (V)
ACHFILTER	IQUANT	1	Ach Filter
CABLEID	IQUANT	14	Cable ID
DCCALDATE	LABEL	20-10-2016	DC Calibration Date
ACCALDATE	LABEL	12/3/2015	AC Calibration Date
FRAMEWORKVERSION	QUANT	7.01	Framework Version
INSTRUMENTVERSION	LABEL	4.00	Instrument Version
CURVE	TABLE	54
	Pt	T	Vf	Im	Vu	Pwr	Sig	Ach	Temp	IERange	Over
	#	s	V	A	V	W	V	V	deg C	#	bits
	0	0.013333	6.52407E-001	5.99395E-003	0.00000E+000	3.91049E-003	3.59960E-001	-1.16405E+000	3.57730E+000	10	...........
	1	0.026667	6.61631E-001	5.99471E-003	0.00000E+000	3.96629E-003	3.59960E-001	-1.16148E+000	3.57730E+000	10	...........
	2	0.04	6.70177E-001	5.99573E-003	0.00000E+000	4.01820E-003	3.59960E-001	-1.15534E+000	3.57730E+000	10	...........
	3	0.053333	6.78260E-001	5.99469E-003	0.00000E+000	4.06596E-003	3.59960E-001	-1.16367E+000	3.57730E+000	10	...........
	4	0.066667	6.86024E-001	5.99619E-003	0.00000E+000	4.11353E-003	3.59960E-001	-1.16132E+000	3.57730E+000	10	...........
	5	0.08	6.93554E-001	5.99365E-003	0.00000E+000	4.15692E-003	3.59960E-001	-1.15562E+000	3.57730E+000	10	...........
	6	0.093333	7.00993E-001	5.99392E-003	0.00000E+000	4.20170E-003	3.59960E-001	-1.16396E+000	3.57730E+000	10	...........
	7	0.106667	7.08302E-001	5.99365E-003	0.00000E+000	4.24531E-003	3.59960E-001	-1.16133E+000	3.57730E+000	10	...........
	8	0.12	7.15515E-001	5.99299E-003	0.00000E+000	4.28807E-003	3.59960E-001	-1.15541E+000	3.57730E+000	10	...........
	9	0.133333	7.22656E-001	5.98902E-003	0.00000E+000	4.32801E-003	3.59960E-001	-1.16386E+000	3.57730E+000	10	...........
	10	0.146667	7.29734E-001	5.99598E-003	0.00000E+000	4.37547E-003	3.59960E-001	-1.16129E+000	3.57730E+000	10	...........
	11	0.16	7.36765E-001	5.99585E-003	0.00000E+000	4.41753E-003	3.59960E-001	-1.15528E+000	3.57730E+000	10	...........
	12	0.173333	7.43730E-001	5.99778E-003	0.00000E+000	4.46073E-003	3.59960E-001	-1.16339E+000	3.57730E+000	10	...........
	13	0.186667	7.50636E-001	5.99262E-003	0.00000E+000	4.49828E-003	3.59960E-001	-1.16058E+000	3.57730E+000	10	...........
	14	0.2	7.57563E-001	5.99488E-003	0.00000E+000	4.54150E-003	3.59960E-001	-1.15483E+000	3.57730E+000	10	...........
	15	0.213333	7.64431E-001	5.99185E-003	0.00000E+000	4.58035E-003	3.59960E-001	-1.16349E+000	3.57730E+000	10	...........
	16	0.226667	7.71266E-001	5.99227E-003	0.00000E+000	4.62163E-003	3.59960E-001	-1.16083E+000	3.57730E+000	10	...........
	17	0.24	7.78056E-001	5.99286E-003	0.00000E+000	4.66278E-003	3.59960E-001	-1.15465E+000	3.57730E+000	10	...........
	18	0.253333	7.84849E-001	5.99085E-003	0.00000E+000	4.70192E-003	3.59960E-001	-1.16311E+000	3.57730E+000	10	...........
	19	0.266667	7.91622E-001	5.99406E-003	0.00000E+000	4.74503E-003	3.59960E-001	-1.16051E+000	3.57700E+000	10	...........
	20	0.28	7.98361E-001	5.99248E-003	0.00000E+000	4.78416E-003	3.59960E-001	-1.15463E+000	3.57700E+000	10	...........
	21	0.293333	8.05048E-001	5.99470E-003	0.00000E+000	4.82602E-003	3.59960E-001	-1.16315E+000	3.57700E+000	10	...........
	22	0.306667	8.11702E-001	5.99474E-003	0.00000E+000	4.86594E-003	3.59960E-001	-1.16045E+000	3.57700E+000	10	...........
	23	0.32	8.18361E-001	5.99661E-003	0.00000E+000	4.90739E-003	3.59960E-001	-1.15451E+000	3.57700E+000	10	...........
	24	0.333333	8.24982E-001	5.98934E-003	0.00000E+000	4.94109E-003	3.59960E-001	-1.16324E+000	3.57700E+000	10	...........
	25	0.346667	8.31557E-001	5.99726E-003	0.00000E+000	4.98707E-003	3.59960E-001	-1.16056E+000	3.57700E+000	10	...........
	26	0.36	8.38124E-001	5.99232E-003	0.00000E+000	5.02231E-003	3.59960E-001	-1.15469E+000	3.57700E+000	10	...........
	27	0.373333	8.44710E-001	5.99431E-003	0.00000E+000	5.06346E-003	3.59960E-001	-1.16312E+000	3.57700E+000	10	...........
	28	0.386667	8.51240E-001	5.99658E-003	0.00000E+000	5.10453E-003	3.59960E-001	-1.16031E+000	3.57700E+000	10	...........
	29	0.4	8.57740E-001	5.98932E-003	0.00000E+000	5.13728E-003	3.59960E-001	-1.15475E+000	3.57700E+000	10	...........
	30	0.413333	8.64196E-001	5.99181E-003	0.00000E+000	5.17810E-003	3.59960E-001	-1.16339E+000	3.57700E+000	10	...........
	31	0.426667	8.70717E-001	5.99517E-003	0.00000E+000	5.22010E-003	3.59960E-001	-1.16052E+000	3.57700E+000	10	...........
	32	0.44	8.77142E-001	5.99092E-003	0.00000E+000	5.25489E-003	3.59960E-001	-1.15446E+000	3.57700E+000	10	...........
	33	0.453333	8.83555E-001	5.99003E-003	0.00000E+000	5.29252E-003	3.59960E-001	-1.16303E+000	3.57700E+000	10	...........
	34	0.466667	8.89912E-001	5.99549E-003	0.00000E+000	5.33546E-003	3.59960E-001	-1.16030E+000	3.57700E+000	10	...........
	35	0.48	8.96249E-001	5.99792E-003	0.00000E+000	5.37563E-003	3.59960E-001	-1.15449E+000	3.57700E+000	10	...........
	36	0.493333	9.02512E-001	5.99362E-003	0.00000E+000	5.40932E-003	3.59960E-001	-1.16286E+000	3.57700E+000	10	...........
	37	0.506667	9.08763E-001	5.99119E-003	0.00000E+000	5.44457E-003	3.59960E-001	-1.15979E+000	3.57700E+000	10	...........
	38	0.52	9.14978E-001	5.99557E-003	0.00000E+000	5.48582E-003	3.59960E-001	-1.15396E+000	3.57700E+000	10	...........
	39	0.533333	9.21151E-001	5.99087E-003	0.00000E+000	5.51850E-003	3.59960E-001	-1.16274E+000	3.57700E+000	10	...........
	40	0.546667	9.27317E-001	5.99398E-003	0.00000E+000	5.55832E-003	3.59960E-001	-1.15985E+000	3.57700E+000	10	...........
	41	0.56	9.33382E-001	5.99510E-003	0.00000E+000	5.59571E-003	3.59960E-001	-1.15401E+000	3.57700E+000	10	...........
	42	0.573333	9.39394E-001	5.99042E-003	0.00000E+000	5.62737E-003	3.59960E-001	-1.16267E+000	3.57700E+000	10	...........
	43	0.586667	9.45400E-001	5.99020E-003	0.00000E+000	5.66314E-003	3.59960E-001	-1.15953E+000	3.57700E+000	10	...........
	44	0.6	9.51401E-001	5.99578E-003	0.00000E+000	5.70440E-003	3.59960E-001	-1.15402E+000	3.57700E+000	10	...........
	45	0.613333	9.57302E-001	5.99285E-003	0.00000E+000	5.73697E-003	3.59960E-001	-1.16285E+000	3.57700E+000	10	...........
	46	0.626667	9.63158E-001	5.99565E-003	0.00000E+000	5.77476E-003	3.59960E-001	-1.15970E+000	3.57700E+000	10	...........
	47	0.64	9.68952E-001	5.98882E-003	0.00000E+000	5.80288E-003	3.59960E-001	-1.15401E+000	3.57700E+000	10	...........
	48	0.653333	9.74781E-001	5.99263E-003	0.00000E+000	5.84151E-003	3.59960E-001	-1.16256E+000	3.57700E+000	10	...........
	49	0.666667	9.80468E-001	5.99894E-003	0.00000E+000	5.88177E-003	3.59960E-001	-1.15961E+000	3.57700E+000	10	...........
	50	0.68	9.86124E-001	5.99908E-003	0.00000E+000	5.91584E-003	3.59960E-001	-1.15391E+000	3.57700E+000	10	...........
	51	0.693333	9.91713E-001	5.99088E-003	0.00000E+000	5.94124E-003	3.59960E-001	-1.16266E+000	3.57700E+000	10	...........
	52	0.706667	9.97274E-001	5.99096E-003	0.00000E+000	5.97463E-003	3.59960E-001	-1.15948E+000	3.57700E+000	10	...........
	53	0.708333	1.00038E+000	6.00147E-003	0.00000E+000	6.00377E-003	3.59960E-001	-1.16653E+000	3.57700E+000	10	...........
STARTTIMEOFFSET	QUANT	1426.366	Start Time Offset (s)