File: Data/CV_CRGO300517_1/PWRCCD_CRGO300517_1/CHARGE_DISCHARGE/CHARGE_#848.DTA
EXPLAIN
TAG	PWR800_CHARGE
TITLE	LABEL	PWR Cyclic Charge Discharge (Cell) - Charge Step	Test &Identifier
DATE	LABEL	22-6-2017	Date
TIME	LABEL	16:09:04	Time
NOTES	NOTES	3	&Notes...
	supercap test cell
	0.6mg
	6M KOH
PSTAT	PSTAT	IFC5000-01520	Potentiostat
CAPACITY	QUANT	1.00000E-003	Capacity (A-hr)
CELLTYPE	SELECTOR	1	&Cell Type
WORKINGCONNECTION	SELECTOR	0	&Working Lead
MAXCHARGETIME	VARIABLEANDUNITS	1.00000E+002	s	1.00000E+002	second(s)	Max &Charge Time
CHARGECURRENT	QUANT	6.00000E-003	&Charge Current (A)
VOLTAGEFINISH	TWOPARAM	F	1.00000E-003	3.60000E+003	&Voltage Finish	 I (A) < 	Max Time(s)
SAMPLETIME	QUANT	1.00000E-002	Sa&mple Period (s)
CHARGESTOPAT1	MULTIPARAM	4	1.00000E+000	Charge Stop At &1	Voltage > Limit	V
CHARGESTOPAT2	MULTIPARAM	0	0.00000E+000	Charge Stop At &2	None	N/A
AESBHCSELECTOR	TOGGLE	F	Save Both Half Cells
IRCOMP	TOGGLE	F	IR &Measure
EOC	QUANT	0	Open Circuit (V)
SEQUENCER	TOGGLE	TRUE	Run as Sequence
PSTATMODEL	IQUANT	53	Pstat Model
PSTATSECTION	LABEL	IFC5000-01520	Pstat Section
PSTATSERIALNO	LABEL	01520	Pstat Serial Number
CTRLMODE	IQUANT	0	Control Mode
ELECTROMETER	IQUANT	1	RE=0 or CS=1
IESTAB	IQUANT	0	I/E Stability
CASPEED	IQUANT	4	Control Amp Speed
CONVENTION	IQUANT	1	Current Convention
ICHRANGE	IQUANT	2	Ich Range
ICHRANGEMODE	TOGGLE	T	Ich Auto Range
ICHOFFSETENABLE	TOGGLE	F	Ich Offset Enable
ICHOFFSET	QUANT	0	Ich Offset (V)
ICHFILTER	IQUANT	1	Ich Filter
VCHRANGE	IQUANT	2	Vch Range
VCHRANGEMODE	TOGGLE	T	Vch Auto Range
VCHOFFSETENABLE	TOGGLE	F	Vch Offset Enable
VCHOFFSET	QUANT	0	Vch Offset (V)
VCHFILTER	IQUANT	1	Vch Filter
IERANGELOWERLIMIT	IQUANT	9	I/E Range Lower Limit
IERANGEMODE	TOGGLE	F	I/E AutoRange
IERANGE	IQUANT	10	I/E Range
ACHSELECT	IQUANT	1	Ach Select
ACHRANGE	IQUANT	2	Ach Range
ACHOFFSETENABLE	TOGGLE	F	Ach Offset Enable
ACHOFFSET	QUANT	0	Ach Offset (V)
ACHFILTER	IQUANT	1	Ach Filter
CABLEID	IQUANT	14	Cable ID
DCCALDATE	LABEL	20-10-2016	DC Calibration Date
ACCALDATE	LABEL	12/3/2015	AC Calibration Date
FRAMEWORKVERSION	QUANT	7.01	Framework Version
INSTRUMENTVERSION	LABEL	4.00	Instrument Version
CURVE	TABLE	54
	Pt	T	Vf	Im	Vu	Pwr	Sig	Ach	Temp	IERange	Over
	#	s	V	A	V	W	V	V	deg C	#	bits
	0	0.013333	6.50575E-001	5.99081E-003	0.00000E+000	3.89747E-003	3.59960E-001	-1.17277E+000	3.57630E+000	10	...........
	1	0.026667	6.59819E-001	5.99214E-003	0.00000E+000	3.95373E-003	3.59960E-001	-1.16344E+000	3.57630E+000	10	...........
	2	0.04	6.68305E-001	5.99397E-003	0.00000E+000	4.00580E-003	3.59960E-001	-1.16753E+000	3.57630E+000	10	...........
	3	0.053333	6.76369E-001	5.99006E-003	0.00000E+000	4.05149E-003	3.59960E-001	-1.17299E+000	3.57630E+000	10	...........
	4	0.066667	6.84115E-001	5.99503E-003	0.00000E+000	4.10129E-003	3.59960E-001	-1.16359E+000	3.57630E+000	10	...........
	5	0.08	6.91712E-001	5.99527E-003	0.00000E+000	4.14700E-003	3.59960E-001	-1.16754E+000	3.57630E+000	10	...........
	6	0.093333	6.99130E-001	5.98979E-003	0.00000E+000	4.18764E-003	3.59960E-001	-1.17281E+000	3.57630E+000	10	...........
	7	0.106667	7.06393E-001	5.99087E-003	0.00000E+000	4.23191E-003	3.59960E-001	-1.16312E+000	3.57630E+000	10	...........
	8	0.12	7.13562E-001	5.99032E-003	0.00000E+000	4.27446E-003	3.59960E-001	-1.16702E+000	3.57630E+000	10	...........
	9	0.133333	7.20761E-001	5.99474E-003	0.00000E+000	4.32077E-003	3.59960E-001	-1.17242E+000	3.57630E+000	10	...........
	10	0.146667	7.27813E-001	5.99240E-003	0.00000E+000	4.36135E-003	3.59960E-001	-1.16281E+000	3.57630E+000	10	...........
	11	0.16	7.34778E-001	5.99616E-003	0.00000E+000	4.40585E-003	3.59960E-001	-1.16649E+000	3.57630E+000	10	...........
	12	0.173333	7.41751E-001	5.99522E-003	0.00000E+000	4.44696E-003	3.59960E-001	-1.17219E+000	3.57630E+000	10	...........
	13	0.186667	7.48685E-001	5.99285E-003	0.00000E+000	4.48676E-003	3.59960E-001	-1.16250E+000	3.57630E+000	10	...........
	14	0.2	7.55555E-001	5.99164E-003	0.00000E+000	4.52701E-003	3.59960E-001	-1.16622E+000	3.57630E+000	10	...........
	15	0.213333	7.62362E-001	5.99327E-003	0.00000E+000	4.56904E-003	3.59960E-001	-1.17210E+000	3.57630E+000	10	...........
	16	0.226667	7.69231E-001	5.99455E-003	0.00000E+000	4.61120E-003	3.59960E-001	-1.16229E+000	3.57655E+000	10	...........
	17	0.24	7.76019E-001	5.99500E-003	0.00000E+000	4.65223E-003	3.59960E-001	-1.16585E+000	3.57670E+000	10	...........
	18	0.253333	7.82782E-001	5.99626E-003	0.00000E+000	4.69377E-003	3.59960E-001	-1.17203E+000	3.57670E+000	10	...........
	19	0.266667	7.89521E-001	5.99525E-003	0.00000E+000	4.73338E-003	3.59960E-001	-1.16254E+000	3.57670E+000	10	...........
	20	0.28	7.96255E-001	5.99317E-003	0.00000E+000	4.77209E-003	3.59960E-001	-1.16598E+000	3.57670E+000	10	...........
	21	0.293333	8.02915E-001	5.99379E-003	0.00000E+000	4.81250E-003	3.59960E-001	-1.17217E+000	3.57670E+000	10	...........
	22	0.306667	8.09567E-001	5.99514E-003	0.00000E+000	4.85347E-003	3.59960E-001	-1.16226E+000	3.57670E+000	10	...........
	23	0.32	8.16180E-001	5.99340E-003	0.00000E+000	4.89169E-003	3.59960E-001	-1.16564E+000	3.57670E+000	10	...........
	24	0.333333	8.22820E-001	5.99140E-003	0.00000E+000	4.92984E-003	3.59960E-001	-1.17235E+000	3.57670E+000	10	...........
	25	0.346667	8.29408E-001	5.99505E-003	0.00000E+000	4.97235E-003	3.59960E-001	-1.16234E+000	3.57670E+000	10	...........
	26	0.36	8.35940E-001	5.98910E-003	0.00000E+000	5.00652E-003	3.59960E-001	-1.16559E+000	3.57670E+000	10	...........
	27	0.373333	8.42532E-001	5.99279E-003	0.00000E+000	5.04912E-003	3.59960E-001	-1.17251E+000	3.57670E+000	10	...........
	28	0.386667	8.49039E-001	5.99423E-003	0.00000E+000	5.08934E-003	3.59960E-001	-1.16255E+000	3.57670E+000	10	...........
	29	0.4	8.55534E-001	5.99589E-003	0.00000E+000	5.12969E-003	3.59960E-001	-1.16570E+000	3.57670E+000	10	...........
	30	0.413333	8.62005E-001	5.99120E-003	0.00000E+000	5.16445E-003	3.59960E-001	-1.17263E+000	3.57670E+000	10	...........
	31	0.426667	8.68440E-001	5.99554E-003	0.00000E+000	5.20677E-003	3.59960E-001	-1.16265E+000	3.57670E+000	10	...........
	32	0.44	8.74854E-001	5.99900E-003	0.00000E+000	5.24825E-003	3.59960E-001	-1.16555E+000	3.57670E+000	10	...........
	33	0.453333	8.81231E-001	5.99288E-003	0.00000E+000	5.28112E-003	3.59960E-001	-1.17234E+000	3.57670E+000	10	...........
	34	0.466667	8.87576E-001	5.99415E-003	0.00000E+000	5.32026E-003	3.59960E-001	-1.16220E+000	3.57670E+000	10	...........
	35	0.48	8.93915E-001	5.98852E-003	0.00000E+000	5.35323E-003	3.59960E-001	-1.16531E+000	3.57670E+000	10	...........
	36	0.493333	9.00187E-001	5.99696E-003	0.00000E+000	5.39839E-003	3.59960E-001	-1.17235E+000	3.57670E+000	10	...........
	37	0.506667	9.06419E-001	5.99567E-003	0.00000E+000	5.43459E-003	3.59960E-001	-1.16242E+000	3.57670E+000	10	...........
	38	0.52	9.12632E-001	5.99508E-003	0.00000E+000	5.47130E-003	3.59960E-001	-1.16487E+000	3.57670E+000	10	...........
	39	0.533333	9.18794E-001	5.99660E-003	0.00000E+000	5.50964E-003	3.59960E-001	-1.17252E+000	3.57670E+000	10	...........
	40	0.546667	9.24945E-001	5.99039E-003	0.00000E+000	5.54078E-003	3.59960E-001	-1.16238E+000	3.57670E+000	10	...........
	41	0.56	9.31031E-001	5.99383E-003	0.00000E+000	5.58044E-003	3.59960E-001	-1.16494E+000	3.57670E+000	10	...........
	42	0.573333	9.37081E-001	5.99455E-003	0.00000E+000	5.61738E-003	3.59960E-001	-1.17234E+000	3.57670E+000	10	...........
	43	0.586667	9.43122E-001	5.99540E-003	0.00000E+000	5.65439E-003	3.59960E-001	-1.16217E+000	3.57670E+000	10	...........
	44	0.6	9.49108E-001	5.98941E-003	0.00000E+000	5.68460E-003	3.59960E-001	-1.16482E+000	3.57670E+000	10	...........
	45	0.613333	9.54980E-001	5.99201E-003	0.00000E+000	5.72225E-003	3.59960E-001	-1.17258E+000	3.57670E+000	10	...........
	46	0.626667	9.60841E-001	5.99582E-003	0.00000E+000	5.76102E-003	3.59960E-001	-1.16215E+000	3.57670E+000	10	...........
	47	0.64	9.66653E-001	5.99092E-003	0.00000E+000	5.79114E-003	3.59960E-001	-1.16463E+000	3.57670E+000	10	...........
	48	0.653333	9.72461E-001	5.99156E-003	0.00000E+000	5.82656E-003	3.59960E-001	-1.17256E+000	3.57670E+000	10	...........
	49	0.666667	9.78177E-001	5.99612E-003	0.00000E+000	5.86526E-003	3.59960E-001	-1.16235E+000	3.57670E+000	10	...........
	50	0.68	9.83832E-001	5.99513E-003	0.00000E+000	5.89820E-003	3.59960E-001	-1.16473E+000	3.57670E+000	10	...........
	51	0.693333	9.89423E-001	5.99300E-003	0.00000E+000	5.92961E-003	3.59960E-001	-1.17272E+000	3.57670E+000	10	...........
	52	0.706667	9.95006E-001	5.99022E-003	0.00000E+000	5.96031E-003	3.59960E-001	-1.16237E+000	3.57670E+000	10	...........
	53	0.713333	9.99131E-001	6.00101E-003	0.00000E+000	5.99580E-003	3.59960E-001	-1.17513E+000	3.57670E+000	10	...........
STARTTIMEOFFSET	QUANT	1372.603	Start Time Offset (s)