File: Data/CV_CRGO300517_1/PWRCCD_CRGO300517_1/CHARGE_DISCHARGE/CHARGE_#595.DTA
EXPLAIN
TAG	PWR800_CHARGE
TITLE	LABEL	PWR Cyclic Charge Discharge (Cell) - Charge Step	Test &Identifier
DATE	LABEL	22-6-2017	Date
TIME	LABEL	15:59:34	Time
NOTES	NOTES	3	&Notes...
	supercap test cell
	0.6mg
	6M KOH
PSTAT	PSTAT	IFC5000-01520	Potentiostat
CAPACITY	QUANT	1.00000E-003	Capacity (A-hr)
CELLTYPE	SELECTOR	1	&Cell Type
WORKINGCONNECTION	SELECTOR	0	&Working Lead
MAXCHARGETIME	VARIABLEANDUNITS	1.00000E+002	s	1.00000E+002	second(s)	Max &Charge Time
CHARGECURRENT	QUANT	6.00000E-003	&Charge Current (A)
VOLTAGEFINISH	TWOPARAM	F	1.00000E-003	3.60000E+003	&Voltage Finish	 I (A) < 	Max Time(s)
SAMPLETIME	QUANT	1.00000E-002	Sa&mple Period (s)
CHARGESTOPAT1	MULTIPARAM	4	1.00000E+000	Charge Stop At &1	Voltage > Limit	V
CHARGESTOPAT2	MULTIPARAM	0	0.00000E+000	Charge Stop At &2	None	N/A
AESBHCSELECTOR	TOGGLE	F	Save Both Half Cells
IRCOMP	TOGGLE	F	IR &Measure
EOC	QUANT	0	Open Circuit (V)
SEQUENCER	TOGGLE	TRUE	Run as Sequence
PSTATMODEL	IQUANT	53	Pstat Model
PSTATSECTION	LABEL	IFC5000-01520	Pstat Section
PSTATSERIALNO	LABEL	01520	Pstat Serial Number
CTRLMODE	IQUANT	0	Control Mode
ELECTROMETER	IQUANT	1	RE=0 or CS=1
IESTAB	IQUANT	0	I/E Stability
CASPEED	IQUANT	4	Control Amp Speed
CONVENTION	IQUANT	1	Current Convention
ICHRANGE	IQUANT	2	Ich Range
ICHRANGEMODE	TOGGLE	T	Ich Auto Range
ICHOFFSETENABLE	TOGGLE	F	Ich Offset Enable
ICHOFFSET	QUANT	0	Ich Offset (V)
ICHFILTER	IQUANT	1	Ich Filter
VCHRANGE	IQUANT	2	Vch Range
VCHRANGEMODE	TOGGLE	T	Vch Auto Range
VCHOFFSETENABLE	TOGGLE	F	Vch Offset Enable
VCHOFFSET	QUANT	0	Vch Offset (V)
VCHFILTER	IQUANT	1	Vch Filter
IERANGELOWERLIMIT	IQUANT	9	I/E Range Lower Limit
IERANGEMODE	TOGGLE	F	I/E AutoRange
IERANGE	IQUANT	10	I/E Range
ACHSELECT	IQUANT	1	Ach Select
ACHRANGE	IQUANT	2	Ach Range
ACHOFFSETENABLE	TOGGLE	F	Ach Offset Enable
ACHOFFSET	QUANT	0	Ach Offset (V)
ACHFILTER	IQUANT	1	Ach Filter
CABLEID	IQUANT	14	Cable ID
DCCALDATE	LABEL	20-10-2016	DC Calibration Date
ACCALDATE	LABEL	12/3/2015	AC Calibration Date
FRAMEWORKVERSION	QUANT	7.01	Framework Version
INSTRUMENTVERSION	LABEL	4.00	Instrument Version
CURVE	TABLE	57
	Pt	T	Vf	Im	Vu	Pwr	Sig	Ach	Temp	IERange	Over
	#	s	V	A	V	W	V	V	deg C	#	bits
	0	0.013333	6.37580E-001	5.98761E-003	0.00000E+000	3.81758E-003	3.59960E-001	-1.14462E+000	3.57700E+000	10	...........
	1	0.026667	6.46620E-001	5.99394E-003	0.00000E+000	3.87580E-003	3.59960E-001	-1.15491E+000	3.57700E+000	10	...........
	2	0.04	6.54891E-001	5.98814E-003	0.00000E+000	3.92158E-003	3.59960E-001	-1.14913E+000	3.57700E+000	10	...........
	3	0.053333	6.62733E-001	5.99656E-003	0.00000E+000	3.97412E-003	3.59960E-001	-1.14491E+000	3.57700E+000	10	...........
	4	0.066667	6.70278E-001	5.98910E-003	0.00000E+000	4.01436E-003	3.59960E-001	-1.15448E+000	3.57700E+000	10	...........
	5	0.08	6.77669E-001	5.99371E-003	0.00000E+000	4.06175E-003	3.59960E-001	-1.14899E+000	3.57700E+000	10	...........
	6	0.093333	6.84812E-001	5.99647E-003	0.00000E+000	4.10646E-003	3.59960E-001	-1.14473E+000	3.57700E+000	10	...........
	7	0.106667	6.91894E-001	5.99182E-003	0.00000E+000	4.14570E-003	3.59960E-001	-1.15499E+000	3.57700E+000	10	...........
	8	0.12	6.98918E-001	5.99554E-003	0.00000E+000	4.19039E-003	3.59960E-001	-1.14888E+000	3.57700E+000	10	...........
	9	0.133333	7.05849E-001	5.99742E-003	0.00000E+000	4.23327E-003	3.59960E-001	-1.14408E+000	3.57700E+000	10	...........
	10	0.146667	7.12689E-001	5.99197E-003	0.00000E+000	4.27041E-003	3.59960E-001	-1.15432E+000	3.57700E+000	10	...........
	11	0.16	7.19554E-001	5.99454E-003	0.00000E+000	4.31340E-003	3.59960E-001	-1.14860E+000	3.57700E+000	10	...........
	12	0.173333	7.26355E-001	5.99122E-003	0.00000E+000	4.35175E-003	3.59960E-001	-1.14413E+000	3.57700E+000	10	...........
	13	0.186667	7.33068E-001	5.99215E-003	0.00000E+000	4.39266E-003	3.59960E-001	-1.15438E+000	3.57700E+000	10	...........
	14	0.2	7.39804E-001	5.99356E-003	0.00000E+000	4.43406E-003	3.59960E-001	-1.14834E+000	3.57700E+000	10	...........
	15	0.213333	7.46518E-001	5.99433E-003	0.00000E+000	4.47488E-003	3.59960E-001	-1.14402E+000	3.57700E+000	10	...........
	16	0.226667	7.53170E-001	5.98891E-003	0.00000E+000	4.51067E-003	3.59960E-001	-1.15414E+000	3.57700E+000	10	...........
	17	0.24	7.59838E-001	5.99319E-003	0.00000E+000	4.55385E-003	3.59960E-001	-1.14853E+000	3.57700E+000	10	...........
	18	0.253333	7.66429E-001	5.99544E-003	0.00000E+000	4.59508E-003	3.59960E-001	-1.14407E+000	3.57700E+000	10	...........
	19	0.266667	7.73071E-001	5.99570E-003	0.00000E+000	4.63510E-003	3.59960E-001	-1.15412E+000	3.57700E+000	10	...........
	20	0.28	7.79651E-001	5.99680E-003	0.00000E+000	4.67541E-003	3.59960E-001	-1.14823E+000	3.57700E+000	10	...........
	21	0.293333	7.86206E-001	5.99733E-003	0.00000E+000	4.71514E-003	3.59960E-001	-1.14399E+000	3.57700E+000	10	...........
	22	0.306667	7.92775E-001	5.99078E-003	0.00000E+000	4.74934E-003	3.59960E-001	-1.15400E+000	3.57700E+000	10	...........
	23	0.32	7.99347E-001	5.99241E-003	0.00000E+000	4.79002E-003	3.59960E-001	-1.14847E+000	3.57700E+000	10	...........
	24	0.333333	8.05798E-001	5.99289E-003	0.00000E+000	4.82906E-003	3.59960E-001	-1.14377E+000	3.57700E+000	10	...........
	25	0.346667	8.12238E-001	5.99675E-003	0.00000E+000	4.87079E-003	3.59960E-001	-1.15388E+000	3.57700E+000	10	...........
	26	0.36	8.18693E-001	5.99105E-003	0.00000E+000	4.90483E-003	3.59960E-001	-1.14841E+000	3.57702E+000	10	...........
	27	0.373333	8.25188E-001	5.99600E-003	0.00000E+000	4.94783E-003	3.59960E-001	-1.14407E+000	3.57720E+000	10	...........
	28	0.386667	8.31577E-001	5.99773E-003	0.00000E+000	4.98758E-003	3.59960E-001	-1.15418E+000	3.57720E+000	10	...........
	29	0.4	8.38004E-001	5.98961E-003	0.00000E+000	5.01932E-003	3.59960E-001	-1.14830E+000	3.57720E+000	10	...........
	30	0.413333	8.44391E-001	5.99534E-003	0.00000E+000	5.06241E-003	3.59960E-001	-1.14376E+000	3.57720E+000	10	...........
	31	0.426667	8.50751E-001	5.99400E-003	0.00000E+000	5.09940E-003	3.59960E-001	-1.15386E+000	3.57720E+000	10	...........
	32	0.44	8.57102E-001	5.99440E-003	0.00000E+000	5.13781E-003	3.59960E-001	-1.14839E+000	3.57720E+000	10	...........
	33	0.453333	8.63416E-001	5.99481E-003	0.00000E+000	5.17602E-003	3.59960E-001	-1.14344E+000	3.57720E+000	10	...........
	34	0.466667	8.69773E-001	5.98984E-003	0.00000E+000	5.20980E-003	3.59960E-001	-1.15358E+000	3.57720E+000	10	...........
	35	0.48	8.76052E-001	5.99261E-003	0.00000E+000	5.24984E-003	3.59960E-001	-1.14777E+000	3.57720E+000	10	...........
	36	0.493333	8.82338E-001	5.99028E-003	0.00000E+000	5.28545E-003	3.59960E-001	-1.14367E+000	3.57720E+000	10	...........
	37	0.506667	8.88560E-001	5.99322E-003	0.00000E+000	5.32534E-003	3.59960E-001	-1.15380E+000	3.57720E+000	10	...........
	38	0.52	8.94771E-001	5.99722E-003	0.00000E+000	5.36614E-003	3.59960E-001	-1.14809E+000	3.57720E+000	10	...........
	39	0.533333	9.00925E-001	5.99177E-003	0.00000E+000	5.39813E-003	3.59960E-001	-1.14337E+000	3.57720E+000	10	...........
	40	0.546667	9.07097E-001	5.99565E-003	0.00000E+000	5.43864E-003	3.59960E-001	-1.15355E+000	3.57720E+000	10	...........
	41	0.56	9.13171E-001	5.98932E-003	0.00000E+000	5.46927E-003	3.59960E-001	-1.14811E+000	3.57720E+000	10	...........
	42	0.573333	9.19279E-001	5.99445E-003	0.00000E+000	5.51057E-003	3.59960E-001	-1.14363E+000	3.57720E+000	10	...........
	43	0.586667	9.25363E-001	5.99435E-003	0.00000E+000	5.54695E-003	3.59960E-001	-1.15346E+000	3.57720E+000	10	...........
	44	0.6	9.31364E-001	5.99635E-003	0.00000E+000	5.58478E-003	3.59960E-001	-1.14791E+000	3.57720E+000	10	...........
	45	0.613333	9.37336E-001	5.98934E-003	0.00000E+000	5.61402E-003	3.59960E-001	-1.14347E+000	3.57720E+000	10	...........
	46	0.626667	9.43260E-001	5.99184E-003	0.00000E+000	5.65187E-003	3.59960E-001	-1.15369E+000	3.57720E+000	10	...........
	47	0.64	9.49189E-001	5.99456E-003	0.00000E+000	5.68997E-003	3.59960E-001	-1.14802E+000	3.57720E+000	10	...........
	48	0.653333	9.55040E-001	5.99665E-003	0.00000E+000	5.72704E-003	3.59960E-001	-1.14365E+000	3.57720E+000	10	...........
	49	0.666667	9.60827E-001	5.99479E-003	0.00000E+000	5.75996E-003	3.59960E-001	-1.15352E+000	3.57720E+000	10	...........
	50	0.68	9.66593E-001	5.99624E-003	0.00000E+000	5.79593E-003	3.59960E-001	-1.14797E+000	3.57720E+000	10	...........
	51	0.693333	9.72316E-001	5.99155E-003	0.00000E+000	5.82568E-003	3.59960E-001	-1.14345E+000	3.57720E+000	10	...........
	52	0.706667	9.77996E-001	5.99540E-003	0.00000E+000	5.86347E-003	3.59960E-001	-1.15373E+000	3.57720E+000	10	...........
	53	0.72	9.83637E-001	5.99057E-003	0.00000E+000	5.89254E-003	3.59960E-001	-1.14811E+000	3.57720E+000	10	...........
	54	0.733333	9.89184E-001	5.99474E-003	0.00000E+000	5.92990E-003	3.59960E-001	-1.14352E+000	3.57720E+000	10	...........
	55	0.746667	9.94693E-001	5.99181E-003	0.00000E+000	5.96001E-003	3.59960E-001	-1.15331E+000	3.57720E+000	10	...........
	56	0.755	9.99194E-001	5.98581E-003	0.00000E+000	5.98099E-003	3.59960E-001	-1.14167E+000	3.57720E+000	10	...........
STARTTIMEOFFSET	QUANT	1003.437	Start Time Offset (s)