File: Data/CV_CRGO300517_1/PWRCCD_CRGO300517_1/CHARGE_DISCHARGE/CHARGE_#630.DTA
EXPLAIN
TAG	PWR800_CHARGE
TITLE	LABEL	PWR Cyclic Charge Discharge (Cell) - Charge Step	Test &Identifier
DATE	LABEL	22-6-2017	Date
TIME	LABEL	16:00:54	Time
NOTES	NOTES	3	&Notes...
	supercap test cell
	0.6mg
	6M KOH
PSTAT	PSTAT	IFC5000-01520	Potentiostat
CAPACITY	QUANT	1.00000E-003	Capacity (A-hr)
CELLTYPE	SELECTOR	1	&Cell Type
WORKINGCONNECTION	SELECTOR	0	&Working Lead
MAXCHARGETIME	VARIABLEANDUNITS	1.00000E+002	s	1.00000E+002	second(s)	Max &Charge Time
CHARGECURRENT	QUANT	6.00000E-003	&Charge Current (A)
VOLTAGEFINISH	TWOPARAM	F	1.00000E-003	3.60000E+003	&Voltage Finish	 I (A) < 	Max Time(s)
SAMPLETIME	QUANT	1.00000E-002	Sa&mple Period (s)
CHARGESTOPAT1	MULTIPARAM	4	1.00000E+000	Charge Stop At &1	Voltage > Limit	V
CHARGESTOPAT2	MULTIPARAM	0	0.00000E+000	Charge Stop At &2	None	N/A
AESBHCSELECTOR	TOGGLE	F	Save Both Half Cells
IRCOMP	TOGGLE	F	IR &Measure
EOC	QUANT	0	Open Circuit (V)
SEQUENCER	TOGGLE	TRUE	Run as Sequence
PSTATMODEL	IQUANT	53	Pstat Model
PSTATSECTION	LABEL	IFC5000-01520	Pstat Section
PSTATSERIALNO	LABEL	01520	Pstat Serial Number
CTRLMODE	IQUANT	0	Control Mode
ELECTROMETER	IQUANT	1	RE=0 or CS=1
IESTAB	IQUANT	0	I/E Stability
CASPEED	IQUANT	4	Control Amp Speed
CONVENTION	IQUANT	1	Current Convention
ICHRANGE	IQUANT	2	Ich Range
ICHRANGEMODE	TOGGLE	T	Ich Auto Range
ICHOFFSETENABLE	TOGGLE	F	Ich Offset Enable
ICHOFFSET	QUANT	0	Ich Offset (V)
ICHFILTER	IQUANT	1	Ich Filter
VCHRANGE	IQUANT	2	Vch Range
VCHRANGEMODE	TOGGLE	T	Vch Auto Range
VCHOFFSETENABLE	TOGGLE	F	Vch Offset Enable
VCHOFFSET	QUANT	0	Vch Offset (V)
VCHFILTER	IQUANT	1	Vch Filter
IERANGELOWERLIMIT	IQUANT	9	I/E Range Lower Limit
IERANGEMODE	TOGGLE	F	I/E AutoRange
IERANGE	IQUANT	10	I/E Range
ACHSELECT	IQUANT	1	Ach Select
ACHRANGE	IQUANT	2	Ach Range
ACHOFFSETENABLE	TOGGLE	F	Ach Offset Enable
ACHOFFSET	QUANT	0	Ach Offset (V)
ACHFILTER	IQUANT	1	Ach Filter
CABLEID	IQUANT	14	Cable ID
DCCALDATE	LABEL	20-10-2016	DC Calibration Date
ACCALDATE	LABEL	12/3/2015	AC Calibration Date
FRAMEWORKVERSION	QUANT	7.01	Framework Version
INSTRUMENTVERSION	LABEL	4.00	Instrument Version
CURVE	TABLE	57
	Pt	T	Vf	Im	Vu	Pwr	Sig	Ach	Temp	IERange	Over
	#	s	V	A	V	W	V	V	deg C	#	bits
	0	0.013333	6.38813E-001	5.99501E-003	0.00000E+000	3.82969E-003	3.59960E-001	-1.15027E+000	3.57660E+000	10	...........
	1	0.026667	6.47881E-001	5.99427E-003	0.00000E+000	3.88358E-003	3.59960E-001	-1.14112E+000	3.57660E+000	10	...........
	2	0.04	6.56164E-001	5.98962E-003	0.00000E+000	3.93017E-003	3.59960E-001	-1.14574E+000	3.57660E+000	10	...........
	3	0.053333	6.64032E-001	5.99711E-003	0.00000E+000	3.98227E-003	3.59960E-001	-1.15003E+000	3.57660E+000	10	...........
	4	0.066667	6.71650E-001	5.99439E-003	0.00000E+000	4.02613E-003	3.59960E-001	-1.14128E+000	3.57660E+000	10	...........
	5	0.08	6.79047E-001	5.99693E-003	0.00000E+000	4.07220E-003	3.59960E-001	-1.14587E+000	3.57660E+000	10	...........
	6	0.093333	6.86313E-001	5.99407E-003	0.00000E+000	4.11381E-003	3.59960E-001	-1.14990E+000	3.57660E+000	10	...........
	7	0.106667	6.93487E-001	5.99228E-003	0.00000E+000	4.15557E-003	3.59960E-001	-1.14102E+000	3.57660E+000	10	...........
	8	0.12	7.00501E-001	5.99296E-003	0.00000E+000	4.19807E-003	3.59960E-001	-1.14583E+000	3.57660E+000	10	...........
	9	0.133333	7.07430E-001	5.99389E-003	0.00000E+000	4.24025E-003	3.59960E-001	-1.14993E+000	3.57660E+000	10	...........
	10	0.146667	7.14343E-001	5.99114E-003	0.00000E+000	4.27973E-003	3.59960E-001	-1.14110E+000	3.57660E+000	10	...........
	11	0.16	7.21245E-001	5.99565E-003	0.00000E+000	4.32433E-003	3.59960E-001	-1.14580E+000	3.57660E+000	10	...........
	12	0.173333	7.28038E-001	5.99654E-003	0.00000E+000	4.36572E-003	3.59960E-001	-1.14949E+000	3.57660E+000	10	...........
	13	0.186667	7.34817E-001	5.99674E-003	0.00000E+000	4.40651E-003	3.59960E-001	-1.14098E+000	3.57660E+000	10	...........
	14	0.2	7.41567E-001	5.99677E-003	0.00000E+000	4.44701E-003	3.59960E-001	-1.14600E+000	3.57660E+000	10	...........
	15	0.213333	7.48292E-001	5.99640E-003	0.00000E+000	4.48706E-003	3.59960E-001	-1.14964E+000	3.57660E+000	10	...........
	16	0.226667	7.54981E-001	5.99220E-003	0.00000E+000	4.52399E-003	3.59960E-001	-1.14075E+000	3.57660E+000	10	...........
	17	0.24	7.61621E-001	5.99384E-003	0.00000E+000	4.56504E-003	3.59960E-001	-1.14596E+000	3.57660E+000	10	...........
	18	0.253333	7.68256E-001	5.99123E-003	0.00000E+000	4.60279E-003	3.59960E-001	-1.14943E+000	3.57660E+000	10	...........
	19	0.266667	7.74875E-001	5.99464E-003	0.00000E+000	4.64509E-003	3.59960E-001	-1.14095E+000	3.57660E+000	10	...........
	20	0.28	7.81476E-001	5.99492E-003	0.00000E+000	4.68488E-003	3.59960E-001	-1.14603E+000	3.57660E+000	10	...........
	21	0.293333	7.88034E-001	5.99263E-003	0.00000E+000	4.72240E-003	3.59960E-001	-1.14907E+000	3.57660E+000	10	...........
	22	0.306667	7.94636E-001	5.99521E-003	0.00000E+000	4.76401E-003	3.59960E-001	-1.14006E+000	3.57660E+000	10	...........
	23	0.32	8.01180E-001	5.98986E-003	0.00000E+000	4.79896E-003	3.59960E-001	-1.14546E+000	3.57660E+000	10	...........
	24	0.333333	8.07670E-001	5.99515E-003	0.00000E+000	4.84210E-003	3.59960E-001	-1.14888E+000	3.57660E+000	10	...........
	25	0.346667	8.14167E-001	5.99674E-003	0.00000E+000	4.88235E-003	3.59960E-001	-1.14027E+000	3.57660E+000	10	...........
	26	0.36	8.20679E-001	5.99741E-003	0.00000E+000	4.92195E-003	3.59960E-001	-1.14566E+000	3.57660E+000	10	...........
	27	0.373333	8.27139E-001	5.99123E-003	0.00000E+000	4.95558E-003	3.59960E-001	-1.14863E+000	3.57673E+000	10	...........
	28	0.386667	8.33586E-001	5.99741E-003	0.00000E+000	4.99936E-003	3.59960E-001	-1.14029E+000	3.57720E+000	10	...........
	29	0.4	8.40017E-001	5.99592E-003	0.00000E+000	5.03668E-003	3.59960E-001	-1.14593E+000	3.57720E+000	10	...........
	30	0.413333	8.46425E-001	5.99670E-003	0.00000E+000	5.07576E-003	3.59960E-001	-1.14854E+000	3.57720E+000	10	...........
	31	0.426667	8.52813E-001	5.99260E-003	0.00000E+000	5.11057E-003	3.59960E-001	-1.14021E+000	3.57720E+000	10	...........
	32	0.44	8.59182E-001	5.98702E-003	0.00000E+000	5.14394E-003	3.59960E-001	-1.14559E+000	3.57720E+000	10	...........
	33	0.453333	8.65547E-001	5.99271E-003	0.00000E+000	5.18697E-003	3.59960E-001	-1.14848E+000	3.57720E+000	10	...........
	34	0.466667	8.71877E-001	5.99446E-003	0.00000E+000	5.22643E-003	3.59960E-001	-1.14036E+000	3.57720E+000	10	...........
	35	0.48	8.78149E-001	5.99117E-003	0.00000E+000	5.26114E-003	3.59960E-001	-1.14584E+000	3.57720E+000	10	...........
	36	0.493333	8.84414E-001	5.99235E-003	0.00000E+000	5.29972E-003	3.59960E-001	-1.14837E+000	3.57720E+000	10	...........
	37	0.506667	8.90635E-001	5.99629E-003	0.00000E+000	5.34051E-003	3.59960E-001	-1.13992E+000	3.57720E+000	10	...........
	38	0.52	8.96847E-001	5.99686E-003	0.00000E+000	5.37826E-003	3.59960E-001	-1.14584E+000	3.57720E+000	10	...........
	39	0.533333	9.03013E-001	5.99319E-003	0.00000E+000	5.41193E-003	3.59960E-001	-1.14847E+000	3.57720E+000	10	...........
	40	0.546667	9.09203E-001	5.99233E-003	0.00000E+000	5.44824E-003	3.59960E-001	-1.14022E+000	3.57720E+000	10	...........
	41	0.56	9.15268E-001	5.99683E-003	0.00000E+000	5.48870E-003	3.59960E-001	-1.14593E+000	3.57720E+000	10	...........
	42	0.573333	9.21397E-001	5.99326E-003	0.00000E+000	5.52217E-003	3.59960E-001	-1.14806E+000	3.57720E+000	10	...........
	43	0.586667	9.27478E-001	5.99340E-003	0.00000E+000	5.55874E-003	3.59960E-001	-1.14006E+000	3.57720E+000	10	...........
	44	0.6	9.33481E-001	5.99101E-003	0.00000E+000	5.59249E-003	3.59960E-001	-1.14605E+000	3.57720E+000	10	...........
	45	0.613333	9.39409E-001	5.99426E-003	0.00000E+000	5.63106E-003	3.59960E-001	-1.14800E+000	3.57720E+000	10	...........
	46	0.626667	9.45359E-001	5.99418E-003	0.00000E+000	5.66665E-003	3.59960E-001	-1.13963E+000	3.57720E+000	10	...........
	47	0.64	9.51286E-001	5.99082E-003	0.00000E+000	5.69898E-003	3.59960E-001	-1.14588E+000	3.57720E+000	10	...........
	48	0.653333	9.57096E-001	5.98795E-003	0.00000E+000	5.73104E-003	3.59960E-001	-1.14745E+000	3.57720E+000	10	...........
	49	0.666667	9.62884E-001	5.99226E-003	0.00000E+000	5.76985E-003	3.59960E-001	-1.13970E+000	3.57720E+000	10	...........
	50	0.68	9.68647E-001	5.99656E-003	0.00000E+000	5.80855E-003	3.59960E-001	-1.14606E+000	3.57720E+000	10	...........
	51	0.693333	9.74370E-001	5.99947E-003	0.00000E+000	5.84570E-003	3.59960E-001	-1.14732E+000	3.57720E+000	10	...........
	52	0.706667	9.80034E-001	5.99539E-003	0.00000E+000	5.87568E-003	3.59960E-001	-1.13946E+000	3.57720E+000	10	...........
	53	0.72	9.85656E-001	5.99203E-003	0.00000E+000	5.90608E-003	3.59960E-001	-1.14597E+000	3.57720E+000	10	...........
	54	0.733333	9.91201E-001	5.99478E-003	0.00000E+000	5.94203E-003	3.59960E-001	-1.14751E+000	3.57720E+000	10	...........
	55	0.746667	9.96719E-001	5.99408E-003	0.00000E+000	5.97442E-003	3.59960E-001	-1.13963E+000	3.57720E+000	10	...........
	56	0.75	1.00012E+000	5.98328E-003	0.00000E+000	5.98399E-003	3.59960E-001	-1.15434E+000	3.57720E+000	10	...........
STARTTIMEOFFSET	QUANT	1055.757	Start Time Offset (s)