File: Data/CV_CRGO300517_1/PWRCCD_CRGO300517_1/CHARGE_DISCHARGE/CHARGE_#818.DTA
EXPLAIN
TAG	PWR800_CHARGE
TITLE	LABEL	PWR Cyclic Charge Discharge (Cell) - Charge Step	Test &Identifier
DATE	LABEL	22-6-2017	Date
TIME	LABEL	16:07:57	Time
NOTES	NOTES	3	&Notes...
	supercap test cell
	0.6mg
	6M KOH
PSTAT	PSTAT	IFC5000-01520	Potentiostat
CAPACITY	QUANT	1.00000E-003	Capacity (A-hr)
CELLTYPE	SELECTOR	1	&Cell Type
WORKINGCONNECTION	SELECTOR	0	&Working Lead
MAXCHARGETIME	VARIABLEANDUNITS	1.00000E+002	s	1.00000E+002	second(s)	Max &Charge Time
CHARGECURRENT	QUANT	6.00000E-003	&Charge Current (A)
VOLTAGEFINISH	TWOPARAM	F	1.00000E-003	3.60000E+003	&Voltage Finish	 I (A) < 	Max Time(s)
SAMPLETIME	QUANT	1.00000E-002	Sa&mple Period (s)
CHARGESTOPAT1	MULTIPARAM	4	1.00000E+000	Charge Stop At &1	Voltage > Limit	V
CHARGESTOPAT2	MULTIPARAM	0	0.00000E+000	Charge Stop At &2	None	N/A
AESBHCSELECTOR	TOGGLE	F	Save Both Half Cells
IRCOMP	TOGGLE	F	IR &Measure
EOC	QUANT	0	Open Circuit (V)
SEQUENCER	TOGGLE	TRUE	Run as Sequence
PSTATMODEL	IQUANT	53	Pstat Model
PSTATSECTION	LABEL	IFC5000-01520	Pstat Section
PSTATSERIALNO	LABEL	01520	Pstat Serial Number
CTRLMODE	IQUANT	0	Control Mode
ELECTROMETER	IQUANT	1	RE=0 or CS=1
IESTAB	IQUANT	0	I/E Stability
CASPEED	IQUANT	4	Control Amp Speed
CONVENTION	IQUANT	1	Current Convention
ICHRANGE	IQUANT	2	Ich Range
ICHRANGEMODE	TOGGLE	T	Ich Auto Range
ICHOFFSETENABLE	TOGGLE	F	Ich Offset Enable
ICHOFFSET	QUANT	0	Ich Offset (V)
ICHFILTER	IQUANT	1	Ich Filter
VCHRANGE	IQUANT	2	Vch Range
VCHRANGEMODE	TOGGLE	T	Vch Auto Range
VCHOFFSETENABLE	TOGGLE	F	Vch Offset Enable
VCHOFFSET	QUANT	0	Vch Offset (V)
VCHFILTER	IQUANT	1	Vch Filter
IERANGELOWERLIMIT	IQUANT	9	I/E Range Lower Limit
IERANGEMODE	TOGGLE	F	I/E AutoRange
IERANGE	IQUANT	10	I/E Range
ACHSELECT	IQUANT	1	Ach Select
ACHRANGE	IQUANT	2	Ach Range
ACHOFFSETENABLE	TOGGLE	F	Ach Offset Enable
ACHOFFSET	QUANT	0	Ach Offset (V)
ACHFILTER	IQUANT	1	Ach Filter
CABLEID	IQUANT	14	Cable ID
DCCALDATE	LABEL	20-10-2016	DC Calibration Date
ACCALDATE	LABEL	12/3/2015	AC Calibration Date
FRAMEWORKVERSION	QUANT	7.01	Framework Version
INSTRUMENTVERSION	LABEL	4.00	Instrument Version
CURVE	TABLE	54
	Pt	T	Vf	Im	Vu	Pwr	Sig	Ach	Temp	IERange	Over
	#	s	V	A	V	W	V	V	deg C	#	bits
	0	0.013333	6.49176E-001	5.99182E-003	0.00000E+000	3.88974E-003	3.59960E-001	-1.17038E+000	3.57780E+000	10	...........
	1	0.026667	6.58353E-001	5.99163E-003	0.00000E+000	3.94461E-003	3.59960E-001	-1.16397E+000	3.57780E+000	10	...........
	2	0.04	6.66843E-001	5.99725E-003	0.00000E+000	3.99923E-003	3.59960E-001	-1.15973E+000	3.57780E+000	10	...........
	3	0.053333	6.74836E-001	5.99694E-003	0.00000E+000	4.04695E-003	3.59960E-001	-1.16995E+000	3.57780E+000	10	...........
	4	0.066667	6.82584E-001	5.99113E-003	0.00000E+000	4.08945E-003	3.59960E-001	-1.16332E+000	3.57780E+000	10	...........
	5	0.08	6.90127E-001	5.99235E-003	0.00000E+000	4.13548E-003	3.59960E-001	-1.15964E+000	3.57780E+000	10	...........
	6	0.093333	6.97537E-001	5.99209E-003	0.00000E+000	4.17971E-003	3.59960E-001	-1.17011E+000	3.57780E+000	10	...........
	7	0.106667	7.04779E-001	5.99313E-003	0.00000E+000	4.22383E-003	3.59960E-001	-1.16342E+000	3.57780E+000	10	...........
	8	0.12	7.11979E-001	5.99451E-003	0.00000E+000	4.26796E-003	3.59960E-001	-1.15952E+000	3.57780E+000	10	...........
	9	0.133333	7.19093E-001	5.99076E-003	0.00000E+000	4.30791E-003	3.59960E-001	-1.16973E+000	3.57780E+000	10	...........
	10	0.146667	7.26126E-001	5.99585E-003	0.00000E+000	4.35374E-003	3.59960E-001	-1.16359E+000	3.57780E+000	10	...........
	11	0.16	7.33090E-001	5.99513E-003	0.00000E+000	4.39497E-003	3.59960E-001	-1.15976E+000	3.57780E+000	10	...........
	12	0.173333	7.40013E-001	5.99361E-003	0.00000E+000	4.43535E-003	3.59960E-001	-1.17002E+000	3.57780E+000	10	...........
	13	0.186667	7.46928E-001	5.99206E-003	0.00000E+000	4.47564E-003	3.59960E-001	-1.16342E+000	3.57780E+000	10	...........
	14	0.2	7.53777E-001	5.99398E-003	0.00000E+000	4.51812E-003	3.59960E-001	-1.15946E+000	3.57780E+000	10	...........
	15	0.213333	7.60578E-001	5.99373E-003	0.00000E+000	4.55870E-003	3.59960E-001	-1.17012E+000	3.57780E+000	10	...........
	16	0.226667	7.67374E-001	5.99120E-003	0.00000E+000	4.59750E-003	3.59960E-001	-1.16369E+000	3.57780E+000	10	...........
	17	0.24	7.74140E-001	5.99399E-003	0.00000E+000	4.64019E-003	3.59960E-001	-1.15955E+000	3.57780E+000	10	...........
	18	0.253333	7.80894E-001	5.99196E-003	0.00000E+000	4.67908E-003	3.59960E-001	-1.16956E+000	3.57780E+000	10	...........
	19	0.266667	7.87638E-001	5.99359E-003	0.00000E+000	4.72078E-003	3.59960E-001	-1.16298E+000	3.57780E+000	10	...........
	20	0.28	7.94392E-001	5.99203E-003	0.00000E+000	4.76002E-003	3.59960E-001	-1.15921E+000	3.57780E+000	10	...........
	21	0.293333	8.01029E-001	5.98997E-003	0.00000E+000	4.79814E-003	3.59960E-001	-1.16982E+000	3.57780E+000	10	...........
	22	0.306667	8.07698E-001	5.99320E-003	0.00000E+000	4.84069E-003	3.59960E-001	-1.16299E+000	3.57780E+000	10	...........
	23	0.32	8.14327E-001	5.99283E-003	0.00000E+000	4.88012E-003	3.59960E-001	-1.15886E+000	3.57780E+000	10	...........
	24	0.333333	8.20938E-001	5.99370E-003	0.00000E+000	4.92045E-003	3.59960E-001	-1.16947E+000	3.57780E+000	10	...........
	25	0.346667	8.27498E-001	5.99369E-003	0.00000E+000	4.95976E-003	3.59960E-001	-1.16316E+000	3.57780E+000	10	...........
	26	0.36	8.34071E-001	5.99389E-003	0.00000E+000	4.99933E-003	3.59960E-001	-1.15915E+000	3.57780E+000	10	...........
	27	0.373333	8.40620E-001	5.99107E-003	0.00000E+000	5.03621E-003	3.59960E-001	-1.16940E+000	3.57780E+000	10	...........
	28	0.386667	8.47146E-001	5.99695E-003	0.00000E+000	5.08030E-003	3.59960E-001	-1.16264E+000	3.57780E+000	10	...........
	29	0.4	8.53660E-001	5.99653E-003	0.00000E+000	5.11900E-003	3.59960E-001	-1.15887E+000	3.57780E+000	10	...........
	30	0.413333	8.60102E-001	5.99879E-003	0.00000E+000	5.15957E-003	3.59960E-001	-1.16962E+000	3.57780E+000	10	...........
	31	0.426667	8.66527E-001	5.99519E-003	0.00000E+000	5.19499E-003	3.59960E-001	-1.16298E+000	3.57780E+000	10	...........
	32	0.44	8.72912E-001	5.99504E-003	0.00000E+000	5.23314E-003	3.59960E-001	-1.15877E+000	3.57780E+000	10	...........
	33	0.453333	8.79331E-001	5.99402E-003	0.00000E+000	5.27073E-003	3.59960E-001	-1.16927E+000	3.57780E+000	10	...........
	34	0.466667	8.85669E-001	5.99537E-003	0.00000E+000	5.30991E-003	3.59960E-001	-1.16269E+000	3.57780E+000	10	...........
	35	0.48	8.91952E-001	5.99053E-003	0.00000E+000	5.34326E-003	3.59960E-001	-1.15904E+000	3.57780E+000	10	...........
	36	0.493333	8.98234E-001	5.99233E-003	0.00000E+000	5.38251E-003	3.59960E-001	-1.16942E+000	3.57780E+000	10	...........
	37	0.506667	9.04470E-001	5.99424E-003	0.00000E+000	5.42161E-003	3.59960E-001	-1.16261E+000	3.57780E+000	10	...........
	38	0.52	9.10701E-001	5.99591E-003	0.00000E+000	5.46048E-003	3.59960E-001	-1.15892E+000	3.57780E+000	10	...........
	39	0.533333	9.16884E-001	5.99261E-003	0.00000E+000	5.49453E-003	3.59960E-001	-1.16952E+000	3.57780E+000	10	...........
	40	0.546667	9.23097E-001	5.99596E-003	0.00000E+000	5.53485E-003	3.59960E-001	-1.16287E+000	3.57780E+000	10	...........
	41	0.56	9.29204E-001	5.99393E-003	0.00000E+000	5.56958E-003	3.59960E-001	-1.15901E+000	3.57780E+000	10	...........
	42	0.573333	9.35264E-001	5.99146E-003	0.00000E+000	5.60359E-003	3.59960E-001	-1.16923E+000	3.57780E+000	10	...........
	43	0.586667	9.41232E-001	5.98998E-003	0.00000E+000	5.63797E-003	3.59960E-001	-1.16249E+000	3.57780E+000	10	...........
	44	0.6	9.47237E-001	5.99116E-003	0.00000E+000	5.67505E-003	3.59960E-001	-1.15851E+000	3.57780E+000	10	...........
	45	0.613333	9.53202E-001	5.99423E-003	0.00000E+000	5.71371E-003	3.59960E-001	-1.16877E+000	3.57780E+000	10	...........
	46	0.626667	9.59055E-001	5.99786E-003	0.00000E+000	5.75228E-003	3.59960E-001	-1.16254E+000	3.57780E+000	10	...........
	47	0.64	9.64870E-001	5.99569E-003	0.00000E+000	5.78506E-003	3.59960E-001	-1.15863E+000	3.57780E+000	10	...........
	48	0.653333	9.70616E-001	5.99932E-003	0.00000E+000	5.82303E-003	3.59960E-001	-1.16898E+000	3.57780E+000	10	...........
	49	0.666667	9.76393E-001	5.99148E-003	0.00000E+000	5.85003E-003	3.59960E-001	-1.16210E+000	3.57780E+000	10	...........
	50	0.68	9.82059E-001	5.99111E-003	0.00000E+000	5.88362E-003	3.59960E-001	-1.15856E+000	3.57780E+000	10	...........
	51	0.693333	9.87679E-001	5.99720E-003	0.00000E+000	5.92331E-003	3.59960E-001	-1.16921E+000	3.57780E+000	10	...........
	52	0.706667	9.93228E-001	5.99413E-003	0.00000E+000	5.95353E-003	3.59960E-001	-1.16241E+000	3.57780E+000	10	...........
	53	0.718333	9.98426E-001	5.99385E-003	0.00000E+000	5.98442E-003	3.59960E-001	-1.15784E+000	3.57780E+000	10	...........
STARTTIMEOFFSET	QUANT	1329.884	Start Time Offset (s)