File: Data/CV_CRGO300517_1/PWRCCD_CRGO300517_1/CHARGE_DISCHARGE/CHARGE_#648.DTA
EXPLAIN
TAG	PWR800_CHARGE
TITLE	LABEL	PWR Cyclic Charge Discharge (Cell) - Charge Step	Test &Identifier
DATE	LABEL	22-6-2017	Date
TIME	LABEL	16:01:36	Time
NOTES	NOTES	3	&Notes...
	supercap test cell
	0.6mg
	6M KOH
PSTAT	PSTAT	IFC5000-01520	Potentiostat
CAPACITY	QUANT	1.00000E-003	Capacity (A-hr)
CELLTYPE	SELECTOR	1	&Cell Type
WORKINGCONNECTION	SELECTOR	0	&Working Lead
MAXCHARGETIME	VARIABLEANDUNITS	1.00000E+002	s	1.00000E+002	second(s)	Max &Charge Time
CHARGECURRENT	QUANT	6.00000E-003	&Charge Current (A)
VOLTAGEFINISH	TWOPARAM	F	1.00000E-003	3.60000E+003	&Voltage Finish	 I (A) < 	Max Time(s)
SAMPLETIME	QUANT	1.00000E-002	Sa&mple Period (s)
CHARGESTOPAT1	MULTIPARAM	4	1.00000E+000	Charge Stop At &1	Voltage > Limit	V
CHARGESTOPAT2	MULTIPARAM	0	0.00000E+000	Charge Stop At &2	None	N/A
AESBHCSELECTOR	TOGGLE	F	Save Both Half Cells
IRCOMP	TOGGLE	F	IR &Measure
EOC	QUANT	0	Open Circuit (V)
SEQUENCER	TOGGLE	TRUE	Run as Sequence
PSTATMODEL	IQUANT	53	Pstat Model
PSTATSECTION	LABEL	IFC5000-01520	Pstat Section
PSTATSERIALNO	LABEL	01520	Pstat Serial Number
CTRLMODE	IQUANT	0	Control Mode
ELECTROMETER	IQUANT	1	RE=0 or CS=1
IESTAB	IQUANT	0	I/E Stability
CASPEED	IQUANT	4	Control Amp Speed
CONVENTION	IQUANT	1	Current Convention
ICHRANGE	IQUANT	2	Ich Range
ICHRANGEMODE	TOGGLE	T	Ich Auto Range
ICHOFFSETENABLE	TOGGLE	F	Ich Offset Enable
ICHOFFSET	QUANT	0	Ich Offset (V)
ICHFILTER	IQUANT	1	Ich Filter
VCHRANGE	IQUANT	2	Vch Range
VCHRANGEMODE	TOGGLE	T	Vch Auto Range
VCHOFFSETENABLE	TOGGLE	F	Vch Offset Enable
VCHOFFSET	QUANT	0	Vch Offset (V)
VCHFILTER	IQUANT	1	Vch Filter
IERANGELOWERLIMIT	IQUANT	9	I/E Range Lower Limit
IERANGEMODE	TOGGLE	F	I/E AutoRange
IERANGE	IQUANT	10	I/E Range
ACHSELECT	IQUANT	1	Ach Select
ACHRANGE	IQUANT	2	Ach Range
ACHOFFSETENABLE	TOGGLE	F	Ach Offset Enable
ACHOFFSET	QUANT	0	Ach Offset (V)
ACHFILTER	IQUANT	1	Ach Filter
CABLEID	IQUANT	14	Cable ID
DCCALDATE	LABEL	20-10-2016	DC Calibration Date
ACCALDATE	LABEL	12/3/2015	AC Calibration Date
FRAMEWORKVERSION	QUANT	7.01	Framework Version
INSTRUMENTVERSION	LABEL	4.00	Instrument Version
CURVE	TABLE	56
	Pt	T	Vf	Im	Vu	Pwr	Sig	Ach	Temp	IERange	Over
	#	s	V	A	V	W	V	V	deg C	#	bits
	0	0.013333	6.39992E-001	5.99311E-003	0.00000E+000	3.83555E-003	3.59960E-001	-1.16255E+000	3.57640E+000	10	...........
	1	0.026667	6.49048E-001	5.99313E-003	0.00000E+000	3.88983E-003	3.59960E-001	-1.15202E+000	3.57640E+000	10	...........
	2	0.04	6.57352E-001	5.99222E-003	0.00000E+000	3.93900E-003	3.59960E-001	-1.15185E+000	3.57640E+000	10	...........
	3	0.053333	6.65223E-001	5.99238E-003	0.00000E+000	3.98627E-003	3.59960E-001	-1.16255E+000	3.57640E+000	10	...........
	4	0.066667	6.72866E-001	5.99197E-003	0.00000E+000	4.03179E-003	3.59960E-001	-1.15197E+000	3.57640E+000	10	...........
	5	0.08	6.80271E-001	5.99572E-003	0.00000E+000	4.07871E-003	3.59960E-001	-1.15217E+000	3.57640E+000	10	...........
	6	0.093333	6.87508E-001	5.99206E-003	0.00000E+000	4.11959E-003	3.59960E-001	-1.16242E+000	3.57640E+000	10	...........
	7	0.106667	6.94669E-001	5.99238E-003	0.00000E+000	4.16272E-003	3.59960E-001	-1.15198E+000	3.57640E+000	10	...........
	8	0.12	7.01691E-001	5.99480E-003	0.00000E+000	4.20650E-003	3.59960E-001	-1.15193E+000	3.57640E+000	10	...........
	9	0.133333	7.08623E-001	5.99233E-003	0.00000E+000	4.24630E-003	3.59960E-001	-1.16249E+000	3.57640E+000	10	...........
	10	0.146667	7.15563E-001	5.98876E-003	0.00000E+000	4.28534E-003	3.59960E-001	-1.15182E+000	3.57640E+000	10	...........
	11	0.16	7.22464E-001	5.99473E-003	0.00000E+000	4.33098E-003	3.59960E-001	-1.15169E+000	3.57640E+000	10	...........
	12	0.173333	7.29296E-001	5.99498E-003	0.00000E+000	4.37212E-003	3.59960E-001	-1.16202E+000	3.57640E+000	10	...........
	13	0.186667	7.36054E-001	5.99139E-003	0.00000E+000	4.40999E-003	3.59960E-001	-1.15142E+000	3.57646E+000	10	...........
	14	0.2	7.42834E-001	5.99542E-003	0.00000E+000	4.45360E-003	3.59960E-001	-1.15159E+000	3.57660E+000	10	...........
	15	0.213333	7.49536E-001	5.99418E-003	0.00000E+000	4.49285E-003	3.59960E-001	-1.16195E+000	3.57660E+000	10	...........
	16	0.226667	7.56305E-001	5.99236E-003	0.00000E+000	4.53205E-003	3.59960E-001	-1.15147E+000	3.57660E+000	10	...........
	17	0.24	7.62941E-001	5.99105E-003	0.00000E+000	4.57082E-003	3.59960E-001	-1.15161E+000	3.57660E+000	10	...........
	18	0.253333	7.69619E-001	5.99742E-003	0.00000E+000	4.61573E-003	3.59960E-001	-1.16188E+000	3.57660E+000	10	...........
	19	0.266667	7.76214E-001	5.99225E-003	0.00000E+000	4.65127E-003	3.59960E-001	-1.15124E+000	3.57660E+000	10	...........
	20	0.28	7.82842E-001	5.99133E-003	0.00000E+000	4.69027E-003	3.59960E-001	-1.15164E+000	3.57660E+000	10	...........
	21	0.293333	7.89375E-001	5.99569E-003	0.00000E+000	4.73285E-003	3.59960E-001	-1.16183E+000	3.57660E+000	10	...........
	22	0.306667	7.95994E-001	5.99599E-003	0.00000E+000	4.77277E-003	3.59960E-001	-1.15118E+000	3.57660E+000	10	...........
	23	0.32	8.02567E-001	5.99245E-003	0.00000E+000	4.80934E-003	3.59960E-001	-1.15130E+000	3.57660E+000	10	...........
	24	0.333333	8.09071E-001	5.99172E-003	0.00000E+000	4.84772E-003	3.59960E-001	-1.16165E+000	3.57660E+000	10	...........
	25	0.346667	8.15547E-001	5.99162E-003	0.00000E+000	4.88645E-003	3.59960E-001	-1.15137E+000	3.57660E+000	10	...........
	26	0.36	8.22077E-001	5.99680E-003	0.00000E+000	4.92983E-003	3.59960E-001	-1.15142E+000	3.57660E+000	10	...........
	27	0.373333	8.28534E-001	5.99241E-003	0.00000E+000	4.96492E-003	3.59960E-001	-1.16185E+000	3.57660E+000	10	...........
	28	0.386667	8.34939E-001	5.99101E-003	0.00000E+000	5.00213E-003	3.59960E-001	-1.15141E+000	3.57660E+000	10	...........
	29	0.4	8.41382E-001	5.99359E-003	0.00000E+000	5.04290E-003	3.59960E-001	-1.15145E+000	3.57660E+000	10	...........
	30	0.413333	8.47799E-001	5.99163E-003	0.00000E+000	5.07970E-003	3.59960E-001	-1.16212E+000	3.57660E+000	10	...........
	31	0.426667	8.54176E-001	5.99098E-003	0.00000E+000	5.11735E-003	3.59960E-001	-1.15139E+000	3.57660E+000	10	...........
	32	0.44	8.60549E-001	5.99389E-003	0.00000E+000	5.15803E-003	3.59960E-001	-1.15149E+000	3.57660E+000	10	...........
	33	0.453333	8.66881E-001	5.99229E-003	0.00000E+000	5.19460E-003	3.59960E-001	-1.16177E+000	3.57660E+000	10	...........
	34	0.466667	8.73268E-001	5.99427E-003	0.00000E+000	5.23461E-003	3.59960E-001	-1.15121E+000	3.57660E+000	10	...........
	35	0.48	8.79552E-001	5.99568E-003	0.00000E+000	5.27351E-003	3.59960E-001	-1.15131E+000	3.57660E+000	10	...........
	36	0.493333	8.85792E-001	5.99445E-003	0.00000E+000	5.30983E-003	3.59960E-001	-1.16158E+000	3.57660E+000	10	...........
	37	0.506667	8.92009E-001	5.99599E-003	0.00000E+000	5.34848E-003	3.59960E-001	-1.15101E+000	3.57660E+000	10	...........
	38	0.52	8.98238E-001	5.99328E-003	0.00000E+000	5.38339E-003	3.59960E-001	-1.15131E+000	3.57660E+000	10	...........
	39	0.533333	9.04382E-001	5.99415E-003	0.00000E+000	5.42100E-003	3.59960E-001	-1.16155E+000	3.57660E+000	10	...........
	40	0.546667	9.10547E-001	5.99266E-003	0.00000E+000	5.45660E-003	3.59960E-001	-1.15097E+000	3.57660E+000	10	...........
	41	0.56	9.16641E-001	5.99073E-003	0.00000E+000	5.49134E-003	3.59960E-001	-1.15133E+000	3.57660E+000	10	...........
	42	0.573333	9.22833E-001	5.99280E-003	0.00000E+000	5.53035E-003	3.59960E-001	-1.16161E+000	3.57660E+000	10	...........
	43	0.586667	9.28873E-001	5.99723E-003	0.00000E+000	5.57067E-003	3.59960E-001	-1.15096E+000	3.57660E+000	10	...........
	44	0.6	9.34820E-001	5.99023E-003	0.00000E+000	5.59979E-003	3.59960E-001	-1.15102E+000	3.57660E+000	10	...........
	45	0.613333	9.40780E-001	5.99369E-003	0.00000E+000	5.63874E-003	3.59960E-001	-1.16155E+000	3.57660E+000	10	...........
	46	0.626667	9.46731E-001	5.99178E-003	0.00000E+000	5.67260E-003	3.59960E-001	-1.15097E+000	3.57660E+000	10	...........
	47	0.64	9.52615E-001	5.99081E-003	0.00000E+000	5.70694E-003	3.59960E-001	-1.15117E+000	3.57660E+000	10	...........
	48	0.653333	9.58412E-001	5.99725E-003	0.00000E+000	5.74784E-003	3.59960E-001	-1.16162E+000	3.57660E+000	10	...........
	49	0.666667	9.64212E-001	5.98998E-003	0.00000E+000	5.77561E-003	3.59960E-001	-1.15087E+000	3.57660E+000	10	...........
	50	0.68	9.69982E-001	5.99010E-003	0.00000E+000	5.81029E-003	3.59960E-001	-1.15120E+000	3.57660E+000	10	...........
	51	0.693333	9.75709E-001	5.99165E-003	0.00000E+000	5.84611E-003	3.59960E-001	-1.16173E+000	3.57660E+000	10	...........
	52	0.706667	9.81422E-001	5.99314E-003	0.00000E+000	5.88180E-003	3.59960E-001	-1.15103E+000	3.57660E+000	10	...........
	53	0.72	9.86994E-001	5.99542E-003	0.00000E+000	5.91744E-003	3.59960E-001	-1.15141E+000	3.57660E+000	10	...........
	54	0.733333	9.92567E-001	5.98950E-003	0.00000E+000	5.94499E-003	3.59960E-001	-1.16156E+000	3.57660E+000	10	...........
	55	0.746667	9.98055E-001	5.99419E-003	0.00000E+000	5.98253E-003	3.59960E-001	-1.15133E+000	3.57660E+000	10	...........
STARTTIMEOFFSET	QUANT	1082.518	Start Time Offset (s)