File: Data/CV_CRGO300517_1/PWRCCD_CRGO300517_1/CHARGE_DISCHARGE/CHARGE_#299.DTA
EXPLAIN
TAG	PWR800_CHARGE
TITLE	LABEL	PWR Cyclic Charge Discharge (Cell) - Charge Step	Test &Identifier
DATE	LABEL	22-6-2017	Date
TIME	LABEL	15:47:53	Time
NOTES	NOTES	3	&Notes...
	supercap test cell
	0.6mg
	6M KOH
PSTAT	PSTAT	IFC5000-01520	Potentiostat
CAPACITY	QUANT	1.00000E-003	Capacity (A-hr)
CELLTYPE	SELECTOR	1	&Cell Type
WORKINGCONNECTION	SELECTOR	0	&Working Lead
MAXCHARGETIME	VARIABLEANDUNITS	1.00000E+002	s	1.00000E+002	second(s)	Max &Charge Time
CHARGECURRENT	QUANT	6.00000E-003	&Charge Current (A)
VOLTAGEFINISH	TWOPARAM	F	1.00000E-003	3.60000E+003	&Voltage Finish	 I (A) < 	Max Time(s)
SAMPLETIME	QUANT	1.00000E-002	Sa&mple Period (s)
CHARGESTOPAT1	MULTIPARAM	4	1.00000E+000	Charge Stop At &1	Voltage > Limit	V
CHARGESTOPAT2	MULTIPARAM	0	0.00000E+000	Charge Stop At &2	None	N/A
AESBHCSELECTOR	TOGGLE	F	Save Both Half Cells
IRCOMP	TOGGLE	F	IR &Measure
EOC	QUANT	0	Open Circuit (V)
SEQUENCER	TOGGLE	TRUE	Run as Sequence
PSTATMODEL	IQUANT	53	Pstat Model
PSTATSECTION	LABEL	IFC5000-01520	Pstat Section
PSTATSERIALNO	LABEL	01520	Pstat Serial Number
CTRLMODE	IQUANT	0	Control Mode
ELECTROMETER	IQUANT	1	RE=0 or CS=1
IESTAB	IQUANT	0	I/E Stability
CASPEED	IQUANT	4	Control Amp Speed
CONVENTION	IQUANT	1	Current Convention
ICHRANGE	IQUANT	2	Ich Range
ICHRANGEMODE	TOGGLE	T	Ich Auto Range
ICHOFFSETENABLE	TOGGLE	F	Ich Offset Enable
ICHOFFSET	QUANT	0	Ich Offset (V)
ICHFILTER	IQUANT	1	Ich Filter
VCHRANGE	IQUANT	2	Vch Range
VCHRANGEMODE	TOGGLE	T	Vch Auto Range
VCHOFFSETENABLE	TOGGLE	F	Vch Offset Enable
VCHOFFSET	QUANT	0	Vch Offset (V)
VCHFILTER	IQUANT	1	Vch Filter
IERANGELOWERLIMIT	IQUANT	9	I/E Range Lower Limit
IERANGEMODE	TOGGLE	F	I/E AutoRange
IERANGE	IQUANT	10	I/E Range
ACHSELECT	IQUANT	1	Ach Select
ACHRANGE	IQUANT	2	Ach Range
ACHOFFSETENABLE	TOGGLE	F	Ach Offset Enable
ACHOFFSET	QUANT	0	Ach Offset (V)
ACHFILTER	IQUANT	1	Ach Filter
CABLEID	IQUANT	14	Cable ID
DCCALDATE	LABEL	20-10-2016	DC Calibration Date
ACCALDATE	LABEL	12/3/2015	AC Calibration Date
FRAMEWORKVERSION	QUANT	7.01	Framework Version
INSTRUMENTVERSION	LABEL	4.00	Instrument Version
CURVE	TABLE	63
	Pt	T	Vf	Im	Vu	Pwr	Sig	Ach	Temp	IERange	Over
	#	s	V	A	V	W	V	V	deg C	#	bits
	0	0.013333	6.15843E-001	5.99637E-003	0.00000E+000	3.69282E-003	3.59960E-001	-1.11015E+000	3.57810E+000	10	...........
	1	0.026667	6.24494E-001	5.99148E-003	0.00000E+000	3.74164E-003	3.59960E-001	-1.10554E+000	3.57810E+000	10	...........
	2	0.04	6.32389E-001	5.99179E-003	0.00000E+000	3.78914E-003	3.59960E-001	-1.11451E+000	3.57810E+000	10	...........
	3	0.053333	6.39880E-001	5.99811E-003	0.00000E+000	3.83807E-003	3.59960E-001	-1.11005E+000	3.57810E+000	10	...........
	4	0.066667	6.47110E-001	5.99111E-003	0.00000E+000	3.87691E-003	3.59960E-001	-1.10548E+000	3.57810E+000	10	...........
	5	0.08	6.54194E-001	5.99294E-003	0.00000E+000	3.92054E-003	3.59960E-001	-1.11450E+000	3.57810E+000	10	...........
	6	0.093333	6.61082E-001	5.99445E-003	0.00000E+000	3.96282E-003	3.59960E-001	-1.11011E+000	3.57810E+000	10	...........
	7	0.106667	6.67866E-001	5.99405E-003	0.00000E+000	4.00322E-003	3.59960E-001	-1.10520E+000	3.57810E+000	10	...........
	8	0.12	6.74569E-001	5.99107E-003	0.00000E+000	4.04139E-003	3.59960E-001	-1.11368E+000	3.57810E+000	10	...........
	9	0.133333	6.81232E-001	5.99795E-003	0.00000E+000	4.08600E-003	3.59960E-001	-1.10961E+000	3.57810E+000	10	...........
	10	0.146667	6.87801E-001	5.99684E-003	0.00000E+000	4.12463E-003	3.59960E-001	-1.10500E+000	3.57810E+000	10	...........
	11	0.16	6.94341E-001	5.99645E-003	0.00000E+000	4.16358E-003	3.59960E-001	-1.11394E+000	3.57810E+000	10	...........
	12	0.173333	7.00812E-001	5.99078E-003	0.00000E+000	4.19841E-003	3.59960E-001	-1.10957E+000	3.57810E+000	10	...........
	13	0.186667	7.07296E-001	5.99845E-003	0.00000E+000	4.24268E-003	3.59960E-001	-1.10480E+000	3.57810E+000	10	...........
	14	0.2	7.13704E-001	5.99724E-003	0.00000E+000	4.28026E-003	3.59960E-001	-1.11398E+000	3.57810E+000	10	...........
	15	0.213333	7.20097E-001	5.99131E-003	0.00000E+000	4.31432E-003	3.59960E-001	-1.11027E+000	3.57810E+000	10	...........
	16	0.226667	7.26468E-001	6.00051E-003	0.00000E+000	4.35918E-003	3.59960E-001	-1.10527E+000	3.57810E+000	10	...........
	17	0.24	7.32806E-001	5.99620E-003	0.00000E+000	4.39405E-003	3.59960E-001	-1.11419E+000	3.57810E+000	10	...........
	18	0.253333	7.39168E-001	5.99925E-003	0.00000E+000	4.43445E-003	3.59960E-001	-1.10999E+000	3.57810E+000	10	...........
	19	0.266667	7.45522E-001	5.99528E-003	0.00000E+000	4.46962E-003	3.59960E-001	-1.10528E+000	3.57810E+000	10	...........
	20	0.28	7.51860E-001	5.99679E-003	0.00000E+000	4.50874E-003	3.59960E-001	-1.11435E+000	3.57810E+000	10	...........
	21	0.293333	7.58191E-001	5.99275E-003	0.00000E+000	4.54365E-003	3.59960E-001	-1.11024E+000	3.57810E+000	10	...........
	22	0.306667	7.64461E-001	5.98930E-003	0.00000E+000	4.57858E-003	3.59960E-001	-1.10548E+000	3.57810E+000	10	...........
	23	0.32	7.70733E-001	5.99495E-003	0.00000E+000	4.62051E-003	3.59960E-001	-1.11430E+000	3.57810E+000	10	...........
	24	0.333333	7.76973E-001	5.99503E-003	0.00000E+000	4.65798E-003	3.59960E-001	-1.11050E+000	3.57810E+000	10	...........
	25	0.346667	7.83260E-001	5.99345E-003	0.00000E+000	4.69443E-003	3.59960E-001	-1.10583E+000	3.57810E+000	10	...........
	26	0.36	7.89476E-001	5.99036E-003	0.00000E+000	4.72925E-003	3.59960E-001	-1.11463E+000	3.57810E+000	10	...........
	27	0.373333	7.95755E-001	5.99834E-003	0.00000E+000	4.77321E-003	3.59960E-001	-1.11070E+000	3.57810E+000	10	...........
	28	0.386667	8.01968E-001	5.99690E-003	0.00000E+000	4.80932E-003	3.59960E-001	-1.10564E+000	3.57810E+000	10	...........
	29	0.4	8.08166E-001	5.99545E-003	0.00000E+000	4.84532E-003	3.59960E-001	-1.11453E+000	3.57810E+000	10	...........
	30	0.413333	8.14359E-001	5.99408E-003	0.00000E+000	4.88134E-003	3.59960E-001	-1.11051E+000	3.57810E+000	10	...........
	31	0.426667	8.20569E-001	5.99965E-003	0.00000E+000	4.92313E-003	3.59960E-001	-1.10571E+000	3.57810E+000	10	...........
	32	0.44	8.26704E-001	5.99611E-003	0.00000E+000	4.95700E-003	3.59960E-001	-1.11392E+000	3.57810E+000	10	...........
	33	0.453333	8.32880E-001	5.99679E-003	0.00000E+000	4.99460E-003	3.59960E-001	-1.11015E+000	3.57810E+000	10	...........
	34	0.466667	8.39018E-001	5.99216E-003	0.00000E+000	5.02753E-003	3.59960E-001	-1.10479E+000	3.57810E+000	10	...........
	35	0.48	8.45184E-001	5.99269E-003	0.00000E+000	5.06492E-003	3.59960E-001	-1.11361E+000	3.57810E+000	10	...........
	36	0.493333	8.51333E-001	5.99675E-003	0.00000E+000	5.10523E-003	3.59960E-001	-1.10971E+000	3.57810E+000	10	...........
	37	0.506667	8.57479E-001	5.99516E-003	0.00000E+000	5.14072E-003	3.59960E-001	-1.10444E+000	3.57810E+000	10	...........
	38	0.52	8.63569E-001	5.99252E-003	0.00000E+000	5.17495E-003	3.59960E-001	-1.11315E+000	3.57810E+000	10	...........
	39	0.533333	8.69696E-001	5.99249E-003	0.00000E+000	5.21164E-003	3.59960E-001	-1.10950E+000	3.57810E+000	10	...........
	40	0.546667	8.75761E-001	5.99053E-003	0.00000E+000	5.24627E-003	3.59960E-001	-1.10442E+000	3.57810E+000	10	...........
	41	0.56	8.81840E-001	5.99198E-003	0.00000E+000	5.28397E-003	3.59960E-001	-1.11300E+000	3.57810E+000	10	...........
	42	0.573333	8.87839E-001	5.99634E-003	0.00000E+000	5.32378E-003	3.59960E-001	-1.10916E+000	3.57796E+000	10	...........
	43	0.586667	8.93816E-001	5.99243E-003	0.00000E+000	5.35613E-003	3.59960E-001	-1.10382E+000	3.57700E+000	10	...........
	44	0.6	8.99801E-001	5.99102E-003	0.00000E+000	5.39072E-003	3.59960E-001	-1.11264E+000	3.57700E+000	10	...........
	45	0.613333	9.05778E-001	5.99209E-003	0.00000E+000	5.42750E-003	3.59960E-001	-1.10870E+000	3.57700E+000	10	...........
	46	0.626667	9.11754E-001	5.99362E-003	0.00000E+000	5.46471E-003	3.59960E-001	-1.10361E+000	3.57700E+000	10	...........
	47	0.64	9.17651E-001	5.99296E-003	0.00000E+000	5.49944E-003	3.59960E-001	-1.11236E+000	3.57700E+000	10	...........
	48	0.653333	9.23618E-001	5.99802E-003	0.00000E+000	5.53988E-003	3.59960E-001	-1.10889E+000	3.57700E+000	10	...........
	49	0.666667	9.29452E-001	5.99395E-003	0.00000E+000	5.57109E-003	3.59960E-001	-1.10378E+000	3.57700E+000	10	...........
	50	0.68	9.35274E-001	5.99125E-003	0.00000E+000	5.60346E-003	3.59960E-001	-1.11237E+000	3.57700E+000	10	...........
	51	0.693333	9.41070E-001	5.99303E-003	0.00000E+000	5.63986E-003	3.59960E-001	-1.10904E+000	3.57700E+000	10	...........
	52	0.706667	9.46888E-001	5.99357E-003	0.00000E+000	5.67524E-003	3.59960E-001	-1.10380E+000	3.57700E+000	10	...........
	53	0.72	9.52626E-001	5.99511E-003	0.00000E+000	5.71110E-003	3.59960E-001	-1.11255E+000	3.57700E+000	10	...........
	54	0.733333	9.58344E-001	5.99672E-003	0.00000E+000	5.74692E-003	3.59960E-001	-1.10901E+000	3.57700E+000	10	...........
	55	0.746667	9.63963E-001	5.99329E-003	0.00000E+000	5.77731E-003	3.59960E-001	-1.10391E+000	3.57700E+000	10	...........
	56	0.76	9.69599E-001	5.99751E-003	0.00000E+000	5.81517E-003	3.59960E-001	-1.11226E+000	3.57700E+000	10	...........
	57	0.773333	9.75210E-001	5.99534E-003	0.00000E+000	5.84671E-003	3.59960E-001	-1.10863E+000	3.57700E+000	10	...........
	58	0.786667	9.80768E-001	5.98837E-003	0.00000E+000	5.87320E-003	3.59960E-001	-1.10340E+000	3.57700E+000	10	...........
	59	0.8	9.86263E-001	5.99639E-003	0.00000E+000	5.91401E-003	3.59960E-001	-1.11202E+000	3.57700E+000	10	...........
	60	0.813333	9.91721E-001	5.99379E-003	0.00000E+000	5.94417E-003	3.59960E-001	-1.10884E+000	3.57700E+000	10	...........
	61	0.826667	9.97139E-001	5.99149E-003	0.00000E+000	5.97435E-003	3.59960E-001	-1.10356E+000	3.57700E+000	10	...........
	62	0.828333	1.00015E+000	5.99638E-003	0.00000E+000	5.99730E-003	3.59960E-001	-1.11651E+000	3.57700E+000	10	...........
STARTTIMEOFFSET	QUANT	539.4899	Start Time Offset (s)