File: Data/CV_CRGO300517_1/PWRCCD_CRGO300517_1/CHARGE_DISCHARGE/CHARGE_#28.DTA
EXPLAIN
TAG	PWR800_CHARGE
TITLE	LABEL	PWR Cyclic Charge Discharge (Cell) - Charge Step	Test &Identifier
DATE	LABEL	22-6-2017	Date
TIME	LABEL	15:36:15	Time
NOTES	NOTES	3	&Notes...
	supercap test cell
	0.6mg
	6M KOH
PSTAT	PSTAT	IFC5000-01520	Potentiostat
CAPACITY	QUANT	1.00000E-003	Capacity (A-hr)
CELLTYPE	SELECTOR	1	&Cell Type
WORKINGCONNECTION	SELECTOR	0	&Working Lead
MAXCHARGETIME	VARIABLEANDUNITS	1.00000E+002	s	1.00000E+002	second(s)	Max &Charge Time
CHARGECURRENT	QUANT	6.00000E-003	&Charge Current (A)
VOLTAGEFINISH	TWOPARAM	F	1.00000E-003	3.60000E+003	&Voltage Finish	 I (A) < 	Max Time(s)
SAMPLETIME	QUANT	1.00000E-002	Sa&mple Period (s)
CHARGESTOPAT1	MULTIPARAM	4	1.00000E+000	Charge Stop At &1	Voltage > Limit	V
CHARGESTOPAT2	MULTIPARAM	0	0.00000E+000	Charge Stop At &2	None	N/A
AESBHCSELECTOR	TOGGLE	F	Save Both Half Cells
IRCOMP	TOGGLE	F	IR &Measure
EOC	QUANT	0	Open Circuit (V)
SEQUENCER	TOGGLE	TRUE	Run as Sequence
PSTATMODEL	IQUANT	53	Pstat Model
PSTATSECTION	LABEL	IFC5000-01520	Pstat Section
PSTATSERIALNO	LABEL	01520	Pstat Serial Number
CTRLMODE	IQUANT	0	Control Mode
ELECTROMETER	IQUANT	1	RE=0 or CS=1
IESTAB	IQUANT	0	I/E Stability
CASPEED	IQUANT	4	Control Amp Speed
CONVENTION	IQUANT	1	Current Convention
ICHRANGE	IQUANT	2	Ich Range
ICHRANGEMODE	TOGGLE	T	Ich Auto Range
ICHOFFSETENABLE	TOGGLE	F	Ich Offset Enable
ICHOFFSET	QUANT	0	Ich Offset (V)
ICHFILTER	IQUANT	1	Ich Filter
VCHRANGE	IQUANT	2	Vch Range
VCHRANGEMODE	TOGGLE	T	Vch Auto Range
VCHOFFSETENABLE	TOGGLE	F	Vch Offset Enable
VCHOFFSET	QUANT	0	Vch Offset (V)
VCHFILTER	IQUANT	1	Vch Filter
IERANGELOWERLIMIT	IQUANT	9	I/E Range Lower Limit
IERANGEMODE	TOGGLE	F	I/E AutoRange
IERANGE	IQUANT	10	I/E Range
ACHSELECT	IQUANT	1	Ach Select
ACHRANGE	IQUANT	2	Ach Range
ACHOFFSETENABLE	TOGGLE	F	Ach Offset Enable
ACHOFFSET	QUANT	0	Ach Offset (V)
ACHFILTER	IQUANT	1	Ach Filter
CABLEID	IQUANT	14	Cable ID
DCCALDATE	LABEL	20-10-2016	DC Calibration Date
ACCALDATE	LABEL	12/3/2015	AC Calibration Date
FRAMEWORKVERSION	QUANT	7.01	Framework Version
INSTRUMENTVERSION	LABEL	4.00	Instrument Version
CURVE	TABLE	77
	Pt	T	Vf	Im	Vu	Pwr	Sig	Ach	Temp	IERange	Over
	#	s	V	A	V	W	V	V	deg C	#	bits
	0	0.013333	5.73100E-001	5.99654E-003	0.00000E+000	3.43662E-003	3.59960E-001	-1.02292E+000	3.57770E+000	10	...........
	1	0.026667	5.80895E-001	5.99801E-003	0.00000E+000	3.48421E-003	3.59960E-001	-1.03487E+000	3.57770E+000	10	...........
	2	0.04	5.88080E-001	5.99767E-003	0.00000E+000	3.52711E-003	3.59960E-001	-1.02326E+000	3.57770E+000	10	...........
	3	0.053333	5.94872E-001	5.99858E-003	0.00000E+000	3.56839E-003	3.59960E-001	-1.02236E+000	3.57770E+000	10	...........
	4	0.066667	6.01365E-001	5.99650E-003	0.00000E+000	3.60609E-003	3.59960E-001	-1.03421E+000	3.57770E+000	10	...........
	5	0.08	6.07693E-001	5.99488E-003	0.00000E+000	3.64304E-003	3.59960E-001	-1.02291E+000	3.57770E+000	10	...........
	6	0.093333	6.13960E-001	5.99312E-003	0.00000E+000	3.67954E-003	3.59960E-001	-1.02206E+000	3.57770E+000	10	...........
	7	0.106667	6.20110E-001	5.99458E-003	0.00000E+000	3.71730E-003	3.59960E-001	-1.03415E+000	3.57770E+000	10	...........
	8	0.12	6.26069E-001	5.99448E-003	0.00000E+000	3.75296E-003	3.59960E-001	-1.02268E+000	3.57770E+000	10	...........
	9	0.133333	6.31975E-001	5.99390E-003	0.00000E+000	3.78799E-003	3.59960E-001	-1.02191E+000	3.57770E+000	10	...........
	10	0.146667	6.37850E-001	5.99535E-003	0.00000E+000	3.82413E-003	3.59960E-001	-1.03444E+000	3.57770E+000	10	...........
	11	0.16	6.43720E-001	5.99365E-003	0.00000E+000	3.85823E-003	3.59960E-001	-1.02331E+000	3.57770E+000	10	...........
	12	0.173333	6.49504E-001	5.99435E-003	0.00000E+000	3.89336E-003	3.59960E-001	-1.02159E+000	3.57770E+000	10	...........
	13	0.186667	6.55269E-001	5.99272E-003	0.00000E+000	3.92684E-003	3.59960E-001	-1.03385E+000	3.57770E+000	10	...........
	14	0.2	6.60977E-001	5.99297E-003	0.00000E+000	3.96122E-003	3.59960E-001	-1.02303E+000	3.57770E+000	10	...........
	15	0.213333	6.66688E-001	5.99125E-003	0.00000E+000	3.99429E-003	3.59960E-001	-1.02192E+000	3.57770E+000	10	...........
	16	0.226667	6.72353E-001	5.99378E-003	0.00000E+000	4.02994E-003	3.59960E-001	-1.03400E+000	3.57770E+000	10	...........
	17	0.24	6.78020E-001	5.99618E-003	0.00000E+000	4.06553E-003	3.59960E-001	-1.02314E+000	3.57770E+000	10	...........
	18	0.253333	6.83614E-001	5.98938E-003	0.00000E+000	4.09443E-003	3.59960E-001	-1.02158E+000	3.57770E+000	10	...........
	19	0.266667	6.89252E-001	5.99486E-003	0.00000E+000	4.13196E-003	3.59960E-001	-1.03390E+000	3.57770E+000	10	...........
	20	0.28	6.94877E-001	6.00096E-003	0.00000E+000	4.16993E-003	3.59960E-001	-1.02355E+000	3.57770E+000	10	...........
	21	0.293333	7.00469E-001	5.99246E-003	0.00000E+000	4.19753E-003	3.59960E-001	-1.02171E+000	3.57770E+000	10	...........
	22	0.306667	7.06049E-001	5.99379E-003	0.00000E+000	4.23191E-003	3.59960E-001	-1.03388E+000	3.57770E+000	10	...........
	23	0.32	7.11635E-001	5.99539E-003	0.00000E+000	4.26653E-003	3.59960E-001	-1.02310E+000	3.57770E+000	10	...........
	24	0.333333	7.17216E-001	5.99299E-003	0.00000E+000	4.29827E-003	3.59960E-001	-1.02107E+000	3.57770E+000	10	...........
	25	0.346667	7.22770E-001	5.99441E-003	0.00000E+000	4.33258E-003	3.59960E-001	-1.03360E+000	3.57770E+000	10	...........
	26	0.36	7.28334E-001	5.99471E-003	0.00000E+000	4.36615E-003	3.59960E-001	-1.02321E+000	3.57770E+000	10	...........
	27	0.373333	7.33868E-001	5.99625E-003	0.00000E+000	4.40046E-003	3.59960E-001	-1.02096E+000	3.57770E+000	10	...........
	28	0.386667	7.39453E-001	5.99614E-003	0.00000E+000	4.43386E-003	3.59960E-001	-1.03308E+000	3.57770E+000	10	...........
	29	0.4	7.45013E-001	5.99379E-003	0.00000E+000	4.46546E-003	3.59960E-001	-1.02333E+000	3.57770E+000	10	...........
	30	0.413333	7.50574E-001	5.99235E-003	0.00000E+000	4.49771E-003	3.59960E-001	-1.02126E+000	3.57770E+000	10	...........
	31	0.426667	7.56139E-001	5.99371E-003	0.00000E+000	4.53208E-003	3.59960E-001	-1.03364E+000	3.57770E+000	10	...........
	32	0.44	7.61673E-001	5.99389E-003	0.00000E+000	4.56538E-003	3.59960E-001	-1.02361E+000	3.57770E+000	10	...........
	33	0.453333	7.67207E-001	5.99691E-003	0.00000E+000	4.60087E-003	3.59960E-001	-1.02118E+000	3.57770E+000	10	...........
	34	0.466667	7.72770E-001	5.99632E-003	0.00000E+000	4.63377E-003	3.59960E-001	-1.03379E+000	3.57770E+000	10	...........
	35	0.48	7.78303E-001	5.99369E-003	0.00000E+000	4.66491E-003	3.59960E-001	-1.02411E+000	3.57770E+000	10	...........
	36	0.493333	7.83842E-001	5.99404E-003	0.00000E+000	4.69838E-003	3.59960E-001	-1.02113E+000	3.57770E+000	10	...........
	37	0.506667	7.89397E-001	5.99597E-003	0.00000E+000	4.73320E-003	3.59960E-001	-1.03354E+000	3.57770E+000	10	...........
	38	0.52	7.94978E-001	5.99182E-003	0.00000E+000	4.76337E-003	3.59960E-001	-1.02395E+000	3.57770E+000	10	...........
	39	0.533333	8.00549E-001	5.99550E-003	0.00000E+000	4.79969E-003	3.59960E-001	-1.02107E+000	3.57770E+000	10	...........
	40	0.546667	8.06080E-001	5.99708E-003	0.00000E+000	4.83412E-003	3.59960E-001	-1.03351E+000	3.57770E+000	10	...........
	41	0.56	8.11608E-001	5.99732E-003	0.00000E+000	4.86747E-003	3.59960E-001	-1.02413E+000	3.57770E+000	10	...........
	42	0.573333	8.17138E-001	5.99874E-003	0.00000E+000	4.90179E-003	3.59960E-001	-1.02062E+000	3.57770E+000	10	...........
	43	0.586667	8.22717E-001	5.99445E-003	0.00000E+000	4.93174E-003	3.59960E-001	-1.03305E+000	3.57770E+000	10	...........
	44	0.6	8.28247E-001	5.99248E-003	0.00000E+000	4.96325E-003	3.59960E-001	-1.02415E+000	3.57770E+000	10	...........
	45	0.613333	8.33771E-001	5.99227E-003	0.00000E+000	4.99618E-003	3.59960E-001	-1.02100E+000	3.57770E+000	10	...........
	46	0.626667	8.39317E-001	5.99275E-003	0.00000E+000	5.02982E-003	3.59960E-001	-1.03323E+000	3.57770E+000	10	...........
	47	0.64	8.44878E-001	5.99380E-003	0.00000E+000	5.06403E-003	3.59960E-001	-1.02422E+000	3.57770E+000	10	...........
	48	0.653333	8.50421E-001	5.99326E-003	0.00000E+000	5.09679E-003	3.59960E-001	-1.02068E+000	3.57770E+000	10	...........
	49	0.666667	8.55958E-001	5.99492E-003	0.00000E+000	5.13140E-003	3.59960E-001	-1.03285E+000	3.57770E+000	10	...........
	50	0.68	8.61524E-001	5.99360E-003	0.00000E+000	5.16363E-003	3.59960E-001	-1.02452E+000	3.57770E+000	10	...........
	51	0.693333	8.67056E-001	5.99350E-003	0.00000E+000	5.19670E-003	3.59960E-001	-1.02056E+000	3.57770E+000	10	...........
	52	0.706667	8.72634E-001	5.99859E-003	0.00000E+000	5.23458E-003	3.59960E-001	-1.03214E+000	3.57770E+000	10	...........
	53	0.72	8.78166E-001	5.99535E-003	0.00000E+000	5.26491E-003	3.59960E-001	-1.02389E+000	3.57770E+000	10	...........
	54	0.733333	8.83727E-001	5.99548E-003	0.00000E+000	5.29837E-003	3.59960E-001	-1.02009E+000	3.57770E+000	10	...........
	55	0.746667	8.89254E-001	5.99161E-003	0.00000E+000	5.32807E-003	3.59960E-001	-1.03221E+000	3.57770E+000	10	...........
	56	0.76	8.94780E-001	5.99588E-003	0.00000E+000	5.36499E-003	3.59960E-001	-1.02407E+000	3.57770E+000	10	...........
	57	0.773333	9.00301E-001	5.99307E-003	0.00000E+000	5.39557E-003	3.59960E-001	-1.02001E+000	3.57770E+000	10	...........
	58	0.786667	9.05807E-001	5.99659E-003	0.00000E+000	5.43175E-003	3.59960E-001	-1.03176E+000	3.57770E+000	10	...........
	59	0.8	9.11344E-001	5.98934E-003	0.00000E+000	5.45834E-003	3.59960E-001	-1.02424E+000	3.57770E+000	10	...........
	60	0.813333	9.16819E-001	5.99690E-003	0.00000E+000	5.49807E-003	3.59960E-001	-1.02008E+000	3.57770E+000	10	...........
	61	0.826667	9.22333E-001	5.99056E-003	0.00000E+000	5.52529E-003	3.59960E-001	-1.03179E+000	3.57770E+000	10	...........
	62	0.84	9.27811E-001	5.99518E-003	0.00000E+000	5.56239E-003	3.59960E-001	-1.02418E+000	3.57770E+000	10	...........
	63	0.853333	9.33253E-001	5.99369E-003	0.00000E+000	5.59363E-003	3.59960E-001	-1.01986E+000	3.57770E+000	10	...........
	64	0.866667	9.38656E-001	5.99185E-003	0.00000E+000	5.62429E-003	3.59960E-001	-1.03176E+000	3.57770E+000	10	...........
	65	0.88	9.44087E-001	5.99147E-003	0.00000E+000	5.65646E-003	3.59960E-001	-1.02472E+000	3.57857E+000	10	...........
	66	0.893333	9.49498E-001	5.99637E-003	0.00000E+000	5.69354E-003	3.59960E-001	-1.02018E+000	3.57870E+000	10	...........
	67	0.906667	9.54904E-001	5.99549E-003	0.00000E+000	5.72512E-003	3.59960E-001	-1.03163E+000	3.57870E+000	10	...........
	68	0.92	9.60272E-001	5.99443E-003	0.00000E+000	5.75628E-003	3.59960E-001	-1.02472E+000	3.57870E+000	10	...........
	69	0.933333	9.65613E-001	5.99389E-003	0.00000E+000	5.78777E-003	3.59960E-001	-1.02029E+000	3.57870E+000	10	...........
	70	0.946667	9.70913E-001	5.99134E-003	0.00000E+000	5.81707E-003	3.59960E-001	-1.03171E+000	3.57870E+000	10	...........
	71	0.96	9.76275E-001	5.99595E-003	0.00000E+000	5.85370E-003	3.59960E-001	-1.02511E+000	3.57870E+000	10	...........
	72	0.97333	9.81540E-001	5.99547E-003	0.00000E+000	5.88479E-003	3.59960E-001	-1.02019E+000	3.57870E+000	10	...........
	73	0.98667	9.86737E-001	5.99682E-003	0.00000E+000	5.91728E-003	3.59960E-001	-1.03114E+000	3.57870E+000	10	...........
	74	1	9.91951E-001	5.99282E-003	0.00000E+000	5.94458E-003	3.59960E-001	-1.02522E+000	3.57870E+000	10	...........
	75	1.01333	9.97148E-001	5.99472E-003	0.00000E+000	5.97762E-003	3.59960E-001	-1.02021E+000	3.57870E+000	10	...........
	76	1.015	1.00004E+000	5.99137E-003	0.00000E+000	5.99163E-003	3.59960E-001	-1.03500E+000	3.57870E+000	10	...........
STARTTIMEOFFSET	QUANT	56.855	Start Time Offset (s)