File: Data/CV_CRGO300517_1/PWRCCD_CRGO300517_1/CHARGE_DISCHARGE/CHARGE_#725.DTA
EXPLAIN
TAG	PWR800_CHARGE
TITLE	LABEL	PWR Cyclic Charge Discharge (Cell) - Charge Step	Test &Identifier
DATE	LABEL	22-6-2017	Date
TIME	LABEL	16:04:29	Time
NOTES	NOTES	3	&Notes...
	supercap test cell
	0.6mg
	6M KOH
PSTAT	PSTAT	IFC5000-01520	Potentiostat
CAPACITY	QUANT	1.00000E-003	Capacity (A-hr)
CELLTYPE	SELECTOR	1	&Cell Type
WORKINGCONNECTION	SELECTOR	0	&Working Lead
MAXCHARGETIME	VARIABLEANDUNITS	1.00000E+002	s	1.00000E+002	second(s)	Max &Charge Time
CHARGECURRENT	QUANT	6.00000E-003	&Charge Current (A)
VOLTAGEFINISH	TWOPARAM	F	1.00000E-003	3.60000E+003	&Voltage Finish	 I (A) < 	Max Time(s)
SAMPLETIME	QUANT	1.00000E-002	Sa&mple Period (s)
CHARGESTOPAT1	MULTIPARAM	4	1.00000E+000	Charge Stop At &1	Voltage > Limit	V
CHARGESTOPAT2	MULTIPARAM	0	0.00000E+000	Charge Stop At &2	None	N/A
AESBHCSELECTOR	TOGGLE	F	Save Both Half Cells
IRCOMP	TOGGLE	F	IR &Measure
EOC	QUANT	0	Open Circuit (V)
SEQUENCER	TOGGLE	TRUE	Run as Sequence
PSTATMODEL	IQUANT	53	Pstat Model
PSTATSECTION	LABEL	IFC5000-01520	Pstat Section
PSTATSERIALNO	LABEL	01520	Pstat Serial Number
CTRLMODE	IQUANT	0	Control Mode
ELECTROMETER	IQUANT	1	RE=0 or CS=1
IESTAB	IQUANT	0	I/E Stability
CASPEED	IQUANT	4	Control Amp Speed
CONVENTION	IQUANT	1	Current Convention
ICHRANGE	IQUANT	2	Ich Range
ICHRANGEMODE	TOGGLE	T	Ich Auto Range
ICHOFFSETENABLE	TOGGLE	F	Ich Offset Enable
ICHOFFSET	QUANT	0	Ich Offset (V)
ICHFILTER	IQUANT	1	Ich Filter
VCHRANGE	IQUANT	2	Vch Range
VCHRANGEMODE	TOGGLE	T	Vch Auto Range
VCHOFFSETENABLE	TOGGLE	F	Vch Offset Enable
VCHOFFSET	QUANT	0	Vch Offset (V)
VCHFILTER	IQUANT	1	Vch Filter
IERANGELOWERLIMIT	IQUANT	9	I/E Range Lower Limit
IERANGEMODE	TOGGLE	F	I/E AutoRange
IERANGE	IQUANT	10	I/E Range
ACHSELECT	IQUANT	1	Ach Select
ACHRANGE	IQUANT	2	Ach Range
ACHOFFSETENABLE	TOGGLE	F	Ach Offset Enable
ACHOFFSET	QUANT	0	Ach Offset (V)
ACHFILTER	IQUANT	1	Ach Filter
CABLEID	IQUANT	14	Cable ID
DCCALDATE	LABEL	20-10-2016	DC Calibration Date
ACCALDATE	LABEL	12/3/2015	AC Calibration Date
FRAMEWORKVERSION	QUANT	7.01	Framework Version
INSTRUMENTVERSION	LABEL	4.00	Instrument Version
CURVE	TABLE	55
	Pt	T	Vf	Im	Vu	Pwr	Sig	Ach	Temp	IERange	Over
	#	s	V	A	V	W	V	V	deg C	#	bits
	0	0.013333	6.47451E-001	5.99355E-003	0.00000E+000	3.88053E-003	3.59960E-001	-1.15553E+000	3.57640E+000	10	...........
	1	0.026667	6.56292E-001	5.99162E-003	0.00000E+000	3.93225E-003	3.59960E-001	-1.16567E+000	3.57640E+000	10	...........
	2	0.04	6.64490E-001	5.99396E-003	0.00000E+000	3.98292E-003	3.59960E-001	-1.15992E+000	3.57640E+000	10	...........
	3	0.053333	6.72370E-001	5.99259E-003	0.00000E+000	4.02924E-003	3.59960E-001	-1.15559E+000	3.57640E+000	10	...........
	4	0.066667	6.79987E-001	5.99474E-003	0.00000E+000	4.07635E-003	3.59960E-001	-1.16578E+000	3.57640E+000	10	...........
	5	0.08	6.87386E-001	5.99419E-003	0.00000E+000	4.12032E-003	3.59960E-001	-1.15953E+000	3.57640E+000	10	...........
	6	0.093333	6.94692E-001	5.99268E-003	0.00000E+000	4.16307E-003	3.59960E-001	-1.15523E+000	3.57640E+000	10	...........
	7	0.106667	7.01870E-001	5.99641E-003	0.00000E+000	4.20870E-003	3.59960E-001	-1.16555E+000	3.57640E+000	10	...........
	8	0.12	7.08969E-001	5.99009E-003	0.00000E+000	4.24679E-003	3.59960E-001	-1.15899E+000	3.57640E+000	10	...........
	9	0.133333	7.16038E-001	5.99528E-003	0.00000E+000	4.29285E-003	3.59960E-001	-1.15474E+000	3.57640E+000	10	...........
	10	0.146667	7.23017E-001	5.99615E-003	0.00000E+000	4.33531E-003	3.59960E-001	-1.16519E+000	3.57640E+000	10	...........
	11	0.16	7.29932E-001	5.99068E-003	0.00000E+000	4.37279E-003	3.59960E-001	-1.15887E+000	3.57640E+000	10	...........
	12	0.173333	7.36795E-001	5.99355E-003	0.00000E+000	4.41602E-003	3.59960E-001	-1.15476E+000	3.57640E+000	10	...........
	13	0.186667	7.43659E-001	5.99249E-003	0.00000E+000	4.45637E-003	3.59960E-001	-1.16522E+000	3.57640E+000	10	...........
	14	0.2	7.50473E-001	5.99215E-003	0.00000E+000	4.49695E-003	3.59960E-001	-1.15872E+000	3.57640E+000	10	...........
	15	0.213333	7.57244E-001	5.99666E-003	0.00000E+000	4.54094E-003	3.59960E-001	-1.15437E+000	3.57640E+000	10	...........
	16	0.226667	7.63984E-001	5.99757E-003	0.00000E+000	4.58205E-003	3.59960E-001	-1.16516E+000	3.57640E+000	10	...........
	17	0.24	7.70708E-001	6.00180E-003	0.00000E+000	4.62564E-003	3.59960E-001	-1.15860E+000	3.57640E+000	10	...........
	18	0.253333	7.77384E-001	5.99857E-003	0.00000E+000	4.66319E-003	3.59960E-001	-1.15468E+000	3.57640E+000	10	...........
	19	0.266667	7.84044E-001	5.99362E-003	0.00000E+000	4.69927E-003	3.59960E-001	-1.16514E+000	3.57640E+000	10	...........
	20	0.28	7.90692E-001	5.99817E-003	0.00000E+000	4.74270E-003	3.59960E-001	-1.15818E+000	3.57640E+000	10	...........
	21	0.293333	7.97385E-001	5.99601E-003	0.00000E+000	4.78113E-003	3.59960E-001	-1.15430E+000	3.57640E+000	10	...........
	22	0.306667	8.03936E-001	5.99290E-003	0.00000E+000	4.81791E-003	3.59960E-001	-1.16531E+000	3.57640E+000	10	...........
	23	0.32	8.10526E-001	5.99243E-003	0.00000E+000	4.85702E-003	3.59960E-001	-1.15835E+000	3.57640E+000	10	...........
	24	0.333333	8.17101E-001	5.99499E-003	0.00000E+000	4.89852E-003	3.59960E-001	-1.15447E+000	3.57640E+000	10	...........
	25	0.346667	8.23661E-001	5.98835E-003	0.00000E+000	4.93237E-003	3.59960E-001	-1.16511E+000	3.57643E+000	10	...........
	26	0.36	8.30165E-001	5.99292E-003	0.00000E+000	4.97511E-003	3.59960E-001	-1.15825E+000	3.57660E+000	10	...........
	27	0.373333	8.36690E-001	5.99422E-003	0.00000E+000	5.01530E-003	3.59960E-001	-1.15454E+000	3.57660E+000	10	...........
	28	0.386667	8.43197E-001	5.99617E-003	0.00000E+000	5.05595E-003	3.59960E-001	-1.16514E+000	3.57660E+000	10	...........
	29	0.4	8.49672E-001	5.99286E-003	0.00000E+000	5.09197E-003	3.59960E-001	-1.15807E+000	3.57660E+000	10	...........
	30	0.413333	8.56102E-001	5.99505E-003	0.00000E+000	5.13238E-003	3.59960E-001	-1.15410E+000	3.57660E+000	10	...........
	31	0.426667	8.62541E-001	5.99196E-003	0.00000E+000	5.16831E-003	3.59960E-001	-1.16490E+000	3.57660E+000	10	...........
	32	0.44	8.68938E-001	5.99257E-003	0.00000E+000	5.20717E-003	3.59960E-001	-1.15758E+000	3.57660E+000	10	...........
	33	0.453333	8.75313E-001	5.99572E-003	0.00000E+000	5.24813E-003	3.59960E-001	-1.15396E+000	3.57660E+000	10	...........
	34	0.466667	8.81624E-001	5.99250E-003	0.00000E+000	5.28313E-003	3.59960E-001	-1.16473E+000	3.57660E+000	10	...........
	35	0.48	8.87949E-001	5.99463E-003	0.00000E+000	5.32292E-003	3.59960E-001	-1.15742E+000	3.57660E+000	10	...........
	36	0.493333	8.94227E-001	5.99188E-003	0.00000E+000	5.35811E-003	3.59960E-001	-1.15392E+000	3.57660E+000	10	...........
	37	0.506667	9.00471E-001	5.99528E-003	0.00000E+000	5.39858E-003	3.59960E-001	-1.16497E+000	3.57660E+000	10	...........
	38	0.52	9.06658E-001	5.98907E-003	0.00000E+000	5.43004E-003	3.59960E-001	-1.15735E+000	3.57660E+000	10	...........
	39	0.533333	9.12829E-001	5.99473E-003	0.00000E+000	5.47217E-003	3.59960E-001	-1.15372E+000	3.57660E+000	10	...........
	40	0.546667	9.18934E-001	5.99584E-003	0.00000E+000	5.50978E-003	3.59960E-001	-1.16487E+000	3.57660E+000	10	...........
	41	0.56	9.25050E-001	5.99470E-003	0.00000E+000	5.54540E-003	3.59960E-001	-1.15748E+000	3.57660E+000	10	...........
	42	0.573333	9.31146E-001	5.99221E-003	0.00000E+000	5.57962E-003	3.59960E-001	-1.15389E+000	3.57660E+000	10	...........
	43	0.586667	9.37187E-001	5.99320E-003	0.00000E+000	5.61675E-003	3.59960E-001	-1.16479E+000	3.57660E+000	10	...........
	44	0.6	9.43113E-001	5.99321E-003	0.00000E+000	5.65227E-003	3.59960E-001	-1.15689E+000	3.57660E+000	10	...........
	45	0.613333	9.49086E-001	5.99168E-003	0.00000E+000	5.68663E-003	3.59960E-001	-1.15345E+000	3.57660E+000	10	...........
	46	0.626667	9.54961E-001	5.99347E-003	0.00000E+000	5.72353E-003	3.59960E-001	-1.16478E+000	3.57660E+000	10	...........
	47	0.64	9.60781E-001	5.99479E-003	0.00000E+000	5.75968E-003	3.59960E-001	-1.15704E+000	3.57660E+000	10	...........
	48	0.653333	9.66602E-001	5.99515E-003	0.00000E+000	5.79492E-003	3.59960E-001	-1.15355E+000	3.57660E+000	10	...........
	49	0.666667	9.72390E-001	5.99187E-003	0.00000E+000	5.82644E-003	3.59960E-001	-1.16430E+000	3.57660E+000	10	...........
	50	0.68	9.78082E-001	5.99292E-003	0.00000E+000	5.86156E-003	3.59960E-001	-1.15668E+000	3.57660E+000	10	...........
	51	0.693333	9.83740E-001	5.99473E-003	0.00000E+000	5.89726E-003	3.59960E-001	-1.15380E+000	3.57660E+000	10	...........
	52	0.706667	9.89344E-001	5.99437E-003	0.00000E+000	5.93049E-003	3.59960E-001	-1.16463E+000	3.57660E+000	10	...........
	53	0.72	9.94873E-001	5.99305E-003	0.00000E+000	5.96233E-003	3.59960E-001	-1.15655E+000	3.57660E+000	10	...........
	54	0.726667	9.99046E-001	5.98766E-003	0.00000E+000	5.98195E-003	3.59960E-001	-1.16148E+000	3.57660E+000	10	...........
STARTTIMEOFFSET	QUANT	1195.764	Start Time Offset (s)