File: Data/CV_CRGO300517_1/PWRCCD_CRGO300517_1/CHARGE_DISCHARGE/CHARGE_#888.DTA
EXPLAIN
TAG	PWR800_CHARGE
TITLE	LABEL	PWR Cyclic Charge Discharge (Cell) - Charge Step	Test &Identifier
DATE	LABEL	22-6-2017	Date
TIME	LABEL	16:10:32	Time
NOTES	NOTES	3	&Notes...
	supercap test cell
	0.6mg
	6M KOH
PSTAT	PSTAT	IFC5000-01520	Potentiostat
CAPACITY	QUANT	1.00000E-003	Capacity (A-hr)
CELLTYPE	SELECTOR	1	&Cell Type
WORKINGCONNECTION	SELECTOR	0	&Working Lead
MAXCHARGETIME	VARIABLEANDUNITS	1.00000E+002	s	1.00000E+002	second(s)	Max &Charge Time
CHARGECURRENT	QUANT	6.00000E-003	&Charge Current (A)
VOLTAGEFINISH	TWOPARAM	F	1.00000E-003	3.60000E+003	&Voltage Finish	 I (A) < 	Max Time(s)
SAMPLETIME	QUANT	1.00000E-002	Sa&mple Period (s)
CHARGESTOPAT1	MULTIPARAM	4	1.00000E+000	Charge Stop At &1	Voltage > Limit	V
CHARGESTOPAT2	MULTIPARAM	0	0.00000E+000	Charge Stop At &2	None	N/A
AESBHCSELECTOR	TOGGLE	F	Save Both Half Cells
IRCOMP	TOGGLE	F	IR &Measure
EOC	QUANT	0	Open Circuit (V)
SEQUENCER	TOGGLE	TRUE	Run as Sequence
PSTATMODEL	IQUANT	53	Pstat Model
PSTATSECTION	LABEL	IFC5000-01520	Pstat Section
PSTATSERIALNO	LABEL	01520	Pstat Serial Number
CTRLMODE	IQUANT	0	Control Mode
ELECTROMETER	IQUANT	1	RE=0 or CS=1
IESTAB	IQUANT	0	I/E Stability
CASPEED	IQUANT	4	Control Amp Speed
CONVENTION	IQUANT	1	Current Convention
ICHRANGE	IQUANT	2	Ich Range
ICHRANGEMODE	TOGGLE	T	Ich Auto Range
ICHOFFSETENABLE	TOGGLE	F	Ich Offset Enable
ICHOFFSET	QUANT	0	Ich Offset (V)
ICHFILTER	IQUANT	1	Ich Filter
VCHRANGE	IQUANT	2	Vch Range
VCHRANGEMODE	TOGGLE	T	Vch Auto Range
VCHOFFSETENABLE	TOGGLE	F	Vch Offset Enable
VCHOFFSET	QUANT	0	Vch Offset (V)
VCHFILTER	IQUANT	1	Vch Filter
IERANGELOWERLIMIT	IQUANT	9	I/E Range Lower Limit
IERANGEMODE	TOGGLE	F	I/E AutoRange
IERANGE	IQUANT	10	I/E Range
ACHSELECT	IQUANT	1	Ach Select
ACHRANGE	IQUANT	2	Ach Range
ACHOFFSETENABLE	TOGGLE	F	Ach Offset Enable
ACHOFFSET	QUANT	0	Ach Offset (V)
ACHFILTER	IQUANT	1	Ach Filter
CABLEID	IQUANT	14	Cable ID
DCCALDATE	LABEL	20-10-2016	DC Calibration Date
ACCALDATE	LABEL	12/3/2015	AC Calibration Date
FRAMEWORKVERSION	QUANT	7.01	Framework Version
INSTRUMENTVERSION	LABEL	4.00	Instrument Version
CURVE	TABLE	53
	Pt	T	Vf	Im	Vu	Pwr	Sig	Ach	Temp	IERange	Over
	#	s	V	A	V	W	V	V	deg C	#	bits
	0	0.013333	6.52927E-001	5.99897E-003	0.00000E+000	3.91689E-003	3.59960E-001	-1.16591E+000	3.57780E+000	10	...........
	1	0.026667	6.62160E-001	5.99253E-003	0.00000E+000	3.96802E-003	3.59960E-001	-1.16278E+000	3.57780E+000	10	...........
	2	0.04	6.70672E-001	5.99497E-003	0.00000E+000	4.02066E-003	3.59960E-001	-1.15710E+000	3.57780E+000	10	...........
	3	0.053333	6.78777E-001	5.99844E-003	0.00000E+000	4.07160E-003	3.59960E-001	-1.16605E+000	3.57780E+000	10	...........
	4	0.066667	6.86512E-001	5.99574E-003	0.00000E+000	4.11615E-003	3.59960E-001	-1.16284E+000	3.57780E+000	10	...........
	5	0.08	6.94102E-001	5.99686E-003	0.00000E+000	4.16243E-003	3.59960E-001	-1.15699E+000	3.57780E+000	10	...........
	6	0.093333	7.01521E-001	5.98981E-003	0.00000E+000	4.20198E-003	3.59960E-001	-1.16600E+000	3.57780E+000	10	...........
	7	0.106667	7.08850E-001	5.99662E-003	0.00000E+000	4.25070E-003	3.59960E-001	-1.16269E+000	3.57780E+000	10	...........
	8	0.12	7.16062E-001	5.99523E-003	0.00000E+000	4.29295E-003	3.59960E-001	-1.15719E+000	3.57780E+000	10	...........
	9	0.133333	7.23238E-001	5.99231E-003	0.00000E+000	4.33387E-003	3.59960E-001	-1.16630E+000	3.57780E+000	10	...........
	10	0.146667	7.30302E-001	5.99233E-003	0.00000E+000	4.37621E-003	3.59960E-001	-1.16281E+000	3.57780E+000	10	...........
	11	0.16	7.37313E-001	5.98859E-003	0.00000E+000	4.41546E-003	3.59960E-001	-1.15710E+000	3.57780E+000	10	...........
	12	0.173333	7.44333E-001	5.99995E-003	0.00000E+000	4.46596E-003	3.59960E-001	-1.16637E+000	3.57780E+000	10	...........
	13	0.186667	7.51238E-001	5.99584E-003	0.00000E+000	4.50430E-003	3.59960E-001	-1.16284E+000	3.57780E+000	10	...........
	14	0.2	7.58156E-001	5.99239E-003	0.00000E+000	4.54317E-003	3.59960E-001	-1.15729E+000	3.57780E+000	10	...........
	15	0.213333	7.65051E-001	5.99054E-003	0.00000E+000	4.58307E-003	3.59960E-001	-1.16636E+000	3.57780E+000	10	...........
	16	0.226667	7.71877E-001	5.99323E-003	0.00000E+000	4.62604E-003	3.59960E-001	-1.16267E+000	3.57780E+000	10	...........
	17	0.24	7.78692E-001	5.98939E-003	0.00000E+000	4.66389E-003	3.59960E-001	-1.15705E+000	3.57780E+000	10	...........
	18	0.253333	7.85495E-001	5.99620E-003	0.00000E+000	4.70998E-003	3.59960E-001	-1.16622E+000	3.57780E+000	10	...........
	19	0.266667	7.92246E-001	5.99740E-003	0.00000E+000	4.75142E-003	3.59960E-001	-1.16248E+000	3.57780E+000	10	...........
	20	0.28	7.99003E-001	5.99668E-003	0.00000E+000	4.79137E-003	3.59960E-001	-1.15688E+000	3.57780E+000	10	...........
	21	0.293333	8.05715E-001	5.99561E-003	0.00000E+000	4.83075E-003	3.59960E-001	-1.16629E+000	3.57780E+000	10	...........
	22	0.306667	8.12398E-001	5.99340E-003	0.00000E+000	4.86902E-003	3.59960E-001	-1.16243E+000	3.57780E+000	10	...........
	23	0.32	8.19085E-001	5.99511E-003	0.00000E+000	4.91050E-003	3.59960E-001	-1.15718E+000	3.57780E+000	10	...........
	24	0.333333	8.25743E-001	5.99561E-003	0.00000E+000	4.95083E-003	3.59960E-001	-1.16645E+000	3.57780E+000	10	...........
	25	0.346667	8.32252E-001	5.99157E-003	0.00000E+000	4.98650E-003	3.59960E-001	-1.16220E+000	3.57780E+000	10	...........
	26	0.36	8.38832E-001	5.99307E-003	0.00000E+000	5.02718E-003	3.59960E-001	-1.15702E+000	3.57780E+000	10	...........
	27	0.373333	8.45417E-001	5.99224E-003	0.00000E+000	5.06594E-003	3.59960E-001	-1.16635E+000	3.57780E+000	10	...........
	28	0.386667	8.51939E-001	5.99137E-003	0.00000E+000	5.10428E-003	3.59960E-001	-1.16226E+000	3.57780E+000	10	...........
	29	0.4	8.58468E-001	5.99619E-003	0.00000E+000	5.14754E-003	3.59960E-001	-1.15712E+000	3.57780E+000	10	...........
	30	0.413333	8.64923E-001	5.99517E-003	0.00000E+000	5.18536E-003	3.59960E-001	-1.16666E+000	3.57780E+000	10	...........
	31	0.426667	8.71416E-001	5.98881E-003	0.00000E+000	5.21874E-003	3.59960E-001	-1.16224E+000	3.57780E+000	10	...........
	32	0.44	8.77853E-001	5.99642E-003	0.00000E+000	5.26397E-003	3.59960E-001	-1.15698E+000	3.57780E+000	10	...........
	33	0.453333	8.84276E-001	5.99954E-003	0.00000E+000	5.30525E-003	3.59960E-001	-1.16682E+000	3.57780E+000	10	...........
	34	0.466667	8.90632E-001	5.99553E-003	0.00000E+000	5.33982E-003	3.59960E-001	-1.16251E+000	3.57780E+000	10	...........
	35	0.48	8.96930E-001	5.99516E-003	0.00000E+000	5.37723E-003	3.59960E-001	-1.15717E+000	3.57780E+000	10	...........
	36	0.493333	9.03233E-001	5.99331E-003	0.00000E+000	5.41336E-003	3.59960E-001	-1.16680E+000	3.57780E+000	10	...........
	37	0.506667	9.09460E-001	5.99212E-003	0.00000E+000	5.44960E-003	3.59960E-001	-1.16253E+000	3.57780E+000	10	...........
	38	0.52	9.15654E-001	5.99028E-003	0.00000E+000	5.48502E-003	3.59960E-001	-1.15729E+000	3.57780E+000	10	...........
	39	0.533333	9.21886E-001	5.99556E-003	0.00000E+000	5.52723E-003	3.59960E-001	-1.16707E+000	3.57780E+000	10	...........
	40	0.546667	9.28039E-001	5.99774E-003	0.00000E+000	5.56614E-003	3.59960E-001	-1.16247E+000	3.57780E+000	10	...........
	41	0.56	9.34100E-001	5.99393E-003	0.00000E+000	5.59892E-003	3.59960E-001	-1.15720E+000	3.57780E+000	10	...........
	42	0.573333	9.40118E-001	5.98950E-003	0.00000E+000	5.63084E-003	3.59960E-001	-1.16677E+000	3.57780E+000	10	...........
	43	0.586667	9.46145E-001	5.99172E-003	0.00000E+000	5.66903E-003	3.59960E-001	-1.16208E+000	3.57780E+000	10	...........
	44	0.6	9.52101E-001	5.99537E-003	0.00000E+000	5.70820E-003	3.59960E-001	-1.15730E+000	3.57780E+000	10	...........
	45	0.613333	9.57958E-001	5.99506E-003	0.00000E+000	5.74302E-003	3.59960E-001	-1.16733E+000	3.57780E+000	10	...........
	46	0.626667	9.63822E-001	6.00022E-003	0.00000E+000	5.78314E-003	3.59960E-001	-1.16221E+000	3.57780E+000	10	...........
	47	0.64	9.69621E-001	5.99643E-003	0.00000E+000	5.81427E-003	3.59960E-001	-1.15718E+000	3.57780E+000	10	...........
	48	0.653333	9.75421E-001	5.99482E-003	0.00000E+000	5.84748E-003	3.59960E-001	-1.16724E+000	3.57780E+000	10	...........
	49	0.666667	9.81093E-001	5.99348E-003	0.00000E+000	5.88016E-003	3.59960E-001	-1.16240E+000	3.57780E+000	10	...........
	50	0.68	9.86770E-001	5.99109E-003	0.00000E+000	5.91183E-003	3.59960E-001	-1.15735E+000	3.57780E+000	10	...........
	51	0.693333	9.92354E-001	5.99589E-003	0.00000E+000	5.95004E-003	3.59960E-001	-1.16738E+000	3.57780E+000	10	...........
	52	0.706667	9.97878E-001	5.99318E-003	0.00000E+000	5.98046E-003	3.59960E-001	-1.16216E+000	3.57780E+000	10	...........
STARTTIMEOFFSET	QUANT	1429.186	Start Time Offset (s)