File: Data/CV_CRGO300517_1/PWRCCD_CRGO300517_1/CHARGE_DISCHARGE/CHARGE_#801.DTA
EXPLAIN
TAG	PWR800_CHARGE
TITLE	LABEL	PWR Cyclic Charge Discharge (Cell) - Charge Step	Test &Identifier
DATE	LABEL	22-6-2017	Date
TIME	LABEL	16:07:19	Time
NOTES	NOTES	3	&Notes...
	supercap test cell
	0.6mg
	6M KOH
PSTAT	PSTAT	IFC5000-01520	Potentiostat
CAPACITY	QUANT	1.00000E-003	Capacity (A-hr)
CELLTYPE	SELECTOR	1	&Cell Type
WORKINGCONNECTION	SELECTOR	0	&Working Lead
MAXCHARGETIME	VARIABLEANDUNITS	1.00000E+002	s	1.00000E+002	second(s)	Max &Charge Time
CHARGECURRENT	QUANT	6.00000E-003	&Charge Current (A)
VOLTAGEFINISH	TWOPARAM	F	1.00000E-003	3.60000E+003	&Voltage Finish	 I (A) < 	Max Time(s)
SAMPLETIME	QUANT	1.00000E-002	Sa&mple Period (s)
CHARGESTOPAT1	MULTIPARAM	4	1.00000E+000	Charge Stop At &1	Voltage > Limit	V
CHARGESTOPAT2	MULTIPARAM	0	0.00000E+000	Charge Stop At &2	None	N/A
AESBHCSELECTOR	TOGGLE	F	Save Both Half Cells
IRCOMP	TOGGLE	F	IR &Measure
EOC	QUANT	0	Open Circuit (V)
SEQUENCER	TOGGLE	TRUE	Run as Sequence
PSTATMODEL	IQUANT	53	Pstat Model
PSTATSECTION	LABEL	IFC5000-01520	Pstat Section
PSTATSERIALNO	LABEL	01520	Pstat Serial Number
CTRLMODE	IQUANT	0	Control Mode
ELECTROMETER	IQUANT	1	RE=0 or CS=1
IESTAB	IQUANT	0	I/E Stability
CASPEED	IQUANT	4	Control Amp Speed
CONVENTION	IQUANT	1	Current Convention
ICHRANGE	IQUANT	2	Ich Range
ICHRANGEMODE	TOGGLE	T	Ich Auto Range
ICHOFFSETENABLE	TOGGLE	F	Ich Offset Enable
ICHOFFSET	QUANT	0	Ich Offset (V)
ICHFILTER	IQUANT	1	Ich Filter
VCHRANGE	IQUANT	2	Vch Range
VCHRANGEMODE	TOGGLE	T	Vch Auto Range
VCHOFFSETENABLE	TOGGLE	F	Vch Offset Enable
VCHOFFSET	QUANT	0	Vch Offset (V)
VCHFILTER	IQUANT	1	Vch Filter
IERANGELOWERLIMIT	IQUANT	9	I/E Range Lower Limit
IERANGEMODE	TOGGLE	F	I/E AutoRange
IERANGE	IQUANT	10	I/E Range
ACHSELECT	IQUANT	1	Ach Select
ACHRANGE	IQUANT	2	Ach Range
ACHOFFSETENABLE	TOGGLE	F	Ach Offset Enable
ACHOFFSET	QUANT	0	Ach Offset (V)
ACHFILTER	IQUANT	1	Ach Filter
CABLEID	IQUANT	14	Cable ID
DCCALDATE	LABEL	20-10-2016	DC Calibration Date
ACCALDATE	LABEL	12/3/2015	AC Calibration Date
FRAMEWORKVERSION	QUANT	7.01	Framework Version
INSTRUMENTVERSION	LABEL	4.00	Instrument Version
CURVE	TABLE	54
	Pt	T	Vf	Im	Vu	Pwr	Sig	Ach	Temp	IERange	Over
	#	s	V	A	V	W	V	V	deg C	#	bits
	0	0.013333	6.49024E-001	5.99241E-003	0.00000E+000	3.88922E-003	3.59960E-001	-1.16738E+000	3.57700E+000	10	...........
	1	0.026667	6.58164E-001	5.99006E-003	0.00000E+000	3.94244E-003	3.59960E-001	-1.17470E+000	3.57700E+000	10	...........
	2	0.04	6.66648E-001	5.99796E-003	0.00000E+000	3.99853E-003	3.59960E-001	-1.16458E+000	3.57700E+000	10	...........
	3	0.053333	6.74646E-001	5.99659E-003	0.00000E+000	4.04557E-003	3.59960E-001	-1.16751E+000	3.57700E+000	10	...........
	4	0.066667	6.82333E-001	5.99105E-003	0.00000E+000	4.08789E-003	3.59960E-001	-1.17471E+000	3.57700E+000	10	...........
	5	0.08	6.89847E-001	5.99418E-003	0.00000E+000	4.13506E-003	3.59960E-001	-1.16432E+000	3.57700E+000	10	...........
	6	0.093333	6.97277E-001	5.99159E-003	0.00000E+000	4.17780E-003	3.59960E-001	-1.16722E+000	3.57700E+000	10	...........
	7	0.106667	7.04530E-001	5.98910E-003	0.00000E+000	4.21950E-003	3.59960E-001	-1.17447E+000	3.57700E+000	10	...........
	8	0.12	7.11661E-001	5.99489E-003	0.00000E+000	4.26633E-003	3.59960E-001	-1.16413E+000	3.57700E+000	10	...........
	9	0.133333	7.18753E-001	5.99322E-003	0.00000E+000	4.30764E-003	3.59960E-001	-1.16685E+000	3.57700E+000	10	...........
	10	0.146667	7.25805E-001	5.99344E-003	0.00000E+000	4.35007E-003	3.59960E-001	-1.17413E+000	3.57700E+000	10	...........
	11	0.16	7.32718E-001	5.99670E-003	0.00000E+000	4.39389E-003	3.59960E-001	-1.16389E+000	3.57700E+000	10	...........
	12	0.173333	7.39665E-001	5.99173E-003	0.00000E+000	4.43187E-003	3.59960E-001	-1.16675E+000	3.57700E+000	10	...........
	13	0.186667	7.46579E-001	5.99613E-003	0.00000E+000	4.47658E-003	3.59960E-001	-1.17426E+000	3.57700E+000	10	...........
	14	0.2	7.53448E-001	5.99182E-003	0.00000E+000	4.51452E-003	3.59960E-001	-1.16379E+000	3.57700E+000	10	...........
	15	0.213333	7.60264E-001	5.98988E-003	0.00000E+000	4.55389E-003	3.59960E-001	-1.16648E+000	3.57700E+000	10	...........
	16	0.226667	7.67043E-001	5.99631E-003	0.00000E+000	4.59942E-003	3.59960E-001	-1.17396E+000	3.57700E+000	10	...........
	17	0.24	7.73802E-001	5.99611E-003	0.00000E+000	4.63980E-003	3.59960E-001	-1.16367E+000	3.57700E+000	10	...........
	18	0.253333	7.80562E-001	5.99309E-003	0.00000E+000	4.67798E-003	3.59960E-001	-1.16670E+000	3.57700E+000	10	...........
	19	0.266667	7.87248E-001	5.99660E-003	0.00000E+000	4.72081E-003	3.59960E-001	-1.17406E+000	3.57700E+000	10	...........
	20	0.28	7.93969E-001	5.99061E-003	0.00000E+000	4.75636E-003	3.59960E-001	-1.16353E+000	3.57700E+000	10	...........
	21	0.293333	8.00608E-001	5.99548E-003	0.00000E+000	4.80003E-003	3.59960E-001	-1.16617E+000	3.57700E+000	10	...........
	22	0.306667	8.07216E-001	5.99462E-003	0.00000E+000	4.83895E-003	3.59960E-001	-1.17400E+000	3.57700E+000	10	...........
	23	0.32	8.13795E-001	5.99408E-003	0.00000E+000	4.87796E-003	3.59960E-001	-1.16352E+000	3.57700E+000	10	...........
	24	0.333333	8.20396E-001	5.98958E-003	0.00000E+000	4.91383E-003	3.59960E-001	-1.16632E+000	3.57700E+000	10	...........
	25	0.346667	8.26950E-001	5.99382E-003	0.00000E+000	4.95659E-003	3.59960E-001	-1.17395E+000	3.57700E+000	10	...........
	26	0.36	8.33531E-001	5.99189E-003	0.00000E+000	4.99443E-003	3.59960E-001	-1.16354E+000	3.57700E+000	10	...........
	27	0.373333	8.40042E-001	5.99345E-003	0.00000E+000	5.03475E-003	3.59960E-001	-1.16619E+000	3.57700E+000	10	...........
	28	0.386667	8.46564E-001	5.99542E-003	0.00000E+000	5.07550E-003	3.59960E-001	-1.17422E+000	3.57700E+000	10	...........
	29	0.4	8.53057E-001	5.99034E-003	0.00000E+000	5.11010E-003	3.59960E-001	-1.16344E+000	3.57700E+000	10	...........
	30	0.413333	8.59528E-001	5.99069E-003	0.00000E+000	5.14917E-003	3.59960E-001	-1.16607E+000	3.57700E+000	10	...........
	31	0.426667	8.65943E-001	5.99956E-003	0.00000E+000	5.19528E-003	3.59960E-001	-1.17389E+000	3.57700E+000	10	...........
	32	0.44	8.72388E-001	5.99904E-003	0.00000E+000	5.23349E-003	3.59960E-001	-1.16320E+000	3.57700E+000	10	...........
	33	0.453333	8.78747E-001	5.99787E-003	0.00000E+000	5.27061E-003	3.59960E-001	-1.16580E+000	3.57700E+000	10	...........
	34	0.466667	8.85121E-001	5.99505E-003	0.00000E+000	5.30635E-003	3.59960E-001	-1.17371E+000	3.57700E+000	10	...........
	35	0.48	8.91413E-001	5.99788E-003	0.00000E+000	5.34659E-003	3.59960E-001	-1.16290E+000	3.57700E+000	10	...........
	36	0.493333	8.97696E-001	5.99312E-003	0.00000E+000	5.38000E-003	3.59960E-001	-1.16568E+000	3.57700E+000	10	...........
	37	0.506667	9.03921E-001	5.99487E-003	0.00000E+000	5.41888E-003	3.59960E-001	-1.17346E+000	3.57700E+000	10	...........
	38	0.52	9.10112E-001	5.99684E-003	0.00000E+000	5.45779E-003	3.59960E-001	-1.16312E+000	3.57700E+000	10	...........
	39	0.533333	9.16273E-001	5.99527E-003	0.00000E+000	5.49331E-003	3.59960E-001	-1.16560E+000	3.57700E+000	10	...........
	40	0.546667	9.22500E-001	5.99696E-003	0.00000E+000	5.53220E-003	3.59960E-001	-1.17345E+000	3.57700E+000	10	...........
	41	0.56	9.28541E-001	5.98973E-003	0.00000E+000	5.56172E-003	3.59960E-001	-1.16296E+000	3.57700E+000	10	...........
	42	0.573333	9.34611E-001	5.99827E-003	0.00000E+000	5.60605E-003	3.59960E-001	-1.16550E+000	3.57700E+000	10	...........
	43	0.586667	9.40621E-001	5.99431E-003	0.00000E+000	5.63838E-003	3.59960E-001	-1.17348E+000	3.57700E+000	10	...........
	44	0.6	9.46617E-001	5.99528E-003	0.00000E+000	5.67523E-003	3.59960E-001	-1.16313E+000	3.57700E+000	10	...........
	45	0.613333	9.52508E-001	5.99612E-003	0.00000E+000	5.71135E-003	3.59960E-001	-1.16546E+000	3.57700E+000	10	...........
	46	0.626667	9.58352E-001	5.99632E-003	0.00000E+000	5.74658E-003	3.59960E-001	-1.17329E+000	3.57700E+000	10	...........
	47	0.64	9.64189E-001	5.99804E-003	0.00000E+000	5.78324E-003	3.59960E-001	-1.16301E+000	3.57700E+000	10	...........
	48	0.653333	9.69933E-001	5.99144E-003	0.00000E+000	5.81130E-003	3.59960E-001	-1.16552E+000	3.57700E+000	10	...........
	49	0.666667	9.75739E-001	5.99371E-003	0.00000E+000	5.84829E-003	3.59960E-001	-1.17381E+000	3.57700E+000	10	...........
	50	0.68	9.81392E-001	5.99705E-003	0.00000E+000	5.88545E-003	3.59960E-001	-1.16304E+000	3.57700E+000	10	...........
	51	0.693333	9.87012E-001	5.99220E-003	0.00000E+000	5.91437E-003	3.59960E-001	-1.16560E+000	3.57700E+000	10	...........
	52	0.706667	9.92596E-001	5.99811E-003	0.00000E+000	5.95370E-003	3.59960E-001	-1.17369E+000	3.57700E+000	10	...........
	53	0.72	9.98150E-001	5.99373E-003	0.00000E+000	5.98264E-003	3.59960E-001	-1.16340E+000	3.57700E+000	10	...........
STARTTIMEOFFSET	QUANT	1305.55	Start Time Offset (s)