File: Data/CV_CRGO300517_1/PWRCCD_CRGO300517_1/CHARGE_DISCHARGE/CHARGE_#181.DTA
EXPLAIN
TAG	PWR800_CHARGE
TITLE	LABEL	PWR Cyclic Charge Discharge (Cell) - Charge Step	Test &Identifier
DATE	LABEL	22-6-2017	Date
TIME	LABEL	15:43:00	Time
NOTES	NOTES	3	&Notes...
	supercap test cell
	0.6mg
	6M KOH
PSTAT	PSTAT	IFC5000-01520	Potentiostat
CAPACITY	QUANT	1.00000E-003	Capacity (A-hr)
CELLTYPE	SELECTOR	1	&Cell Type
WORKINGCONNECTION	SELECTOR	0	&Working Lead
MAXCHARGETIME	VARIABLEANDUNITS	1.00000E+002	s	1.00000E+002	second(s)	Max &Charge Time
CHARGECURRENT	QUANT	6.00000E-003	&Charge Current (A)
VOLTAGEFINISH	TWOPARAM	F	1.00000E-003	3.60000E+003	&Voltage Finish	 I (A) < 	Max Time(s)
SAMPLETIME	QUANT	1.00000E-002	Sa&mple Period (s)
CHARGESTOPAT1	MULTIPARAM	4	1.00000E+000	Charge Stop At &1	Voltage > Limit	V
CHARGESTOPAT2	MULTIPARAM	0	0.00000E+000	Charge Stop At &2	None	N/A
AESBHCSELECTOR	TOGGLE	F	Save Both Half Cells
IRCOMP	TOGGLE	F	IR &Measure
EOC	QUANT	0	Open Circuit (V)
SEQUENCER	TOGGLE	TRUE	Run as Sequence
PSTATMODEL	IQUANT	53	Pstat Model
PSTATSECTION	LABEL	IFC5000-01520	Pstat Section
PSTATSERIALNO	LABEL	01520	Pstat Serial Number
CTRLMODE	IQUANT	0	Control Mode
ELECTROMETER	IQUANT	1	RE=0 or CS=1
IESTAB	IQUANT	0	I/E Stability
CASPEED	IQUANT	4	Control Amp Speed
CONVENTION	IQUANT	1	Current Convention
ICHRANGE	IQUANT	2	Ich Range
ICHRANGEMODE	TOGGLE	T	Ich Auto Range
ICHOFFSETENABLE	TOGGLE	F	Ich Offset Enable
ICHOFFSET	QUANT	0	Ich Offset (V)
ICHFILTER	IQUANT	1	Ich Filter
VCHRANGE	IQUANT	2	Vch Range
VCHRANGEMODE	TOGGLE	T	Vch Auto Range
VCHOFFSETENABLE	TOGGLE	F	Vch Offset Enable
VCHOFFSET	QUANT	0	Vch Offset (V)
VCHFILTER	IQUANT	1	Vch Filter
IERANGELOWERLIMIT	IQUANT	9	I/E Range Lower Limit
IERANGEMODE	TOGGLE	F	I/E AutoRange
IERANGE	IQUANT	10	I/E Range
ACHSELECT	IQUANT	1	Ach Select
ACHRANGE	IQUANT	2	Ach Range
ACHOFFSETENABLE	TOGGLE	F	Ach Offset Enable
ACHOFFSET	QUANT	0	Ach Offset (V)
ACHFILTER	IQUANT	1	Ach Filter
CABLEID	IQUANT	14	Cable ID
DCCALDATE	LABEL	20-10-2016	DC Calibration Date
ACCALDATE	LABEL	12/3/2015	AC Calibration Date
FRAMEWORKVERSION	QUANT	7.01	Framework Version
INSTRUMENTVERSION	LABEL	4.00	Instrument Version
CURVE	TABLE	66
	Pt	T	Vf	Im	Vu	Pwr	Sig	Ach	Temp	IERange	Over
	#	s	V	A	V	W	V	V	deg C	#	bits
	0	0.013333	6.03761E-001	5.99717E-003	0.00000E+000	3.62086E-003	3.59960E-001	-1.08434E+000	3.57820E+000	10	...........
	1	0.026667	6.12202E-001	5.99437E-003	0.00000E+000	3.66976E-003	3.59960E-001	-1.09205E+000	3.57820E+000	10	...........
	2	0.04	6.19975E-001	5.99007E-003	0.00000E+000	3.71369E-003	3.59960E-001	-1.08218E+000	3.57820E+000	10	...........
	3	0.053333	6.27284E-001	5.99675E-003	0.00000E+000	3.76167E-003	3.59960E-001	-1.08415E+000	3.57820E+000	10	...........
	4	0.066667	6.34288E-001	5.99182E-003	0.00000E+000	3.80054E-003	3.59960E-001	-1.09204E+000	3.57820E+000	10	...........
	5	0.08	6.41239E-001	5.99456E-003	0.00000E+000	3.84395E-003	3.59960E-001	-1.08208E+000	3.57820E+000	10	...........
	6	0.093333	6.47954E-001	5.99730E-003	0.00000E+000	3.88597E-003	3.59960E-001	-1.08424E+000	3.57820E+000	10	...........
	7	0.106667	6.54555E-001	5.99186E-003	0.00000E+000	3.92200E-003	3.59960E-001	-1.09169E+000	3.57820E+000	10	...........
	8	0.12	6.61092E-001	5.99977E-003	0.00000E+000	3.96640E-003	3.59960E-001	-1.08134E+000	3.57820E+000	10	...........
	9	0.133333	6.67546E-001	5.99379E-003	0.00000E+000	4.00113E-003	3.59960E-001	-1.08373E+000	3.57820E+000	10	...........
	10	0.146667	6.73961E-001	5.99453E-003	0.00000E+000	4.04008E-003	3.59960E-001	-1.09156E+000	3.57820E+000	10	...........
	11	0.16	6.80317E-001	5.99512E-003	0.00000E+000	4.07858E-003	3.59960E-001	-1.08161E+000	3.57820E+000	10	...........
	12	0.173333	6.86619E-001	5.99155E-003	0.00000E+000	4.11391E-003	3.59960E-001	-1.08390E+000	3.57820E+000	10	...........
	13	0.186667	6.92920E-001	5.99477E-003	0.00000E+000	4.15390E-003	3.59960E-001	-1.09135E+000	3.57820E+000	10	...........
	14	0.2	6.99135E-001	5.99657E-003	0.00000E+000	4.19241E-003	3.59960E-001	-1.08140E+000	3.57820E+000	10	...........
	15	0.213333	7.05343E-001	5.99464E-003	0.00000E+000	4.22827E-003	3.59960E-001	-1.08390E+000	3.57820E+000	10	...........
	16	0.226667	7.11509E-001	5.99246E-003	0.00000E+000	4.26368E-003	3.59960E-001	-1.09148E+000	3.57820E+000	10	...........
	17	0.24	7.17712E-001	5.99571E-003	0.00000E+000	4.30319E-003	3.59960E-001	-1.08151E+000	3.57820E+000	10	...........
	18	0.253333	7.23897E-001	5.99334E-003	0.00000E+000	4.33856E-003	3.59960E-001	-1.08374E+000	3.57820E+000	10	...........
	19	0.266667	7.30038E-001	5.99168E-003	0.00000E+000	4.37416E-003	3.59960E-001	-1.09122E+000	3.57820E+000	10	...........
	20	0.28	7.36168E-001	5.99866E-003	0.00000E+000	4.41602E-003	3.59960E-001	-1.08132E+000	3.57820E+000	10	...........
	21	0.293333	7.42300E-001	5.99659E-003	0.00000E+000	4.45127E-003	3.59960E-001	-1.08364E+000	3.57820E+000	10	...........
	22	0.306667	7.48442E-001	5.99874E-003	0.00000E+000	4.48971E-003	3.59960E-001	-1.09135E+000	3.57820E+000	10	...........
	23	0.32	7.54550E-001	5.99159E-003	0.00000E+000	4.52095E-003	3.59960E-001	-1.08150E+000	3.57820E+000	10	...........
	24	0.333333	7.60656E-001	5.99249E-003	0.00000E+000	4.55822E-003	3.59960E-001	-1.08374E+000	3.57820E+000	10	...........
	25	0.346667	7.66759E-001	5.99505E-003	0.00000E+000	4.59676E-003	3.59960E-001	-1.09144E+000	3.57820E+000	10	...........
	26	0.36	7.72869E-001	5.99582E-003	0.00000E+000	4.63398E-003	3.59960E-001	-1.08153E+000	3.57820E+000	10	...........
	27	0.373333	7.78971E-001	5.99571E-003	0.00000E+000	4.67048E-003	3.59960E-001	-1.08389E+000	3.57820E+000	10	...........
	28	0.386667	7.85043E-001	5.99691E-003	0.00000E+000	4.70783E-003	3.59960E-001	-1.09128E+000	3.57820E+000	10	...........
	29	0.4	7.91108E-001	5.99492E-003	0.00000E+000	4.74263E-003	3.59960E-001	-1.08137E+000	3.57820E+000	10	...........
	30	0.413333	7.97167E-001	5.99419E-003	0.00000E+000	4.77837E-003	3.59960E-001	-1.08374E+000	3.57820E+000	10	...........
	31	0.426667	8.03207E-001	5.99739E-003	0.00000E+000	4.81715E-003	3.59960E-001	-1.09109E+000	3.57820E+000	10	...........
	32	0.44	8.09240E-001	5.99721E-003	0.00000E+000	4.85318E-003	3.59960E-001	-1.08114E+000	3.57820E+000	10	...........
	33	0.453333	8.15251E-001	5.99203E-003	0.00000E+000	4.88501E-003	3.59960E-001	-1.08339E+000	3.57820E+000	10	...........
	34	0.466667	8.21285E-001	5.99318E-003	0.00000E+000	4.92211E-003	3.59960E-001	-1.09089E+000	3.57820E+000	10	...........
	35	0.48	8.27329E-001	5.99741E-003	0.00000E+000	4.96183E-003	3.59960E-001	-1.08099E+000	3.57820E+000	10	...........
	36	0.493333	8.33310E-001	5.99498E-003	0.00000E+000	4.99568E-003	3.59960E-001	-1.08335E+000	3.57820E+000	10	...........
	37	0.506667	8.39327E-001	5.99752E-003	0.00000E+000	5.03388E-003	3.59960E-001	-1.09098E+000	3.57820E+000	10	...........
	38	0.52	8.45366E-001	5.99690E-003	0.00000E+000	5.06957E-003	3.59960E-001	-1.08082E+000	3.57820E+000	10	...........
	39	0.533333	8.51375E-001	5.99526E-003	0.00000E+000	5.10422E-003	3.59960E-001	-1.08305E+000	3.57820E+000	10	...........
	40	0.546667	8.57320E-001	5.99360E-003	0.00000E+000	5.13844E-003	3.59960E-001	-1.09093E+000	3.57820E+000	10	...........
	41	0.56	8.63320E-001	5.99474E-003	0.00000E+000	5.17538E-003	3.59960E-001	-1.08108E+000	3.57820E+000	10	...........
	42	0.573333	8.69253E-001	5.99162E-003	0.00000E+000	5.20824E-003	3.59960E-001	-1.08319E+000	3.57820E+000	10	...........
	43	0.586667	8.75178E-001	5.99032E-003	0.00000E+000	5.24259E-003	3.59960E-001	-1.09060E+000	3.57820E+000	10	...........
	44	0.6	8.81084E-001	5.99618E-003	0.00000E+000	5.28314E-003	3.59960E-001	-1.08069E+000	3.57820E+000	10	...........
	45	0.613333	8.86991E-001	5.99803E-003	0.00000E+000	5.32020E-003	3.59960E-001	-1.08298E+000	3.57984E+000	10	...........
	46	0.626667	8.92916E-001	5.99608E-003	0.00000E+000	5.35399E-003	3.59960E-001	-1.09082E+000	3.58020E+000	10	...........
	47	0.64	8.98790E-001	5.99354E-003	0.00000E+000	5.38694E-003	3.59960E-001	-1.08082E+000	3.58020E+000	10	...........
	48	0.653333	9.04700E-001	5.99473E-003	0.00000E+000	5.42343E-003	3.59960E-001	-1.08268E+000	3.58020E+000	10	...........
	49	0.666667	9.10552E-001	5.99768E-003	0.00000E+000	5.46120E-003	3.59960E-001	-1.09065E+000	3.58020E+000	10	...........
	50	0.68	9.16339E-001	5.99570E-003	0.00000E+000	5.49410E-003	3.59960E-001	-1.08080E+000	3.58020E+000	10	...........
	51	0.693333	9.22156E-001	5.99656E-003	0.00000E+000	5.52976E-003	3.59960E-001	-1.08302E+000	3.58020E+000	10	...........
	52	0.706667	9.27972E-001	5.99085E-003	0.00000E+000	5.55934E-003	3.59960E-001	-1.09075E+000	3.58020E+000	10	...........
	53	0.72	9.33679E-001	5.99271E-003	0.00000E+000	5.59527E-003	3.59960E-001	-1.08060E+000	3.58020E+000	10	...........
	54	0.733333	9.39373E-001	5.99335E-003	0.00000E+000	5.62999E-003	3.59960E-001	-1.08276E+000	3.58020E+000	10	...........
	55	0.746667	9.45084E-001	5.99749E-003	0.00000E+000	5.66813E-003	3.59960E-001	-1.09026E+000	3.58020E+000	10	...........
	56	0.76	9.50776E-001	5.99555E-003	0.00000E+000	5.70043E-003	3.59960E-001	-1.08042E+000	3.58020E+000	10	...........
	57	0.773333	9.56414E-001	5.98975E-003	0.00000E+000	5.72869E-003	3.59960E-001	-1.08252E+000	3.58020E+000	10	...........
	58	0.786667	9.62011E-001	5.99090E-003	0.00000E+000	5.76331E-003	3.59960E-001	-1.09001E+000	3.58020E+000	10	...........
	59	0.8	9.67543E-001	5.99273E-003	0.00000E+000	5.79822E-003	3.59960E-001	-1.08016E+000	3.58020E+000	10	...........
	60	0.813333	9.73158E-001	5.99143E-003	0.00000E+000	5.83061E-003	3.59960E-001	-1.08246E+000	3.58020E+000	10	...........
	61	0.826667	9.78666E-001	5.99456E-003	0.00000E+000	5.86668E-003	3.59960E-001	-1.09019E+000	3.58020E+000	10	...........
	62	0.84	9.84119E-001	5.99294E-003	0.00000E+000	5.89776E-003	3.59960E-001	-1.08027E+000	3.58020E+000	10	...........
	63	0.853333	9.89580E-001	5.99226E-003	0.00000E+000	5.92982E-003	3.59960E-001	-1.08233E+000	3.58020E+000	10	...........
	64	0.866667	9.94967E-001	6.00180E-003	0.00000E+000	5.97160E-003	3.59960E-001	-1.09008E+000	3.58020E+000	10	...........
	65	0.875	9.99320E-001	5.99317E-003	0.00000E+000	5.98910E-003	3.59960E-001	-1.07352E+000	3.58020E+000	10	...........
STARTTIMEOFFSET	QUANT	340.0752	Start Time Offset (s)