File: Data/CV_CRGO300517_1/PWRCCD_CRGO300517_1/CHARGE_DISCHARGE/CHARGE_#597.DTA
EXPLAIN
TAG	PWR800_CHARGE
TITLE	LABEL	PWR Cyclic Charge Discharge (Cell) - Charge Step	Test &Identifier
DATE	LABEL	22-6-2017	Date
TIME	LABEL	15:59:39	Time
NOTES	NOTES	3	&Notes...
	supercap test cell
	0.6mg
	6M KOH
PSTAT	PSTAT	IFC5000-01520	Potentiostat
CAPACITY	QUANT	1.00000E-003	Capacity (A-hr)
CELLTYPE	SELECTOR	1	&Cell Type
WORKINGCONNECTION	SELECTOR	0	&Working Lead
MAXCHARGETIME	VARIABLEANDUNITS	1.00000E+002	s	1.00000E+002	second(s)	Max &Charge Time
CHARGECURRENT	QUANT	6.00000E-003	&Charge Current (A)
VOLTAGEFINISH	TWOPARAM	F	1.00000E-003	3.60000E+003	&Voltage Finish	 I (A) < 	Max Time(s)
SAMPLETIME	QUANT	1.00000E-002	Sa&mple Period (s)
CHARGESTOPAT1	MULTIPARAM	4	1.00000E+000	Charge Stop At &1	Voltage > Limit	V
CHARGESTOPAT2	MULTIPARAM	0	0.00000E+000	Charge Stop At &2	None	N/A
AESBHCSELECTOR	TOGGLE	F	Save Both Half Cells
IRCOMP	TOGGLE	F	IR &Measure
EOC	QUANT	0	Open Circuit (V)
SEQUENCER	TOGGLE	TRUE	Run as Sequence
PSTATMODEL	IQUANT	53	Pstat Model
PSTATSECTION	LABEL	IFC5000-01520	Pstat Section
PSTATSERIALNO	LABEL	01520	Pstat Serial Number
CTRLMODE	IQUANT	0	Control Mode
ELECTROMETER	IQUANT	1	RE=0 or CS=1
IESTAB	IQUANT	0	I/E Stability
CASPEED	IQUANT	4	Control Amp Speed
CONVENTION	IQUANT	1	Current Convention
ICHRANGE	IQUANT	2	Ich Range
ICHRANGEMODE	TOGGLE	T	Ich Auto Range
ICHOFFSETENABLE	TOGGLE	F	Ich Offset Enable
ICHOFFSET	QUANT	0	Ich Offset (V)
ICHFILTER	IQUANT	1	Ich Filter
VCHRANGE	IQUANT	2	Vch Range
VCHRANGEMODE	TOGGLE	T	Vch Auto Range
VCHOFFSETENABLE	TOGGLE	F	Vch Offset Enable
VCHOFFSET	QUANT	0	Vch Offset (V)
VCHFILTER	IQUANT	1	Vch Filter
IERANGELOWERLIMIT	IQUANT	9	I/E Range Lower Limit
IERANGEMODE	TOGGLE	F	I/E AutoRange
IERANGE	IQUANT	10	I/E Range
ACHSELECT	IQUANT	1	Ach Select
ACHRANGE	IQUANT	2	Ach Range
ACHOFFSETENABLE	TOGGLE	F	Ach Offset Enable
ACHOFFSET	QUANT	0	Ach Offset (V)
ACHFILTER	IQUANT	1	Ach Filter
CABLEID	IQUANT	14	Cable ID
DCCALDATE	LABEL	20-10-2016	DC Calibration Date
ACCALDATE	LABEL	12/3/2015	AC Calibration Date
FRAMEWORKVERSION	QUANT	7.01	Framework Version
INSTRUMENTVERSION	LABEL	4.00	Instrument Version
CURVE	TABLE	57
	Pt	T	Vf	Im	Vu	Pwr	Sig	Ach	Temp	IERange	Over
	#	s	V	A	V	W	V	V	deg C	#	bits
	0	0.013333	6.38404E-001	5.99669E-003	0.00000E+000	3.82831E-003	3.59960E-001	-1.15559E+000	3.57790E+000	10	...........
	1	0.026667	6.47404E-001	5.99257E-003	0.00000E+000	3.87961E-003	3.59960E-001	-1.15045E+000	3.57790E+000	10	...........
	2	0.04	6.55670E-001	5.99668E-003	0.00000E+000	3.93185E-003	3.59960E-001	-1.14535E+000	3.57790E+000	10	...........
	3	0.053333	6.63495E-001	5.99047E-003	0.00000E+000	3.97465E-003	3.59960E-001	-1.15496E+000	3.57790E+000	10	...........
	4	0.066667	6.71035E-001	5.98904E-003	0.00000E+000	4.01885E-003	3.59960E-001	-1.15003E+000	3.57790E+000	10	...........
	5	0.08	6.78396E-001	5.99527E-003	0.00000E+000	4.06717E-003	3.59960E-001	-1.14538E+000	3.57790E+000	10	...........
	6	0.093333	6.85582E-001	5.99296E-003	0.00000E+000	4.10866E-003	3.59960E-001	-1.15501E+000	3.57790E+000	10	...........
	7	0.106667	6.92719E-001	5.99579E-003	0.00000E+000	4.15340E-003	3.59960E-001	-1.14988E+000	3.57790E+000	10	...........
	8	0.12	6.99698E-001	5.99251E-003	0.00000E+000	4.19295E-003	3.59960E-001	-1.14519E+000	3.57790E+000	10	...........
	9	0.133333	7.06602E-001	5.99395E-003	0.00000E+000	4.23533E-003	3.59960E-001	-1.15494E+000	3.57790E+000	10	...........
	10	0.146667	7.13459E-001	5.99340E-003	0.00000E+000	4.27604E-003	3.59960E-001	-1.15018E+000	3.57790E+000	10	...........
	11	0.16	7.20351E-001	5.99831E-003	0.00000E+000	4.32088E-003	3.59960E-001	-1.14514E+000	3.57790E+000	10	...........
	12	0.173333	7.27151E-001	5.99204E-003	0.00000E+000	4.35711E-003	3.59960E-001	-1.15477E+000	3.57790E+000	10	...........
	13	0.186667	7.33903E-001	5.99629E-003	0.00000E+000	4.40070E-003	3.59960E-001	-1.14970E+000	3.57790E+000	10	...........
	14	0.2	7.40641E-001	5.99002E-003	0.00000E+000	4.43645E-003	3.59960E-001	-1.14508E+000	3.57790E+000	10	...........
	15	0.213333	7.47358E-001	5.99083E-003	0.00000E+000	4.47729E-003	3.59960E-001	-1.15493E+000	3.57790E+000	10	...........
	16	0.226667	7.54010E-001	5.99693E-003	0.00000E+000	4.52175E-003	3.59960E-001	-1.14979E+000	3.57790E+000	10	...........
	17	0.24	7.60610E-001	5.99215E-003	0.00000E+000	4.55770E-003	3.59960E-001	-1.14483E+000	3.57790E+000	10	...........
	18	0.253333	7.67243E-001	5.99373E-003	0.00000E+000	4.59865E-003	3.59960E-001	-1.15468E+000	3.57790E+000	10	...........
	19	0.266667	7.73852E-001	5.99503E-003	0.00000E+000	4.63927E-003	3.59960E-001	-1.14977E+000	3.57790E+000	10	...........
	20	0.28	7.80424E-001	5.99365E-003	0.00000E+000	4.67759E-003	3.59960E-001	-1.14507E+000	3.57790E+000	10	...........
	21	0.293333	7.86968E-001	5.99219E-003	0.00000E+000	4.71566E-003	3.59960E-001	-1.15481E+000	3.57790E+000	10	...........
	22	0.306667	7.93511E-001	5.99704E-003	0.00000E+000	4.75872E-003	3.59960E-001	-1.14976E+000	3.57790E+000	10	...........
	23	0.32	8.00008E-001	5.99335E-003	0.00000E+000	4.79473E-003	3.59960E-001	-1.14500E+000	3.57790E+000	10	...........
	24	0.333333	8.06506E-001	5.98980E-003	0.00000E+000	4.83081E-003	3.59960E-001	-1.15505E+000	3.57790E+000	10	...........
	25	0.346667	8.12976E-001	6.00027E-003	0.00000E+000	4.87808E-003	3.59960E-001	-1.14984E+000	3.57790E+000	10	...........
	26	0.36	8.19466E-001	5.99059E-003	0.00000E+000	4.90908E-003	3.59960E-001	-1.14479E+000	3.57790E+000	10	...........
	27	0.373333	8.25920E-001	5.99790E-003	0.00000E+000	4.95378E-003	3.59960E-001	-1.15441E+000	3.57790E+000	10	...........
	28	0.386667	8.32303E-001	5.99363E-003	0.00000E+000	4.98852E-003	3.59960E-001	-1.14932E+000	3.57790E+000	10	...........
	29	0.4	8.38721E-001	5.99269E-003	0.00000E+000	5.02619E-003	3.59960E-001	-1.14488E+000	3.57790E+000	10	...........
	30	0.413333	8.45119E-001	5.99435E-003	0.00000E+000	5.06594E-003	3.59960E-001	-1.15467E+000	3.57790E+000	10	...........
	31	0.426667	8.51510E-001	5.99942E-003	0.00000E+000	5.10857E-003	3.59960E-001	-1.14949E+000	3.57790E+000	10	...........
	32	0.44	8.57876E-001	5.99322E-003	0.00000E+000	5.14144E-003	3.59960E-001	-1.14468E+000	3.57790E+000	10	...........
	33	0.453333	8.64236E-001	5.99379E-003	0.00000E+000	5.18005E-003	3.59960E-001	-1.15457E+000	3.57790E+000	10	...........
	34	0.466667	8.70557E-001	5.99396E-003	0.00000E+000	5.21808E-003	3.59960E-001	-1.14946E+000	3.57790E+000	10	...........
	35	0.48	8.76858E-001	5.99566E-003	0.00000E+000	5.25734E-003	3.59960E-001	-1.14486E+000	3.57790E+000	10	...........
	36	0.493333	8.83094E-001	5.99840E-003	0.00000E+000	5.29716E-003	3.59960E-001	-1.15442E+000	3.57790E+000	10	...........
	37	0.506667	8.89294E-001	5.99804E-003	0.00000E+000	5.33402E-003	3.59960E-001	-1.14918E+000	3.57790E+000	10	...........
	38	0.52	8.95550E-001	5.99444E-003	0.00000E+000	5.36832E-003	3.59960E-001	-1.14445E+000	3.57790E+000	10	...........
	39	0.533333	9.01676E-001	5.99065E-003	0.00000E+000	5.40163E-003	3.59960E-001	-1.15427E+000	3.57790E+000	10	...........
	40	0.546667	9.07805E-001	5.98813E-003	0.00000E+000	5.43605E-003	3.59960E-001	-1.14918E+000	3.57790E+000	10	...........
	41	0.56	9.13945E-001	5.99530E-003	0.00000E+000	5.47938E-003	3.59960E-001	-1.14451E+000	3.57790E+000	10	...........
	42	0.573333	9.20039E-001	5.98907E-003	0.00000E+000	5.51018E-003	3.59960E-001	-1.15443E+000	3.57790E+000	10	...........
	43	0.586667	9.26123E-001	5.99188E-003	0.00000E+000	5.54922E-003	3.59960E-001	-1.14918E+000	3.57790E+000	10	...........
	44	0.6	9.32128E-001	5.99273E-003	0.00000E+000	5.58599E-003	3.59960E-001	-1.14479E+000	3.57790E+000	10	...........
	45	0.613333	9.38074E-001	5.99434E-003	0.00000E+000	5.62314E-003	3.59960E-001	-1.15439E+000	3.57790E+000	10	...........
	46	0.626667	9.43982E-001	5.98873E-003	0.00000E+000	5.65326E-003	3.59960E-001	-1.14925E+000	3.57790E+000	10	...........
	47	0.64	9.49892E-001	5.99443E-003	0.00000E+000	5.69406E-003	3.59960E-001	-1.14445E+000	3.57790E+000	10	...........
	48	0.653333	9.55779E-001	5.99341E-003	0.00000E+000	5.72837E-003	3.59960E-001	-1.15427E+000	3.57790E+000	10	...........
	49	0.666667	9.61546E-001	5.99056E-003	0.00000E+000	5.76020E-003	3.59960E-001	-1.14922E+000	3.57790E+000	10	...........
	50	0.68	9.67272E-001	5.99489E-003	0.00000E+000	5.79869E-003	3.59960E-001	-1.14422E+000	3.57790E+000	10	...........
	51	0.693333	9.73058E-001	5.99454E-003	0.00000E+000	5.83304E-003	3.59960E-001	-1.15384E+000	3.57790E+000	10	...........
	52	0.706667	9.78701E-001	5.99199E-003	0.00000E+000	5.86436E-003	3.59960E-001	-1.14907E+000	3.57790E+000	10	...........
	53	0.72	9.84281E-001	5.99052E-003	0.00000E+000	5.89635E-003	3.59960E-001	-1.14396E+000	3.57790E+000	10	...........
	54	0.733333	9.89858E-001	5.99491E-003	0.00000E+000	5.93411E-003	3.59960E-001	-1.15416E+000	3.57790E+000	10	...........
	55	0.746667	9.95362E-001	5.99309E-003	0.00000E+000	5.96530E-003	3.59960E-001	-1.14908E+000	3.57790E+000	10	...........
	56	0.753333	9.99491E-001	5.98791E-003	0.00000E+000	5.98486E-003	3.59960E-001	-1.14921E+000	3.57790E+000	10	...........
STARTTIMEOFFSET	QUANT	1006.439	Start Time Offset (s)