File: Data/CV_CRGO300517_1/PWRCCD_CRGO300517_1/CHARGE_DISCHARGE/CHARGE_#288.DTA
EXPLAIN
TAG	PWR800_CHARGE
TITLE	LABEL	PWR Cyclic Charge Discharge (Cell) - Charge Step	Test &Identifier
DATE	LABEL	22-6-2017	Date
TIME	LABEL	15:47:26	Time
NOTES	NOTES	3	&Notes...
	supercap test cell
	0.6mg
	6M KOH
PSTAT	PSTAT	IFC5000-01520	Potentiostat
CAPACITY	QUANT	1.00000E-003	Capacity (A-hr)
CELLTYPE	SELECTOR	1	&Cell Type
WORKINGCONNECTION	SELECTOR	0	&Working Lead
MAXCHARGETIME	VARIABLEANDUNITS	1.00000E+002	s	1.00000E+002	second(s)	Max &Charge Time
CHARGECURRENT	QUANT	6.00000E-003	&Charge Current (A)
VOLTAGEFINISH	TWOPARAM	F	1.00000E-003	3.60000E+003	&Voltage Finish	 I (A) < 	Max Time(s)
SAMPLETIME	QUANT	1.00000E-002	Sa&mple Period (s)
CHARGESTOPAT1	MULTIPARAM	4	1.00000E+000	Charge Stop At &1	Voltage > Limit	V
CHARGESTOPAT2	MULTIPARAM	0	0.00000E+000	Charge Stop At &2	None	N/A
AESBHCSELECTOR	TOGGLE	F	Save Both Half Cells
IRCOMP	TOGGLE	F	IR &Measure
EOC	QUANT	0	Open Circuit (V)
SEQUENCER	TOGGLE	TRUE	Run as Sequence
PSTATMODEL	IQUANT	53	Pstat Model
PSTATSECTION	LABEL	IFC5000-01520	Pstat Section
PSTATSERIALNO	LABEL	01520	Pstat Serial Number
CTRLMODE	IQUANT	0	Control Mode
ELECTROMETER	IQUANT	1	RE=0 or CS=1
IESTAB	IQUANT	0	I/E Stability
CASPEED	IQUANT	4	Control Amp Speed
CONVENTION	IQUANT	1	Current Convention
ICHRANGE	IQUANT	2	Ich Range
ICHRANGEMODE	TOGGLE	T	Ich Auto Range
ICHOFFSETENABLE	TOGGLE	F	Ich Offset Enable
ICHOFFSET	QUANT	0	Ich Offset (V)
ICHFILTER	IQUANT	1	Ich Filter
VCHRANGE	IQUANT	2	Vch Range
VCHRANGEMODE	TOGGLE	T	Vch Auto Range
VCHOFFSETENABLE	TOGGLE	F	Vch Offset Enable
VCHOFFSET	QUANT	0	Vch Offset (V)
VCHFILTER	IQUANT	1	Vch Filter
IERANGELOWERLIMIT	IQUANT	9	I/E Range Lower Limit
IERANGEMODE	TOGGLE	F	I/E AutoRange
IERANGE	IQUANT	10	I/E Range
ACHSELECT	IQUANT	1	Ach Select
ACHRANGE	IQUANT	2	Ach Range
ACHOFFSETENABLE	TOGGLE	F	Ach Offset Enable
ACHOFFSET	QUANT	0	Ach Offset (V)
ACHFILTER	IQUANT	1	Ach Filter
CABLEID	IQUANT	14	Cable ID
DCCALDATE	LABEL	20-10-2016	DC Calibration Date
ACCALDATE	LABEL	12/3/2015	AC Calibration Date
FRAMEWORKVERSION	QUANT	7.01	Framework Version
INSTRUMENTVERSION	LABEL	4.00	Instrument Version
CURVE	TABLE	63
	Pt	T	Vf	Im	Vu	Pwr	Sig	Ach	Temp	IERange	Over
	#	s	V	A	V	W	V	V	deg C	#	bits
	0	0.013333	6.14778E-001	5.98843E-003	0.00000E+000	3.68155E-003	3.59960E-001	-1.11174E+000	3.57810E+000	10	...........
	1	0.026667	6.23430E-001	5.99260E-003	0.00000E+000	3.73597E-003	3.59960E-001	-1.10532E+000	3.57810E+000	10	...........
	2	0.04	6.31324E-001	5.99556E-003	0.00000E+000	3.78514E-003	3.59960E-001	-1.11310E+000	3.57810E+000	10	...........
	3	0.053333	6.38830E-001	5.99271E-003	0.00000E+000	3.82832E-003	3.59960E-001	-1.11138E+000	3.57810E+000	10	...........
	4	0.066667	6.46083E-001	5.99152E-003	0.00000E+000	3.87102E-003	3.59960E-001	-1.10544E+000	3.57810E+000	10	...........
	5	0.08	6.53091E-001	5.99361E-003	0.00000E+000	3.91437E-003	3.59960E-001	-1.11298E+000	3.57810E+000	10	...........
	6	0.093333	6.59972E-001	5.99570E-003	0.00000E+000	3.95699E-003	3.59960E-001	-1.11138E+000	3.57810E+000	10	...........
	7	0.106667	6.66810E-001	5.99655E-003	0.00000E+000	3.99855E-003	3.59960E-001	-1.10471E+000	3.57810E+000	10	...........
	8	0.12	6.73508E-001	5.99446E-003	0.00000E+000	4.03732E-003	3.59960E-001	-1.11235E+000	3.57810E+000	10	...........
	9	0.133333	6.80133E-001	5.99127E-003	0.00000E+000	4.07486E-003	3.59960E-001	-1.11141E+000	3.57810E+000	10	...........
	10	0.146667	6.86714E-001	5.99391E-003	0.00000E+000	4.11610E-003	3.59960E-001	-1.10477E+000	3.57810E+000	10	...........
	11	0.16	6.93256E-001	5.99288E-003	0.00000E+000	4.15460E-003	3.59960E-001	-1.11207E+000	3.57810E+000	10	...........
	12	0.173333	6.99719E-001	5.99363E-003	0.00000E+000	4.19386E-003	3.59960E-001	-1.11114E+000	3.57810E+000	10	...........
	13	0.186667	7.06122E-001	5.99435E-003	0.00000E+000	4.23274E-003	3.59960E-001	-1.10468E+000	3.57810E+000	10	...........
	14	0.2	7.12508E-001	5.99542E-003	0.00000E+000	4.27178E-003	3.59960E-001	-1.11210E+000	3.57810E+000	10	...........
	15	0.213333	7.18956E-001	5.99546E-003	0.00000E+000	4.31047E-003	3.59960E-001	-1.11121E+000	3.57810E+000	10	...........
	16	0.226667	7.25314E-001	5.99457E-003	0.00000E+000	4.34795E-003	3.59960E-001	-1.10455E+000	3.57810E+000	10	...........
	17	0.24	7.31589E-001	5.99323E-003	0.00000E+000	4.38458E-003	3.59960E-001	-1.11171E+000	3.57810E+000	10	...........
	18	0.253333	7.37937E-001	6.00117E-003	0.00000E+000	4.42848E-003	3.59960E-001	-1.11118E+000	3.57810E+000	10	...........
	19	0.266667	7.44256E-001	5.99168E-003	0.00000E+000	4.45935E-003	3.59960E-001	-1.10456E+000	3.57810E+000	10	...........
	20	0.28	7.50530E-001	5.99620E-003	0.00000E+000	4.50033E-003	3.59960E-001	-1.11167E+000	3.57810E+000	10	...........
	21	0.293333	7.56844E-001	5.99440E-003	0.00000E+000	4.53682E-003	3.59960E-001	-1.11094E+000	3.57810E+000	10	...........
	22	0.306667	7.63110E-001	5.99065E-003	0.00000E+000	4.57153E-003	3.59960E-001	-1.10413E+000	3.57810E+000	10	...........
	23	0.32	7.69352E-001	5.99536E-003	0.00000E+000	4.61254E-003	3.59960E-001	-1.11166E+000	3.57810E+000	10	...........
	24	0.333333	7.75626E-001	5.99454E-003	0.00000E+000	4.64952E-003	3.59960E-001	-1.11116E+000	3.57810E+000	10	...........
	25	0.346667	7.81861E-001	5.99259E-003	0.00000E+000	4.68537E-003	3.59960E-001	-1.10446E+000	3.57810E+000	10	...........
	26	0.36	7.88056E-001	5.99147E-003	0.00000E+000	4.72161E-003	3.59960E-001	-1.11123E+000	3.57810E+000	10	...........
	27	0.373333	7.94315E-001	5.99770E-003	0.00000E+000	4.76407E-003	3.59960E-001	-1.11094E+000	3.57810E+000	10	...........
	28	0.386667	8.00521E-001	5.99107E-003	0.00000E+000	4.79598E-003	3.59960E-001	-1.10427E+000	3.57810E+000	10	...........
	29	0.4	8.06726E-001	5.99574E-003	0.00000E+000	4.83692E-003	3.59960E-001	-1.11122E+000	3.57810E+000	10	...........
	30	0.413333	8.12886E-001	5.99625E-003	0.00000E+000	4.87427E-003	3.59960E-001	-1.11098E+000	3.57810E+000	10	...........
	31	0.426667	8.19100E-001	5.99838E-003	0.00000E+000	4.91327E-003	3.59960E-001	-1.10351E+000	3.57810E+000	10	...........
	32	0.44	8.25246E-001	5.99319E-003	0.00000E+000	4.94585E-003	3.59960E-001	-1.11055E+000	3.57810E+000	10	...........
	33	0.453333	8.31390E-001	5.99217E-003	0.00000E+000	4.98184E-003	3.59960E-001	-1.11067E+000	3.57810E+000	10	...........
	34	0.466667	8.37521E-001	5.99289E-003	0.00000E+000	5.01918E-003	3.59960E-001	-1.10349E+000	3.57810E+000	10	...........
	35	0.48	8.43680E-001	5.99672E-003	0.00000E+000	5.05931E-003	3.59960E-001	-1.11039E+000	3.57810E+000	10	...........
	36	0.493333	8.49822E-001	5.99079E-003	0.00000E+000	5.09110E-003	3.59960E-001	-1.11053E+000	3.57810E+000	10	...........
	37	0.506667	8.55924E-001	5.99478E-003	0.00000E+000	5.13108E-003	3.59960E-001	-1.10339E+000	3.57810E+000	10	...........
	38	0.52	8.62032E-001	5.99741E-003	0.00000E+000	5.16996E-003	3.59960E-001	-1.11026E+000	3.57810E+000	10	...........
	39	0.533333	8.68163E-001	5.99444E-003	0.00000E+000	5.20415E-003	3.59960E-001	-1.11083E+000	3.57810E+000	10	...........
	40	0.546667	8.74251E-001	5.99103E-003	0.00000E+000	5.23766E-003	3.59960E-001	-1.10342E+000	3.57810E+000	10	...........
	41	0.56	8.80321E-001	5.99379E-003	0.00000E+000	5.27646E-003	3.59960E-001	-1.10979E+000	3.57810E+000	10	...........
	42	0.573333	8.86347E-001	6.00068E-003	0.00000E+000	5.31868E-003	3.59960E-001	-1.11056E+000	3.57810E+000	10	...........
	43	0.586667	8.92308E-001	5.99404E-003	0.00000E+000	5.34853E-003	3.59960E-001	-1.10340E+000	3.57810E+000	10	...........
	44	0.6	8.98349E-001	5.99707E-003	0.00000E+000	5.38746E-003	3.59960E-001	-1.10990E+000	3.57810E+000	10	...........
	45	0.613333	9.04311E-001	5.99105E-003	0.00000E+000	5.41777E-003	3.59960E-001	-1.11049E+000	3.57810E+000	10	...........
	46	0.626667	9.10258E-001	5.99815E-003	0.00000E+000	5.45987E-003	3.59960E-001	-1.10328E+000	3.57810E+000	10	...........
	47	0.64	9.16207E-001	5.99301E-003	0.00000E+000	5.49084E-003	3.59960E-001	-1.10953E+000	3.57810E+000	10	...........
	48	0.653333	9.22166E-001	5.99202E-003	0.00000E+000	5.52564E-003	3.59960E-001	-1.11080E+000	3.57810E+000	10	...........
	49	0.666667	9.27997E-001	5.99318E-003	0.00000E+000	5.56165E-003	3.59960E-001	-1.10319E+000	3.57810E+000	10	...........
	50	0.68	9.33841E-001	5.99471E-003	0.00000E+000	5.59810E-003	3.59960E-001	-1.10953E+000	3.57810E+000	10	...........
	51	0.693333	9.39654E-001	5.99532E-003	0.00000E+000	5.63353E-003	3.59960E-001	-1.11061E+000	3.57810E+000	10	...........
	52	0.706667	9.45411E-001	5.99327E-003	0.00000E+000	5.66610E-003	3.59960E-001	-1.10314E+000	3.57810E+000	10	...........
	53	0.72	9.51158E-001	5.99373E-003	0.00000E+000	5.70099E-003	3.59960E-001	-1.10949E+000	3.57810E+000	10	...........
	54	0.733333	9.56822E-001	5.99269E-003	0.00000E+000	5.73393E-003	3.59960E-001	-1.11078E+000	3.57810E+000	10	...........
	55	0.746667	9.62475E-001	5.99159E-003	0.00000E+000	5.76676E-003	3.59960E-001	-1.10288E+000	3.57810E+000	10	...........
	56	0.76	9.68082E-001	5.98987E-003	0.00000E+000	5.79869E-003	3.59960E-001	-1.10890E+000	3.57810E+000	10	...........
	57	0.773333	9.73733E-001	5.98933E-003	0.00000E+000	5.83201E-003	3.59960E-001	-1.11061E+000	3.57810E+000	10	...........
	58	0.786667	9.79299E-001	5.99466E-003	0.00000E+000	5.87056E-003	3.59960E-001	-1.10282E+000	3.57810E+000	10	...........
	59	0.8	9.84777E-001	5.99698E-003	0.00000E+000	5.90569E-003	3.59960E-001	-1.10886E+000	3.57810E+000	10	...........
	60	0.813333	9.90280E-001	5.99519E-003	0.00000E+000	5.93692E-003	3.59960E-001	-1.11055E+000	3.57810E+000	10	...........
	61	0.826667	9.95692E-001	5.99325E-003	0.00000E+000	5.96743E-003	3.59960E-001	-1.10272E+000	3.57810E+000	10	...........
	62	0.831667	9.99450E-001	5.98840E-003	0.00000E+000	5.98510E-003	3.59960E-001	-1.11690E+000	3.57810E+000	10	...........
STARTTIMEOFFSET	QUANT	521.3333	Start Time Offset (s)