File: Data/CV_CRGO300517_1/PWRCCD_CRGO300517_1/CHARGE_DISCHARGE/CHARGE_#647.DTA
EXPLAIN
TAG	PWR800_CHARGE
TITLE	LABEL	PWR Cyclic Charge Discharge (Cell) - Charge Step	Test &Identifier
DATE	LABEL	22-6-2017	Date
TIME	LABEL	16:01:33	Time
NOTES	NOTES	3	&Notes...
	supercap test cell
	0.6mg
	6M KOH
PSTAT	PSTAT	IFC5000-01520	Potentiostat
CAPACITY	QUANT	1.00000E-003	Capacity (A-hr)
CELLTYPE	SELECTOR	1	&Cell Type
WORKINGCONNECTION	SELECTOR	0	&Working Lead
MAXCHARGETIME	VARIABLEANDUNITS	1.00000E+002	s	1.00000E+002	second(s)	Max &Charge Time
CHARGECURRENT	QUANT	6.00000E-003	&Charge Current (A)
VOLTAGEFINISH	TWOPARAM	F	1.00000E-003	3.60000E+003	&Voltage Finish	 I (A) < 	Max Time(s)
SAMPLETIME	QUANT	1.00000E-002	Sa&mple Period (s)
CHARGESTOPAT1	MULTIPARAM	4	1.00000E+000	Charge Stop At &1	Voltage > Limit	V
CHARGESTOPAT2	MULTIPARAM	0	0.00000E+000	Charge Stop At &2	None	N/A
AESBHCSELECTOR	TOGGLE	F	Save Both Half Cells
IRCOMP	TOGGLE	F	IR &Measure
EOC	QUANT	0	Open Circuit (V)
SEQUENCER	TOGGLE	TRUE	Run as Sequence
PSTATMODEL	IQUANT	53	Pstat Model
PSTATSECTION	LABEL	IFC5000-01520	Pstat Section
PSTATSERIALNO	LABEL	01520	Pstat Serial Number
CTRLMODE	IQUANT	0	Control Mode
ELECTROMETER	IQUANT	1	RE=0 or CS=1
IESTAB	IQUANT	0	I/E Stability
CASPEED	IQUANT	4	Control Amp Speed
CONVENTION	IQUANT	1	Current Convention
ICHRANGE	IQUANT	2	Ich Range
ICHRANGEMODE	TOGGLE	T	Ich Auto Range
ICHOFFSETENABLE	TOGGLE	F	Ich Offset Enable
ICHOFFSET	QUANT	0	Ich Offset (V)
ICHFILTER	IQUANT	1	Ich Filter
VCHRANGE	IQUANT	2	Vch Range
VCHRANGEMODE	TOGGLE	T	Vch Auto Range
VCHOFFSETENABLE	TOGGLE	F	Vch Offset Enable
VCHOFFSET	QUANT	0	Vch Offset (V)
VCHFILTER	IQUANT	1	Vch Filter
IERANGELOWERLIMIT	IQUANT	9	I/E Range Lower Limit
IERANGEMODE	TOGGLE	F	I/E AutoRange
IERANGE	IQUANT	10	I/E Range
ACHSELECT	IQUANT	1	Ach Select
ACHRANGE	IQUANT	2	Ach Range
ACHOFFSETENABLE	TOGGLE	F	Ach Offset Enable
ACHOFFSET	QUANT	0	Ach Offset (V)
ACHFILTER	IQUANT	1	Ach Filter
CABLEID	IQUANT	14	Cable ID
DCCALDATE	LABEL	20-10-2016	DC Calibration Date
ACCALDATE	LABEL	12/3/2015	AC Calibration Date
FRAMEWORKVERSION	QUANT	7.01	Framework Version
INSTRUMENTVERSION	LABEL	4.00	Instrument Version
CURVE	TABLE	56
	Pt	T	Vf	Im	Vu	Pwr	Sig	Ach	Temp	IERange	Over
	#	s	V	A	V	W	V	V	deg C	#	bits
	0	0.013333	6.40442E-001	5.99659E-003	0.00000E+000	3.84047E-003	3.59960E-001	-1.15309E+000	3.57940E+000	10	...........
	1	0.026667	6.49469E-001	5.99094E-003	0.00000E+000	3.89093E-003	3.59960E-001	-1.16204E+000	3.57940E+000	10	...........
	2	0.04	6.57822E-001	5.99668E-003	0.00000E+000	3.94475E-003	3.59960E-001	-1.15133E+000	3.57940E+000	10	...........
	3	0.053333	6.65744E-001	5.99634E-003	0.00000E+000	3.99203E-003	3.59960E-001	-1.15275E+000	3.57940E+000	10	...........
	4	0.066667	6.73274E-001	5.99332E-003	0.00000E+000	4.03515E-003	3.59960E-001	-1.16187E+000	3.57940E+000	10	...........
	5	0.08	6.80647E-001	5.99233E-003	0.00000E+000	4.07866E-003	3.59960E-001	-1.15151E+000	3.57940E+000	10	...........
	6	0.093333	6.87886E-001	5.99700E-003	0.00000E+000	4.12526E-003	3.59960E-001	-1.15306E+000	3.57940E+000	10	...........
	7	0.106667	6.95047E-001	5.99362E-003	0.00000E+000	4.16585E-003	3.59960E-001	-1.16203E+000	3.57940E+000	10	...........
	8	0.12	7.02095E-001	5.99286E-003	0.00000E+000	4.20756E-003	3.59960E-001	-1.15132E+000	3.57940E+000	10	...........
	9	0.133333	7.09038E-001	5.99471E-003	0.00000E+000	4.25047E-003	3.59960E-001	-1.15286E+000	3.57940E+000	10	...........
	10	0.146667	7.15929E-001	5.99400E-003	0.00000E+000	4.29128E-003	3.59960E-001	-1.16202E+000	3.57940E+000	10	...........
	11	0.16	7.22834E-001	5.99224E-003	0.00000E+000	4.33139E-003	3.59960E-001	-1.15127E+000	3.57940E+000	10	...........
	12	0.173333	7.29648E-001	5.99393E-003	0.00000E+000	4.37346E-003	3.59960E-001	-1.15272E+000	3.57940E+000	10	...........
	13	0.186667	7.36437E-001	5.99061E-003	0.00000E+000	4.41170E-003	3.59960E-001	-1.16144E+000	3.57940E+000	10	...........
	14	0.2	7.43219E-001	5.99540E-003	0.00000E+000	4.45589E-003	3.59960E-001	-1.15066E+000	3.57940E+000	10	...........
	15	0.213333	7.49973E-001	5.99313E-003	0.00000E+000	4.49469E-003	3.59960E-001	-1.15237E+000	3.57940E+000	10	...........
	16	0.226667	7.56642E-001	5.99249E-003	0.00000E+000	4.53416E-003	3.59960E-001	-1.16165E+000	3.57940E+000	10	...........
	17	0.24	7.63315E-001	5.98854E-003	0.00000E+000	4.57115E-003	3.59960E-001	-1.15070E+000	3.57940E+000	10	...........
	18	0.253333	7.69979E-001	5.99325E-003	0.00000E+000	4.61468E-003	3.59960E-001	-1.15240E+000	3.57940E+000	10	...........
	19	0.266667	7.76606E-001	5.99494E-003	0.00000E+000	4.65571E-003	3.59960E-001	-1.16143E+000	3.57940E+000	10	...........
	20	0.28	7.83204E-001	5.99403E-003	0.00000E+000	4.69455E-003	3.59960E-001	-1.15102E+000	3.57940E+000	10	...........
	21	0.293333	7.89786E-001	5.99302E-003	0.00000E+000	4.73320E-003	3.59960E-001	-1.15243E+000	3.57940E+000	10	...........
	22	0.306667	7.96390E-001	5.98884E-003	0.00000E+000	4.76945E-003	3.59960E-001	-1.16120E+000	3.57940E+000	10	...........
	23	0.32	8.02954E-001	5.99441E-003	0.00000E+000	4.81323E-003	3.59960E-001	-1.15046E+000	3.57940E+000	10	...........
	24	0.333333	8.09462E-001	5.99444E-003	0.00000E+000	4.85227E-003	3.59960E-001	-1.15215E+000	3.57940E+000	10	...........
	25	0.346667	8.15956E-001	5.99684E-003	0.00000E+000	4.89315E-003	3.59960E-001	-1.16133E+000	3.57940E+000	10	...........
	26	0.36	8.22530E-001	5.99317E-003	0.00000E+000	4.92956E-003	3.59960E-001	-1.15083E+000	3.57940E+000	10	...........
	27	0.373333	8.29015E-001	5.99561E-003	0.00000E+000	4.97044E-003	3.59960E-001	-1.15225E+000	3.57940E+000	10	...........
	28	0.386667	8.35424E-001	5.99352E-003	0.00000E+000	5.00713E-003	3.59960E-001	-1.16130E+000	3.57940E+000	10	...........
	29	0.4	8.41825E-001	5.99459E-003	0.00000E+000	5.04640E-003	3.59960E-001	-1.15055E+000	3.57940E+000	10	...........
	30	0.413333	8.48277E-001	5.99426E-003	0.00000E+000	5.08479E-003	3.59960E-001	-1.15236E+000	3.57940E+000	10	...........
	31	0.426667	8.54673E-001	5.98935E-003	0.00000E+000	5.11893E-003	3.59960E-001	-1.16139E+000	3.57940E+000	10	...........
	32	0.44	8.61089E-001	5.99619E-003	0.00000E+000	5.16325E-003	3.59960E-001	-1.15072E+000	3.57940E+000	10	...........
	33	0.453333	8.67429E-001	5.99211E-003	0.00000E+000	5.19773E-003	3.59960E-001	-1.15237E+000	3.57940E+000	10	...........
	34	0.466667	8.73794E-001	5.99397E-003	0.00000E+000	5.23749E-003	3.59960E-001	-1.16129E+000	3.57730E+000	10	...........
	35	0.48	8.80075E-001	5.99550E-003	0.00000E+000	5.27649E-003	3.59960E-001	-1.15086E+000	3.57660E+000	10	...........
	36	0.493333	8.86328E-001	5.99003E-003	0.00000E+000	5.30913E-003	3.59960E-001	-1.15243E+000	3.57660E+000	10	...........
	37	0.506667	8.92534E-001	5.99618E-003	0.00000E+000	5.35180E-003	3.59960E-001	-1.16101E+000	3.57660E+000	10	...........
	38	0.52	8.98742E-001	5.99614E-003	0.00000E+000	5.38898E-003	3.59960E-001	-1.15020E+000	3.57660E+000	10	...........
	39	0.533333	9.04928E-001	5.99019E-003	0.00000E+000	5.42069E-003	3.59960E-001	-1.15186E+000	3.57660E+000	10	...........
	40	0.546667	9.11064E-001	5.99518E-003	0.00000E+000	5.46199E-003	3.59960E-001	-1.16099E+000	3.57660E+000	10	...........
	41	0.56	9.17190E-001	5.99285E-003	0.00000E+000	5.49658E-003	3.59960E-001	-1.15036E+000	3.57660E+000	10	...........
	42	0.573333	9.23347E-001	5.99302E-003	0.00000E+000	5.53364E-003	3.59960E-001	-1.15197E+000	3.57660E+000	10	...........
	43	0.586667	9.29350E-001	5.99280E-003	0.00000E+000	5.56941E-003	3.59960E-001	-1.16087E+000	3.57660E+000	10	...........
	44	0.6	9.35324E-001	5.99503E-003	0.00000E+000	5.60730E-003	3.59960E-001	-1.15036E+000	3.57660E+000	10	...........
	45	0.613333	9.41281E-001	5.99539E-003	0.00000E+000	5.64334E-003	3.59960E-001	-1.15185E+000	3.57660E+000	10	...........
	46	0.626667	9.47194E-001	5.99102E-003	0.00000E+000	5.67466E-003	3.59960E-001	-1.16094E+000	3.57660E+000	10	...........
	47	0.64	9.53078E-001	5.99828E-003	0.00000E+000	5.71682E-003	3.59960E-001	-1.15026E+000	3.57660E+000	10	...........
	48	0.653333	9.58906E-001	5.98837E-003	0.00000E+000	5.74228E-003	3.59960E-001	-1.15172E+000	3.57660E+000	10	...........
	49	0.666667	9.64713E-001	5.99966E-003	0.00000E+000	5.78796E-003	3.59960E-001	-1.16076E+000	3.57660E+000	10	...........
	50	0.68	9.70423E-001	5.99601E-003	0.00000E+000	5.81867E-003	3.59960E-001	-1.15041E+000	3.57660E+000	10	...........
	51	0.693333	9.76139E-001	5.99317E-003	0.00000E+000	5.85016E-003	3.59960E-001	-1.15179E+000	3.57660E+000	10	...........
	52	0.706667	9.81782E-001	5.99459E-003	0.00000E+000	5.88539E-003	3.59960E-001	-1.16080E+000	3.57660E+000	10	...........
	53	0.72	9.87398E-001	5.99662E-003	0.00000E+000	5.92105E-003	3.59960E-001	-1.15016E+000	3.57660E+000	10	...........
	54	0.733333	9.92935E-001	5.98756E-003	0.00000E+000	5.94526E-003	3.59960E-001	-1.15168E+000	3.57660E+000	10	...........
	55	0.745	9.98122E-001	5.99368E-003	0.00000E+000	5.98243E-003	3.59960E-001	-1.16109E+000	3.57660E+000	10	...........
STARTTIMEOFFSET	QUANT	1081.033	Start Time Offset (s)