File: Data/CV_CRGO300517_1/PWRCCD_CRGO300517_1/CHARGE_DISCHARGE/CHARGE_#422.DTA
EXPLAIN
TAG	PWR800_CHARGE
TITLE	LABEL	PWR Cyclic Charge Discharge (Cell) - Charge Step	Test &Identifier
DATE	LABEL	22-6-2017	Date
TIME	LABEL	15:52:50	Time
NOTES	NOTES	3	&Notes...
	supercap test cell
	0.6mg
	6M KOH
PSTAT	PSTAT	IFC5000-01520	Potentiostat
CAPACITY	QUANT	1.00000E-003	Capacity (A-hr)
CELLTYPE	SELECTOR	1	&Cell Type
WORKINGCONNECTION	SELECTOR	0	&Working Lead
MAXCHARGETIME	VARIABLEANDUNITS	1.00000E+002	s	1.00000E+002	second(s)	Max &Charge Time
CHARGECURRENT	QUANT	6.00000E-003	&Charge Current (A)
VOLTAGEFINISH	TWOPARAM	F	1.00000E-003	3.60000E+003	&Voltage Finish	 I (A) < 	Max Time(s)
SAMPLETIME	QUANT	1.00000E-002	Sa&mple Period (s)
CHARGESTOPAT1	MULTIPARAM	4	1.00000E+000	Charge Stop At &1	Voltage > Limit	V
CHARGESTOPAT2	MULTIPARAM	0	0.00000E+000	Charge Stop At &2	None	N/A
AESBHCSELECTOR	TOGGLE	F	Save Both Half Cells
IRCOMP	TOGGLE	F	IR &Measure
EOC	QUANT	0	Open Circuit (V)
SEQUENCER	TOGGLE	TRUE	Run as Sequence
PSTATMODEL	IQUANT	53	Pstat Model
PSTATSECTION	LABEL	IFC5000-01520	Pstat Section
PSTATSERIALNO	LABEL	01520	Pstat Serial Number
CTRLMODE	IQUANT	0	Control Mode
ELECTROMETER	IQUANT	1	RE=0 or CS=1
IESTAB	IQUANT	0	I/E Stability
CASPEED	IQUANT	4	Control Amp Speed
CONVENTION	IQUANT	1	Current Convention
ICHRANGE	IQUANT	2	Ich Range
ICHRANGEMODE	TOGGLE	T	Ich Auto Range
ICHOFFSETENABLE	TOGGLE	F	Ich Offset Enable
ICHOFFSET	QUANT	0	Ich Offset (V)
ICHFILTER	IQUANT	1	Ich Filter
VCHRANGE	IQUANT	2	Vch Range
VCHRANGEMODE	TOGGLE	T	Vch Auto Range
VCHOFFSETENABLE	TOGGLE	F	Vch Offset Enable
VCHOFFSET	QUANT	0	Vch Offset (V)
VCHFILTER	IQUANT	1	Vch Filter
IERANGELOWERLIMIT	IQUANT	9	I/E Range Lower Limit
IERANGEMODE	TOGGLE	F	I/E AutoRange
IERANGE	IQUANT	10	I/E Range
ACHSELECT	IQUANT	1	Ach Select
ACHRANGE	IQUANT	2	Ach Range
ACHOFFSETENABLE	TOGGLE	F	Ach Offset Enable
ACHOFFSET	QUANT	0	Ach Offset (V)
ACHFILTER	IQUANT	1	Ach Filter
CABLEID	IQUANT	14	Cable ID
DCCALDATE	LABEL	20-10-2016	DC Calibration Date
ACCALDATE	LABEL	12/3/2015	AC Calibration Date
FRAMEWORKVERSION	QUANT	7.01	Framework Version
INSTRUMENTVERSION	LABEL	4.00	Instrument Version
CURVE	TABLE	60
	Pt	T	Vf	Im	Vu	Pwr	Sig	Ach	Temp	IERange	Over
	#	s	V	A	V	W	V	V	deg C	#	bits
	0	0.013333	6.26017E-001	5.99651E-003	0.00000E+000	3.75392E-003	3.59960E-001	-1.14130E+000	3.57680E+000	10	...........
	1	0.026667	6.34765E-001	5.99129E-003	0.00000E+000	3.80306E-003	3.59960E-001	-1.13142E+000	3.57680E+000	10	...........
	2	0.04	6.42899E-001	5.99570E-003	0.00000E+000	3.85463E-003	3.59960E-001	-1.13074E+000	3.57680E+000	10	...........
	3	0.053333	6.50481E-001	5.99619E-003	0.00000E+000	3.90041E-003	3.59960E-001	-1.14105E+000	3.57680E+000	10	...........
	4	0.066667	6.57857E-001	5.99144E-003	0.00000E+000	3.94152E-003	3.59960E-001	-1.13128E+000	3.57680E+000	10	...........
	5	0.08	6.65103E-001	5.99488E-003	0.00000E+000	3.98721E-003	3.59960E-001	-1.13069E+000	3.57680E+000	10	...........
	6	0.093333	6.72160E-001	5.99389E-003	0.00000E+000	4.02885E-003	3.59960E-001	-1.14129E+000	3.57680E+000	10	...........
	7	0.106667	6.79063E-001	5.99381E-003	0.00000E+000	4.07018E-003	3.59960E-001	-1.13107E+000	3.57680E+000	10	...........
	8	0.12	6.85862E-001	5.99156E-003	0.00000E+000	4.10938E-003	3.59960E-001	-1.13048E+000	3.57680E+000	10	...........
	9	0.133333	6.92695E-001	5.99541E-003	0.00000E+000	4.15299E-003	3.59960E-001	-1.14117E+000	3.57680E+000	10	...........
	10	0.146667	6.99390E-001	5.99128E-003	0.00000E+000	4.19024E-003	3.59960E-001	-1.13083E+000	3.57680E+000	10	...........
	11	0.16	7.06060E-001	5.99356E-003	0.00000E+000	4.23182E-003	3.59960E-001	-1.13055E+000	3.57680E+000	10	...........
	12	0.173333	7.12682E-001	5.98892E-003	0.00000E+000	4.26819E-003	3.59960E-001	-1.14096E+000	3.57680E+000	10	...........
	13	0.186667	7.19290E-001	5.99452E-003	0.00000E+000	4.31180E-003	3.59960E-001	-1.13077E+000	3.57680E+000	10	...........
	14	0.2	7.25816E-001	5.99092E-003	0.00000E+000	4.34831E-003	3.59960E-001	-1.13024E+000	3.57680E+000	10	...........
	15	0.213333	7.32373E-001	5.99167E-003	0.00000E+000	4.38814E-003	3.59960E-001	-1.14093E+000	3.57680E+000	10	...........
	16	0.226667	7.38874E-001	5.99598E-003	0.00000E+000	4.43027E-003	3.59960E-001	-1.13081E+000	3.57680E+000	10	...........
	17	0.24	7.45405E-001	5.99612E-003	0.00000E+000	4.46954E-003	3.59960E-001	-1.13070E+000	3.57680E+000	10	...........
	18	0.253333	7.51856E-001	5.99369E-003	0.00000E+000	4.50639E-003	3.59960E-001	-1.14091E+000	3.57680E+000	10	...........
	19	0.266667	7.58286E-001	5.99599E-003	0.00000E+000	4.54668E-003	3.59960E-001	-1.13095E+000	3.57680E+000	10	...........
	20	0.28	7.64735E-001	5.99011E-003	0.00000E+000	4.58084E-003	3.59960E-001	-1.13060E+000	3.57680E+000	10	...........
	21	0.293333	7.71147E-001	5.99409E-003	0.00000E+000	4.62233E-003	3.59960E-001	-1.14094E+000	3.57680E+000	10	...........
	22	0.306667	7.77588E-001	5.99472E-003	0.00000E+000	4.66142E-003	3.59960E-001	-1.13056E+000	3.57680E+000	10	...........
	23	0.32	7.84014E-001	5.99364E-003	0.00000E+000	4.69909E-003	3.59960E-001	-1.13056E+000	3.57680E+000	10	...........
	24	0.333333	7.90381E-001	5.99084E-003	0.00000E+000	4.73505E-003	3.59960E-001	-1.14074E+000	3.57680E+000	10	...........
	25	0.346667	7.96790E-001	5.99281E-003	0.00000E+000	4.77501E-003	3.59960E-001	-1.13067E+000	3.57680E+000	10	...........
	26	0.36	8.03155E-001	5.99342E-003	0.00000E+000	4.81364E-003	3.59960E-001	-1.13071E+000	3.57680E+000	10	...........
	27	0.373333	8.09460E-001	5.99594E-003	0.00000E+000	4.85347E-003	3.59960E-001	-1.14102E+000	3.57676E+000	10	...........
	28	0.386667	8.15773E-001	5.99418E-003	0.00000E+000	4.88989E-003	3.59960E-001	-1.13088E+000	3.57670E+000	10	...........
	29	0.4	8.22082E-001	5.99126E-003	0.00000E+000	4.92530E-003	3.59960E-001	-1.13060E+000	3.57670E+000	10	...........
	30	0.413333	8.28397E-001	5.99213E-003	0.00000E+000	4.96386E-003	3.59960E-001	-1.14084E+000	3.57670E+000	10	...........
	31	0.426667	8.34695E-001	5.99480E-003	0.00000E+000	5.00383E-003	3.59960E-001	-1.13069E+000	3.57670E+000	10	...........
	32	0.44	8.40944E-001	5.99394E-003	0.00000E+000	5.04057E-003	3.59960E-001	-1.13078E+000	3.57670E+000	10	...........
	33	0.453333	8.47240E-001	5.99389E-003	0.00000E+000	5.07826E-003	3.59960E-001	-1.14094E+000	3.57670E+000	10	...........
	34	0.466667	8.53471E-001	5.99422E-003	0.00000E+000	5.11589E-003	3.59960E-001	-1.13028E+000	3.57670E+000	10	...........
	35	0.48	8.59713E-001	5.99553E-003	0.00000E+000	5.15444E-003	3.59960E-001	-1.13033E+000	3.57670E+000	10	...........
	36	0.493333	8.65907E-001	5.99213E-003	0.00000E+000	5.18863E-003	3.59960E-001	-1.14053E+000	3.57670E+000	10	...........
	37	0.506667	8.72145E-001	5.99255E-003	0.00000E+000	5.22638E-003	3.59960E-001	-1.13029E+000	3.57670E+000	10	...........
	38	0.52	8.78303E-001	5.99186E-003	0.00000E+000	5.26267E-003	3.59960E-001	-1.13048E+000	3.57670E+000	10	...........
	39	0.533333	8.84443E-001	5.99581E-003	0.00000E+000	5.30295E-003	3.59960E-001	-1.14025E+000	3.57670E+000	10	...........
	40	0.546667	8.90534E-001	5.99619E-003	0.00000E+000	5.33981E-003	3.59960E-001	-1.13004E+000	3.57670E+000	10	...........
	41	0.56	8.96641E-001	5.99261E-003	0.00000E+000	5.37322E-003	3.59960E-001	-1.13043E+000	3.57670E+000	10	...........
	42	0.573333	9.02713E-001	5.99944E-003	0.00000E+000	5.41578E-003	3.59960E-001	-1.14025E+000	3.57670E+000	10	...........
	43	0.586667	9.08784E-001	5.99549E-003	0.00000E+000	5.44861E-003	3.59960E-001	-1.13004E+000	3.57670E+000	10	...........
	44	0.6	9.14801E-001	5.99326E-003	0.00000E+000	5.48264E-003	3.59960E-001	-1.13044E+000	3.57670E+000	10	...........
	45	0.613333	9.20788E-001	5.99383E-003	0.00000E+000	5.51905E-003	3.59960E-001	-1.14041E+000	3.57670E+000	10	...........
	46	0.626667	9.26759E-001	5.99458E-003	0.00000E+000	5.55554E-003	3.59960E-001	-1.13017E+000	3.57670E+000	10	...........
	47	0.64	9.32678E-001	5.99324E-003	0.00000E+000	5.58976E-003	3.59960E-001	-1.13047E+000	3.57670E+000	10	...........
	48	0.653333	9.38522E-001	5.99249E-003	0.00000E+000	5.62408E-003	3.59960E-001	-1.14018E+000	3.57670E+000	10	...........
	49	0.666667	9.44361E-001	5.99673E-003	0.00000E+000	5.66308E-003	3.59960E-001	-1.12989E+000	3.57670E+000	10	...........
	50	0.68	9.50234E-001	5.99327E-003	0.00000E+000	5.69501E-003	3.59960E-001	-1.13064E+000	3.57670E+000	10	...........
	51	0.693333	9.55986E-001	5.99377E-003	0.00000E+000	5.72996E-003	3.59960E-001	-1.14068E+000	3.57670E+000	10	...........
	52	0.706667	9.61706E-001	5.99696E-003	0.00000E+000	5.76732E-003	3.59960E-001	-1.13044E+000	3.57670E+000	10	...........
	53	0.72	9.67387E-001	5.99190E-003	0.00000E+000	5.79649E-003	3.59960E-001	-1.13075E+000	3.57670E+000	10	...........
	54	0.733333	9.73110E-001	5.99684E-003	0.00000E+000	5.83558E-003	3.59960E-001	-1.14042E+000	3.57670E+000	10	...........
	55	0.746667	9.78747E-001	5.99409E-003	0.00000E+000	5.86670E-003	3.59960E-001	-1.13012E+000	3.57670E+000	10	...........
	56	0.76	9.84286E-001	5.99621E-003	0.00000E+000	5.90198E-003	3.59960E-001	-1.13085E+000	3.57670E+000	10	...........
	57	0.773333	9.89796E-001	5.99599E-003	0.00000E+000	5.93481E-003	3.59960E-001	-1.14050E+000	3.57670E+000	10	...........
	58	0.786667	9.95262E-001	5.99616E-003	0.00000E+000	5.96775E-003	3.59960E-001	-1.12976E+000	3.57670E+000	10	...........
	59	0.793333	9.99374E-001	5.99083E-003	0.00000E+000	5.98708E-003	3.59960E-001	-1.14073E+000	3.57670E+000	10	...........
STARTTIMEOFFSET	QUANT	737.48	Start Time Offset (s)