File: Data/CV_CRGO300517_1/PWRCCD_CRGO300517_1/CHARGE_DISCHARGE/CHARGE_#994.DTA
EXPLAIN
TAG	PWR800_CHARGE
TITLE	LABEL	PWR Cyclic Charge Discharge (Cell) - Charge Step	Test &Identifier
DATE	LABEL	22-6-2017	Date
TIME	LABEL	16:14:25	Time
NOTES	NOTES	3	&Notes...
	supercap test cell
	0.6mg
	6M KOH
PSTAT	PSTAT	IFC5000-01520	Potentiostat
CAPACITY	QUANT	1.00000E-003	Capacity (A-hr)
CELLTYPE	SELECTOR	1	&Cell Type
WORKINGCONNECTION	SELECTOR	0	&Working Lead
MAXCHARGETIME	VARIABLEANDUNITS	1.00000E+002	s	1.00000E+002	second(s)	Max &Charge Time
CHARGECURRENT	QUANT	6.00000E-003	&Charge Current (A)
VOLTAGEFINISH	TWOPARAM	F	1.00000E-003	3.60000E+003	&Voltage Finish	 I (A) < 	Max Time(s)
SAMPLETIME	QUANT	1.00000E-002	Sa&mple Period (s)
CHARGESTOPAT1	MULTIPARAM	4	1.00000E+000	Charge Stop At &1	Voltage > Limit	V
CHARGESTOPAT2	MULTIPARAM	0	0.00000E+000	Charge Stop At &2	None	N/A
AESBHCSELECTOR	TOGGLE	F	Save Both Half Cells
IRCOMP	TOGGLE	F	IR &Measure
EOC	QUANT	0	Open Circuit (V)
SEQUENCER	TOGGLE	TRUE	Run as Sequence
PSTATMODEL	IQUANT	53	Pstat Model
PSTATSECTION	LABEL	IFC5000-01520	Pstat Section
PSTATSERIALNO	LABEL	01520	Pstat Serial Number
CTRLMODE	IQUANT	0	Control Mode
ELECTROMETER	IQUANT	1	RE=0 or CS=1
IESTAB	IQUANT	0	I/E Stability
CASPEED	IQUANT	4	Control Amp Speed
CONVENTION	IQUANT	1	Current Convention
ICHRANGE	IQUANT	2	Ich Range
ICHRANGEMODE	TOGGLE	T	Ich Auto Range
ICHOFFSETENABLE	TOGGLE	F	Ich Offset Enable
ICHOFFSET	QUANT	0	Ich Offset (V)
ICHFILTER	IQUANT	1	Ich Filter
VCHRANGE	IQUANT	2	Vch Range
VCHRANGEMODE	TOGGLE	T	Vch Auto Range
VCHOFFSETENABLE	TOGGLE	F	Vch Offset Enable
VCHOFFSET	QUANT	0	Vch Offset (V)
VCHFILTER	IQUANT	1	Vch Filter
IERANGELOWERLIMIT	IQUANT	9	I/E Range Lower Limit
IERANGEMODE	TOGGLE	F	I/E AutoRange
IERANGE	IQUANT	10	I/E Range
ACHSELECT	IQUANT	1	Ach Select
ACHRANGE	IQUANT	2	Ach Range
ACHOFFSETENABLE	TOGGLE	F	Ach Offset Enable
ACHOFFSET	QUANT	0	Ach Offset (V)
ACHFILTER	IQUANT	1	Ach Filter
CABLEID	IQUANT	14	Cable ID
DCCALDATE	LABEL	20-10-2016	DC Calibration Date
ACCALDATE	LABEL	12/3/2015	AC Calibration Date
FRAMEWORKVERSION	QUANT	7.01	Framework Version
INSTRUMENTVERSION	LABEL	4.00	Instrument Version
CURVE	TABLE	52
	Pt	T	Vf	Im	Vu	Pwr	Sig	Ach	Temp	IERange	Over
	#	s	V	A	V	W	V	V	deg C	#	bits
	0	0.013333	6.57209E-001	5.99535E-003	0.00000E+000	3.94019E-003	3.59960E-001	-1.18297E+000	3.57780E+000	10	...........
	1	0.026667	6.66623E-001	5.99426E-003	0.00000E+000	3.99591E-003	3.59960E-001	-1.17359E+000	3.57780E+000	10	...........
	2	0.04	6.75225E-001	5.99399E-003	0.00000E+000	4.04729E-003	3.59960E-001	-1.17832E+000	3.57780E+000	10	...........
	3	0.053333	6.83376E-001	5.99177E-003	0.00000E+000	4.09463E-003	3.59960E-001	-1.18232E+000	3.57780E+000	10	...........
	4	0.066667	6.91272E-001	5.99367E-003	0.00000E+000	4.14326E-003	3.59960E-001	-1.17366E+000	3.57780E+000	10	...........
	5	0.08	6.98960E-001	5.99849E-003	0.00000E+000	4.19270E-003	3.59960E-001	-1.17858E+000	3.57780E+000	10	...........
	6	0.093333	7.06437E-001	5.99552E-003	0.00000E+000	4.23546E-003	3.59960E-001	-1.18219E+000	3.57780E+000	10	...........
	7	0.106667	7.13827E-001	5.99469E-003	0.00000E+000	4.27917E-003	3.59960E-001	-1.17335E+000	3.57780E+000	10	...........
	8	0.12	7.21153E-001	5.98973E-003	0.00000E+000	4.31952E-003	3.59960E-001	-1.17842E+000	3.57780E+000	10	...........
	9	0.133333	7.28370E-001	5.98819E-003	0.00000E+000	4.36162E-003	3.59960E-001	-1.18214E+000	3.57780E+000	10	...........
	10	0.146667	7.35531E-001	5.98891E-003	0.00000E+000	4.40503E-003	3.59960E-001	-1.17342E+000	3.57780E+000	10	...........
	11	0.16	7.42643E-001	5.99187E-003	0.00000E+000	4.44982E-003	3.59960E-001	-1.17853E+000	3.57780E+000	10	...........
	12	0.173333	7.49693E-001	5.99362E-003	0.00000E+000	4.49338E-003	3.59960E-001	-1.18160E+000	3.57780E+000	10	...........
	13	0.186667	7.56714E-001	5.99168E-003	0.00000E+000	4.53399E-003	3.59960E-001	-1.17341E+000	3.57780E+000	10	...........
	14	0.2	7.63648E-001	5.99111E-003	0.00000E+000	4.57510E-003	3.59960E-001	-1.17869E+000	3.57780E+000	10	...........
	15	0.213333	7.70609E-001	5.99565E-003	0.00000E+000	4.62030E-003	3.59960E-001	-1.18163E+000	3.57780E+000	10	...........
	16	0.226667	7.77509E-001	5.99384E-003	0.00000E+000	4.66027E-003	3.59960E-001	-1.17322E+000	3.57780E+000	10	...........
	17	0.24	7.84394E-001	5.99446E-003	0.00000E+000	4.70202E-003	3.59960E-001	-1.17846E+000	3.57780E+000	10	...........
	18	0.253333	7.91269E-001	5.99233E-003	0.00000E+000	4.74155E-003	3.59960E-001	-1.18175E+000	3.57780E+000	10	...........
	19	0.266667	7.98077E-001	5.98965E-003	0.00000E+000	4.78020E-003	3.59960E-001	-1.17340E+000	3.57780E+000	10	...........
	20	0.28	8.04857E-001	5.99466E-003	0.00000E+000	4.82484E-003	3.59960E-001	-1.17882E+000	3.57780E+000	10	...........
	21	0.293333	8.11588E-001	5.99362E-003	0.00000E+000	4.86435E-003	3.59960E-001	-1.18140E+000	3.57780E+000	10	...........
	22	0.306667	8.18277E-001	5.99516E-003	0.00000E+000	4.90570E-003	3.59960E-001	-1.17300E+000	3.57780E+000	10	...........
	23	0.32	8.24977E-001	5.99424E-003	0.00000E+000	4.94511E-003	3.59960E-001	-1.17873E+000	3.57780E+000	10	...........
	24	0.333333	8.31650E-001	5.99185E-003	0.00000E+000	4.98313E-003	3.59960E-001	-1.18137E+000	3.57780E+000	10	...........
	25	0.346667	8.38283E-001	5.99198E-003	0.00000E+000	5.02297E-003	3.59960E-001	-1.17277E+000	3.57780E+000	10	...........
	26	0.36	8.44912E-001	5.99530E-003	0.00000E+000	5.06550E-003	3.59960E-001	-1.17825E+000	3.57780E+000	10	...........
	27	0.373333	8.51513E-001	5.99432E-003	0.00000E+000	5.10424E-003	3.59960E-001	-1.18057E+000	3.57780E+000	10	...........
	28	0.386667	8.58054E-001	5.98990E-003	0.00000E+000	5.13966E-003	3.59960E-001	-1.17248E+000	3.57780E+000	10	...........
	29	0.4	8.64603E-001	5.99595E-003	0.00000E+000	5.18411E-003	3.59960E-001	-1.17839E+000	3.57780E+000	10	...........
	30	0.413333	8.71136E-001	5.99573E-003	0.00000E+000	5.22310E-003	3.59960E-001	-1.18048E+000	3.57780E+000	10	...........
	31	0.426667	8.77607E-001	5.99245E-003	0.00000E+000	5.25902E-003	3.59960E-001	-1.17230E+000	3.57780E+000	10	...........
	32	0.44	8.84052E-001	5.99546E-003	0.00000E+000	5.30030E-003	3.59960E-001	-1.17843E+000	3.57780E+000	10	...........
	33	0.453333	8.90466E-001	5.99650E-003	0.00000E+000	5.33968E-003	3.59960E-001	-1.18053E+000	3.57780E+000	10	...........
	34	0.466667	8.96841E-001	5.99102E-003	0.00000E+000	5.37299E-003	3.59960E-001	-1.17242E+000	3.57780E+000	10	...........
	35	0.48	9.03172E-001	5.99312E-003	0.00000E+000	5.41282E-003	3.59960E-001	-1.17860E+000	3.57780E+000	10	...........
	36	0.493333	9.09478E-001	5.99374E-003	0.00000E+000	5.45117E-003	3.59960E-001	-1.17996E+000	3.57780E+000	10	...........
	37	0.506667	9.15693E-001	5.99571E-003	0.00000E+000	5.49023E-003	3.59960E-001	-1.17214E+000	3.57780E+000	10	...........
	38	0.52	9.21964E-001	5.99359E-003	0.00000E+000	5.52588E-003	3.59960E-001	-1.17871E+000	3.57780E+000	10	...........
	39	0.533333	9.28116E-001	5.99285E-003	0.00000E+000	5.56206E-003	3.59960E-001	-1.18008E+000	3.57780E+000	10	...........
	40	0.546667	9.34228E-001	5.99998E-003	0.00000E+000	5.60535E-003	3.59960E-001	-1.17213E+000	3.57780E+000	10	...........
	41	0.56	9.40312E-001	5.99545E-003	0.00000E+000	5.63759E-003	3.59960E-001	-1.17853E+000	3.57780E+000	10	...........
	42	0.573333	9.46318E-001	5.99819E-003	0.00000E+000	5.67620E-003	3.59960E-001	-1.17987E+000	3.57780E+000	10	...........
	43	0.586667	9.52358E-001	5.99666E-003	0.00000E+000	5.71096E-003	3.59960E-001	-1.17211E+000	3.57780E+000	10	...........
	44	0.6	9.58266E-001	5.98945E-003	0.00000E+000	5.73949E-003	3.59960E-001	-1.17876E+000	3.57780E+000	10	...........
	45	0.613333	9.64114E-001	5.99377E-003	0.00000E+000	5.77868E-003	3.59960E-001	-1.17986E+000	3.57780E+000	10	...........
	46	0.626667	9.69893E-001	5.99529E-003	0.00000E+000	5.81479E-003	3.59960E-001	-1.17201E+000	3.57780E+000	10	...........
	47	0.64	9.75650E-001	5.99899E-003	0.00000E+000	5.85291E-003	3.59960E-001	-1.17885E+000	3.57780E+000	10	...........
	48	0.653333	9.81385E-001	5.99753E-003	0.00000E+000	5.88588E-003	3.59960E-001	-1.17968E+000	3.57780E+000	10	...........
	49	0.666667	9.87004E-001	5.99044E-003	0.00000E+000	5.91259E-003	3.59960E-001	-1.17205E+000	3.57780E+000	10	...........
	50	0.68	9.92605E-001	5.99215E-003	0.00000E+000	5.94784E-003	3.59960E-001	-1.17863E+000	3.57780E+000	10	...........
	51	0.693333	9.98162E-001	5.98860E-003	0.00000E+000	5.97759E-003	3.59960E-001	-1.17936E+000	3.57780E+000	10	...........
STARTTIMEOFFSET	QUANT	1576.977	Start Time Offset (s)