File: Data/CV_CRGO300517_1/PWRCCD_CRGO300517_1/CHARGE_DISCHARGE/CHARGE_#833.DTA
EXPLAIN
TAG	PWR800_CHARGE
TITLE	LABEL	PWR Cyclic Charge Discharge (Cell) - Charge Step	Test &Identifier
DATE	LABEL	22-6-2017	Date
TIME	LABEL	16:08:30	Time
NOTES	NOTES	3	&Notes...
	supercap test cell
	0.6mg
	6M KOH
PSTAT	PSTAT	IFC5000-01520	Potentiostat
CAPACITY	QUANT	1.00000E-003	Capacity (A-hr)
CELLTYPE	SELECTOR	1	&Cell Type
WORKINGCONNECTION	SELECTOR	0	&Working Lead
MAXCHARGETIME	VARIABLEANDUNITS	1.00000E+002	s	1.00000E+002	second(s)	Max &Charge Time
CHARGECURRENT	QUANT	6.00000E-003	&Charge Current (A)
VOLTAGEFINISH	TWOPARAM	F	1.00000E-003	3.60000E+003	&Voltage Finish	 I (A) < 	Max Time(s)
SAMPLETIME	QUANT	1.00000E-002	Sa&mple Period (s)
CHARGESTOPAT1	MULTIPARAM	4	1.00000E+000	Charge Stop At &1	Voltage > Limit	V
CHARGESTOPAT2	MULTIPARAM	0	0.00000E+000	Charge Stop At &2	None	N/A
AESBHCSELECTOR	TOGGLE	F	Save Both Half Cells
IRCOMP	TOGGLE	F	IR &Measure
EOC	QUANT	0	Open Circuit (V)
SEQUENCER	TOGGLE	TRUE	Run as Sequence
PSTATMODEL	IQUANT	53	Pstat Model
PSTATSECTION	LABEL	IFC5000-01520	Pstat Section
PSTATSERIALNO	LABEL	01520	Pstat Serial Number
CTRLMODE	IQUANT	0	Control Mode
ELECTROMETER	IQUANT	1	RE=0 or CS=1
IESTAB	IQUANT	0	I/E Stability
CASPEED	IQUANT	4	Control Amp Speed
CONVENTION	IQUANT	1	Current Convention
ICHRANGE	IQUANT	2	Ich Range
ICHRANGEMODE	TOGGLE	T	Ich Auto Range
ICHOFFSETENABLE	TOGGLE	F	Ich Offset Enable
ICHOFFSET	QUANT	0	Ich Offset (V)
ICHFILTER	IQUANT	1	Ich Filter
VCHRANGE	IQUANT	2	Vch Range
VCHRANGEMODE	TOGGLE	T	Vch Auto Range
VCHOFFSETENABLE	TOGGLE	F	Vch Offset Enable
VCHOFFSET	QUANT	0	Vch Offset (V)
VCHFILTER	IQUANT	1	Vch Filter
IERANGELOWERLIMIT	IQUANT	9	I/E Range Lower Limit
IERANGEMODE	TOGGLE	F	I/E AutoRange
IERANGE	IQUANT	10	I/E Range
ACHSELECT	IQUANT	1	Ach Select
ACHRANGE	IQUANT	2	Ach Range
ACHOFFSETENABLE	TOGGLE	F	Ach Offset Enable
ACHOFFSET	QUANT	0	Ach Offset (V)
ACHFILTER	IQUANT	1	Ach Filter
CABLEID	IQUANT	14	Cable ID
DCCALDATE	LABEL	20-10-2016	DC Calibration Date
ACCALDATE	LABEL	12/3/2015	AC Calibration Date
FRAMEWORKVERSION	QUANT	7.01	Framework Version
INSTRUMENTVERSION	LABEL	4.00	Instrument Version
CURVE	TABLE	54
	Pt	T	Vf	Im	Vu	Pwr	Sig	Ach	Temp	IERange	Over
	#	s	V	A	V	W	V	V	deg C	#	bits
	0	0.013333	6.49923E-001	5.98954E-003	0.00000E+000	3.89274E-003	3.59960E-001	-1.17311E+000	3.57640E+000	10	...........
	1	0.026667	6.59110E-001	5.99244E-003	0.00000E+000	3.94968E-003	3.59960E-001	-1.16388E+000	3.57640E+000	10	...........
	2	0.04	6.67636E-001	5.99534E-003	0.00000E+000	4.00270E-003	3.59960E-001	-1.16187E+000	3.57640E+000	10	...........
	3	0.053333	6.75657E-001	5.99548E-003	0.00000E+000	4.05089E-003	3.59960E-001	-1.17321E+000	3.57640E+000	10	...........
	4	0.066667	6.83388E-001	5.99460E-003	0.00000E+000	4.09664E-003	3.59960E-001	-1.16374E+000	3.57640E+000	10	...........
	5	0.08	6.90970E-001	5.99621E-003	0.00000E+000	4.14320E-003	3.59960E-001	-1.16179E+000	3.57640E+000	10	...........
	6	0.093333	6.98347E-001	5.99161E-003	0.00000E+000	4.18423E-003	3.59960E-001	-1.17322E+000	3.57640E+000	10	...........
	7	0.106667	7.05624E-001	5.99078E-003	0.00000E+000	4.22724E-003	3.59960E-001	-1.16351E+000	3.57640E+000	10	...........
	8	0.12	7.12803E-001	5.99114E-003	0.00000E+000	4.27050E-003	3.59960E-001	-1.16165E+000	3.57640E+000	10	...........
	9	0.133333	7.19987E-001	5.99501E-003	0.00000E+000	4.31633E-003	3.59960E-001	-1.17306E+000	3.57640E+000	10	...........
	10	0.146667	7.27043E-001	5.99569E-003	0.00000E+000	4.35912E-003	3.59960E-001	-1.16367E+000	3.57640E+000	10	...........
	11	0.16	7.34009E-001	5.99118E-003	0.00000E+000	4.39759E-003	3.59960E-001	-1.16178E+000	3.57640E+000	10	...........
	12	0.173333	7.40956E-001	5.99600E-003	0.00000E+000	4.44277E-003	3.59960E-001	-1.17297E+000	3.57640E+000	10	...........
	13	0.186667	7.47863E-001	5.99445E-003	0.00000E+000	4.48303E-003	3.59960E-001	-1.16341E+000	3.57640E+000	10	...........
	14	0.2	7.54737E-001	5.99240E-003	0.00000E+000	4.52269E-003	3.59960E-001	-1.16176E+000	3.57640E+000	10	...........
	15	0.213333	7.61565E-001	5.99607E-003	0.00000E+000	4.56639E-003	3.59960E-001	-1.17307E+000	3.57640E+000	10	...........
	16	0.226667	7.68358E-001	5.99534E-003	0.00000E+000	4.60657E-003	3.59960E-001	-1.16375E+000	3.57640E+000	10	...........
	17	0.24	7.75148E-001	5.99246E-003	0.00000E+000	4.64504E-003	3.59960E-001	-1.16169E+000	3.57640E+000	10	...........
	18	0.253333	7.81895E-001	5.99479E-003	0.00000E+000	4.68730E-003	3.59960E-001	-1.17283E+000	3.57640E+000	10	...........
	19	0.266667	7.88571E-001	5.98982E-003	0.00000E+000	4.72340E-003	3.59960E-001	-1.16355E+000	3.57640E+000	10	...........
	20	0.28	7.95327E-001	5.99118E-003	0.00000E+000	4.76495E-003	3.59960E-001	-1.16176E+000	3.57640E+000	10	...........
	21	0.293333	8.01992E-001	5.99026E-003	0.00000E+000	4.80414E-003	3.59960E-001	-1.17302E+000	3.57640E+000	10	...........
	22	0.306667	8.08666E-001	5.98925E-003	0.00000E+000	4.84330E-003	3.59960E-001	-1.16330E+000	3.57640E+000	10	...........
	23	0.32	8.15302E-001	5.99554E-003	0.00000E+000	4.88818E-003	3.59960E-001	-1.16109E+000	3.57640E+000	10	...........
	24	0.333333	8.21943E-001	5.99446E-003	0.00000E+000	4.92710E-003	3.59960E-001	-1.17257E+000	3.57640E+000	10	...........
	25	0.346667	8.28528E-001	5.99105E-003	0.00000E+000	4.96375E-003	3.59960E-001	-1.16313E+000	3.57640E+000	10	...........
	26	0.36	8.35108E-001	5.99667E-003	0.00000E+000	5.00787E-003	3.59960E-001	-1.16092E+000	3.57640E+000	10	...........
	27	0.373333	8.41642E-001	5.99390E-003	0.00000E+000	5.04471E-003	3.59960E-001	-1.17254E+000	3.57640E+000	10	...........
	28	0.386667	8.48205E-001	5.99419E-003	0.00000E+000	5.08430E-003	3.59960E-001	-1.16286E+000	3.57640E+000	10	...........
	29	0.4	8.54684E-001	5.99207E-003	0.00000E+000	5.12133E-003	3.59960E-001	-1.16123E+000	3.57640E+000	10	...........
	30	0.413333	8.61151E-001	5.99645E-003	0.00000E+000	5.16385E-003	3.59960E-001	-1.17260E+000	3.57640E+000	10	...........
	31	0.426667	8.67597E-001	5.99453E-003	0.00000E+000	5.20084E-003	3.59960E-001	-1.16282E+000	3.57640E+000	10	...........
	32	0.44	8.74024E-001	5.99331E-003	0.00000E+000	5.23830E-003	3.59960E-001	-1.16108E+000	3.57646E+000	10	...........
	33	0.453333	8.80417E-001	5.99422E-003	0.00000E+000	5.27741E-003	3.59960E-001	-1.17241E+000	3.57650E+000	10	...........
	34	0.466667	8.86743E-001	5.99265E-003	0.00000E+000	5.31395E-003	3.59960E-001	-1.16296E+000	3.57650E+000	10	...........
	35	0.48	8.93068E-001	5.99222E-003	0.00000E+000	5.35146E-003	3.59960E-001	-1.16111E+000	3.57650E+000	10	...........
	36	0.493333	8.99338E-001	5.99629E-003	0.00000E+000	5.39270E-003	3.59960E-001	-1.17240E+000	3.57650E+000	10	...........
	37	0.506667	9.05563E-001	5.99329E-003	0.00000E+000	5.42730E-003	3.59960E-001	-1.16290E+000	3.57650E+000	10	...........
	38	0.52	9.11776E-001	5.99071E-003	0.00000E+000	5.46219E-003	3.59960E-001	-1.16101E+000	3.57650E+000	10	...........
	39	0.533333	9.17959E-001	5.99508E-003	0.00000E+000	5.50324E-003	3.59960E-001	-1.17245E+000	3.57650E+000	10	...........
	40	0.546667	9.24141E-001	5.99823E-003	0.00000E+000	5.54321E-003	3.59960E-001	-1.16350E+000	3.57650E+000	10	...........
	41	0.56	9.30206E-001	5.99357E-003	0.00000E+000	5.57526E-003	3.59960E-001	-1.16133E+000	3.57650E+000	10	...........
	42	0.573333	9.36268E-001	5.99372E-003	0.00000E+000	5.61173E-003	3.59960E-001	-1.17265E+000	3.57650E+000	10	...........
	43	0.586667	9.42264E-001	5.99688E-003	0.00000E+000	5.65064E-003	3.59960E-001	-1.16345E+000	3.57650E+000	10	...........
	44	0.6	9.48276E-001	5.99516E-003	0.00000E+000	5.68506E-003	3.59960E-001	-1.16160E+000	3.57650E+000	10	...........
	45	0.613333	9.54192E-001	5.99744E-003	0.00000E+000	5.72271E-003	3.59960E-001	-1.17269E+000	3.57650E+000	10	...........
	46	0.626667	9.60068E-001	5.99598E-003	0.00000E+000	5.75655E-003	3.59960E-001	-1.16338E+000	3.57650E+000	10	...........
	47	0.64	9.65869E-001	5.99375E-003	0.00000E+000	5.78918E-003	3.59960E-001	-1.16104E+000	3.57650E+000	10	...........
	48	0.653333	9.71652E-001	5.99179E-003	0.00000E+000	5.82193E-003	3.59960E-001	-1.17240E+000	3.57650E+000	10	...........
	49	0.666667	9.77423E-001	5.99296E-003	0.00000E+000	5.85765E-003	3.59960E-001	-1.16309E+000	3.57650E+000	10	...........
	50	0.68	9.83099E-001	5.99354E-003	0.00000E+000	5.89224E-003	3.59960E-001	-1.16114E+000	3.57650E+000	10	...........
	51	0.693333	9.88657E-001	5.98983E-003	0.00000E+000	5.92189E-003	3.59960E-001	-1.17235E+000	3.57650E+000	10	...........
	52	0.706667	9.94219E-001	5.99443E-003	0.00000E+000	5.95978E-003	3.59960E-001	-1.16309E+000	3.57650E+000	10	...........
	53	0.715	9.98716E-001	5.98972E-003	0.00000E+000	5.98203E-003	3.59960E-001	-1.16643E+000	3.57650E+000	10	...........
STARTTIMEOFFSET	QUANT	1351.275	Start Time Offset (s)