File: Data/CV_CRGO300517_1/PWRCCD_CRGO300517_1/CHARGE_DISCHARGE/CHARGE_#734.DTA
EXPLAIN
TAG	PWR800_CHARGE
TITLE	LABEL	PWR Cyclic Charge Discharge (Cell) - Charge Step	Test &Identifier
DATE	LABEL	22-6-2017	Date
TIME	LABEL	16:04:49	Time
NOTES	NOTES	3	&Notes...
	supercap test cell
	0.6mg
	6M KOH
PSTAT	PSTAT	IFC5000-01520	Potentiostat
CAPACITY	QUANT	1.00000E-003	Capacity (A-hr)
CELLTYPE	SELECTOR	1	&Cell Type
WORKINGCONNECTION	SELECTOR	0	&Working Lead
MAXCHARGETIME	VARIABLEANDUNITS	1.00000E+002	s	1.00000E+002	second(s)	Max &Charge Time
CHARGECURRENT	QUANT	6.00000E-003	&Charge Current (A)
VOLTAGEFINISH	TWOPARAM	F	1.00000E-003	3.60000E+003	&Voltage Finish	 I (A) < 	Max Time(s)
SAMPLETIME	QUANT	1.00000E-002	Sa&mple Period (s)
CHARGESTOPAT1	MULTIPARAM	4	1.00000E+000	Charge Stop At &1	Voltage > Limit	V
CHARGESTOPAT2	MULTIPARAM	0	0.00000E+000	Charge Stop At &2	None	N/A
AESBHCSELECTOR	TOGGLE	F	Save Both Half Cells
IRCOMP	TOGGLE	F	IR &Measure
EOC	QUANT	0	Open Circuit (V)
SEQUENCER	TOGGLE	TRUE	Run as Sequence
PSTATMODEL	IQUANT	53	Pstat Model
PSTATSECTION	LABEL	IFC5000-01520	Pstat Section
PSTATSERIALNO	LABEL	01520	Pstat Serial Number
CTRLMODE	IQUANT	0	Control Mode
ELECTROMETER	IQUANT	1	RE=0 or CS=1
IESTAB	IQUANT	0	I/E Stability
CASPEED	IQUANT	4	Control Amp Speed
CONVENTION	IQUANT	1	Current Convention
ICHRANGE	IQUANT	2	Ich Range
ICHRANGEMODE	TOGGLE	T	Ich Auto Range
ICHOFFSETENABLE	TOGGLE	F	Ich Offset Enable
ICHOFFSET	QUANT	0	Ich Offset (V)
ICHFILTER	IQUANT	1	Ich Filter
VCHRANGE	IQUANT	2	Vch Range
VCHRANGEMODE	TOGGLE	T	Vch Auto Range
VCHOFFSETENABLE	TOGGLE	F	Vch Offset Enable
VCHOFFSET	QUANT	0	Vch Offset (V)
VCHFILTER	IQUANT	1	Vch Filter
IERANGELOWERLIMIT	IQUANT	9	I/E Range Lower Limit
IERANGEMODE	TOGGLE	F	I/E AutoRange
IERANGE	IQUANT	10	I/E Range
ACHSELECT	IQUANT	1	Ach Select
ACHRANGE	IQUANT	2	Ach Range
ACHOFFSETENABLE	TOGGLE	F	Ach Offset Enable
ACHOFFSET	QUANT	0	Ach Offset (V)
ACHFILTER	IQUANT	1	Ach Filter
CABLEID	IQUANT	14	Cable ID
DCCALDATE	LABEL	20-10-2016	DC Calibration Date
ACCALDATE	LABEL	12/3/2015	AC Calibration Date
FRAMEWORKVERSION	QUANT	7.01	Framework Version
INSTRUMENTVERSION	LABEL	4.00	Instrument Version
CURVE	TABLE	55
	Pt	T	Vf	Im	Vu	Pwr	Sig	Ach	Temp	IERange	Over
	#	s	V	A	V	W	V	V	deg C	#	bits
	0	0.013333	6.45408E-001	5.99147E-003	0.00000E+000	3.86694E-003	3.59960E-001	-1.14952E+000	3.57640E+000	10	...........
	1	0.026667	6.54544E-001	5.99202E-003	0.00000E+000	3.92204E-003	3.59960E-001	-1.15964E+000	3.57640E+000	10	...........
	2	0.04	6.62954E-001	5.99710E-003	0.00000E+000	3.97580E-003	3.59960E-001	-1.14869E+000	3.57640E+000	10	...........
	3	0.053333	6.70914E-001	5.99805E-003	0.00000E+000	4.02417E-003	3.59960E-001	-1.14929E+000	3.57640E+000	10	...........
	4	0.066667	6.78624E-001	5.99559E-003	0.00000E+000	4.06875E-003	3.59960E-001	-1.15946E+000	3.57640E+000	10	...........
	5	0.08	6.86075E-001	5.99175E-003	0.00000E+000	4.11079E-003	3.59960E-001	-1.14849E+000	3.57640E+000	10	...........
	6	0.093333	6.93398E-001	5.99375E-003	0.00000E+000	4.15605E-003	3.59960E-001	-1.14956E+000	3.57640E+000	10	...........
	7	0.106667	7.00617E-001	5.99970E-003	0.00000E+000	4.20349E-003	3.59960E-001	-1.15966E+000	3.57640E+000	10	...........
	8	0.12	7.07772E-001	5.99268E-003	0.00000E+000	4.24145E-003	3.59960E-001	-1.14849E+000	3.57640E+000	10	...........
	9	0.133333	7.14809E-001	5.99298E-003	0.00000E+000	4.28383E-003	3.59960E-001	-1.14938E+000	3.57640E+000	10	...........
	10	0.146667	7.21821E-001	5.99104E-003	0.00000E+000	4.32446E-003	3.59960E-001	-1.15949E+000	3.57640E+000	10	...........
	11	0.16	7.28789E-001	5.99163E-003	0.00000E+000	4.36663E-003	3.59960E-001	-1.14855E+000	3.57640E+000	10	...........
	12	0.173333	7.35651E-001	5.99305E-003	0.00000E+000	4.40880E-003	3.59960E-001	-1.14982E+000	3.57640E+000	10	...........
	13	0.186667	7.42519E-001	5.99542E-003	0.00000E+000	4.45171E-003	3.59960E-001	-1.15938E+000	3.57640E+000	10	...........
	14	0.2	7.49335E-001	5.99277E-003	0.00000E+000	4.49059E-003	3.59960E-001	-1.14837E+000	3.57640E+000	10	...........
	15	0.213333	7.56125E-001	5.99492E-003	0.00000E+000	4.53291E-003	3.59960E-001	-1.14969E+000	3.57640E+000	10	...........
	16	0.226667	7.62905E-001	5.99507E-003	0.00000E+000	4.57367E-003	3.59960E-001	-1.15949E+000	3.57640E+000	10	...........
	17	0.24	7.69626E-001	5.99281E-003	0.00000E+000	4.61223E-003	3.59960E-001	-1.14853E+000	3.57640E+000	10	...........
	18	0.253333	7.76360E-001	5.99740E-003	0.00000E+000	4.65614E-003	3.59960E-001	-1.14932E+000	3.57640E+000	10	...........
	19	0.266667	7.83014E-001	5.99428E-003	0.00000E+000	4.69361E-003	3.59960E-001	-1.15883E+000	3.57640E+000	10	...........
	20	0.28	7.89672E-001	5.98962E-003	0.00000E+000	4.72984E-003	3.59960E-001	-1.14781E+000	3.57640E+000	10	...........
	21	0.293333	7.96365E-001	5.99287E-003	0.00000E+000	4.77251E-003	3.59960E-001	-1.14925E+000	3.57640E+000	10	...........
	22	0.306667	8.02945E-001	5.99482E-003	0.00000E+000	4.81351E-003	3.59960E-001	-1.15889E+000	3.57671E+000	10	...........
	23	0.32	8.09501E-001	5.99354E-003	0.00000E+000	4.85178E-003	3.59960E-001	-1.14796E+000	3.57690E+000	10	...........
	24	0.333333	8.16080E-001	5.99341E-003	0.00000E+000	4.89110E-003	3.59960E-001	-1.14896E+000	3.57690E+000	10	...........
	25	0.346667	8.22653E-001	6.00097E-003	0.00000E+000	4.93672E-003	3.59960E-001	-1.15856E+000	3.57690E+000	10	...........
	26	0.36	8.29176E-001	5.99305E-003	0.00000E+000	4.96929E-003	3.59960E-001	-1.14787E+000	3.57690E+000	10	...........
	27	0.373333	8.35684E-001	5.99628E-003	0.00000E+000	5.01100E-003	3.59960E-001	-1.14907E+000	3.57690E+000	10	...........
	28	0.386667	8.42162E-001	5.99162E-003	0.00000E+000	5.04592E-003	3.59960E-001	-1.15851E+000	3.57690E+000	10	...........
	29	0.4	8.48654E-001	5.99403E-003	0.00000E+000	5.08686E-003	3.59960E-001	-1.14741E+000	3.57690E+000	10	...........
	30	0.413333	8.55095E-001	5.99551E-003	0.00000E+000	5.12674E-003	3.59960E-001	-1.14907E+000	3.57690E+000	10	...........
	31	0.426667	8.61500E-001	5.99283E-003	0.00000E+000	5.16283E-003	3.59960E-001	-1.15828E+000	3.57690E+000	10	...........
	32	0.44	8.67909E-001	5.99220E-003	0.00000E+000	5.20068E-003	3.59960E-001	-1.14767E+000	3.57690E+000	10	...........
	33	0.453333	8.74294E-001	5.99233E-003	0.00000E+000	5.23906E-003	3.59960E-001	-1.14905E+000	3.57690E+000	10	...........
	34	0.466667	8.80615E-001	5.99353E-003	0.00000E+000	5.27799E-003	3.59960E-001	-1.15820E+000	3.57690E+000	10	...........
	35	0.48	8.86896E-001	5.99560E-003	0.00000E+000	5.31747E-003	3.59960E-001	-1.14727E+000	3.57690E+000	10	...........
	36	0.493333	8.93177E-001	5.99307E-003	0.00000E+000	5.35287E-003	3.59960E-001	-1.14905E+000	3.57690E+000	10	...........
	37	0.506667	8.99473E-001	5.99400E-003	0.00000E+000	5.39144E-003	3.59960E-001	-1.15834E+000	3.57690E+000	10	...........
	38	0.52	9.05658E-001	5.99834E-003	0.00000E+000	5.43244E-003	3.59960E-001	-1.14747E+000	3.57690E+000	10	...........
	39	0.533333	9.11818E-001	5.99119E-003	0.00000E+000	5.46288E-003	3.59960E-001	-1.14897E+000	3.57690E+000	10	...........
	40	0.546667	9.17990E-001	5.99770E-003	0.00000E+000	5.50583E-003	3.59960E-001	-1.15820E+000	3.57690E+000	10	...........
	41	0.56	9.24155E-001	5.99207E-003	0.00000E+000	5.53760E-003	3.59960E-001	-1.14746E+000	3.57690E+000	10	...........
	42	0.573333	9.30227E-001	5.99268E-003	0.00000E+000	5.57455E-003	3.59960E-001	-1.14906E+000	3.57690E+000	10	...........
	43	0.586667	9.36245E-001	5.99480E-003	0.00000E+000	5.61261E-003	3.59960E-001	-1.15773E+000	3.57690E+000	10	...........
	44	0.6	9.42234E-001	5.99569E-003	0.00000E+000	5.64934E-003	3.59960E-001	-1.14689E+000	3.57690E+000	10	...........
	45	0.613333	9.48186E-001	5.99330E-003	0.00000E+000	5.68276E-003	3.59960E-001	-1.14872E+000	3.57690E+000	10	...........
	46	0.626667	9.54046E-001	5.99169E-003	0.00000E+000	5.71635E-003	3.59960E-001	-1.15783E+000	3.57690E+000	10	...........
	47	0.64	9.59898E-001	5.99593E-003	0.00000E+000	5.75548E-003	3.59960E-001	-1.14702E+000	3.57690E+000	10	...........
	48	0.653333	9.65694E-001	5.99317E-003	0.00000E+000	5.78756E-003	3.59960E-001	-1.14889E+000	3.57690E+000	10	...........
	49	0.666667	9.71451E-001	5.99595E-003	0.00000E+000	5.82477E-003	3.59960E-001	-1.15769E+000	3.57690E+000	10	...........
	50	0.68	9.77211E-001	5.99359E-003	0.00000E+000	5.85700E-003	3.59960E-001	-1.14702E+000	3.57690E+000	10	...........
	51	0.693333	9.82873E-001	5.99469E-003	0.00000E+000	5.89202E-003	3.59960E-001	-1.14882E+000	3.57690E+000	10	...........
	52	0.706667	9.88498E-001	5.99752E-003	0.00000E+000	5.92853E-003	3.59960E-001	-1.15778E+000	3.57690E+000	10	...........
	53	0.72	9.94044E-001	5.98809E-003	0.00000E+000	5.95242E-003	3.59960E-001	-1.14675E+000	3.57690E+000	10	...........
	54	0.73	9.98859E-001	5.99493E-003	0.00000E+000	5.98809E-003	3.59960E-001	-1.15366E+000	3.57690E+000	10	...........
STARTTIMEOFFSET	QUANT	1208.86	Start Time Offset (s)