File: Data/CV_CRGO300517_1/PWRCCD_CRGO300517_1/CHARGE_DISCHARGE/CHARGE_#870.DTA
EXPLAIN
TAG	PWR800_CHARGE
TITLE	LABEL	PWR Cyclic Charge Discharge (Cell) - Charge Step	Test &Identifier
DATE	LABEL	22-6-2017	Date
TIME	LABEL	16:09:52	Time
NOTES	NOTES	3	&Notes...
	supercap test cell
	0.6mg
	6M KOH
PSTAT	PSTAT	IFC5000-01520	Potentiostat
CAPACITY	QUANT	1.00000E-003	Capacity (A-hr)
CELLTYPE	SELECTOR	1	&Cell Type
WORKINGCONNECTION	SELECTOR	0	&Working Lead
MAXCHARGETIME	VARIABLEANDUNITS	1.00000E+002	s	1.00000E+002	second(s)	Max &Charge Time
CHARGECURRENT	QUANT	6.00000E-003	&Charge Current (A)
VOLTAGEFINISH	TWOPARAM	F	1.00000E-003	3.60000E+003	&Voltage Finish	 I (A) < 	Max Time(s)
SAMPLETIME	QUANT	1.00000E-002	Sa&mple Period (s)
CHARGESTOPAT1	MULTIPARAM	4	1.00000E+000	Charge Stop At &1	Voltage > Limit	V
CHARGESTOPAT2	MULTIPARAM	0	0.00000E+000	Charge Stop At &2	None	N/A
AESBHCSELECTOR	TOGGLE	F	Save Both Half Cells
IRCOMP	TOGGLE	F	IR &Measure
EOC	QUANT	0	Open Circuit (V)
SEQUENCER	TOGGLE	TRUE	Run as Sequence
PSTATMODEL	IQUANT	53	Pstat Model
PSTATSECTION	LABEL	IFC5000-01520	Pstat Section
PSTATSERIALNO	LABEL	01520	Pstat Serial Number
CTRLMODE	IQUANT	0	Control Mode
ELECTROMETER	IQUANT	1	RE=0 or CS=1
IESTAB	IQUANT	0	I/E Stability
CASPEED	IQUANT	4	Control Amp Speed
CONVENTION	IQUANT	1	Current Convention
ICHRANGE	IQUANT	2	Ich Range
ICHRANGEMODE	TOGGLE	T	Ich Auto Range
ICHOFFSETENABLE	TOGGLE	F	Ich Offset Enable
ICHOFFSET	QUANT	0	Ich Offset (V)
ICHFILTER	IQUANT	1	Ich Filter
VCHRANGE	IQUANT	2	Vch Range
VCHRANGEMODE	TOGGLE	T	Vch Auto Range
VCHOFFSETENABLE	TOGGLE	F	Vch Offset Enable
VCHOFFSET	QUANT	0	Vch Offset (V)
VCHFILTER	IQUANT	1	Vch Filter
IERANGELOWERLIMIT	IQUANT	9	I/E Range Lower Limit
IERANGEMODE	TOGGLE	F	I/E AutoRange
IERANGE	IQUANT	10	I/E Range
ACHSELECT	IQUANT	1	Ach Select
ACHRANGE	IQUANT	2	Ach Range
ACHOFFSETENABLE	TOGGLE	F	Ach Offset Enable
ACHOFFSET	QUANT	0	Ach Offset (V)
ACHFILTER	IQUANT	1	Ach Filter
CABLEID	IQUANT	14	Cable ID
DCCALDATE	LABEL	20-10-2016	DC Calibration Date
ACCALDATE	LABEL	12/3/2015	AC Calibration Date
FRAMEWORKVERSION	QUANT	7.01	Framework Version
INSTRUMENTVERSION	LABEL	4.00	Instrument Version
CURVE	TABLE	54
	Pt	T	Vf	Im	Vu	Pwr	Sig	Ach	Temp	IERange	Over
	#	s	V	A	V	W	V	V	deg C	#	bits
	0	0.013333	6.51713E-001	5.98987E-003	0.00000E+000	3.90367E-003	3.59960E-001	-1.16512E+000	3.57780E+000	10	...........
	1	0.026667	6.60924E-001	5.99611E-003	0.00000E+000	3.96297E-003	3.59960E-001	-1.17628E+000	3.57780E+000	10	...........
	2	0.04	6.69449E-001	5.99182E-003	0.00000E+000	4.01122E-003	3.59960E-001	-1.16633E+000	3.57780E+000	10	...........
	3	0.053333	6.77499E-001	5.99532E-003	0.00000E+000	4.06182E-003	3.59960E-001	-1.16481E+000	3.57780E+000	10	...........
	4	0.066667	6.85241E-001	5.98923E-003	0.00000E+000	4.10407E-003	3.59960E-001	-1.17576E+000	3.57780E+000	10	...........
	5	0.08	6.92828E-001	5.99617E-003	0.00000E+000	4.15431E-003	3.59960E-001	-1.16614E+000	3.57780E+000	10	...........
	6	0.093333	7.00253E-001	5.99602E-003	0.00000E+000	4.19873E-003	3.59960E-001	-1.16487E+000	3.57780E+000	10	...........
	7	0.106667	7.07557E-001	5.99366E-003	0.00000E+000	4.24085E-003	3.59960E-001	-1.17563E+000	3.57780E+000	10	...........
	8	0.12	7.14776E-001	5.99279E-003	0.00000E+000	4.28350E-003	3.59960E-001	-1.16605E+000	3.57780E+000	10	...........
	9	0.133333	7.21932E-001	5.99459E-003	0.00000E+000	4.32769E-003	3.59960E-001	-1.16490E+000	3.57780E+000	10	...........
	10	0.146667	7.28973E-001	5.99108E-003	0.00000E+000	4.36733E-003	3.59960E-001	-1.17596E+000	3.57780E+000	10	...........
	11	0.16	7.36008E-001	5.99615E-003	0.00000E+000	4.41321E-003	3.59960E-001	-1.16621E+000	3.57780E+000	10	...........
	12	0.173333	7.42981E-001	5.98859E-003	0.00000E+000	4.44941E-003	3.59960E-001	-1.16483E+000	3.57780E+000	10	...........
	13	0.186667	7.49904E-001	5.99186E-003	0.00000E+000	4.49332E-003	3.59960E-001	-1.17567E+000	3.57780E+000	10	...........
	14	0.2	7.56784E-001	5.98687E-003	0.00000E+000	4.53076E-003	3.59960E-001	-1.16602E+000	3.57780E+000	10	...........
	15	0.213333	7.63640E-001	5.99202E-003	0.00000E+000	4.57575E-003	3.59960E-001	-1.16461E+000	3.57780E+000	10	...........
	16	0.226667	7.70509E-001	5.99689E-003	0.00000E+000	4.62066E-003	3.59960E-001	-1.17544E+000	3.57780E+000	10	...........
	17	0.24	7.77308E-001	5.99384E-003	0.00000E+000	4.65906E-003	3.59960E-001	-1.16594E+000	3.57780E+000	10	...........
	18	0.253333	7.84067E-001	5.99472E-003	0.00000E+000	4.70026E-003	3.59960E-001	-1.16452E+000	3.57780E+000	10	...........
	19	0.266667	7.90803E-001	5.98953E-003	0.00000E+000	4.73653E-003	3.59960E-001	-1.17555E+000	3.57780E+000	10	...........
	20	0.28	7.97554E-001	5.99552E-003	0.00000E+000	4.78175E-003	3.59960E-001	-1.16584E+000	3.57780E+000	10	...........
	21	0.293333	8.04252E-001	5.99073E-003	0.00000E+000	4.81805E-003	3.59960E-001	-1.16454E+000	3.57780E+000	10	...........
	22	0.306667	8.10923E-001	5.99407E-003	0.00000E+000	4.86073E-003	3.59960E-001	-1.17561E+000	3.57780E+000	10	...........
	23	0.32	8.17559E-001	5.99201E-003	0.00000E+000	4.89882E-003	3.59960E-001	-1.16552E+000	3.57780E+000	10	...........
	24	0.333333	8.24154E-001	5.99079E-003	0.00000E+000	4.93733E-003	3.59960E-001	-1.16420E+000	3.57780E+000	10	...........
	25	0.346667	8.30731E-001	5.99071E-003	0.00000E+000	4.97667E-003	3.59960E-001	-1.17540E+000	3.57780E+000	10	...........
	26	0.36	8.37310E-001	5.99336E-003	0.00000E+000	5.01830E-003	3.59960E-001	-1.16545E+000	3.57780E+000	10	...........
	27	0.373333	8.43884E-001	5.99244E-003	0.00000E+000	5.05692E-003	3.59960E-001	-1.16405E+000	3.57780E+000	10	...........
	28	0.386667	8.50437E-001	5.99755E-003	0.00000E+000	5.10054E-003	3.59960E-001	-1.17481E+000	3.57780E+000	10	...........
	29	0.4	8.56930E-001	5.99288E-003	0.00000E+000	5.13548E-003	3.59960E-001	-1.16516E+000	3.57780E+000	10	...........
	30	0.413333	8.63428E-001	5.99347E-003	0.00000E+000	5.17493E-003	3.59960E-001	-1.16401E+000	3.57780E+000	10	...........
	31	0.426667	8.69883E-001	5.99256E-003	0.00000E+000	5.21283E-003	3.59960E-001	-1.17496E+000	3.57780E+000	10	...........
	32	0.44	8.76268E-001	5.99029E-003	0.00000E+000	5.24910E-003	3.59960E-001	-1.16547E+000	3.57780E+000	10	...........
	33	0.453333	8.82654E-001	5.99378E-003	0.00000E+000	5.29044E-003	3.59960E-001	-1.16414E+000	3.57780E+000	10	...........
	34	0.466667	8.89052E-001	5.99288E-003	0.00000E+000	5.32798E-003	3.59960E-001	-1.17508E+000	3.57780E+000	10	...........
	35	0.48	8.95353E-001	5.99211E-003	0.00000E+000	5.36505E-003	3.59960E-001	-1.16571E+000	3.57780E+000	10	...........
	36	0.493333	9.01649E-001	5.99320E-003	0.00000E+000	5.40376E-003	3.59960E-001	-1.16448E+000	3.57780E+000	10	...........
	37	0.506667	9.07917E-001	6.00109E-003	0.00000E+000	5.44850E-003	3.59960E-001	-1.17528E+000	3.57780E+000	10	...........
	38	0.52	9.14105E-001	5.99249E-003	0.00000E+000	5.47776E-003	3.59960E-001	-1.16530E+000	3.57780E+000	10	...........
	39	0.533333	9.20288E-001	5.99869E-003	0.00000E+000	5.52053E-003	3.59960E-001	-1.16402E+000	3.57780E+000	10	...........
	40	0.546667	9.26421E-001	5.99636E-003	0.00000E+000	5.55515E-003	3.59960E-001	-1.17495E+000	3.57780E+000	10	...........
	41	0.56	9.32514E-001	5.99653E-003	0.00000E+000	5.59185E-003	3.59960E-001	-1.16522E+000	3.57780E+000	10	...........
	42	0.573333	9.38564E-001	5.99116E-003	0.00000E+000	5.62309E-003	3.59960E-001	-1.16402E+000	3.57711E+000	10	...........
	43	0.586667	9.44583E-001	5.99413E-003	0.00000E+000	5.66195E-003	3.59960E-001	-1.17498E+000	3.57670E+000	10	...........
	44	0.6	9.50544E-001	5.99489E-003	0.00000E+000	5.69841E-003	3.59960E-001	-1.16528E+000	3.57670E+000	10	...........
	45	0.613333	9.56438E-001	5.99523E-003	0.00000E+000	5.73407E-003	3.59960E-001	-1.16412E+000	3.57670E+000	10	...........
	46	0.626667	9.62270E-001	5.99128E-003	0.00000E+000	5.76523E-003	3.59960E-001	-1.17498E+000	3.57670E+000	10	...........
	47	0.64	9.68068E-001	5.99472E-003	0.00000E+000	5.80330E-003	3.59960E-001	-1.16516E+000	3.57670E+000	10	...........
	48	0.653333	9.73853E-001	5.99235E-003	0.00000E+000	5.83567E-003	3.59960E-001	-1.16365E+000	3.57670E+000	10	...........
	49	0.666667	9.79571E-001	5.99469E-003	0.00000E+000	5.87223E-003	3.59960E-001	-1.17480E+000	3.57670E+000	10	...........
	50	0.68	9.85207E-001	5.99174E-003	0.00000E+000	5.90310E-003	3.59960E-001	-1.16509E+000	3.57670E+000	10	...........
	51	0.693333	9.90838E-001	5.99332E-003	0.00000E+000	5.93841E-003	3.59960E-001	-1.16370E+000	3.57670E+000	10	...........
	52	0.706667	9.96409E-001	5.99631E-003	0.00000E+000	5.97477E-003	3.59960E-001	-1.17467E+000	3.57670E+000	10	...........
	53	0.71	9.99869E-001	5.99417E-003	0.00000E+000	5.99338E-003	3.59960E-001	-1.15270E+000	3.57670E+000	10	...........
STARTTIMEOFFSET	QUANT	1403.777	Start Time Offset (s)