File: Data/CV_CRGO300517_1/PWRCCD_CRGO300517_1/CHARGE_DISCHARGE/CHARGE_#700.DTA
EXPLAIN
TAG	PWR800_CHARGE
TITLE	LABEL	PWR Cyclic Charge Discharge (Cell) - Charge Step	Test &Identifier
DATE	LABEL	22-6-2017	Date
TIME	LABEL	16:03:33	Time
NOTES	NOTES	3	&Notes...
	supercap test cell
	0.6mg
	6M KOH
PSTAT	PSTAT	IFC5000-01520	Potentiostat
CAPACITY	QUANT	1.00000E-003	Capacity (A-hr)
CELLTYPE	SELECTOR	1	&Cell Type
WORKINGCONNECTION	SELECTOR	0	&Working Lead
MAXCHARGETIME	VARIABLEANDUNITS	1.00000E+002	s	1.00000E+002	second(s)	Max &Charge Time
CHARGECURRENT	QUANT	6.00000E-003	&Charge Current (A)
VOLTAGEFINISH	TWOPARAM	F	1.00000E-003	3.60000E+003	&Voltage Finish	 I (A) < 	Max Time(s)
SAMPLETIME	QUANT	1.00000E-002	Sa&mple Period (s)
CHARGESTOPAT1	MULTIPARAM	4	1.00000E+000	Charge Stop At &1	Voltage > Limit	V
CHARGESTOPAT2	MULTIPARAM	0	0.00000E+000	Charge Stop At &2	None	N/A
AESBHCSELECTOR	TOGGLE	F	Save Both Half Cells
IRCOMP	TOGGLE	F	IR &Measure
EOC	QUANT	0	Open Circuit (V)
SEQUENCER	TOGGLE	TRUE	Run as Sequence
PSTATMODEL	IQUANT	53	Pstat Model
PSTATSECTION	LABEL	IFC5000-01520	Pstat Section
PSTATSERIALNO	LABEL	01520	Pstat Serial Number
CTRLMODE	IQUANT	0	Control Mode
ELECTROMETER	IQUANT	1	RE=0 or CS=1
IESTAB	IQUANT	0	I/E Stability
CASPEED	IQUANT	4	Control Amp Speed
CONVENTION	IQUANT	1	Current Convention
ICHRANGE	IQUANT	2	Ich Range
ICHRANGEMODE	TOGGLE	T	Ich Auto Range
ICHOFFSETENABLE	TOGGLE	F	Ich Offset Enable
ICHOFFSET	QUANT	0	Ich Offset (V)
ICHFILTER	IQUANT	1	Ich Filter
VCHRANGE	IQUANT	2	Vch Range
VCHRANGEMODE	TOGGLE	T	Vch Auto Range
VCHOFFSETENABLE	TOGGLE	F	Vch Offset Enable
VCHOFFSET	QUANT	0	Vch Offset (V)
VCHFILTER	IQUANT	1	Vch Filter
IERANGELOWERLIMIT	IQUANT	9	I/E Range Lower Limit
IERANGEMODE	TOGGLE	F	I/E AutoRange
IERANGE	IQUANT	10	I/E Range
ACHSELECT	IQUANT	1	Ach Select
ACHRANGE	IQUANT	2	Ach Range
ACHOFFSETENABLE	TOGGLE	F	Ach Offset Enable
ACHOFFSET	QUANT	0	Ach Offset (V)
ACHFILTER	IQUANT	1	Ach Filter
CABLEID	IQUANT	14	Cable ID
DCCALDATE	LABEL	20-10-2016	DC Calibration Date
ACCALDATE	LABEL	12/3/2015	AC Calibration Date
FRAMEWORKVERSION	QUANT	7.01	Framework Version
INSTRUMENTVERSION	LABEL	4.00	Instrument Version
CURVE	TABLE	56
	Pt	T	Vf	Im	Vu	Pwr	Sig	Ach	Temp	IERange	Over
	#	s	V	A	V	W	V	V	deg C	#	bits
	0	0.013333	6.43116E-001	5.99375E-003	0.00000E+000	3.85468E-003	3.59960E-001	-1.16225E+000	3.57780E+000	10	...........
	1	0.026667	6.52182E-001	5.99110E-003	0.00000E+000	3.90729E-003	3.59960E-001	-1.15676E+000	3.57780E+000	10	...........
	2	0.04	6.60531E-001	5.99421E-003	0.00000E+000	3.95936E-003	3.59960E-001	-1.15216E+000	3.57780E+000	10	...........
	3	0.053333	6.68484E-001	5.99235E-003	0.00000E+000	4.00579E-003	3.59960E-001	-1.16200E+000	3.57780E+000	10	...........
	4	0.066667	6.76138E-001	5.99284E-003	0.00000E+000	4.05199E-003	3.59960E-001	-1.15664E+000	3.57780E+000	10	...........
	5	0.08	6.83566E-001	5.99740E-003	0.00000E+000	4.09962E-003	3.59960E-001	-1.15201E+000	3.57780E+000	10	...........
	6	0.093333	6.90845E-001	5.99300E-003	0.00000E+000	4.14023E-003	3.59960E-001	-1.16206E+000	3.57780E+000	10	...........
	7	0.106667	6.98019E-001	5.99305E-003	0.00000E+000	4.18326E-003	3.59960E-001	-1.15645E+000	3.57780E+000	10	...........
	8	0.12	7.05099E-001	5.99367E-003	0.00000E+000	4.22613E-003	3.59960E-001	-1.15209E+000	3.57780E+000	10	...........
	9	0.133333	7.12108E-001	5.99539E-003	0.00000E+000	4.26936E-003	3.59960E-001	-1.16246E+000	3.57780E+000	10	...........
	10	0.146667	7.19090E-001	5.99402E-003	0.00000E+000	4.31024E-003	3.59960E-001	-1.15641E+000	3.57780E+000	10	...........
	11	0.16	7.26011E-001	5.99288E-003	0.00000E+000	4.35090E-003	3.59960E-001	-1.15180E+000	3.57780E+000	10	...........
	12	0.173333	7.32856E-001	5.99739E-003	0.00000E+000	4.39523E-003	3.59960E-001	-1.16214E+000	3.57780E+000	10	...........
	13	0.186667	7.39665E-001	5.99207E-003	0.00000E+000	4.43213E-003	3.59960E-001	-1.15635E+000	3.57780E+000	10	...........
	14	0.2	7.46517E-001	5.99074E-003	0.00000E+000	4.47218E-003	3.59960E-001	-1.15180E+000	3.57780E+000	10	...........
	15	0.213333	7.53235E-001	5.99232E-003	0.00000E+000	4.51363E-003	3.59960E-001	-1.16218E+000	3.57780E+000	10	...........
	16	0.226667	7.59993E-001	5.99529E-003	0.00000E+000	4.55638E-003	3.59960E-001	-1.15550E+000	3.57780E+000	10	...........
	17	0.24	7.66706E-001	5.99523E-003	0.00000E+000	4.59658E-003	3.59960E-001	-1.15138E+000	3.57780E+000	10	...........
	18	0.253333	7.73418E-001	5.99738E-003	0.00000E+000	4.63848E-003	3.59960E-001	-1.16191E+000	3.57780E+000	10	...........
	19	0.266667	7.80070E-001	5.99257E-003	0.00000E+000	4.67463E-003	3.59960E-001	-1.15574E+000	3.57780E+000	10	...........
	20	0.28	7.86681E-001	5.99541E-003	0.00000E+000	4.71648E-003	3.59960E-001	-1.15133E+000	3.57780E+000	10	...........
	21	0.293333	7.93324E-001	5.99501E-003	0.00000E+000	4.75599E-003	3.59960E-001	-1.16170E+000	3.57780E+000	10	...........
	22	0.306667	7.99931E-001	5.99588E-003	0.00000E+000	4.79629E-003	3.59960E-001	-1.15542E+000	3.57780E+000	10	...........
	23	0.32	8.06441E-001	5.99141E-003	0.00000E+000	4.83172E-003	3.59960E-001	-1.15151E+000	3.57780E+000	10	...........
	24	0.333333	8.13009E-001	5.99755E-003	0.00000E+000	4.87606E-003	3.59960E-001	-1.16214E+000	3.57780E+000	10	...........
	25	0.346667	8.19560E-001	5.99571E-003	0.00000E+000	4.91384E-003	3.59960E-001	-1.15523E+000	3.57780E+000	10	...........
	26	0.36	8.26081E-001	5.99735E-003	0.00000E+000	4.95429E-003	3.59960E-001	-1.15112E+000	3.57780E+000	10	...........
	27	0.373333	8.32543E-001	5.99689E-003	0.00000E+000	4.99267E-003	3.59960E-001	-1.16177E+000	3.57780E+000	10	...........
	28	0.386667	8.39011E-001	5.99421E-003	0.00000E+000	5.02921E-003	3.59960E-001	-1.15509E+000	3.57780E+000	10	...........
	29	0.4	8.45516E-001	5.99205E-003	0.00000E+000	5.06637E-003	3.59960E-001	-1.15120E+000	3.57780E+000	10	...........
	30	0.413333	8.51898E-001	5.99408E-003	0.00000E+000	5.10635E-003	3.59960E-001	-1.16177E+000	3.57780E+000	10	...........
	31	0.426667	8.58303E-001	5.99564E-003	0.00000E+000	5.14607E-003	3.59960E-001	-1.15479E+000	3.57780E+000	10	...........
	32	0.44	8.64665E-001	5.99443E-003	0.00000E+000	5.18317E-003	3.59960E-001	-1.15131E+000	3.57780E+000	10	...........
	33	0.453333	8.71060E-001	5.99448E-003	0.00000E+000	5.22155E-003	3.59960E-001	-1.16199E+000	3.57780E+000	10	...........
	34	0.466667	8.77335E-001	5.99817E-003	0.00000E+000	5.26241E-003	3.59960E-001	-1.15521E+000	3.57780E+000	10	...........
	35	0.48	8.83655E-001	5.99449E-003	0.00000E+000	5.29706E-003	3.59960E-001	-1.15121E+000	3.57780E+000	10	...........
	36	0.493333	8.89902E-001	5.99193E-003	0.00000E+000	5.33223E-003	3.59960E-001	-1.16182E+000	3.57780E+000	10	...........
	37	0.506667	8.96179E-001	5.99468E-003	0.00000E+000	5.37231E-003	3.59960E-001	-1.15485E+000	3.57780E+000	10	...........
	38	0.52	9.02413E-001	5.99639E-003	0.00000E+000	5.41122E-003	3.59960E-001	-1.15130E+000	3.57780E+000	10	...........
	39	0.533333	9.08609E-001	5.99421E-003	0.00000E+000	5.44639E-003	3.59960E-001	-1.16213E+000	3.57780E+000	10	...........
	40	0.546667	9.14765E-001	5.99122E-003	0.00000E+000	5.48055E-003	3.59960E-001	-1.15419E+000	3.57780E+000	10	...........
	41	0.56	9.20941E-001	5.99501E-003	0.00000E+000	5.52105E-003	3.59960E-001	-1.15065E+000	3.57780E+000	10	...........
	42	0.573333	9.26968E-001	5.99618E-003	0.00000E+000	5.55827E-003	3.59960E-001	-1.16173E+000	3.57780E+000	10	...........
	43	0.586667	9.32965E-001	5.99230E-003	0.00000E+000	5.59061E-003	3.59960E-001	-1.15434E+000	3.57736E+000	10	...........
	44	0.6	9.38951E-001	5.99380E-003	0.00000E+000	5.62789E-003	3.59960E-001	-1.15097E+000	3.57710E+000	10	...........
	45	0.613333	9.44877E-001	5.99401E-003	0.00000E+000	5.66360E-003	3.59960E-001	-1.16168E+000	3.57710E+000	10	...........
	46	0.626667	9.50802E-001	5.99287E-003	0.00000E+000	5.69804E-003	3.59960E-001	-1.15417E+000	3.57710E+000	10	...........
	47	0.64	9.56659E-001	5.99387E-003	0.00000E+000	5.73410E-003	3.59960E-001	-1.15071E+000	3.57710E+000	10	...........
	48	0.653333	9.62476E-001	5.99386E-003	0.00000E+000	5.76895E-003	3.59960E-001	-1.16187E+000	3.57710E+000	10	...........
	49	0.666667	9.68241E-001	5.99096E-003	0.00000E+000	5.80070E-003	3.59960E-001	-1.15401E+000	3.57710E+000	10	...........
	50	0.68	9.73988E-001	5.98851E-003	0.00000E+000	5.83274E-003	3.59960E-001	-1.15073E+000	3.57710E+000	10	...........
	51	0.693333	9.79676E-001	5.99859E-003	0.00000E+000	5.87668E-003	3.59960E-001	-1.16179E+000	3.57710E+000	10	...........
	52	0.706667	9.85272E-001	5.99272E-003	0.00000E+000	5.90446E-003	3.59960E-001	-1.15396E+000	3.57710E+000	10	...........
	53	0.72	9.90871E-001	5.99616E-003	0.00000E+000	5.94142E-003	3.59960E-001	-1.15100E+000	3.57710E+000	10	...........
	54	0.733333	9.96396E-001	5.99009E-003	0.00000E+000	5.96850E-003	3.59960E-001	-1.16206E+000	3.57710E+000	10	...........
	55	0.736667	9.99884E-001	5.99467E-003	0.00000E+000	5.99397E-003	3.59960E-001	-1.13862E+000	3.57710E+000	10	...........
STARTTIMEOFFSET	QUANT	1159.222	Start Time Offset (s)