File: Data/CV_CRGO300517_1/PWRCCD_CRGO300517_1/CHARGE_DISCHARGE/CHARGE_#747.DTA
EXPLAIN
TAG	PWR800_CHARGE
TITLE	LABEL	PWR Cyclic Charge Discharge (Cell) - Charge Step	Test &Identifier
DATE	LABEL	22-6-2017	Date
TIME	LABEL	16:05:19	Time
NOTES	NOTES	3	&Notes...
	supercap test cell
	0.6mg
	6M KOH
PSTAT	PSTAT	IFC5000-01520	Potentiostat
CAPACITY	QUANT	1.00000E-003	Capacity (A-hr)
CELLTYPE	SELECTOR	1	&Cell Type
WORKINGCONNECTION	SELECTOR	0	&Working Lead
MAXCHARGETIME	VARIABLEANDUNITS	1.00000E+002	s	1.00000E+002	second(s)	Max &Charge Time
CHARGECURRENT	QUANT	6.00000E-003	&Charge Current (A)
VOLTAGEFINISH	TWOPARAM	F	1.00000E-003	3.60000E+003	&Voltage Finish	 I (A) < 	Max Time(s)
SAMPLETIME	QUANT	1.00000E-002	Sa&mple Period (s)
CHARGESTOPAT1	MULTIPARAM	4	1.00000E+000	Charge Stop At &1	Voltage > Limit	V
CHARGESTOPAT2	MULTIPARAM	0	0.00000E+000	Charge Stop At &2	None	N/A
AESBHCSELECTOR	TOGGLE	F	Save Both Half Cells
IRCOMP	TOGGLE	F	IR &Measure
EOC	QUANT	0	Open Circuit (V)
SEQUENCER	TOGGLE	TRUE	Run as Sequence
PSTATMODEL	IQUANT	53	Pstat Model
PSTATSECTION	LABEL	IFC5000-01520	Pstat Section
PSTATSERIALNO	LABEL	01520	Pstat Serial Number
CTRLMODE	IQUANT	0	Control Mode
ELECTROMETER	IQUANT	1	RE=0 or CS=1
IESTAB	IQUANT	0	I/E Stability
CASPEED	IQUANT	4	Control Amp Speed
CONVENTION	IQUANT	1	Current Convention
ICHRANGE	IQUANT	2	Ich Range
ICHRANGEMODE	TOGGLE	T	Ich Auto Range
ICHOFFSETENABLE	TOGGLE	F	Ich Offset Enable
ICHOFFSET	QUANT	0	Ich Offset (V)
ICHFILTER	IQUANT	1	Ich Filter
VCHRANGE	IQUANT	2	Vch Range
VCHRANGEMODE	TOGGLE	T	Vch Auto Range
VCHOFFSETENABLE	TOGGLE	F	Vch Offset Enable
VCHOFFSET	QUANT	0	Vch Offset (V)
VCHFILTER	IQUANT	1	Vch Filter
IERANGELOWERLIMIT	IQUANT	9	I/E Range Lower Limit
IERANGEMODE	TOGGLE	F	I/E AutoRange
IERANGE	IQUANT	10	I/E Range
ACHSELECT	IQUANT	1	Ach Select
ACHRANGE	IQUANT	2	Ach Range
ACHOFFSETENABLE	TOGGLE	F	Ach Offset Enable
ACHOFFSET	QUANT	0	Ach Offset (V)
ACHFILTER	IQUANT	1	Ach Filter
CABLEID	IQUANT	14	Cable ID
DCCALDATE	LABEL	20-10-2016	DC Calibration Date
ACCALDATE	LABEL	12/3/2015	AC Calibration Date
FRAMEWORKVERSION	QUANT	7.01	Framework Version
INSTRUMENTVERSION	LABEL	4.00	Instrument Version
CURVE	TABLE	55
	Pt	T	Vf	Im	Vu	Pwr	Sig	Ach	Temp	IERange	Over
	#	s	V	A	V	W	V	V	deg C	#	bits
	0	0.013333	6.46431E-001	5.99133E-003	0.00000E+000	3.87298E-003	3.59960E-001	-1.16500E+000	3.57640E+000	10	...........
	1	0.026667	6.55625E-001	5.99264E-003	0.00000E+000	3.92893E-003	3.59960E-001	-1.15690E+000	3.57640E+000	10	...........
	2	0.04	6.64015E-001	5.98916E-003	0.00000E+000	3.97689E-003	3.59960E-001	-1.16301E+000	3.57640E+000	10	...........
	3	0.053333	6.72004E-001	5.99015E-003	0.00000E+000	4.02541E-003	3.59960E-001	-1.16510E+000	3.57640E+000	10	...........
	4	0.066667	6.79669E-001	5.99093E-003	0.00000E+000	4.07185E-003	3.59960E-001	-1.15674E+000	3.57640E+000	10	...........
	5	0.08	6.87122E-001	5.99209E-003	0.00000E+000	4.11730E-003	3.59960E-001	-1.16275E+000	3.57640E+000	10	...........
	6	0.093333	6.94441E-001	5.99057E-003	0.00000E+000	4.16010E-003	3.59960E-001	-1.16473E+000	3.57640E+000	10	...........
	7	0.106667	7.01664E-001	5.99620E-003	0.00000E+000	4.20732E-003	3.59960E-001	-1.15668E+000	3.57640E+000	10	...........
	8	0.12	7.08771E-001	5.99337E-003	0.00000E+000	4.24793E-003	3.59960E-001	-1.16280E+000	3.57700E+000	10	...........
	9	0.133333	7.15861E-001	5.99475E-003	0.00000E+000	4.29141E-003	3.59960E-001	-1.16473E+000	3.57700E+000	10	...........
	10	0.146667	7.22903E-001	5.99112E-003	0.00000E+000	4.33100E-003	3.59960E-001	-1.15635E+000	3.57700E+000	10	...........
	11	0.16	7.29825E-001	5.99370E-003	0.00000E+000	4.37435E-003	3.59960E-001	-1.16296E+000	3.57700E+000	10	...........
	12	0.173333	7.36699E-001	5.99361E-003	0.00000E+000	4.41549E-003	3.59960E-001	-1.16465E+000	3.57700E+000	10	...........
	13	0.186667	7.43582E-001	5.99281E-003	0.00000E+000	4.45614E-003	3.59960E-001	-1.15647E+000	3.57700E+000	10	...........
	14	0.2	7.50377E-001	5.99208E-003	0.00000E+000	4.49632E-003	3.59960E-001	-1.16291E+000	3.57700E+000	10	...........
	15	0.213333	7.57203E-001	5.99318E-003	0.00000E+000	4.53805E-003	3.59960E-001	-1.16429E+000	3.57700E+000	10	...........
	16	0.226667	7.63939E-001	5.99212E-003	0.00000E+000	4.57762E-003	3.59960E-001	-1.15653E+000	3.57700E+000	10	...........
	17	0.24	7.70664E-001	5.99361E-003	0.00000E+000	4.61906E-003	3.59960E-001	-1.16270E+000	3.57700E+000	10	...........
	18	0.253333	7.77380E-001	5.99695E-003	0.00000E+000	4.66191E-003	3.59960E-001	-1.16403E+000	3.57700E+000	10	...........
	19	0.266667	7.84108E-001	5.99881E-003	0.00000E+000	4.70371E-003	3.59960E-001	-1.15594E+000	3.57700E+000	10	...........
	20	0.28	7.90778E-001	5.99299E-003	0.00000E+000	4.73912E-003	3.59960E-001	-1.16249E+000	3.57700E+000	10	...........
	21	0.293333	7.97433E-001	5.99053E-003	0.00000E+000	4.77704E-003	3.59960E-001	-1.16378E+000	3.57700E+000	10	...........
	22	0.306667	8.04055E-001	5.99165E-003	0.00000E+000	4.81762E-003	3.59960E-001	-1.15597E+000	3.57700E+000	10	...........
	23	0.32	8.10633E-001	5.99227E-003	0.00000E+000	4.85753E-003	3.59960E-001	-1.16290E+000	3.57700E+000	10	...........
	24	0.333333	8.17220E-001	5.99525E-003	0.00000E+000	4.89944E-003	3.59960E-001	-1.16357E+000	3.57700E+000	10	...........
	25	0.346667	8.23779E-001	5.99468E-003	0.00000E+000	4.93829E-003	3.59960E-001	-1.15588E+000	3.57700E+000	10	...........
	26	0.36	8.30291E-001	5.99360E-003	0.00000E+000	4.97644E-003	3.59960E-001	-1.16293E+000	3.57700E+000	10	...........
	27	0.373333	8.36795E-001	5.99098E-003	0.00000E+000	5.01322E-003	3.59960E-001	-1.16376E+000	3.57700E+000	10	...........
	28	0.386667	8.43279E-001	5.99385E-003	0.00000E+000	5.05449E-003	3.59960E-001	-1.15614E+000	3.57700E+000	10	...........
	29	0.4	8.49767E-001	5.98705E-003	0.00000E+000	5.08760E-003	3.59960E-001	-1.16285E+000	3.57700E+000	10	...........
	30	0.413333	8.56238E-001	5.99441E-003	0.00000E+000	5.13264E-003	3.59960E-001	-1.16332E+000	3.57700E+000	10	...........
	31	0.426667	8.62651E-001	5.99095E-003	0.00000E+000	5.16810E-003	3.59960E-001	-1.15593E+000	3.57700E+000	10	...........
	32	0.44	8.69047E-001	5.99088E-003	0.00000E+000	5.20636E-003	3.59960E-001	-1.16312E+000	3.57700E+000	10	...........
	33	0.453333	8.75424E-001	5.99505E-003	0.00000E+000	5.24821E-003	3.59960E-001	-1.16354E+000	3.57700E+000	10	...........
	34	0.466667	8.81784E-001	5.99124E-003	0.00000E+000	5.28298E-003	3.59960E-001	-1.15604E+000	3.57700E+000	10	...........
	35	0.48	8.88125E-001	5.99257E-003	0.00000E+000	5.32215E-003	3.59960E-001	-1.16325E+000	3.57700E+000	10	...........
	36	0.493333	8.94382E-001	5.99118E-003	0.00000E+000	5.35841E-003	3.59960E-001	-1.16334E+000	3.57700E+000	10	...........
	37	0.506667	9.00639E-001	5.99311E-003	0.00000E+000	5.39763E-003	3.59960E-001	-1.15594E+000	3.57700E+000	10	...........
	38	0.52	9.06878E-001	5.99597E-003	0.00000E+000	5.43762E-003	3.59960E-001	-1.16317E+000	3.57700E+000	10	...........
	39	0.533333	9.13038E-001	5.99204E-003	0.00000E+000	5.47096E-003	3.59960E-001	-1.16327E+000	3.57700E+000	10	...........
	40	0.546667	9.19163E-001	5.98929E-003	0.00000E+000	5.50513E-003	3.59960E-001	-1.15571E+000	3.57700E+000	10	...........
	41	0.56	9.25301E-001	5.99873E-003	0.00000E+000	5.55063E-003	3.59960E-001	-1.16340E+000	3.57700E+000	10	...........
	42	0.573333	9.31392E-001	5.99271E-003	0.00000E+000	5.58156E-003	3.59960E-001	-1.16277E+000	3.57700E+000	10	...........
	43	0.586667	9.37392E-001	5.99574E-003	0.00000E+000	5.62036E-003	3.59960E-001	-1.15574E+000	3.57700E+000	10	...........
	44	0.6	9.43364E-001	5.99251E-003	0.00000E+000	5.65312E-003	3.59960E-001	-1.16324E+000	3.57700E+000	10	...........
	45	0.613333	9.49341E-001	5.99303E-003	0.00000E+000	5.68943E-003	3.59960E-001	-1.16276E+000	3.57700E+000	10	...........
	46	0.626667	9.55219E-001	5.99480E-003	0.00000E+000	5.72635E-003	3.59960E-001	-1.15567E+000	3.57700E+000	10	...........
	47	0.64	9.61068E-001	5.99268E-003	0.00000E+000	5.75937E-003	3.59960E-001	-1.16329E+000	3.57700E+000	10	...........
	48	0.653333	9.66837E-001	5.99108E-003	0.00000E+000	5.79240E-003	3.59960E-001	-1.16292E+000	3.57700E+000	10	...........
	49	0.666667	9.72634E-001	5.99530E-003	0.00000E+000	5.83124E-003	3.59960E-001	-1.15584E+000	3.57700E+000	10	...........
	50	0.68	9.78375E-001	5.99679E-003	0.00000E+000	5.86710E-003	3.59960E-001	-1.16338E+000	3.57700E+000	10	...........
	51	0.693333	9.83973E-001	5.99375E-003	0.00000E+000	5.89769E-003	3.59960E-001	-1.16239E+000	3.57700E+000	10	...........
	52	0.706667	9.89618E-001	5.99661E-003	0.00000E+000	5.93435E-003	3.59960E-001	-1.15573E+000	3.57700E+000	10	...........
	53	0.72	9.95185E-001	5.99285E-003	0.00000E+000	5.96400E-003	3.59960E-001	-1.16359E+000	3.57700E+000	10	...........
	54	0.726667	9.99324E-001	5.99692E-003	0.00000E+000	5.99287E-003	3.59960E-001	-1.15457E+000	3.57700E+000	10	...........
STARTTIMEOFFSET	QUANT	1227.732	Start Time Offset (s)