File: Data/CV_CRGO300517_1/PWRCCD_CRGO300517_1/CHARGE_DISCHARGE/CHARGE_#117.DTA
EXPLAIN
TAG	PWR800_CHARGE
TITLE	LABEL	PWR Cyclic Charge Discharge (Cell) - Charge Step	Test &Identifier
DATE	LABEL	22-6-2017	Date
TIME	LABEL	15:40:15	Time
NOTES	NOTES	3	&Notes...
	supercap test cell
	0.6mg
	6M KOH
PSTAT	PSTAT	IFC5000-01520	Potentiostat
CAPACITY	QUANT	1.00000E-003	Capacity (A-hr)
CELLTYPE	SELECTOR	1	&Cell Type
WORKINGCONNECTION	SELECTOR	0	&Working Lead
MAXCHARGETIME	VARIABLEANDUNITS	1.00000E+002	s	1.00000E+002	second(s)	Max &Charge Time
CHARGECURRENT	QUANT	6.00000E-003	&Charge Current (A)
VOLTAGEFINISH	TWOPARAM	F	1.00000E-003	3.60000E+003	&Voltage Finish	 I (A) < 	Max Time(s)
SAMPLETIME	QUANT	1.00000E-002	Sa&mple Period (s)
CHARGESTOPAT1	MULTIPARAM	4	1.00000E+000	Charge Stop At &1	Voltage > Limit	V
CHARGESTOPAT2	MULTIPARAM	0	0.00000E+000	Charge Stop At &2	None	N/A
AESBHCSELECTOR	TOGGLE	F	Save Both Half Cells
IRCOMP	TOGGLE	F	IR &Measure
EOC	QUANT	0	Open Circuit (V)
SEQUENCER	TOGGLE	TRUE	Run as Sequence
PSTATMODEL	IQUANT	53	Pstat Model
PSTATSECTION	LABEL	IFC5000-01520	Pstat Section
PSTATSERIALNO	LABEL	01520	Pstat Serial Number
CTRLMODE	IQUANT	0	Control Mode
ELECTROMETER	IQUANT	1	RE=0 or CS=1
IESTAB	IQUANT	0	I/E Stability
CASPEED	IQUANT	4	Control Amp Speed
CONVENTION	IQUANT	1	Current Convention
ICHRANGE	IQUANT	2	Ich Range
ICHRANGEMODE	TOGGLE	T	Ich Auto Range
ICHOFFSETENABLE	TOGGLE	F	Ich Offset Enable
ICHOFFSET	QUANT	0	Ich Offset (V)
ICHFILTER	IQUANT	1	Ich Filter
VCHRANGE	IQUANT	2	Vch Range
VCHRANGEMODE	TOGGLE	T	Vch Auto Range
VCHOFFSETENABLE	TOGGLE	F	Vch Offset Enable
VCHOFFSET	QUANT	0	Vch Offset (V)
VCHFILTER	IQUANT	1	Vch Filter
IERANGELOWERLIMIT	IQUANT	9	I/E Range Lower Limit
IERANGEMODE	TOGGLE	F	I/E AutoRange
IERANGE	IQUANT	10	I/E Range
ACHSELECT	IQUANT	1	Ach Select
ACHRANGE	IQUANT	2	Ach Range
ACHOFFSETENABLE	TOGGLE	F	Ach Offset Enable
ACHOFFSET	QUANT	0	Ach Offset (V)
ACHFILTER	IQUANT	1	Ach Filter
CABLEID	IQUANT	14	Cable ID
DCCALDATE	LABEL	20-10-2016	DC Calibration Date
ACCALDATE	LABEL	12/3/2015	AC Calibration Date
FRAMEWORKVERSION	QUANT	7.01	Framework Version
INSTRUMENTVERSION	LABEL	4.00	Instrument Version
CURVE	TABLE	69
	Pt	T	Vf	Im	Vu	Pwr	Sig	Ach	Temp	IERange	Over
	#	s	V	A	V	W	V	V	deg C	#	bits
	0	0.013333	5.92929E-001	5.99548E-003	0.00000E+000	3.55489E-003	3.59960E-001	-1.06560E+000	3.57850E+000	10	...........
	1	0.026667	6.01202E-001	5.98848E-003	0.00000E+000	3.60028E-003	3.59960E-001	-1.06806E+000	3.57850E+000	10	...........
	2	0.04	6.08852E-001	5.99611E-003	0.00000E+000	3.65074E-003	3.59960E-001	-1.07727E+000	3.57850E+000	10	...........
	3	0.053333	6.16118E-001	5.99161E-003	0.00000E+000	3.69154E-003	3.59960E-001	-1.06571E+000	3.57850E+000	10	...........
	4	0.066667	6.23087E-001	5.99344E-003	0.00000E+000	3.73443E-003	3.59960E-001	-1.06780E+000	3.57850E+000	10	...........
	5	0.08	6.29803E-001	5.99818E-003	0.00000E+000	3.77768E-003	3.59960E-001	-1.07718E+000	3.57850E+000	10	...........
	6	0.093333	6.36388E-001	5.99797E-003	0.00000E+000	3.81704E-003	3.59960E-001	-1.06570E+000	3.57850E+000	10	...........
	7	0.106667	6.42943E-001	5.99043E-003	0.00000E+000	3.85151E-003	3.59960E-001	-1.06836E+000	3.57850E+000	10	...........
	8	0.12	6.49336E-001	5.99699E-003	0.00000E+000	3.89406E-003	3.59960E-001	-1.07778E+000	3.57850E+000	10	...........
	9	0.133333	6.55690E-001	5.99298E-003	0.00000E+000	3.92954E-003	3.59960E-001	-1.06586E+000	3.57850E+000	10	...........
	10	0.146667	6.61961E-001	5.98819E-003	0.00000E+000	3.96395E-003	3.59960E-001	-1.06785E+000	3.57850E+000	10	...........
	11	0.16	6.68243E-001	5.99438E-003	0.00000E+000	4.00570E-003	3.59960E-001	-1.07750E+000	3.57850E+000	10	...........
	12	0.173333	6.74456E-001	5.99554E-003	0.00000E+000	4.04373E-003	3.59960E-001	-1.06584E+000	3.57850E+000	10	...........
	13	0.186667	6.80628E-001	5.99513E-003	0.00000E+000	4.08045E-003	3.59960E-001	-1.06762E+000	3.57850E+000	10	...........
	14	0.2	6.86728E-001	5.99409E-003	0.00000E+000	4.11631E-003	3.59960E-001	-1.07745E+000	3.57850E+000	10	...........
	15	0.213333	6.92898E-001	5.99357E-003	0.00000E+000	4.15293E-003	3.59960E-001	-1.06522E+000	3.57850E+000	10	...........
	16	0.226667	6.98999E-001	5.99332E-003	0.00000E+000	4.18933E-003	3.59960E-001	-1.06710E+000	3.57850E+000	10	...........
	17	0.24	7.05047E-001	5.99529E-003	0.00000E+000	4.22697E-003	3.59960E-001	-1.07740E+000	3.57850E+000	10	...........
	18	0.253333	7.11120E-001	5.99459E-003	0.00000E+000	4.26287E-003	3.59960E-001	-1.06555E+000	3.57850E+000	10	...........
	19	0.266667	7.17154E-001	5.99651E-003	0.00000E+000	4.30043E-003	3.59960E-001	-1.06692E+000	3.57850E+000	10	...........
	20	0.28	7.23194E-001	5.99526E-003	0.00000E+000	4.33574E-003	3.59960E-001	-1.07720E+000	3.57850E+000	10	...........
	21	0.293333	7.29176E-001	5.99488E-003	0.00000E+000	4.37132E-003	3.59960E-001	-1.06538E+000	3.57850E+000	10	...........
	22	0.306667	7.35156E-001	5.99437E-003	0.00000E+000	4.40679E-003	3.59960E-001	-1.06704E+000	3.57850E+000	10	...........
	23	0.32	7.41203E-001	5.99584E-003	0.00000E+000	4.44413E-003	3.59960E-001	-1.07730E+000	3.57850E+000	10	...........
	24	0.333333	7.47212E-001	5.99384E-003	0.00000E+000	4.47867E-003	3.59960E-001	-1.06535E+000	3.57850E+000	10	...........
	25	0.346667	7.53165E-001	5.99529E-003	0.00000E+000	4.51545E-003	3.59960E-001	-1.06642E+000	3.57850E+000	10	...........
	26	0.36	7.59115E-001	5.99413E-003	0.00000E+000	4.55023E-003	3.59960E-001	-1.07729E+000	3.57850E+000	10	...........
	27	0.373333	7.65081E-001	5.99659E-003	0.00000E+000	4.58787E-003	3.59960E-001	-1.06545E+000	3.57850E+000	10	...........
	28	0.386667	7.71033E-001	5.99228E-003	0.00000E+000	4.62025E-003	3.59960E-001	-1.06652E+000	3.57850E+000	10	...........
	29	0.4	7.77013E-001	5.99502E-003	0.00000E+000	4.65821E-003	3.59960E-001	-1.07736E+000	3.57850E+000	10	...........
	30	0.413333	7.83006E-001	5.99132E-003	0.00000E+000	4.69124E-003	3.59960E-001	-1.06510E+000	3.57850E+000	10	...........
	31	0.426667	7.88920E-001	5.99905E-003	0.00000E+000	4.73277E-003	3.59960E-001	-1.06638E+000	3.57850E+000	10	...........
	32	0.44	7.94892E-001	5.99701E-003	0.00000E+000	4.76698E-003	3.59960E-001	-1.07753E+000	3.57850E+000	10	...........
	33	0.453333	8.00845E-001	5.99813E-003	0.00000E+000	4.80358E-003	3.59960E-001	-1.06548E+000	3.57850E+000	10	...........
	34	0.466667	8.06763E-001	5.99392E-003	0.00000E+000	4.83567E-003	3.59960E-001	-1.06601E+000	3.57850E+000	10	...........
	35	0.48	8.12701E-001	5.98922E-003	0.00000E+000	4.86745E-003	3.59960E-001	-1.07715E+000	3.57850E+000	10	...........
	36	0.493333	8.18657E-001	5.99712E-003	0.00000E+000	4.90958E-003	3.59960E-001	-1.06538E+000	3.57850E+000	10	...........
	37	0.506667	8.24584E-001	5.99763E-003	0.00000E+000	4.94555E-003	3.59960E-001	-1.06606E+000	3.57850E+000	10	...........
	38	0.52	8.30474E-001	5.99286E-003	0.00000E+000	4.97692E-003	3.59960E-001	-1.07707E+000	3.57730E+000	10	...........
	39	0.533333	8.36385E-001	5.99251E-003	0.00000E+000	5.01204E-003	3.59960E-001	-1.06484E+000	3.57730E+000	10	...........
	40	0.546667	8.42298E-001	5.99497E-003	0.00000E+000	5.04955E-003	3.59960E-001	-1.06532E+000	3.57730E+000	10	...........
	41	0.56	8.48224E-001	5.99546E-003	0.00000E+000	5.08549E-003	3.59960E-001	-1.07688E+000	3.57730E+000	10	...........
	42	0.573333	8.54114E-001	5.99515E-003	0.00000E+000	5.12054E-003	3.59960E-001	-1.06509E+000	3.57730E+000	10	...........
	43	0.586667	8.59998E-001	5.99319E-003	0.00000E+000	5.15413E-003	3.59960E-001	-1.06524E+000	3.57730E+000	10	...........
	44	0.6	8.65883E-001	5.99577E-003	0.00000E+000	5.19164E-003	3.59960E-001	-1.07665E+000	3.57730E+000	10	...........
	45	0.613333	8.71748E-001	5.99328E-003	0.00000E+000	5.22463E-003	3.59960E-001	-1.06500E+000	3.57730E+000	10	...........
	46	0.626667	8.77587E-001	5.98922E-003	0.00000E+000	5.25607E-003	3.59960E-001	-1.06500E+000	3.57730E+000	10	...........
	47	0.64	8.83463E-001	5.99295E-003	0.00000E+000	5.29455E-003	3.59960E-001	-1.07695E+000	3.57730E+000	10	...........
	48	0.653333	8.89306E-001	5.99369E-003	0.00000E+000	5.33022E-003	3.59960E-001	-1.06517E+000	3.57730E+000	10	...........
	49	0.666667	8.95124E-001	5.98872E-003	0.00000E+000	5.36065E-003	3.59960E-001	-1.06493E+000	3.57730E+000	10	...........
	50	0.68	9.00934E-001	5.99375E-003	0.00000E+000	5.39997E-003	3.59960E-001	-1.07653E+000	3.57730E+000	10	...........
	51	0.693333	9.06697E-001	5.99574E-003	0.00000E+000	5.43632E-003	3.59960E-001	-1.06498E+000	3.57730E+000	10	...........
	52	0.706667	9.12473E-001	5.99226E-003	0.00000E+000	5.46777E-003	3.59960E-001	-1.06476E+000	3.57730E+000	10	...........
	53	0.72	9.18244E-001	5.99492E-003	0.00000E+000	5.50480E-003	3.59960E-001	-1.07682E+000	3.57730E+000	10	...........
	54	0.733333	9.24055E-001	5.99706E-003	0.00000E+000	5.54161E-003	3.59960E-001	-1.06528E+000	3.57730E+000	10	...........
	55	0.746667	9.29735E-001	5.99237E-003	0.00000E+000	5.57132E-003	3.59960E-001	-1.06456E+000	3.57730E+000	10	...........
	56	0.76	9.35398E-001	5.99448E-003	0.00000E+000	5.60722E-003	3.59960E-001	-1.07696E+000	3.57730E+000	10	...........
	57	0.773333	9.41032E-001	5.99479E-003	0.00000E+000	5.64129E-003	3.59960E-001	-1.06548E+000	3.57730E+000	10	...........
	58	0.786667	9.46680E-001	5.99540E-003	0.00000E+000	5.67573E-003	3.59960E-001	-1.06495E+000	3.57730E+000	10	...........
	59	0.8	9.52311E-001	5.99506E-003	0.00000E+000	5.70917E-003	3.59960E-001	-1.07691E+000	3.57730E+000	10	...........
	60	0.813333	9.57888E-001	5.99058E-003	0.00000E+000	5.73831E-003	3.59960E-001	-1.06531E+000	3.57730E+000	10	...........
	61	0.826667	9.63448E-001	5.99409E-003	0.00000E+000	5.77500E-003	3.59960E-001	-1.06456E+000	3.57730E+000	10	...........
	62	0.84	9.68949E-001	5.99728E-003	0.00000E+000	5.81105E-003	3.59960E-001	-1.07684E+000	3.57730E+000	10	...........
	63	0.853333	9.74466E-001	5.99546E-003	0.00000E+000	5.84237E-003	3.59960E-001	-1.06502E+000	3.57730E+000	10	...........
	64	0.866667	9.79988E-001	5.99208E-003	0.00000E+000	5.87217E-003	3.59960E-001	-1.06402E+000	3.57730E+000	10	...........
	65	0.88	9.85375E-001	5.99833E-003	0.00000E+000	5.91060E-003	3.59960E-001	-1.07628E+000	3.57730E+000	10	...........
	66	0.893333	9.90778E-001	5.99408E-003	0.00000E+000	5.93881E-003	3.59960E-001	-1.06505E+000	3.57730E+000	10	...........
	67	0.906667	9.96150E-001	5.99575E-003	0.00000E+000	5.97267E-003	3.59960E-001	-1.06410E+000	3.57730E+000	10	...........
	68	0.911667	9.99807E-001	5.99499E-003	0.00000E+000	5.99383E-003	3.59960E-001	-1.07694E+000	3.57730E+000	10	...........
STARTTIMEOFFSET	QUANT	226.3483	Start Time Offset (s)