File: Data/CV_CRGO300517_1/PWRCCD_CRGO300517_1/CHARGE_DISCHARGE/CHARGE_#214.DTA
EXPLAIN
TAG	PWR800_CHARGE
TITLE	LABEL	PWR Cyclic Charge Discharge (Cell) - Charge Step	Test &Identifier
DATE	LABEL	22-6-2017	Date
TIME	LABEL	15:44:23	Time
NOTES	NOTES	3	&Notes...
	supercap test cell
	0.6mg
	6M KOH
PSTAT	PSTAT	IFC5000-01520	Potentiostat
CAPACITY	QUANT	1.00000E-003	Capacity (A-hr)
CELLTYPE	SELECTOR	1	&Cell Type
WORKINGCONNECTION	SELECTOR	0	&Working Lead
MAXCHARGETIME	VARIABLEANDUNITS	1.00000E+002	s	1.00000E+002	second(s)	Max &Charge Time
CHARGECURRENT	QUANT	6.00000E-003	&Charge Current (A)
VOLTAGEFINISH	TWOPARAM	F	1.00000E-003	3.60000E+003	&Voltage Finish	 I (A) < 	Max Time(s)
SAMPLETIME	QUANT	1.00000E-002	Sa&mple Period (s)
CHARGESTOPAT1	MULTIPARAM	4	1.00000E+000	Charge Stop At &1	Voltage > Limit	V
CHARGESTOPAT2	MULTIPARAM	0	0.00000E+000	Charge Stop At &2	None	N/A
AESBHCSELECTOR	TOGGLE	F	Save Both Half Cells
IRCOMP	TOGGLE	F	IR &Measure
EOC	QUANT	0	Open Circuit (V)
SEQUENCER	TOGGLE	TRUE	Run as Sequence
PSTATMODEL	IQUANT	53	Pstat Model
PSTATSECTION	LABEL	IFC5000-01520	Pstat Section
PSTATSERIALNO	LABEL	01520	Pstat Serial Number
CTRLMODE	IQUANT	0	Control Mode
ELECTROMETER	IQUANT	1	RE=0 or CS=1
IESTAB	IQUANT	0	I/E Stability
CASPEED	IQUANT	4	Control Amp Speed
CONVENTION	IQUANT	1	Current Convention
ICHRANGE	IQUANT	2	Ich Range
ICHRANGEMODE	TOGGLE	T	Ich Auto Range
ICHOFFSETENABLE	TOGGLE	F	Ich Offset Enable
ICHOFFSET	QUANT	0	Ich Offset (V)
ICHFILTER	IQUANT	1	Ich Filter
VCHRANGE	IQUANT	2	Vch Range
VCHRANGEMODE	TOGGLE	T	Vch Auto Range
VCHOFFSETENABLE	TOGGLE	F	Vch Offset Enable
VCHOFFSET	QUANT	0	Vch Offset (V)
VCHFILTER	IQUANT	1	Vch Filter
IERANGELOWERLIMIT	IQUANT	9	I/E Range Lower Limit
IERANGEMODE	TOGGLE	F	I/E AutoRange
IERANGE	IQUANT	10	I/E Range
ACHSELECT	IQUANT	1	Ach Select
ACHRANGE	IQUANT	2	Ach Range
ACHOFFSETENABLE	TOGGLE	F	Ach Offset Enable
ACHOFFSET	QUANT	0	Ach Offset (V)
ACHFILTER	IQUANT	1	Ach Filter
CABLEID	IQUANT	14	Cable ID
DCCALDATE	LABEL	20-10-2016	DC Calibration Date
ACCALDATE	LABEL	12/3/2015	AC Calibration Date
FRAMEWORKVERSION	QUANT	7.01	Framework Version
INSTRUMENTVERSION	LABEL	4.00	Instrument Version
CURVE	TABLE	65
	Pt	T	Vf	Im	Vu	Pwr	Sig	Ach	Temp	IERange	Over
	#	s	V	A	V	W	V	V	deg C	#	bits
	0	0.013333	6.07746E-001	5.99490E-003	0.00000E+000	3.64338E-003	3.59960E-001	-1.09135E+000	3.57820E+000	10	...........
	1	0.026667	6.16281E-001	5.99879E-003	0.00000E+000	3.69694E-003	3.59960E-001	-1.09997E+000	3.57820E+000	10	...........
	2	0.04	6.24096E-001	5.99424E-003	0.00000E+000	3.74098E-003	3.59960E-001	-1.09014E+000	3.57820E+000	10	...........
	3	0.053333	6.31449E-001	5.99221E-003	0.00000E+000	3.78377E-003	3.59960E-001	-1.09129E+000	3.57820E+000	10	...........
	4	0.066667	6.38549E-001	5.99450E-003	0.00000E+000	3.82778E-003	3.59960E-001	-1.09979E+000	3.57820E+000	10	...........
	5	0.08	6.45497E-001	5.99322E-003	0.00000E+000	3.86860E-003	3.59960E-001	-1.09027E+000	3.57820E+000	10	...........
	6	0.093333	6.52283E-001	5.99497E-003	0.00000E+000	3.91042E-003	3.59960E-001	-1.09113E+000	3.57820E+000	10	...........
	7	0.106667	6.58928E-001	5.99566E-003	0.00000E+000	3.95071E-003	3.59960E-001	-1.09928E+000	3.57820E+000	10	...........
	8	0.12	6.65529E-001	5.99785E-003	0.00000E+000	3.99174E-003	3.59960E-001	-1.08995E+000	3.57820E+000	10	...........
	9	0.133333	6.72074E-001	5.99233E-003	0.00000E+000	4.02729E-003	3.59960E-001	-1.09080E+000	3.57820E+000	10	...........
	10	0.146667	6.78534E-001	5.99151E-003	0.00000E+000	4.06544E-003	3.59960E-001	-1.09907E+000	3.57820E+000	10	...........
	11	0.16	6.84949E-001	5.99438E-003	0.00000E+000	4.10584E-003	3.59960E-001	-1.08979E+000	3.57820E+000	10	...........
	12	0.173333	6.91334E-001	5.98960E-003	0.00000E+000	4.14081E-003	3.59960E-001	-1.09069E+000	3.57820E+000	10	...........
	13	0.186667	6.97691E-001	5.99429E-003	0.00000E+000	4.18216E-003	3.59960E-001	-1.09931E+000	3.57820E+000	10	...........
	14	0.2	7.03990E-001	5.99840E-003	0.00000E+000	4.22281E-003	3.59960E-001	-1.08982E+000	3.57820E+000	10	...........
	15	0.213333	7.10267E-001	5.99045E-003	0.00000E+000	4.25482E-003	3.59960E-001	-1.09066E+000	3.57820E+000	10	...........
	16	0.226667	7.16569E-001	5.99767E-003	0.00000E+000	4.29775E-003	3.59960E-001	-1.09906E+000	3.57820E+000	10	...........
	17	0.24	7.22855E-001	5.99701E-003	0.00000E+000	4.33497E-003	3.59960E-001	-1.08941E+000	3.57820E+000	10	...........
	18	0.253333	7.29041E-001	5.99032E-003	0.00000E+000	4.36719E-003	3.59960E-001	-1.09048E+000	3.57820E+000	10	...........
	19	0.266667	7.35226E-001	5.99137E-003	0.00000E+000	4.40501E-003	3.59960E-001	-1.09938E+000	3.57820E+000	10	...........
	20	0.28	7.41472E-001	5.99332E-003	0.00000E+000	4.44388E-003	3.59960E-001	-1.08976E+000	3.57820E+000	10	...........
	21	0.293333	7.47681E-001	5.99640E-003	0.00000E+000	4.48339E-003	3.59960E-001	-1.09003E+000	3.57820E+000	10	...........
	22	0.306667	7.53820E-001	5.99349E-003	0.00000E+000	4.51801E-003	3.59960E-001	-1.09900E+000	3.57820E+000	10	...........
	23	0.32	7.59989E-001	5.99816E-003	0.00000E+000	4.55854E-003	3.59960E-001	-1.09014E+000	3.57820E+000	10	...........
	24	0.333333	7.66146E-001	5.99620E-003	0.00000E+000	4.59397E-003	3.59960E-001	-1.09041E+000	3.57820E+000	10	...........
	25	0.346667	7.72296E-001	5.99304E-003	0.00000E+000	4.62840E-003	3.59960E-001	-1.09902E+000	3.57820E+000	10	...........
	26	0.36	7.78430E-001	5.99265E-003	0.00000E+000	4.66486E-003	3.59960E-001	-1.08961E+000	3.57820E+000	10	...........
	27	0.373333	7.84556E-001	6.00063E-003	0.00000E+000	4.70783E-003	3.59960E-001	-1.09039E+000	3.57820E+000	10	...........
	28	0.386667	7.90720E-001	5.99471E-003	0.00000E+000	4.74014E-003	3.59960E-001	-1.09936E+000	3.57820E+000	10	...........
	29	0.4	7.96894E-001	5.98939E-003	0.00000E+000	4.77291E-003	3.59960E-001	-1.08972E+000	3.57820E+000	10	...........
	30	0.413333	8.02956E-001	5.99812E-003	0.00000E+000	4.81623E-003	3.59960E-001	-1.09035E+000	3.57820E+000	10	...........
	31	0.426667	8.09050E-001	5.99354E-003	0.00000E+000	4.84907E-003	3.59960E-001	-1.09854E+000	3.57820E+000	10	...........
	32	0.44	8.15117E-001	5.99563E-003	0.00000E+000	4.88714E-003	3.59960E-001	-1.08943E+000	3.57820E+000	10	...........
	33	0.453333	8.21240E-001	5.99844E-003	0.00000E+000	4.92616E-003	3.59960E-001	-1.09033E+000	3.57820E+000	10	...........
	34	0.466667	8.27309E-001	5.99084E-003	0.00000E+000	4.95627E-003	3.59960E-001	-1.09903E+000	3.57820E+000	10	...........
	35	0.48	8.33370E-001	5.99617E-003	0.00000E+000	4.99703E-003	3.59960E-001	-1.08919E+000	3.57820E+000	10	...........
	36	0.493333	8.39437E-001	5.99426E-003	0.00000E+000	5.03181E-003	3.59960E-001	-1.08964E+000	3.57820E+000	10	...........
	37	0.506667	8.45537E-001	6.00008E-003	0.00000E+000	5.07329E-003	3.59960E-001	-1.09884E+000	3.57820E+000	10	...........
	38	0.52	8.51537E-001	5.99431E-003	0.00000E+000	5.10438E-003	3.59960E-001	-1.08937E+000	3.57820E+000	10	...........
	39	0.533333	8.57584E-001	5.99506E-003	0.00000E+000	5.14127E-003	3.59960E-001	-1.08977E+000	3.57820E+000	10	...........
	40	0.546667	8.63595E-001	5.99670E-003	0.00000E+000	5.17872E-003	3.59960E-001	-1.09860E+000	3.57820E+000	10	...........
	41	0.56	8.69592E-001	5.99623E-003	0.00000E+000	5.21428E-003	3.59960E-001	-1.08909E+000	3.57820E+000	10	...........
	42	0.573333	8.75567E-001	5.99269E-003	0.00000E+000	5.24700E-003	3.59960E-001	-1.08981E+000	3.57785E+000	10	...........
	43	0.586667	8.81521E-001	5.99460E-003	0.00000E+000	5.28437E-003	3.59960E-001	-1.09871E+000	3.57780E+000	10	...........
	44	0.6	8.87495E-001	5.99576E-003	0.00000E+000	5.32121E-003	3.59960E-001	-1.08929E+000	3.57780E+000	10	...........
	45	0.613333	8.93438E-001	5.99162E-003	0.00000E+000	5.35314E-003	3.59960E-001	-1.08957E+000	3.57780E+000	10	...........
	46	0.626667	8.99351E-001	5.98988E-003	0.00000E+000	5.38700E-003	3.59960E-001	-1.09845E+000	3.57780E+000	10	...........
	47	0.64	9.05216E-001	5.99281E-003	0.00000E+000	5.42479E-003	3.59960E-001	-1.08932E+000	3.57780E+000	10	...........
	48	0.653333	9.11121E-001	5.99622E-003	0.00000E+000	5.46328E-003	3.59960E-001	-1.08979E+000	3.57780E+000	10	...........
	49	0.666667	9.16973E-001	5.99639E-003	0.00000E+000	5.49853E-003	3.59960E-001	-1.09888E+000	3.57780E+000	10	...........
	50	0.68	9.22868E-001	5.99305E-003	0.00000E+000	5.53079E-003	3.59960E-001	-1.08903E+000	3.57780E+000	10	...........
	51	0.693333	9.28688E-001	5.99737E-003	0.00000E+000	5.56968E-003	3.59960E-001	-1.08957E+000	3.57780E+000	10	...........
	52	0.706667	9.34461E-001	5.99433E-003	0.00000E+000	5.60147E-003	3.59960E-001	-1.09876E+000	3.57780E+000	10	...........
	53	0.72	9.40178E-001	5.99716E-003	0.00000E+000	5.63840E-003	3.59960E-001	-1.08938E+000	3.57780E+000	10	...........
	54	0.733333	9.45948E-001	5.99295E-003	0.00000E+000	5.66901E-003	3.59960E-001	-1.08967E+000	3.57780E+000	10	...........
	55	0.746667	9.51626E-001	5.99368E-003	0.00000E+000	5.70374E-003	3.59960E-001	-1.09830E+000	3.57780E+000	10	...........
	56	0.76	9.57259E-001	5.99344E-003	0.00000E+000	5.73727E-003	3.59960E-001	-1.08878E+000	3.57780E+000	10	...........
	57	0.773333	9.62865E-001	5.99572E-003	0.00000E+000	5.77307E-003	3.59960E-001	-1.08928E+000	3.57780E+000	10	...........
	58	0.786667	9.68467E-001	5.99422E-003	0.00000E+000	5.80521E-003	3.59960E-001	-1.09853E+000	3.57780E+000	10	...........
	59	0.8	9.74063E-001	6.00065E-003	0.00000E+000	5.84502E-003	3.59960E-001	-1.08887E+000	3.57780E+000	10	...........
	60	0.813333	9.79593E-001	5.99472E-003	0.00000E+000	5.87238E-003	3.59960E-001	-1.08924E+000	3.57780E+000	10	...........
	61	0.826667	9.85060E-001	5.99014E-003	0.00000E+000	5.90065E-003	3.59960E-001	-1.09835E+000	3.57780E+000	10	...........
	62	0.84	9.90490E-001	5.99376E-003	0.00000E+000	5.93676E-003	3.59960E-001	-1.08893E+000	3.57780E+000	10	...........
	63	0.853333	9.95882E-001	5.99221E-003	0.00000E+000	5.96753E-003	3.59960E-001	-1.08927E+000	3.57780E+000	10	...........
	64	0.858333	9.99584E-001	5.99616E-003	0.00000E+000	5.99366E-003	3.59960E-001	-1.09691E+000	3.57780E+000	10	...........
STARTTIMEOFFSET	QUANT	396.965	Start Time Offset (s)