File: Data/CV_CRGO300517_1/PWRCCD_CRGO300517_1/CHARGE_DISCHARGE/CHARGE_#998.DTA
EXPLAIN
TAG	PWR800_CHARGE
TITLE	LABEL	PWR Cyclic Charge Discharge (Cell) - Charge Step	Test &Identifier
DATE	LABEL	22-6-2017	Date
TIME	LABEL	16:14:34	Time
NOTES	NOTES	3	&Notes...
	supercap test cell
	0.6mg
	6M KOH
PSTAT	PSTAT	IFC5000-01520	Potentiostat
CAPACITY	QUANT	1.00000E-003	Capacity (A-hr)
CELLTYPE	SELECTOR	1	&Cell Type
WORKINGCONNECTION	SELECTOR	0	&Working Lead
MAXCHARGETIME	VARIABLEANDUNITS	1.00000E+002	s	1.00000E+002	second(s)	Max &Charge Time
CHARGECURRENT	QUANT	6.00000E-003	&Charge Current (A)
VOLTAGEFINISH	TWOPARAM	F	1.00000E-003	3.60000E+003	&Voltage Finish	 I (A) < 	Max Time(s)
SAMPLETIME	QUANT	1.00000E-002	Sa&mple Period (s)
CHARGESTOPAT1	MULTIPARAM	4	1.00000E+000	Charge Stop At &1	Voltage > Limit	V
CHARGESTOPAT2	MULTIPARAM	0	0.00000E+000	Charge Stop At &2	None	N/A
AESBHCSELECTOR	TOGGLE	F	Save Both Half Cells
IRCOMP	TOGGLE	F	IR &Measure
EOC	QUANT	0	Open Circuit (V)
SEQUENCER	TOGGLE	TRUE	Run as Sequence
PSTATMODEL	IQUANT	53	Pstat Model
PSTATSECTION	LABEL	IFC5000-01520	Pstat Section
PSTATSERIALNO	LABEL	01520	Pstat Serial Number
CTRLMODE	IQUANT	0	Control Mode
ELECTROMETER	IQUANT	1	RE=0 or CS=1
IESTAB	IQUANT	0	I/E Stability
CASPEED	IQUANT	4	Control Amp Speed
CONVENTION	IQUANT	1	Current Convention
ICHRANGE	IQUANT	2	Ich Range
ICHRANGEMODE	TOGGLE	T	Ich Auto Range
ICHOFFSETENABLE	TOGGLE	F	Ich Offset Enable
ICHOFFSET	QUANT	0	Ich Offset (V)
ICHFILTER	IQUANT	1	Ich Filter
VCHRANGE	IQUANT	2	Vch Range
VCHRANGEMODE	TOGGLE	T	Vch Auto Range
VCHOFFSETENABLE	TOGGLE	F	Vch Offset Enable
VCHOFFSET	QUANT	0	Vch Offset (V)
VCHFILTER	IQUANT	1	Vch Filter
IERANGELOWERLIMIT	IQUANT	9	I/E Range Lower Limit
IERANGEMODE	TOGGLE	F	I/E AutoRange
IERANGE	IQUANT	10	I/E Range
ACHSELECT	IQUANT	1	Ach Select
ACHRANGE	IQUANT	2	Ach Range
ACHOFFSETENABLE	TOGGLE	F	Ach Offset Enable
ACHOFFSET	QUANT	0	Ach Offset (V)
ACHFILTER	IQUANT	1	Ach Filter
CABLEID	IQUANT	14	Cable ID
DCCALDATE	LABEL	20-10-2016	DC Calibration Date
ACCALDATE	LABEL	12/3/2015	AC Calibration Date
FRAMEWORKVERSION	QUANT	7.01	Framework Version
INSTRUMENTVERSION	LABEL	4.00	Instrument Version
CURVE	TABLE	52
	Pt	T	Vf	Im	Vu	Pwr	Sig	Ach	Temp	IERange	Over
	#	s	V	A	V	W	V	V	deg C	#	bits
	0	0.013333	6.57417E-001	5.99763E-003	0.00000E+000	3.94295E-003	3.59960E-001	-1.17472E+000	3.57640E+000	10	...........
	1	0.026667	6.66745E-001	5.98856E-003	0.00000E+000	3.99284E-003	3.59960E-001	-1.18305E+000	3.57640E+000	10	...........
	2	0.04	6.75370E-001	5.99391E-003	0.00000E+000	4.04811E-003	3.59960E-001	-1.18033E+000	3.57640E+000	10	...........
	3	0.053333	6.83521E-001	5.98999E-003	0.00000E+000	4.09429E-003	3.59960E-001	-1.17484E+000	3.57640E+000	10	...........
	4	0.066667	6.91412E-001	5.98851E-003	0.00000E+000	4.14053E-003	3.59960E-001	-1.18312E+000	3.57640E+000	10	...........
	5	0.08	6.99051E-001	5.99010E-003	0.00000E+000	4.18739E-003	3.59960E-001	-1.18065E+000	3.57640E+000	10	...........
	6	0.093333	7.06584E-001	5.98935E-003	0.00000E+000	4.23198E-003	3.59960E-001	-1.17470E+000	3.57640E+000	10	...........
	7	0.106667	7.13973E-001	5.99195E-003	0.00000E+000	4.27809E-003	3.59960E-001	-1.18304E+000	3.57640E+000	10	...........
	8	0.12	7.21321E-001	5.99360E-003	0.00000E+000	4.32331E-003	3.59960E-001	-1.18042E+000	3.57641E+000	10	...........
	9	0.133333	7.28541E-001	5.99580E-003	0.00000E+000	4.36819E-003	3.59960E-001	-1.17455E+000	3.57660E+000	10	...........
	10	0.146667	7.35671E-001	5.99473E-003	0.00000E+000	4.41015E-003	3.59960E-001	-1.18317E+000	3.57660E+000	10	...........
	11	0.16	7.42753E-001	5.99762E-003	0.00000E+000	4.45475E-003	3.59960E-001	-1.18004E+000	3.57660E+000	10	...........
	12	0.173333	7.49811E-001	5.99110E-003	0.00000E+000	4.49220E-003	3.59960E-001	-1.17435E+000	3.57660E+000	10	...........
	13	0.186667	7.56827E-001	5.99260E-003	0.00000E+000	4.53536E-003	3.59960E-001	-1.18301E+000	3.57660E+000	10	...........
	14	0.2	7.63782E-001	5.99381E-003	0.00000E+000	4.57796E-003	3.59960E-001	-1.18043E+000	3.57660E+000	10	...........
	15	0.213333	7.70730E-001	5.99289E-003	0.00000E+000	4.61891E-003	3.59960E-001	-1.17450E+000	3.57660E+000	10	...........
	16	0.226667	7.77579E-001	5.99087E-003	0.00000E+000	4.65838E-003	3.59960E-001	-1.18340E+000	3.57660E+000	10	...........
	17	0.24	7.84449E-001	5.99120E-003	0.00000E+000	4.69980E-003	3.59960E-001	-1.18010E+000	3.57660E+000	10	...........
	18	0.253333	7.91309E-001	5.99550E-003	0.00000E+000	4.74430E-003	3.59960E-001	-1.17463E+000	3.57660E+000	10	...........
	19	0.266667	7.98133E-001	5.99257E-003	0.00000E+000	4.78287E-003	3.59960E-001	-1.18323E+000	3.57660E+000	10	...........
	20	0.28	8.04883E-001	5.99395E-003	0.00000E+000	4.82443E-003	3.59960E-001	-1.17996E+000	3.57660E+000	10	...........
	21	0.293333	8.11618E-001	5.99182E-003	0.00000E+000	4.86307E-003	3.59960E-001	-1.17447E+000	3.57660E+000	10	...........
	22	0.306667	8.18358E-001	5.99195E-003	0.00000E+000	4.90356E-003	3.59960E-001	-1.18287E+000	3.57660E+000	10	...........
	23	0.32	8.25059E-001	5.98989E-003	0.00000E+000	4.94201E-003	3.59960E-001	-1.17963E+000	3.57660E+000	10	...........
	24	0.333333	8.31707E-001	5.99086E-003	0.00000E+000	4.98264E-003	3.59960E-001	-1.17423E+000	3.57660E+000	10	...........
	25	0.346667	8.38319E-001	5.99511E-003	0.00000E+000	5.02581E-003	3.59960E-001	-1.18291E+000	3.57660E+000	10	...........
	26	0.36	8.44953E-001	5.99404E-003	0.00000E+000	5.06468E-003	3.59960E-001	-1.17924E+000	3.57660E+000	10	...........
	27	0.373333	8.51565E-001	5.98708E-003	0.00000E+000	5.09839E-003	3.59960E-001	-1.17381E+000	3.57660E+000	10	...........
	28	0.386667	8.58142E-001	5.98991E-003	0.00000E+000	5.14019E-003	3.59960E-001	-1.18290E+000	3.57660E+000	10	...........
	29	0.4	8.64723E-001	5.99503E-003	0.00000E+000	5.18404E-003	3.59960E-001	-1.17951E+000	3.57660E+000	10	...........
	30	0.413333	8.71236E-001	5.99029E-003	0.00000E+000	5.21896E-003	3.59960E-001	-1.17401E+000	3.57660E+000	10	...........
	31	0.426667	8.77713E-001	5.99014E-003	0.00000E+000	5.25762E-003	3.59960E-001	-1.18289E+000	3.57660E+000	10	...........
	32	0.44	8.84150E-001	5.99247E-003	0.00000E+000	5.29824E-003	3.59960E-001	-1.17907E+000	3.57660E+000	10	...........
	33	0.453333	8.90518E-001	5.99171E-003	0.00000E+000	5.33572E-003	3.59960E-001	-1.17384E+000	3.57660E+000	10	...........
	34	0.466667	8.96862E-001	5.98781E-003	0.00000E+000	5.37024E-003	3.59960E-001	-1.18311E+000	3.57660E+000	10	...........
	35	0.48	9.03176E-001	5.99033E-003	0.00000E+000	5.41032E-003	3.59960E-001	-1.17926E+000	3.57660E+000	10	...........
	36	0.493333	9.09493E-001	5.99681E-003	0.00000E+000	5.45405E-003	3.59960E-001	-1.17361E+000	3.57660E+000	10	...........
	37	0.506667	9.15730E-001	5.99360E-003	0.00000E+000	5.48852E-003	3.59960E-001	-1.18291E+000	3.57660E+000	10	...........
	38	0.52	9.21979E-001	5.99195E-003	0.00000E+000	5.52445E-003	3.59960E-001	-1.17919E+000	3.57660E+000	10	...........
	39	0.533333	9.28130E-001	5.98948E-003	0.00000E+000	5.55902E-003	3.59960E-001	-1.17381E+000	3.57660E+000	10	...........
	40	0.546667	9.34222E-001	5.99607E-003	0.00000E+000	5.60166E-003	3.59960E-001	-1.18319E+000	3.57660E+000	10	...........
	41	0.56	9.40319E-001	5.99310E-003	0.00000E+000	5.63543E-003	3.59960E-001	-1.17899E+000	3.57660E+000	10	...........
	42	0.573333	9.46344E-001	5.99174E-003	0.00000E+000	5.67024E-003	3.59960E-001	-1.17359E+000	3.57660E+000	10	...........
	43	0.586667	9.52313E-001	5.99446E-003	0.00000E+000	5.70860E-003	3.59960E-001	-1.18322E+000	3.57660E+000	10	...........
	44	0.6	9.58209E-001	5.98963E-003	0.00000E+000	5.73931E-003	3.59960E-001	-1.17894E+000	3.57660E+000	10	...........
	45	0.613333	9.64091E-001	5.99206E-003	0.00000E+000	5.77689E-003	3.59960E-001	-1.17361E+000	3.57660E+000	10	...........
	46	0.626667	9.69897E-001	5.98974E-003	0.00000E+000	5.80943E-003	3.59960E-001	-1.18273E+000	3.57660E+000	10	...........
	47	0.64	9.75742E-001	5.99439E-003	0.00000E+000	5.84898E-003	3.59960E-001	-1.17820E+000	3.57660E+000	10	...........
	48	0.653333	9.81437E-001	5.99440E-003	0.00000E+000	5.88312E-003	3.59960E-001	-1.17341E+000	3.57660E+000	10	...........
	49	0.666667	9.87069E-001	5.99638E-003	0.00000E+000	5.91884E-003	3.59960E-001	-1.18300E+000	3.57660E+000	10	...........
	50	0.68	9.92667E-001	5.99386E-003	0.00000E+000	5.94991E-003	3.59960E-001	-1.17825E+000	3.57660E+000	10	...........
	51	0.693333	9.98261E-001	5.99592E-003	0.00000E+000	5.98549E-003	3.59960E-001	-1.17330E+000	3.57660E+000	10	...........
STARTTIMEOFFSET	QUANT	1582.497	Start Time Offset (s)