File: Data/CV_CRGO300517_1/PWRCCD_CRGO300517_1/CHARGE_DISCHARGE/CHARGE_#270.DTA
EXPLAIN
TAG	PWR800_CHARGE
TITLE	LABEL	PWR Cyclic Charge Discharge (Cell) - Charge Step	Test &Identifier
DATE	LABEL	22-6-2017	Date
TIME	LABEL	15:46:42	Time
NOTES	NOTES	3	&Notes...
	supercap test cell
	0.6mg
	6M KOH
PSTAT	PSTAT	IFC5000-01520	Potentiostat
CAPACITY	QUANT	1.00000E-003	Capacity (A-hr)
CELLTYPE	SELECTOR	1	&Cell Type
WORKINGCONNECTION	SELECTOR	0	&Working Lead
MAXCHARGETIME	VARIABLEANDUNITS	1.00000E+002	s	1.00000E+002	second(s)	Max &Charge Time
CHARGECURRENT	QUANT	6.00000E-003	&Charge Current (A)
VOLTAGEFINISH	TWOPARAM	F	1.00000E-003	3.60000E+003	&Voltage Finish	 I (A) < 	Max Time(s)
SAMPLETIME	QUANT	1.00000E-002	Sa&mple Period (s)
CHARGESTOPAT1	MULTIPARAM	4	1.00000E+000	Charge Stop At &1	Voltage > Limit	V
CHARGESTOPAT2	MULTIPARAM	0	0.00000E+000	Charge Stop At &2	None	N/A
AESBHCSELECTOR	TOGGLE	F	Save Both Half Cells
IRCOMP	TOGGLE	F	IR &Measure
EOC	QUANT	0	Open Circuit (V)
SEQUENCER	TOGGLE	TRUE	Run as Sequence
PSTATMODEL	IQUANT	53	Pstat Model
PSTATSECTION	LABEL	IFC5000-01520	Pstat Section
PSTATSERIALNO	LABEL	01520	Pstat Serial Number
CTRLMODE	IQUANT	0	Control Mode
ELECTROMETER	IQUANT	1	RE=0 or CS=1
IESTAB	IQUANT	0	I/E Stability
CASPEED	IQUANT	4	Control Amp Speed
CONVENTION	IQUANT	1	Current Convention
ICHRANGE	IQUANT	2	Ich Range
ICHRANGEMODE	TOGGLE	T	Ich Auto Range
ICHOFFSETENABLE	TOGGLE	F	Ich Offset Enable
ICHOFFSET	QUANT	0	Ich Offset (V)
ICHFILTER	IQUANT	1	Ich Filter
VCHRANGE	IQUANT	2	Vch Range
VCHRANGEMODE	TOGGLE	T	Vch Auto Range
VCHOFFSETENABLE	TOGGLE	F	Vch Offset Enable
VCHOFFSET	QUANT	0	Vch Offset (V)
VCHFILTER	IQUANT	1	Vch Filter
IERANGELOWERLIMIT	IQUANT	9	I/E Range Lower Limit
IERANGEMODE	TOGGLE	F	I/E AutoRange
IERANGE	IQUANT	10	I/E Range
ACHSELECT	IQUANT	1	Ach Select
ACHRANGE	IQUANT	2	Ach Range
ACHOFFSETENABLE	TOGGLE	F	Ach Offset Enable
ACHOFFSET	QUANT	0	Ach Offset (V)
ACHFILTER	IQUANT	1	Ach Filter
CABLEID	IQUANT	14	Cable ID
DCCALDATE	LABEL	20-10-2016	DC Calibration Date
ACCALDATE	LABEL	12/3/2015	AC Calibration Date
FRAMEWORKVERSION	QUANT	7.01	Framework Version
INSTRUMENTVERSION	LABEL	4.00	Instrument Version
CURVE	TABLE	63
	Pt	T	Vf	Im	Vu	Pwr	Sig	Ach	Temp	IERange	Over
	#	s	V	A	V	W	V	V	deg C	#	bits
	0	0.013333	6.13756E-001	5.98992E-003	0.00000E+000	3.67635E-003	3.59960E-001	-1.10331E+000	3.57730E+000	10	...........
	1	0.026667	6.22347E-001	5.98962E-003	0.00000E+000	3.72762E-003	3.59960E-001	-1.10985E+000	3.57730E+000	10	...........
	2	0.04	6.30204E-001	5.99677E-003	0.00000E+000	3.77919E-003	3.59960E-001	-1.11002E+000	3.57730E+000	10	...........
	3	0.053333	6.37674E-001	5.99142E-003	0.00000E+000	3.82057E-003	3.59960E-001	-1.10315E+000	3.57730E+000	10	...........
	4	0.066667	6.44851E-001	5.99524E-003	0.00000E+000	3.86604E-003	3.59960E-001	-1.10965E+000	3.57730E+000	10	...........
	5	0.08	6.51794E-001	5.99326E-003	0.00000E+000	3.90637E-003	3.59960E-001	-1.11010E+000	3.57730E+000	10	...........
	6	0.093333	6.58632E-001	5.99470E-003	0.00000E+000	3.94830E-003	3.59960E-001	-1.10309E+000	3.57730E+000	10	...........
	7	0.106667	6.65420E-001	5.99431E-003	0.00000E+000	3.98874E-003	3.59960E-001	-1.10932E+000	3.57730E+000	10	...........
	8	0.12	6.72069E-001	5.99563E-003	0.00000E+000	4.02948E-003	3.59960E-001	-1.10937E+000	3.57730E+000	10	...........
	9	0.133333	6.78683E-001	5.99396E-003	0.00000E+000	4.06800E-003	3.59960E-001	-1.10254E+000	3.57730E+000	10	...........
	10	0.146667	6.85228E-001	5.99452E-003	0.00000E+000	4.10761E-003	3.59960E-001	-1.10914E+000	3.57730E+000	10	...........
	11	0.16	6.91697E-001	5.99222E-003	0.00000E+000	4.14480E-003	3.59960E-001	-1.10954E+000	3.57730E+000	10	...........
	12	0.173333	6.98092E-001	5.99335E-003	0.00000E+000	4.18391E-003	3.59960E-001	-1.10254E+000	3.57730E+000	10	...........
	13	0.186667	7.04527E-001	5.99226E-003	0.00000E+000	4.22171E-003	3.59960E-001	-1.10860E+000	3.57730E+000	10	...........
	14	0.2	7.10911E-001	5.99820E-003	0.00000E+000	4.26419E-003	3.59960E-001	-1.10929E+000	3.57730E+000	10	...........
	15	0.213333	7.17274E-001	5.99529E-003	0.00000E+000	4.30027E-003	3.59960E-001	-1.10248E+000	3.57730E+000	10	...........
	16	0.226667	7.23613E-001	5.98861E-003	0.00000E+000	4.33343E-003	3.59960E-001	-1.10871E+000	3.57730E+000	10	...........
	17	0.24	7.29947E-001	5.99232E-003	0.00000E+000	4.37407E-003	3.59960E-001	-1.10904E+000	3.57730E+000	10	...........
	18	0.253333	7.36189E-001	5.99093E-003	0.00000E+000	4.41046E-003	3.59960E-001	-1.10218E+000	3.57730E+000	10	...........
	19	0.266667	7.42520E-001	5.99642E-003	0.00000E+000	4.45246E-003	3.59960E-001	-1.10861E+000	3.57730E+000	10	...........
	20	0.28	7.48794E-001	5.99418E-003	0.00000E+000	4.48840E-003	3.59960E-001	-1.10929E+000	3.57730E+000	10	...........
	21	0.293333	7.55075E-001	5.99572E-003	0.00000E+000	4.52722E-003	3.59960E-001	-1.10227E+000	3.57730E+000	10	...........
	22	0.306667	7.61349E-001	5.99346E-003	0.00000E+000	4.56312E-003	3.59960E-001	-1.10848E+000	3.57730E+000	10	...........
	23	0.32	7.67582E-001	5.99815E-003	0.00000E+000	4.60407E-003	3.59960E-001	-1.10914E+000	3.57730E+000	10	...........
	24	0.333333	7.73778E-001	5.99778E-003	0.00000E+000	4.64095E-003	3.59960E-001	-1.10223E+000	3.57730E+000	10	...........
	25	0.346667	7.80009E-001	5.99392E-003	0.00000E+000	4.67531E-003	3.59960E-001	-1.10852E+000	3.57730E+000	10	...........
	26	0.36	7.86230E-001	5.99599E-003	0.00000E+000	4.71423E-003	3.59960E-001	-1.10911E+000	3.57730E+000	10	...........
	27	0.373333	7.92475E-001	5.99296E-003	0.00000E+000	4.74927E-003	3.59960E-001	-1.10208E+000	3.57730E+000	10	...........
	28	0.386667	7.98643E-001	5.99290E-003	0.00000E+000	4.78619E-003	3.59960E-001	-1.10822E+000	3.57730E+000	10	...........
	29	0.4	8.04777E-001	5.99367E-003	0.00000E+000	4.82356E-003	3.59960E-001	-1.10923E+000	3.57730E+000	10	...........
	30	0.413333	8.10947E-001	5.99596E-003	0.00000E+000	4.86240E-003	3.59960E-001	-1.10236E+000	3.57730E+000	10	...........
	31	0.426667	8.17124E-001	5.99814E-003	0.00000E+000	4.90122E-003	3.59960E-001	-1.10834E+000	3.57730E+000	10	...........
	32	0.44	8.23286E-001	5.99480E-003	0.00000E+000	4.93544E-003	3.59960E-001	-1.10877E+000	3.57730E+000	10	...........
	33	0.453333	8.29391E-001	5.99773E-003	0.00000E+000	4.97447E-003	3.59960E-001	-1.10152E+000	3.57730E+000	10	...........
	34	0.466667	8.35508E-001	5.99543E-003	0.00000E+000	5.00923E-003	3.59960E-001	-1.10774E+000	3.57730E+000	10	...........
	35	0.48	8.41648E-001	5.99454E-003	0.00000E+000	5.04529E-003	3.59960E-001	-1.10884E+000	3.57730E+000	10	...........
	36	0.493333	8.47793E-001	5.99639E-003	0.00000E+000	5.08369E-003	3.59960E-001	-1.10180E+000	3.57730E+000	10	...........
	37	0.506667	8.53892E-001	5.99367E-003	0.00000E+000	5.11795E-003	3.59960E-001	-1.10765E+000	3.57730E+000	10	...........
	38	0.52	8.59986E-001	5.99430E-003	0.00000E+000	5.15502E-003	3.59960E-001	-1.10854E+000	3.57730E+000	10	...........
	39	0.533333	8.66037E-001	5.99274E-003	0.00000E+000	5.18993E-003	3.59960E-001	-1.10153E+000	3.57730E+000	10	...........
	40	0.546667	8.72154E-001	5.99443E-003	0.00000E+000	5.22807E-003	3.59960E-001	-1.10774E+000	3.57730E+000	10	...........
	41	0.56	8.78078E-001	5.99370E-003	0.00000E+000	5.26293E-003	3.59960E-001	-1.10872E+000	3.57730E+000	10	...........
	42	0.573333	8.84160E-001	5.99190E-003	0.00000E+000	5.29780E-003	3.59960E-001	-1.10120E+000	3.57730E+000	10	...........
	43	0.586667	8.90165E-001	5.99192E-003	0.00000E+000	5.33380E-003	3.59960E-001	-1.10721E+000	3.57730E+000	10	...........
	44	0.6	8.96121E-001	5.99446E-003	0.00000E+000	5.37176E-003	3.59960E-001	-1.10859E+000	3.57730E+000	10	...........
	45	0.613333	9.02072E-001	5.99184E-003	0.00000E+000	5.40507E-003	3.59960E-001	-1.10145E+000	3.57730E+000	10	...........
	46	0.626667	9.08027E-001	5.99215E-003	0.00000E+000	5.44104E-003	3.59960E-001	-1.10732E+000	3.57730E+000	10	...........
	47	0.64	9.13940E-001	5.99517E-003	0.00000E+000	5.47922E-003	3.59960E-001	-1.10831E+000	3.57730E+000	10	...........
	48	0.653333	9.19859E-001	5.99526E-003	0.00000E+000	5.51480E-003	3.59960E-001	-1.10118E+000	3.57730E+000	10	...........
	49	0.666667	9.25714E-001	5.99510E-003	0.00000E+000	5.54974E-003	3.59960E-001	-1.10714E+000	3.57730E+000	10	...........
	50	0.68	9.31514E-001	5.99468E-003	0.00000E+000	5.58412E-003	3.59960E-001	-1.10861E+000	3.57730E+000	10	...........
	51	0.693333	9.37307E-001	5.99160E-003	0.00000E+000	5.61597E-003	3.59960E-001	-1.10127E+000	3.57730E+000	10	...........
	52	0.706667	9.43088E-001	5.99125E-003	0.00000E+000	5.65027E-003	3.59960E-001	-1.10709E+000	3.57730E+000	10	...........
	53	0.72	9.48874E-001	5.99470E-003	0.00000E+000	5.68821E-003	3.59960E-001	-1.10840E+000	3.57730E+000	10	...........
	54	0.733333	9.54540E-001	5.99545E-003	0.00000E+000	5.72289E-003	3.59960E-001	-1.10135E+000	3.57730E+000	10	...........
	55	0.746667	9.60218E-001	5.99176E-003	0.00000E+000	5.75339E-003	3.59960E-001	-1.10718E+000	3.57740E+000	10	...........
	56	0.76	9.65844E-001	5.99143E-003	0.00000E+000	5.78679E-003	3.59960E-001	-1.10808E+000	3.57810E+000	10	...........
	57	0.773333	9.71477E-001	5.99309E-003	0.00000E+000	5.82215E-003	3.59960E-001	-1.10082E+000	3.57810E+000	10	...........
	58	0.786667	9.77114E-001	5.99287E-003	0.00000E+000	5.85572E-003	3.59960E-001	-1.10662E+000	3.57810E+000	10	...........
	59	0.8	9.82643E-001	5.99805E-003	0.00000E+000	5.89394E-003	3.59960E-001	-1.10819E+000	3.57810E+000	10	...........
	60	0.813333	9.88107E-001	5.99501E-003	0.00000E+000	5.92371E-003	3.59960E-001	-1.10108E+000	3.57810E+000	10	...........
	61	0.826667	9.93533E-001	5.99352E-003	0.00000E+000	5.95476E-003	3.59960E-001	-1.10668E+000	3.57810E+000	10	...........
	62	0.838333	9.98612E-001	5.99109E-003	0.00000E+000	5.98277E-003	3.59960E-001	-1.10740E+000	3.57810E+000	10	...........
STARTTIMEOFFSET	QUANT	491.4367	Start Time Offset (s)