File: Data/CV_CRGO300517_1/PWRCCD_CRGO300517_1/CHARGE_DISCHARGE/CHARGE_#844.DTA
EXPLAIN
TAG	PWR800_CHARGE
TITLE	LABEL	PWR Cyclic Charge Discharge (Cell) - Charge Step	Test &Identifier
DATE	LABEL	22-6-2017	Date
TIME	LABEL	16:08:55	Time
NOTES	NOTES	3	&Notes...
	supercap test cell
	0.6mg
	6M KOH
PSTAT	PSTAT	IFC5000-01520	Potentiostat
CAPACITY	QUANT	1.00000E-003	Capacity (A-hr)
CELLTYPE	SELECTOR	1	&Cell Type
WORKINGCONNECTION	SELECTOR	0	&Working Lead
MAXCHARGETIME	VARIABLEANDUNITS	1.00000E+002	s	1.00000E+002	second(s)	Max &Charge Time
CHARGECURRENT	QUANT	6.00000E-003	&Charge Current (A)
VOLTAGEFINISH	TWOPARAM	F	1.00000E-003	3.60000E+003	&Voltage Finish	 I (A) < 	Max Time(s)
SAMPLETIME	QUANT	1.00000E-002	Sa&mple Period (s)
CHARGESTOPAT1	MULTIPARAM	4	1.00000E+000	Charge Stop At &1	Voltage > Limit	V
CHARGESTOPAT2	MULTIPARAM	0	0.00000E+000	Charge Stop At &2	None	N/A
AESBHCSELECTOR	TOGGLE	F	Save Both Half Cells
IRCOMP	TOGGLE	F	IR &Measure
EOC	QUANT	0	Open Circuit (V)
SEQUENCER	TOGGLE	TRUE	Run as Sequence
PSTATMODEL	IQUANT	53	Pstat Model
PSTATSECTION	LABEL	IFC5000-01520	Pstat Section
PSTATSERIALNO	LABEL	01520	Pstat Serial Number
CTRLMODE	IQUANT	0	Control Mode
ELECTROMETER	IQUANT	1	RE=0 or CS=1
IESTAB	IQUANT	0	I/E Stability
CASPEED	IQUANT	4	Control Amp Speed
CONVENTION	IQUANT	1	Current Convention
ICHRANGE	IQUANT	2	Ich Range
ICHRANGEMODE	TOGGLE	T	Ich Auto Range
ICHOFFSETENABLE	TOGGLE	F	Ich Offset Enable
ICHOFFSET	QUANT	0	Ich Offset (V)
ICHFILTER	IQUANT	1	Ich Filter
VCHRANGE	IQUANT	2	Vch Range
VCHRANGEMODE	TOGGLE	T	Vch Auto Range
VCHOFFSETENABLE	TOGGLE	F	Vch Offset Enable
VCHOFFSET	QUANT	0	Vch Offset (V)
VCHFILTER	IQUANT	1	Vch Filter
IERANGELOWERLIMIT	IQUANT	9	I/E Range Lower Limit
IERANGEMODE	TOGGLE	F	I/E AutoRange
IERANGE	IQUANT	10	I/E Range
ACHSELECT	IQUANT	1	Ach Select
ACHRANGE	IQUANT	2	Ach Range
ACHOFFSETENABLE	TOGGLE	F	Ach Offset Enable
ACHOFFSET	QUANT	0	Ach Offset (V)
ACHFILTER	IQUANT	1	Ach Filter
CABLEID	IQUANT	14	Cable ID
DCCALDATE	LABEL	20-10-2016	DC Calibration Date
ACCALDATE	LABEL	12/3/2015	AC Calibration Date
FRAMEWORKVERSION	QUANT	7.01	Framework Version
INSTRUMENTVERSION	LABEL	4.00	Instrument Version
CURVE	TABLE	54
	Pt	T	Vf	Im	Vu	Pwr	Sig	Ach	Temp	IERange	Over
	#	s	V	A	V	W	V	V	deg C	#	bits
	0	0.013333	6.50365E-001	5.99715E-003	0.00000E+000	3.90033E-003	3.59960E-001	-1.16555E+000	3.57630E+000	10	...........
	1	0.026667	6.59564E-001	5.99085E-003	0.00000E+000	3.95135E-003	3.59960E-001	-1.17535E+000	3.57630E+000	10	...........
	2	0.04	6.68109E-001	5.99172E-003	0.00000E+000	4.00312E-003	3.59960E-001	-1.16480E+000	3.57630E+000	10	...........
	3	0.053333	6.76132E-001	5.99353E-003	0.00000E+000	4.05242E-003	3.59960E-001	-1.16560E+000	3.57630E+000	10	...........
	4	0.066667	6.83880E-001	5.99259E-003	0.00000E+000	4.09821E-003	3.59960E-001	-1.17514E+000	3.57637E+000	10	...........
	5	0.08	6.91469E-001	5.99079E-003	0.00000E+000	4.14244E-003	3.59960E-001	-1.16428E+000	3.57660E+000	10	...........
	6	0.093333	6.98901E-001	5.99885E-003	0.00000E+000	4.19261E-003	3.59960E-001	-1.16577E+000	3.57660E+000	10	...........
	7	0.106667	7.06173E-001	5.99327E-003	0.00000E+000	4.23228E-003	3.59960E-001	-1.17530E+000	3.57660E+000	10	...........
	8	0.12	7.13387E-001	5.99195E-003	0.00000E+000	4.27457E-003	3.59960E-001	-1.16459E+000	3.57660E+000	10	...........
	9	0.133333	7.20548E-001	5.99338E-003	0.00000E+000	4.31852E-003	3.59960E-001	-1.16549E+000	3.57660E+000	10	...........
	10	0.146667	7.27592E-001	5.99467E-003	0.00000E+000	4.36167E-003	3.59960E-001	-1.17508E+000	3.57660E+000	10	...........
	11	0.16	7.34547E-001	5.99280E-003	0.00000E+000	4.40199E-003	3.59960E-001	-1.16436E+000	3.57660E+000	10	...........
	12	0.173333	7.41492E-001	5.99147E-003	0.00000E+000	4.44262E-003	3.59960E-001	-1.16563E+000	3.57660E+000	10	...........
	13	0.186667	7.48410E-001	5.99329E-003	0.00000E+000	4.48544E-003	3.59960E-001	-1.17494E+000	3.57660E+000	10	...........
	14	0.2	7.55295E-001	5.99248E-003	0.00000E+000	4.52609E-003	3.59960E-001	-1.16455E+000	3.57660E+000	10	...........
	15	0.213333	7.62142E-001	5.99401E-003	0.00000E+000	4.56829E-003	3.59960E-001	-1.16544E+000	3.57660E+000	10	...........
	16	0.226667	7.68981E-001	5.99231E-003	0.00000E+000	4.60797E-003	3.59960E-001	-1.17506E+000	3.57660E+000	10	...........
	17	0.24	7.75771E-001	5.99728E-003	0.00000E+000	4.65251E-003	3.59960E-001	-1.16451E+000	3.57660E+000	10	...........
	18	0.253333	7.82561E-001	5.99371E-003	0.00000E+000	4.69044E-003	3.59960E-001	-1.16565E+000	3.57660E+000	10	...........
	19	0.266667	7.89266E-001	5.99418E-003	0.00000E+000	4.73100E-003	3.59960E-001	-1.17497E+000	3.57660E+000	10	...........
	20	0.28	7.96010E-001	5.99271E-003	0.00000E+000	4.77025E-003	3.59960E-001	-1.16430E+000	3.57660E+000	10	...........
	21	0.293333	8.02670E-001	5.99158E-003	0.00000E+000	4.80926E-003	3.59960E-001	-1.16553E+000	3.57660E+000	10	...........
	22	0.306667	8.09287E-001	5.99147E-003	0.00000E+000	4.84882E-003	3.59960E-001	-1.17494E+000	3.57660E+000	10	...........
	23	0.32	8.15932E-001	5.99012E-003	0.00000E+000	4.88753E-003	3.59960E-001	-1.16406E+000	3.57660E+000	10	...........
	24	0.333333	8.22566E-001	5.99577E-003	0.00000E+000	4.93192E-003	3.59960E-001	-1.16492E+000	3.57660E+000	10	...........
	25	0.346667	8.29158E-001	5.99479E-003	0.00000E+000	4.97063E-003	3.59960E-001	-1.17435E+000	3.57660E+000	10	...........
	26	0.36	8.35732E-001	5.99337E-003	0.00000E+000	5.00885E-003	3.59960E-001	-1.16385E+000	3.57660E+000	10	...........
	27	0.373333	8.42274E-001	5.99220E-003	0.00000E+000	5.04707E-003	3.59960E-001	-1.16537E+000	3.57660E+000	10	...........
	28	0.386667	8.48827E-001	5.99393E-003	0.00000E+000	5.08781E-003	3.59960E-001	-1.17435E+000	3.57660E+000	10	...........
	29	0.4	8.55289E-001	5.99287E-003	0.00000E+000	5.12564E-003	3.59960E-001	-1.16367E+000	3.57660E+000	10	...........
	30	0.413333	8.61762E-001	5.99398E-003	0.00000E+000	5.16538E-003	3.59960E-001	-1.16483E+000	3.57660E+000	10	...........
	31	0.426667	8.68219E-001	5.99109E-003	0.00000E+000	5.20158E-003	3.59960E-001	-1.17445E+000	3.57660E+000	10	...........
	32	0.44	8.74669E-001	5.99494E-003	0.00000E+000	5.24359E-003	3.59960E-001	-1.16381E+000	3.57660E+000	10	...........
	33	0.453333	8.81068E-001	5.99239E-003	0.00000E+000	5.27970E-003	3.59960E-001	-1.16489E+000	3.57660E+000	10	...........
	34	0.466667	8.87379E-001	5.98937E-003	0.00000E+000	5.31484E-003	3.59960E-001	-1.17441E+000	3.57660E+000	10	...........
	35	0.48	8.93730E-001	5.99030E-003	0.00000E+000	5.35371E-003	3.59960E-001	-1.16362E+000	3.57660E+000	10	...........
	36	0.493333	8.99991E-001	5.99004E-003	0.00000E+000	5.39098E-003	3.59960E-001	-1.16521E+000	3.57660E+000	10	...........
	37	0.506667	9.06229E-001	5.99449E-003	0.00000E+000	5.43238E-003	3.59960E-001	-1.17438E+000	3.57660E+000	10	...........
	38	0.52	9.12438E-001	5.99562E-003	0.00000E+000	5.47063E-003	3.59960E-001	-1.16376E+000	3.57660E+000	10	...........
	39	0.533333	9.18645E-001	5.99657E-003	0.00000E+000	5.50872E-003	3.59960E-001	-1.16481E+000	3.57660E+000	10	...........
	40	0.546667	9.24797E-001	5.99639E-003	0.00000E+000	5.54544E-003	3.59960E-001	-1.17440E+000	3.57660E+000	10	...........
	41	0.56	9.30845E-001	5.99898E-003	0.00000E+000	5.58411E-003	3.59960E-001	-1.16385E+000	3.57660E+000	10	...........
	42	0.573333	9.36886E-001	5.99552E-003	0.00000E+000	5.61712E-003	3.59960E-001	-1.16522E+000	3.57660E+000	10	...........
	43	0.586667	9.42934E-001	5.98892E-003	0.00000E+000	5.64716E-003	3.59960E-001	-1.17472E+000	3.57660E+000	10	...........
	44	0.6	9.48920E-001	5.99761E-003	0.00000E+000	5.69125E-003	3.59960E-001	-1.16362E+000	3.57660E+000	10	...........
	45	0.613333	9.54825E-001	5.99065E-003	0.00000E+000	5.72002E-003	3.59960E-001	-1.16491E+000	3.57660E+000	10	...........
	46	0.626667	9.60671E-001	5.99585E-003	0.00000E+000	5.76003E-003	3.59960E-001	-1.17450E+000	3.57660E+000	10	...........
	47	0.64	9.66473E-001	5.99185E-003	0.00000E+000	5.79096E-003	3.59960E-001	-1.16353E+000	3.57660E+000	10	...........
	48	0.653333	9.72259E-001	5.99124E-003	0.00000E+000	5.82503E-003	3.59960E-001	-1.16469E+000	3.57660E+000	10	...........
	49	0.666667	9.78007E-001	5.99317E-003	0.00000E+000	5.86136E-003	3.59960E-001	-1.17433E+000	3.57660E+000	10	...........
	50	0.68	9.83658E-001	5.99374E-003	0.00000E+000	5.89579E-003	3.59960E-001	-1.16362E+000	3.57660E+000	10	...........
	51	0.693333	9.89287E-001	5.99294E-003	0.00000E+000	5.92874E-003	3.59960E-001	-1.16484E+000	3.57660E+000	10	...........
	52	0.706667	9.94842E-001	5.99383E-003	0.00000E+000	5.96292E-003	3.59960E-001	-1.17436E+000	3.57660E+000	10	...........
	53	0.713333	9.99021E-001	5.99573E-003	0.00000E+000	5.98986E-003	3.59960E-001	-1.15422E+000	3.57660E+000	10	...........
STARTTIMEOFFSET	QUANT	1366.921	Start Time Offset (s)