File: Data/CV_CRGO300517_1/PWRCCD_CRGO300517_1/CHARGE_DISCHARGE/CHARGE_#893.DTA
EXPLAIN
TAG	PWR800_CHARGE
TITLE	LABEL	PWR Cyclic Charge Discharge (Cell) - Charge Step	Test &Identifier
DATE	LABEL	22-6-2017	Date
TIME	LABEL	16:10:44	Time
NOTES	NOTES	3	&Notes...
	supercap test cell
	0.6mg
	6M KOH
PSTAT	PSTAT	IFC5000-01520	Potentiostat
CAPACITY	QUANT	1.00000E-003	Capacity (A-hr)
CELLTYPE	SELECTOR	1	&Cell Type
WORKINGCONNECTION	SELECTOR	0	&Working Lead
MAXCHARGETIME	VARIABLEANDUNITS	1.00000E+002	s	1.00000E+002	second(s)	Max &Charge Time
CHARGECURRENT	QUANT	6.00000E-003	&Charge Current (A)
VOLTAGEFINISH	TWOPARAM	F	1.00000E-003	3.60000E+003	&Voltage Finish	 I (A) < 	Max Time(s)
SAMPLETIME	QUANT	1.00000E-002	Sa&mple Period (s)
CHARGESTOPAT1	MULTIPARAM	4	1.00000E+000	Charge Stop At &1	Voltage > Limit	V
CHARGESTOPAT2	MULTIPARAM	0	0.00000E+000	Charge Stop At &2	None	N/A
AESBHCSELECTOR	TOGGLE	F	Save Both Half Cells
IRCOMP	TOGGLE	F	IR &Measure
EOC	QUANT	0	Open Circuit (V)
SEQUENCER	TOGGLE	TRUE	Run as Sequence
PSTATMODEL	IQUANT	53	Pstat Model
PSTATSECTION	LABEL	IFC5000-01520	Pstat Section
PSTATSERIALNO	LABEL	01520	Pstat Serial Number
CTRLMODE	IQUANT	0	Control Mode
ELECTROMETER	IQUANT	1	RE=0 or CS=1
IESTAB	IQUANT	0	I/E Stability
CASPEED	IQUANT	4	Control Amp Speed
CONVENTION	IQUANT	1	Current Convention
ICHRANGE	IQUANT	2	Ich Range
ICHRANGEMODE	TOGGLE	T	Ich Auto Range
ICHOFFSETENABLE	TOGGLE	F	Ich Offset Enable
ICHOFFSET	QUANT	0	Ich Offset (V)
ICHFILTER	IQUANT	1	Ich Filter
VCHRANGE	IQUANT	2	Vch Range
VCHRANGEMODE	TOGGLE	T	Vch Auto Range
VCHOFFSETENABLE	TOGGLE	F	Vch Offset Enable
VCHOFFSET	QUANT	0	Vch Offset (V)
VCHFILTER	IQUANT	1	Vch Filter
IERANGELOWERLIMIT	IQUANT	9	I/E Range Lower Limit
IERANGEMODE	TOGGLE	F	I/E AutoRange
IERANGE	IQUANT	10	I/E Range
ACHSELECT	IQUANT	1	Ach Select
ACHRANGE	IQUANT	2	Ach Range
ACHOFFSETENABLE	TOGGLE	F	Ach Offset Enable
ACHOFFSET	QUANT	0	Ach Offset (V)
ACHFILTER	IQUANT	1	Ach Filter
CABLEID	IQUANT	14	Cable ID
DCCALDATE	LABEL	20-10-2016	DC Calibration Date
ACCALDATE	LABEL	12/3/2015	AC Calibration Date
FRAMEWORKVERSION	QUANT	7.01	Framework Version
INSTRUMENTVERSION	LABEL	4.00	Instrument Version
CURVE	TABLE	53
	Pt	T	Vf	Im	Vu	Pwr	Sig	Ach	Temp	IERange	Over
	#	s	V	A	V	W	V	V	deg C	#	bits
	0	0.013333	6.52707E-001	5.99283E-003	0.00000E+000	3.91156E-003	3.59960E-001	-1.17486E+000	3.57640E+000	10	...........
	1	0.026667	6.61933E-001	5.98951E-003	0.00000E+000	3.96466E-003	3.59960E-001	-1.16659E+000	3.57640E+000	10	...........
	2	0.04	6.70467E-001	5.99402E-003	0.00000E+000	4.01879E-003	3.59960E-001	-1.17304E+000	3.57640E+000	10	...........
	3	0.053333	6.78523E-001	5.99139E-003	0.00000E+000	4.06530E-003	3.59960E-001	-1.17480E+000	3.57640E+000	10	...........
	4	0.066667	6.86291E-001	5.98973E-003	0.00000E+000	4.11070E-003	3.59960E-001	-1.16639E+000	3.57640E+000	10	...........
	5	0.08	6.93882E-001	5.99936E-003	0.00000E+000	4.16285E-003	3.59960E-001	-1.17225E+000	3.57640E+000	10	...........
	6	0.093333	7.01302E-001	5.99353E-003	0.00000E+000	4.20328E-003	3.59960E-001	-1.17421E+000	3.57640E+000	10	...........
	7	0.106667	7.08611E-001	5.99474E-003	0.00000E+000	4.24794E-003	3.59960E-001	-1.16612E+000	3.57640E+000	10	...........
	8	0.12	7.15856E-001	5.99143E-003	0.00000E+000	4.28901E-003	3.59960E-001	-1.17234E+000	3.57640E+000	10	...........
	9	0.133333	7.23069E-001	5.99547E-003	0.00000E+000	4.33514E-003	3.59960E-001	-1.17411E+000	3.57645E+000	10	...........
	10	0.146667	7.30130E-001	5.99389E-003	0.00000E+000	4.37632E-003	3.59960E-001	-1.16598E+000	3.57660E+000	10	...........
	11	0.16	7.37141E-001	5.99530E-003	0.00000E+000	4.41938E-003	3.59960E-001	-1.17229E+000	3.57660E+000	10	...........
	12	0.173333	7.44171E-001	5.99596E-003	0.00000E+000	4.46202E-003	3.59960E-001	-1.17418E+000	3.57660E+000	10	...........
	13	0.186667	7.51091E-001	5.99738E-003	0.00000E+000	4.50458E-003	3.59960E-001	-1.16610E+000	3.57660E+000	10	...........
	14	0.2	7.58037E-001	5.99056E-003	0.00000E+000	4.54106E-003	3.59960E-001	-1.17243E+000	3.57660E+000	10	...........
	15	0.213333	7.64893E-001	5.99347E-003	0.00000E+000	4.58436E-003	3.59960E-001	-1.17425E+000	3.57660E+000	10	...........
	16	0.226667	7.71720E-001	5.99571E-003	0.00000E+000	4.62701E-003	3.59960E-001	-1.16603E+000	3.57660E+000	10	...........
	17	0.24	7.78535E-001	5.99588E-003	0.00000E+000	4.66800E-003	3.59960E-001	-1.17253E+000	3.57660E+000	10	...........
	18	0.253333	7.85326E-001	5.98998E-003	0.00000E+000	4.70409E-003	3.59960E-001	-1.17422E+000	3.57660E+000	10	...........
	19	0.266667	7.92073E-001	5.99418E-003	0.00000E+000	4.74783E-003	3.59960E-001	-1.16646E+000	3.57660E+000	10	...........
	20	0.28	7.98830E-001	5.98970E-003	0.00000E+000	4.78475E-003	3.59960E-001	-1.17235E+000	3.57660E+000	10	...........
	21	0.293333	8.05533E-001	5.99098E-003	0.00000E+000	4.82593E-003	3.59960E-001	-1.17410E+000	3.57660E+000	10	...........
	22	0.306667	8.12193E-001	5.99345E-003	0.00000E+000	4.86784E-003	3.59960E-001	-1.16611E+000	3.57660E+000	10	...........
	23	0.32	8.18876E-001	5.99380E-003	0.00000E+000	4.90818E-003	3.59960E-001	-1.17244E+000	3.57660E+000	10	...........
	24	0.333333	8.25512E-001	5.99257E-003	0.00000E+000	4.94694E-003	3.59960E-001	-1.17393E+000	3.57660E+000	10	...........
	25	0.346667	8.32071E-001	5.98912E-003	0.00000E+000	4.98337E-003	3.59960E-001	-1.16582E+000	3.57660E+000	10	...........
	26	0.36	8.38662E-001	5.99174E-003	0.00000E+000	5.02504E-003	3.59960E-001	-1.17227E+000	3.57660E+000	10	...........
	27	0.373333	8.45255E-001	5.99596E-003	0.00000E+000	5.06812E-003	3.59960E-001	-1.17406E+000	3.57660E+000	10	...........
	28	0.386667	8.51728E-001	5.99051E-003	0.00000E+000	5.10228E-003	3.59960E-001	-1.16598E+000	3.57660E+000	10	...........
	29	0.4	8.58278E-001	5.99512E-003	0.00000E+000	5.14548E-003	3.59960E-001	-1.17212E+000	3.57660E+000	10	...........
	30	0.413333	8.64774E-001	5.99455E-003	0.00000E+000	5.18393E-003	3.59960E-001	-1.17339E+000	3.57660E+000	10	...........
	31	0.426667	8.71239E-001	5.99521E-003	0.00000E+000	5.22326E-003	3.59960E-001	-1.16540E+000	3.57660E+000	10	...........
	32	0.44	8.77649E-001	5.98958E-003	0.00000E+000	5.25675E-003	3.59960E-001	-1.17227E+000	3.57660E+000	10	...........
	33	0.453333	8.84065E-001	5.99236E-003	0.00000E+000	5.29764E-003	3.59960E-001	-1.17393E+000	3.57660E+000	10	...........
	34	0.466667	8.90406E-001	5.99555E-003	0.00000E+000	5.33848E-003	3.59960E-001	-1.16584E+000	3.57660E+000	10	...........
	35	0.48	8.96687E-001	5.99335E-003	0.00000E+000	5.37416E-003	3.59960E-001	-1.17206E+000	3.57660E+000	10	...........
	36	0.493333	9.02967E-001	5.99653E-003	0.00000E+000	5.41467E-003	3.59960E-001	-1.17373E+000	3.57660E+000	10	...........
	37	0.506667	9.09252E-001	5.99296E-003	0.00000E+000	5.44911E-003	3.59960E-001	-1.16568E+000	3.57660E+000	10	...........
	38	0.52	9.15416E-001	5.99586E-003	0.00000E+000	5.48871E-003	3.59960E-001	-1.17224E+000	3.57660E+000	10	...........
	39	0.533333	9.21632E-001	5.99175E-003	0.00000E+000	5.52219E-003	3.59960E-001	-1.17343E+000	3.57660E+000	10	...........
	40	0.546667	9.27745E-001	5.99525E-003	0.00000E+000	5.56206E-003	3.59960E-001	-1.16543E+000	3.57660E+000	10	...........
	41	0.56	9.33828E-001	5.99209E-003	0.00000E+000	5.59558E-003	3.59960E-001	-1.17187E+000	3.57660E+000	10	...........
	42	0.573333	9.39857E-001	5.99322E-003	0.00000E+000	5.63277E-003	3.59960E-001	-1.17351E+000	3.57660E+000	10	...........
	43	0.586667	9.45870E-001	5.99605E-003	0.00000E+000	5.67149E-003	3.59960E-001	-1.16551E+000	3.57660E+000	10	...........
	44	0.6	9.51806E-001	5.99582E-003	0.00000E+000	5.70686E-003	3.59960E-001	-1.17190E+000	3.57660E+000	10	...........
	45	0.613333	9.57740E-001	5.99037E-003	0.00000E+000	5.73721E-003	3.59960E-001	-1.17353E+000	3.57660E+000	10	...........
	46	0.626667	9.63575E-001	5.99448E-003	0.00000E+000	5.77613E-003	3.59960E-001	-1.16562E+000	3.57660E+000	10	...........
	47	0.64	9.69360E-001	5.99698E-003	0.00000E+000	5.81324E-003	3.59960E-001	-1.17242E+000	3.57660E+000	10	...........
	48	0.653333	9.75162E-001	5.99472E-003	0.00000E+000	5.84582E-003	3.59960E-001	-1.17383E+000	3.57660E+000	10	...........
	49	0.666667	9.80848E-001	5.98741E-003	0.00000E+000	5.87274E-003	3.59960E-001	-1.16591E+000	3.57660E+000	10	...........
	50	0.68	9.86474E-001	5.99206E-003	0.00000E+000	5.91101E-003	3.59960E-001	-1.17231E+000	3.57660E+000	10	...........
	51	0.693333	9.92099E-001	5.98709E-003	0.00000E+000	5.93979E-003	3.59960E-001	-1.17379E+000	3.57660E+000	10	...........
	52	0.706667	9.97666E-001	5.99251E-003	0.00000E+000	5.97852E-003	3.59960E-001	-1.16581E+000	3.57660E+000	10	...........
STARTTIMEOFFSET	QUANT	1436.216	Start Time Offset (s)