File: Data/CV_CRGO300517_1/PWRCCD_CRGO300517_1/CHARGE_DISCHARGE/CHARGE_#755.DTA
EXPLAIN
TAG	PWR800_CHARGE
TITLE	LABEL	PWR Cyclic Charge Discharge (Cell) - Charge Step	Test &Identifier
DATE	LABEL	22-6-2017	Date
TIME	LABEL	16:05:36	Time
NOTES	NOTES	3	&Notes...
	supercap test cell
	0.6mg
	6M KOH
PSTAT	PSTAT	IFC5000-01520	Potentiostat
CAPACITY	QUANT	1.00000E-003	Capacity (A-hr)
CELLTYPE	SELECTOR	1	&Cell Type
WORKINGCONNECTION	SELECTOR	0	&Working Lead
MAXCHARGETIME	VARIABLEANDUNITS	1.00000E+002	s	1.00000E+002	second(s)	Max &Charge Time
CHARGECURRENT	QUANT	6.00000E-003	&Charge Current (A)
VOLTAGEFINISH	TWOPARAM	F	1.00000E-003	3.60000E+003	&Voltage Finish	 I (A) < 	Max Time(s)
SAMPLETIME	QUANT	1.00000E-002	Sa&mple Period (s)
CHARGESTOPAT1	MULTIPARAM	4	1.00000E+000	Charge Stop At &1	Voltage > Limit	V
CHARGESTOPAT2	MULTIPARAM	0	0.00000E+000	Charge Stop At &2	None	N/A
AESBHCSELECTOR	TOGGLE	F	Save Both Half Cells
IRCOMP	TOGGLE	F	IR &Measure
EOC	QUANT	0	Open Circuit (V)
SEQUENCER	TOGGLE	TRUE	Run as Sequence
PSTATMODEL	IQUANT	53	Pstat Model
PSTATSECTION	LABEL	IFC5000-01520	Pstat Section
PSTATSERIALNO	LABEL	01520	Pstat Serial Number
CTRLMODE	IQUANT	0	Control Mode
ELECTROMETER	IQUANT	1	RE=0 or CS=1
IESTAB	IQUANT	0	I/E Stability
CASPEED	IQUANT	4	Control Amp Speed
CONVENTION	IQUANT	1	Current Convention
ICHRANGE	IQUANT	2	Ich Range
ICHRANGEMODE	TOGGLE	T	Ich Auto Range
ICHOFFSETENABLE	TOGGLE	F	Ich Offset Enable
ICHOFFSET	QUANT	0	Ich Offset (V)
ICHFILTER	IQUANT	1	Ich Filter
VCHRANGE	IQUANT	2	Vch Range
VCHRANGEMODE	TOGGLE	T	Vch Auto Range
VCHOFFSETENABLE	TOGGLE	F	Vch Offset Enable
VCHOFFSET	QUANT	0	Vch Offset (V)
VCHFILTER	IQUANT	1	Vch Filter
IERANGELOWERLIMIT	IQUANT	9	I/E Range Lower Limit
IERANGEMODE	TOGGLE	F	I/E AutoRange
IERANGE	IQUANT	10	I/E Range
ACHSELECT	IQUANT	1	Ach Select
ACHRANGE	IQUANT	2	Ach Range
ACHOFFSETENABLE	TOGGLE	F	Ach Offset Enable
ACHOFFSET	QUANT	0	Ach Offset (V)
ACHFILTER	IQUANT	1	Ach Filter
CABLEID	IQUANT	14	Cable ID
DCCALDATE	LABEL	20-10-2016	DC Calibration Date
ACCALDATE	LABEL	12/3/2015	AC Calibration Date
FRAMEWORKVERSION	QUANT	7.01	Framework Version
INSTRUMENTVERSION	LABEL	4.00	Instrument Version
CURVE	TABLE	55
	Pt	T	Vf	Im	Vu	Pwr	Sig	Ach	Temp	IERange	Over
	#	s	V	A	V	W	V	V	deg C	#	bits
	0	0.013333	6.46101E-001	5.98809E-003	0.00000E+000	3.86891E-003	3.59960E-001	-1.15893E+000	3.57640E+000	10	...........
	1	0.026667	6.55300E-001	5.99545E-003	0.00000E+000	3.92882E-003	3.59960E-001	-1.16622E+000	3.57640E+000	10	...........
	2	0.04	6.63717E-001	5.99275E-003	0.00000E+000	3.97749E-003	3.59960E-001	-1.16537E+000	3.57640E+000	10	...........
	3	0.053333	6.71706E-001	5.99686E-003	0.00000E+000	4.02813E-003	3.59960E-001	-1.15843E+000	3.57640E+000	10	...........
	4	0.066667	6.79368E-001	5.99507E-003	0.00000E+000	4.07286E-003	3.59960E-001	-1.16616E+000	3.57640E+000	10	...........
	5	0.08	6.86863E-001	5.98974E-003	0.00000E+000	4.11414E-003	3.59960E-001	-1.16531E+000	3.57640E+000	10	...........
	6	0.093333	6.94201E-001	5.99860E-003	0.00000E+000	4.16423E-003	3.59960E-001	-1.15850E+000	3.57640E+000	10	...........
	7	0.106667	7.01420E-001	5.99392E-003	0.00000E+000	4.20425E-003	3.59960E-001	-1.16623E+000	3.57640E+000	10	...........
	8	0.12	7.08570E-001	5.99637E-003	0.00000E+000	4.24885E-003	3.59960E-001	-1.16478E+000	3.57640E+000	10	...........
	9	0.133333	7.15674E-001	5.99208E-003	0.00000E+000	4.28838E-003	3.59960E-001	-1.15812E+000	3.57640E+000	10	...........
	10	0.146667	7.22701E-001	5.99516E-003	0.00000E+000	4.33271E-003	3.59960E-001	-1.16613E+000	3.57640E+000	10	...........
	11	0.16	7.29619E-001	6.00057E-003	0.00000E+000	4.37813E-003	3.59960E-001	-1.16501E+000	3.57640E+000	10	...........
	12	0.173333	7.36454E-001	5.99009E-003	0.00000E+000	4.41142E-003	3.59960E-001	-1.15823E+000	3.57640E+000	10	...........
	13	0.186667	7.43364E-001	5.99318E-003	0.00000E+000	4.45511E-003	3.59960E-001	-1.16608E+000	3.57640E+000	10	...........
	14	0.2	7.50223E-001	5.99474E-003	0.00000E+000	4.49739E-003	3.59960E-001	-1.16468E+000	3.57640E+000	10	...........
	15	0.213333	7.57017E-001	5.99122E-003	0.00000E+000	4.53545E-003	3.59960E-001	-1.15799E+000	3.57640E+000	10	...........
	16	0.226667	7.63784E-001	5.99749E-003	0.00000E+000	4.58079E-003	3.59960E-001	-1.16634E+000	3.57640E+000	10	...........
	17	0.24	7.70524E-001	5.99179E-003	0.00000E+000	4.61682E-003	3.59960E-001	-1.16461E+000	3.57640E+000	10	...........
	18	0.253333	7.77262E-001	5.99652E-003	0.00000E+000	4.66087E-003	3.59960E-001	-1.15821E+000	3.57645E+000	10	...........
	19	0.266667	7.83939E-001	5.99368E-003	0.00000E+000	4.69868E-003	3.59960E-001	-1.16634E+000	3.57660E+000	10	...........
	20	0.28	7.90607E-001	6.00002E-003	0.00000E+000	4.74365E-003	3.59960E-001	-1.16456E+000	3.57660E+000	10	...........
	21	0.293333	7.97309E-001	5.99201E-003	0.00000E+000	4.77748E-003	3.59960E-001	-1.15816E+000	3.57660E+000	10	...........
	22	0.306667	8.03910E-001	5.99338E-003	0.00000E+000	4.81814E-003	3.59960E-001	-1.16655E+000	3.57660E+000	10	...........
	23	0.32	8.10513E-001	5.99329E-003	0.00000E+000	4.85764E-003	3.59960E-001	-1.16433E+000	3.57660E+000	10	...........
	24	0.333333	8.17076E-001	5.99729E-003	0.00000E+000	4.90024E-003	3.59960E-001	-1.15813E+000	3.57660E+000	10	...........
	25	0.346667	8.23645E-001	5.99266E-003	0.00000E+000	4.93583E-003	3.59960E-001	-1.16606E+000	3.57660E+000	10	...........
	26	0.36	8.30187E-001	5.99180E-003	0.00000E+000	4.97432E-003	3.59960E-001	-1.16396E+000	3.57660E+000	10	...........
	27	0.373333	8.36710E-001	5.98929E-003	0.00000E+000	5.01129E-003	3.59960E-001	-1.15769E+000	3.57660E+000	10	...........
	28	0.386667	8.43240E-001	5.99709E-003	0.00000E+000	5.05698E-003	3.59960E-001	-1.16612E+000	3.57660E+000	10	...........
	29	0.4	8.49677E-001	5.99421E-003	0.00000E+000	5.09314E-003	3.59960E-001	-1.16369E+000	3.57660E+000	10	...........
	30	0.413333	8.56155E-001	5.99546E-003	0.00000E+000	5.13304E-003	3.59960E-001	-1.15776E+000	3.57660E+000	10	...........
	31	0.426667	8.62557E-001	5.99031E-003	0.00000E+000	5.16698E-003	3.59960E-001	-1.16640E+000	3.57660E+000	10	...........
	32	0.44	8.68959E-001	5.99311E-003	0.00000E+000	5.20777E-003	3.59960E-001	-1.16371E+000	3.57660E+000	10	...........
	33	0.453333	8.75382E-001	5.99658E-003	0.00000E+000	5.24929E-003	3.59960E-001	-1.15769E+000	3.57660E+000	10	...........
	34	0.466667	8.81701E-001	5.99873E-003	0.00000E+000	5.28908E-003	3.59960E-001	-1.16625E+000	3.57660E+000	10	...........
	35	0.48	8.88014E-001	5.99595E-003	0.00000E+000	5.32449E-003	3.59960E-001	-1.16363E+000	3.57660E+000	10	...........
	36	0.493333	8.94256E-001	5.98983E-003	0.00000E+000	5.35644E-003	3.59960E-001	-1.15757E+000	3.57660E+000	10	...........
	37	0.506667	9.00490E-001	5.99178E-003	0.00000E+000	5.39553E-003	3.59960E-001	-1.16637E+000	3.57660E+000	10	...........
	38	0.52	9.06736E-001	5.98925E-003	0.00000E+000	5.43067E-003	3.59960E-001	-1.16335E+000	3.57660E+000	10	...........
	39	0.533333	9.12928E-001	5.99250E-003	0.00000E+000	5.47072E-003	3.59960E-001	-1.15745E+000	3.57660E+000	10	...........
	40	0.546667	9.19048E-001	5.98960E-003	0.00000E+000	5.50473E-003	3.59960E-001	-1.16652E+000	3.57660E+000	10	...........
	41	0.56	9.25201E-001	5.99117E-003	0.00000E+000	5.54304E-003	3.59960E-001	-1.16337E+000	3.57660E+000	10	...........
	42	0.573333	9.31255E-001	5.99268E-003	0.00000E+000	5.58071E-003	3.59960E-001	-1.15768E+000	3.57660E+000	10	...........
	43	0.586667	9.37272E-001	5.99615E-003	0.00000E+000	5.62002E-003	3.59960E-001	-1.16660E+000	3.57660E+000	10	...........
	44	0.6	9.43249E-001	5.99158E-003	0.00000E+000	5.65155E-003	3.59960E-001	-1.16311E+000	3.57660E+000	10	...........
	45	0.613333	9.49264E-001	5.99949E-003	0.00000E+000	5.69510E-003	3.59960E-001	-1.15755E+000	3.57660E+000	10	...........
	46	0.626667	9.55100E-001	5.99440E-003	0.00000E+000	5.72525E-003	3.59960E-001	-1.16673E+000	3.57660E+000	10	...........
	47	0.64	9.60936E-001	5.99414E-003	0.00000E+000	5.75998E-003	3.59960E-001	-1.16298E+000	3.57660E+000	10	...........
	48	0.653333	9.66729E-001	5.99471E-003	0.00000E+000	5.79526E-003	3.59960E-001	-1.15759E+000	3.57660E+000	10	...........
	49	0.666667	9.72488E-001	5.98809E-003	0.00000E+000	5.82334E-003	3.59960E-001	-1.16630E+000	3.57660E+000	10	...........
	50	0.68	9.78258E-001	5.99292E-003	0.00000E+000	5.86262E-003	3.59960E-001	-1.16259E+000	3.57660E+000	10	...........
	51	0.693333	9.83874E-001	5.99439E-003	0.00000E+000	5.89772E-003	3.59960E-001	-1.15729E+000	3.57660E+000	10	...........
	52	0.706667	9.89528E-001	5.99831E-003	0.00000E+000	5.93549E-003	3.59960E-001	-1.16655E+000	3.57660E+000	10	...........
	53	0.72	9.95070E-001	5.99310E-003	0.00000E+000	5.96356E-003	3.59960E-001	-1.16239E+000	3.57660E+000	10	...........
	54	0.726667	9.99211E-001	5.99646E-003	0.00000E+000	5.99173E-003	3.59960E-001	-1.16106E+000	3.57660E+000	10	...........
STARTTIMEOFFSET	QUANT	1239.316	Start Time Offset (s)