File: Data/CV_CRGO300517_1/PWRCCD_CRGO300517_1/CHARGE_DISCHARGE/CHARGE_#68.DTA
EXPLAIN
TAG	PWR800_CHARGE
TITLE	LABEL	PWR Cyclic Charge Discharge (Cell) - Charge Step	Test &Identifier
DATE	LABEL	22-6-2017	Date
TIME	LABEL	15:38:05	Time
NOTES	NOTES	3	&Notes...
	supercap test cell
	0.6mg
	6M KOH
PSTAT	PSTAT	IFC5000-01520	Potentiostat
CAPACITY	QUANT	1.00000E-003	Capacity (A-hr)
CELLTYPE	SELECTOR	1	&Cell Type
WORKINGCONNECTION	SELECTOR	0	&Working Lead
MAXCHARGETIME	VARIABLEANDUNITS	1.00000E+002	s	1.00000E+002	second(s)	Max &Charge Time
CHARGECURRENT	QUANT	6.00000E-003	&Charge Current (A)
VOLTAGEFINISH	TWOPARAM	F	1.00000E-003	3.60000E+003	&Voltage Finish	 I (A) < 	Max Time(s)
SAMPLETIME	QUANT	1.00000E-002	Sa&mple Period (s)
CHARGESTOPAT1	MULTIPARAM	4	1.00000E+000	Charge Stop At &1	Voltage > Limit	V
CHARGESTOPAT2	MULTIPARAM	0	0.00000E+000	Charge Stop At &2	None	N/A
AESBHCSELECTOR	TOGGLE	F	Save Both Half Cells
IRCOMP	TOGGLE	F	IR &Measure
EOC	QUANT	0	Open Circuit (V)
SEQUENCER	TOGGLE	TRUE	Run as Sequence
PSTATMODEL	IQUANT	53	Pstat Model
PSTATSECTION	LABEL	IFC5000-01520	Pstat Section
PSTATSERIALNO	LABEL	01520	Pstat Serial Number
CTRLMODE	IQUANT	0	Control Mode
ELECTROMETER	IQUANT	1	RE=0 or CS=1
IESTAB	IQUANT	0	I/E Stability
CASPEED	IQUANT	4	Control Amp Speed
CONVENTION	IQUANT	1	Current Convention
ICHRANGE	IQUANT	2	Ich Range
ICHRANGEMODE	TOGGLE	T	Ich Auto Range
ICHOFFSETENABLE	TOGGLE	F	Ich Offset Enable
ICHOFFSET	QUANT	0	Ich Offset (V)
ICHFILTER	IQUANT	1	Ich Filter
VCHRANGE	IQUANT	2	Vch Range
VCHRANGEMODE	TOGGLE	T	Vch Auto Range
VCHOFFSETENABLE	TOGGLE	F	Vch Offset Enable
VCHOFFSET	QUANT	0	Vch Offset (V)
VCHFILTER	IQUANT	1	Vch Filter
IERANGELOWERLIMIT	IQUANT	9	I/E Range Lower Limit
IERANGEMODE	TOGGLE	F	I/E AutoRange
IERANGE	IQUANT	10	I/E Range
ACHSELECT	IQUANT	1	Ach Select
ACHRANGE	IQUANT	2	Ach Range
ACHOFFSETENABLE	TOGGLE	F	Ach Offset Enable
ACHOFFSET	QUANT	0	Ach Offset (V)
ACHFILTER	IQUANT	1	Ach Filter
CABLEID	IQUANT	14	Cable ID
DCCALDATE	LABEL	20-10-2016	DC Calibration Date
ACCALDATE	LABEL	12/3/2015	AC Calibration Date
FRAMEWORKVERSION	QUANT	7.01	Framework Version
INSTRUMENTVERSION	LABEL	4.00	Instrument Version
CURVE	TABLE	72
	Pt	T	Vf	Im	Vu	Pwr	Sig	Ach	Temp	IERange	Over
	#	s	V	A	V	W	V	V	deg C	#	bits
	0	0.013333	5.80491E-001	5.99344E-003	0.00000E+000	3.47914E-003	3.59960E-001	-1.05181E+000	3.57780E+000	10	...........
	1	0.026667	5.88658E-001	5.99546E-003	0.00000E+000	3.52928E-003	3.59960E-001	-1.04645E+000	3.57780E+000	10	...........
	2	0.04	5.96106E-001	5.99068E-003	0.00000E+000	3.57108E-003	3.59960E-001	-1.05694E+000	3.57780E+000	10	...........
	3	0.053333	6.03197E-001	5.99030E-003	0.00000E+000	3.61333E-003	3.59960E-001	-1.05163E+000	3.57780E+000	10	...........
	4	0.066667	6.09992E-001	5.99221E-003	0.00000E+000	3.65520E-003	3.59960E-001	-1.04604E+000	3.57780E+000	10	...........
	5	0.08	6.16726E-001	5.99108E-003	0.00000E+000	3.69485E-003	3.59960E-001	-1.05675E+000	3.57780E+000	10	...........
	6	0.093333	6.23201E-001	5.99480E-003	0.00000E+000	3.73597E-003	3.59960E-001	-1.05204E+000	3.57780E+000	10	...........
	7	0.106667	6.29560E-001	5.99199E-003	0.00000E+000	3.77231E-003	3.59960E-001	-1.04629E+000	3.57780E+000	10	...........
	8	0.12	6.35801E-001	5.99550E-003	0.00000E+000	3.81194E-003	3.59960E-001	-1.05646E+000	3.57780E+000	10	...........
	9	0.133333	6.42037E-001	5.99281E-003	0.00000E+000	3.84760E-003	3.59960E-001	-1.05192E+000	3.57780E+000	10	...........
	10	0.146667	6.48158E-001	5.99686E-003	0.00000E+000	3.88691E-003	3.59960E-001	-1.04627E+000	3.57780E+000	10	...........
	11	0.16	6.54259E-001	5.99493E-003	0.00000E+000	3.92223E-003	3.59960E-001	-1.05663E+000	3.57780E+000	10	...........
	12	0.173333	6.60306E-001	5.99243E-003	0.00000E+000	3.95683E-003	3.59960E-001	-1.05237E+000	3.57780E+000	10	...........
	13	0.186667	6.66363E-001	5.99395E-003	0.00000E+000	3.99415E-003	3.59960E-001	-1.04610E+000	3.57780E+000	10	...........
	14	0.2	6.72343E-001	5.99313E-003	0.00000E+000	4.02944E-003	3.59960E-001	-1.05631E+000	3.57780E+000	10	...........
	15	0.213333	6.78273E-001	5.99603E-003	0.00000E+000	4.06695E-003	3.59960E-001	-1.05232E+000	3.57780E+000	10	...........
	16	0.226667	6.84193E-001	5.99156E-003	0.00000E+000	4.09939E-003	3.59960E-001	-1.04645E+000	3.57780E+000	10	...........
	17	0.24	6.90101E-001	5.98977E-003	0.00000E+000	4.13354E-003	3.59960E-001	-1.05628E+000	3.57780E+000	10	...........
	18	0.253333	6.96052E-001	5.99408E-003	0.00000E+000	4.17219E-003	3.59960E-001	-1.05234E+000	3.57780E+000	10	...........
	19	0.266667	7.01946E-001	5.99434E-003	0.00000E+000	4.20771E-003	3.59960E-001	-1.04625E+000	3.57780E+000	10	...........
	20	0.28	7.07771E-001	5.99352E-003	0.00000E+000	4.24204E-003	3.59960E-001	-1.05624E+000	3.57780E+000	10	...........
	21	0.293333	7.13617E-001	5.99433E-003	0.00000E+000	4.27766E-003	3.59960E-001	-1.05265E+000	3.57780E+000	10	...........
	22	0.306667	7.19498E-001	5.99475E-003	0.00000E+000	4.31321E-003	3.59960E-001	-1.04644E+000	3.57780E+000	10	...........
	23	0.32	7.25349E-001	5.99432E-003	0.00000E+000	4.34797E-003	3.59960E-001	-1.05559E+000	3.57780E+000	10	...........
	24	0.333333	7.31162E-001	5.99666E-003	0.00000E+000	4.38453E-003	3.59960E-001	-1.05223E+000	3.57780E+000	10	...........
	25	0.346667	7.37000E-001	5.99264E-003	0.00000E+000	4.41658E-003	3.59960E-001	-1.04584E+000	3.57780E+000	10	...........
	26	0.36	7.42846E-001	5.98979E-003	0.00000E+000	4.44949E-003	3.59960E-001	-1.05537E+000	3.57780E+000	10	...........
	27	0.373333	7.48692E-001	5.99141E-003	0.00000E+000	4.48572E-003	3.59960E-001	-1.05234E+000	3.57780E+000	10	...........
	28	0.386667	7.54555E-001	5.99409E-003	0.00000E+000	4.52287E-003	3.59960E-001	-1.04564E+000	3.57780E+000	10	...........
	29	0.4	7.60363E-001	5.99726E-003	0.00000E+000	4.56010E-003	3.59960E-001	-1.05512E+000	3.57780E+000	10	...........
	30	0.413333	7.66150E-001	5.99107E-003	0.00000E+000	4.59006E-003	3.59960E-001	-1.05235E+000	3.57780E+000	10	...........
	31	0.426667	7.71978E-001	5.98936E-003	0.00000E+000	4.62366E-003	3.59960E-001	-1.04573E+000	3.57780E+000	10	...........
	32	0.44	7.77773E-001	5.99089E-003	0.00000E+000	4.65955E-003	3.59960E-001	-1.05500E+000	3.57780E+000	10	...........
	33	0.453333	7.83594E-001	5.99516E-003	0.00000E+000	4.69777E-003	3.59960E-001	-1.05238E+000	3.57780E+000	10	...........
	34	0.466667	7.89405E-001	5.99521E-003	0.00000E+000	4.73265E-003	3.59960E-001	-1.04561E+000	3.57780E+000	10	...........
	35	0.48	7.95262E-001	5.99735E-003	0.00000E+000	4.76946E-003	3.59960E-001	-1.05500E+000	3.57780E+000	10	...........
	36	0.493333	8.01030E-001	5.99954E-003	0.00000E+000	4.80581E-003	3.59960E-001	-1.05280E+000	3.57780E+000	10	...........
	37	0.506667	8.06794E-001	5.99183E-003	0.00000E+000	4.83417E-003	3.59960E-001	-1.04553E+000	3.57780E+000	10	...........
	38	0.52	8.12582E-001	5.99123E-003	0.00000E+000	4.86836E-003	3.59960E-001	-1.05469E+000	3.57780E+000	10	...........
	39	0.533333	8.18379E-001	5.99715E-003	0.00000E+000	4.90794E-003	3.59960E-001	-1.05258E+000	3.57780E+000	10	...........
	40	0.546667	8.24169E-001	5.99357E-003	0.00000E+000	4.93972E-003	3.59960E-001	-1.04579E+000	3.57780E+000	10	...........
	41	0.56	8.29900E-001	5.99734E-003	0.00000E+000	4.97719E-003	3.59960E-001	-1.05475E+000	3.57780E+000	10	...........
	42	0.573333	8.35681E-001	5.99153E-003	0.00000E+000	5.00700E-003	3.59960E-001	-1.05286E+000	3.57780E+000	10	...........
	43	0.586667	8.41477E-001	5.99645E-003	0.00000E+000	5.04587E-003	3.59960E-001	-1.04561E+000	3.57780E+000	10	...........
	44	0.6	8.47265E-001	5.99462E-003	0.00000E+000	5.07903E-003	3.59960E-001	-1.05443E+000	3.57780E+000	10	...........
	45	0.613333	8.53008E-001	5.99280E-003	0.00000E+000	5.11191E-003	3.59960E-001	-1.05290E+000	3.57780E+000	10	...........
	46	0.626667	8.58797E-001	5.99591E-003	0.00000E+000	5.14927E-003	3.59960E-001	-1.04580E+000	3.57780E+000	10	...........
	47	0.64	8.64563E-001	5.99531E-003	0.00000E+000	5.18332E-003	3.59960E-001	-1.05425E+000	3.57780E+000	10	...........
	48	0.653333	8.70336E-001	5.99459E-003	0.00000E+000	5.21731E-003	3.59960E-001	-1.05249E+000	3.57780E+000	10	...........
	49	0.666667	8.76109E-001	5.99415E-003	0.00000E+000	5.25153E-003	3.59960E-001	-1.04510E+000	3.57780E+000	10	...........
	50	0.68	8.81825E-001	5.99510E-003	0.00000E+000	5.28663E-003	3.59960E-001	-1.05382E+000	3.57780E+000	10	...........
	51	0.693333	8.87542E-001	5.99259E-003	0.00000E+000	5.31868E-003	3.59960E-001	-1.05279E+000	3.57780E+000	10	...........
	52	0.706667	8.93263E-001	5.99236E-003	0.00000E+000	5.35276E-003	3.59960E-001	-1.04503E+000	3.57780E+000	10	...........
	53	0.72	8.98970E-001	5.99601E-003	0.00000E+000	5.39024E-003	3.59960E-001	-1.05353E+000	3.57780E+000	10	...........
	54	0.733333	9.04615E-001	5.99662E-003	0.00000E+000	5.42463E-003	3.59960E-001	-1.05275E+000	3.57780E+000	10	...........
	55	0.746667	9.10272E-001	5.99193E-003	0.00000E+000	5.45429E-003	3.59960E-001	-1.04526E+000	3.57780E+000	10	...........
	56	0.76	9.15940E-001	5.99428E-003	0.00000E+000	5.49041E-003	3.59960E-001	-1.05378E+000	3.57780E+000	10	...........
	57	0.773333	9.21631E-001	5.99306E-003	0.00000E+000	5.52339E-003	3.59960E-001	-1.05287E+000	3.57780E+000	10	...........
	58	0.786667	9.27237E-001	5.99113E-003	0.00000E+000	5.55520E-003	3.59960E-001	-1.04505E+000	3.57780E+000	10	...........
	59	0.8	9.32840E-001	5.99408E-003	0.00000E+000	5.59152E-003	3.59960E-001	-1.05351E+000	3.57780E+000	10	...........
	60	0.813333	9.38402E-001	5.99333E-003	0.00000E+000	5.62416E-003	3.59960E-001	-1.05314E+000	3.57780E+000	10	...........
	61	0.826667	9.43976E-001	5.99223E-003	0.00000E+000	5.65652E-003	3.59960E-001	-1.04530E+000	3.57841E+000	10	...........
	62	0.84	9.49590E-001	5.99427E-003	0.00000E+000	5.69210E-003	3.59960E-001	-1.05338E+000	3.57850E+000	10	...........
	63	0.853333	9.55090E-001	5.99490E-003	0.00000E+000	5.72567E-003	3.59960E-001	-1.05303E+000	3.57850E+000	10	...........
	64	0.866667	9.60599E-001	5.99827E-003	0.00000E+000	5.76193E-003	3.59960E-001	-1.04501E+000	3.57850E+000	10	...........
	65	0.88	9.66076E-001	5.99663E-003	0.00000E+000	5.79320E-003	3.59960E-001	-1.05329E+000	3.57850E+000	10	...........
	66	0.893333	9.71547E-001	5.99112E-003	0.00000E+000	5.82066E-003	3.59960E-001	-1.05346E+000	3.57850E+000	10	...........
	67	0.906667	9.77024E-001	5.99273E-003	0.00000E+000	5.85504E-003	3.59960E-001	-1.04531E+000	3.57850E+000	10	...........
	68	0.92	9.82379E-001	5.99434E-003	0.00000E+000	5.88872E-003	3.59960E-001	-1.05304E+000	3.57850E+000	10	...........
	69	0.933333	9.87736E-001	5.99480E-003	0.00000E+000	5.92128E-003	3.59960E-001	-1.05338E+000	3.57850E+000	10	...........
	70	0.946667	9.93031E-001	5.99462E-003	0.00000E+000	5.95284E-003	3.59960E-001	-1.04526E+000	3.57850E+000	10	...........
	71	0.96	9.98297E-001	5.99663E-003	0.00000E+000	5.98642E-003	3.59960E-001	-1.05307E+000	3.57850E+000	10	...........
STARTTIMEOFFSET	QUANT	135.25	Start Time Offset (s)