File: Data/CV_CRGO300517_1/PWRCCD_CRGO300517_1/CHARGE_DISCHARGE/CHARGE_#307.DTA
EXPLAIN
TAG	PWR800_CHARGE
TITLE	LABEL	PWR Cyclic Charge Discharge (Cell) - Charge Step	Test &Identifier
DATE	LABEL	22-6-2017	Date
TIME	LABEL	15:48:13	Time
NOTES	NOTES	3	&Notes...
	supercap test cell
	0.6mg
	6M KOH
PSTAT	PSTAT	IFC5000-01520	Potentiostat
CAPACITY	QUANT	1.00000E-003	Capacity (A-hr)
CELLTYPE	SELECTOR	1	&Cell Type
WORKINGCONNECTION	SELECTOR	0	&Working Lead
MAXCHARGETIME	VARIABLEANDUNITS	1.00000E+002	s	1.00000E+002	second(s)	Max &Charge Time
CHARGECURRENT	QUANT	6.00000E-003	&Charge Current (A)
VOLTAGEFINISH	TWOPARAM	F	1.00000E-003	3.60000E+003	&Voltage Finish	 I (A) < 	Max Time(s)
SAMPLETIME	QUANT	1.00000E-002	Sa&mple Period (s)
CHARGESTOPAT1	MULTIPARAM	4	1.00000E+000	Charge Stop At &1	Voltage > Limit	V
CHARGESTOPAT2	MULTIPARAM	0	0.00000E+000	Charge Stop At &2	None	N/A
AESBHCSELECTOR	TOGGLE	F	Save Both Half Cells
IRCOMP	TOGGLE	F	IR &Measure
EOC	QUANT	0	Open Circuit (V)
SEQUENCER	TOGGLE	TRUE	Run as Sequence
PSTATMODEL	IQUANT	53	Pstat Model
PSTATSECTION	LABEL	IFC5000-01520	Pstat Section
PSTATSERIALNO	LABEL	01520	Pstat Serial Number
CTRLMODE	IQUANT	0	Control Mode
ELECTROMETER	IQUANT	1	RE=0 or CS=1
IESTAB	IQUANT	0	I/E Stability
CASPEED	IQUANT	4	Control Amp Speed
CONVENTION	IQUANT	1	Current Convention
ICHRANGE	IQUANT	2	Ich Range
ICHRANGEMODE	TOGGLE	T	Ich Auto Range
ICHOFFSETENABLE	TOGGLE	F	Ich Offset Enable
ICHOFFSET	QUANT	0	Ich Offset (V)
ICHFILTER	IQUANT	1	Ich Filter
VCHRANGE	IQUANT	2	Vch Range
VCHRANGEMODE	TOGGLE	T	Vch Auto Range
VCHOFFSETENABLE	TOGGLE	F	Vch Offset Enable
VCHOFFSET	QUANT	0	Vch Offset (V)
VCHFILTER	IQUANT	1	Vch Filter
IERANGELOWERLIMIT	IQUANT	9	I/E Range Lower Limit
IERANGEMODE	TOGGLE	F	I/E AutoRange
IERANGE	IQUANT	10	I/E Range
ACHSELECT	IQUANT	1	Ach Select
ACHRANGE	IQUANT	2	Ach Range
ACHOFFSETENABLE	TOGGLE	F	Ach Offset Enable
ACHOFFSET	QUANT	0	Ach Offset (V)
ACHFILTER	IQUANT	1	Ach Filter
CABLEID	IQUANT	14	Cable ID
DCCALDATE	LABEL	20-10-2016	DC Calibration Date
ACCALDATE	LABEL	12/3/2015	AC Calibration Date
FRAMEWORKVERSION	QUANT	7.01	Framework Version
INSTRUMENTVERSION	LABEL	4.00	Instrument Version
CURVE	TABLE	62
	Pt	T	Vf	Im	Vu	Pwr	Sig	Ach	Temp	IERange	Over
	#	s	V	A	V	W	V	V	deg C	#	bits
	0	0.013333	6.16889E-001	5.99704E-003	0.00000E+000	3.69950E-003	3.59960E-001	-1.10257E+000	3.57660E+000	10	...........
	1	0.026667	6.25496E-001	5.99279E-003	0.00000E+000	3.74846E-003	3.59960E-001	-1.11284E+000	3.57690E+000	10	...........
	2	0.04	6.33406E-001	5.99129E-003	0.00000E+000	3.79492E-003	3.59960E-001	-1.10623E+000	3.57690E+000	10	...........
	3	0.053333	6.40939E-001	5.99910E-003	0.00000E+000	3.84506E-003	3.59960E-001	-1.10275E+000	3.57690E+000	10	...........
	4	0.066667	6.48209E-001	5.99548E-003	0.00000E+000	3.88632E-003	3.59960E-001	-1.11270E+000	3.57690E+000	10	...........
	5	0.08	6.55249E-001	5.99251E-003	0.00000E+000	3.92658E-003	3.59960E-001	-1.10606E+000	3.57690E+000	10	...........
	6	0.093333	6.62132E-001	5.99318E-003	0.00000E+000	3.96827E-003	3.59960E-001	-1.10286E+000	3.57690E+000	10	...........
	7	0.106667	6.68989E-001	5.99649E-003	0.00000E+000	4.01159E-003	3.59960E-001	-1.11291E+000	3.57690E+000	10	...........
	8	0.12	6.75657E-001	5.99059E-003	0.00000E+000	4.04758E-003	3.59960E-001	-1.10587E+000	3.57690E+000	10	...........
	9	0.133333	6.82309E-001	5.99217E-003	0.00000E+000	4.08851E-003	3.59960E-001	-1.10223E+000	3.57690E+000	10	...........
	10	0.146667	6.88878E-001	5.99161E-003	0.00000E+000	4.12749E-003	3.59960E-001	-1.11246E+000	3.57690E+000	10	...........
	11	0.16	6.95429E-001	5.99409E-003	0.00000E+000	4.16847E-003	3.59960E-001	-1.10605E+000	3.57690E+000	10	...........
	12	0.173333	7.01946E-001	5.99226E-003	0.00000E+000	4.20624E-003	3.59960E-001	-1.10262E+000	3.57690E+000	10	...........
	13	0.186667	7.08390E-001	5.99250E-003	0.00000E+000	4.24503E-003	3.59960E-001	-1.11258E+000	3.57690E+000	10	...........
	14	0.2	7.14807E-001	5.99346E-003	0.00000E+000	4.28417E-003	3.59960E-001	-1.10610E+000	3.57690E+000	10	...........
	15	0.213333	7.21252E-001	5.99356E-003	0.00000E+000	4.32287E-003	3.59960E-001	-1.10241E+000	3.57690E+000	10	...........
	16	0.226667	7.27668E-001	5.99644E-003	0.00000E+000	4.36342E-003	3.59960E-001	-1.11243E+000	3.57690E+000	10	...........
	17	0.24	7.33964E-001	5.99492E-003	0.00000E+000	4.40006E-003	3.59960E-001	-1.10633E+000	3.57690E+000	10	...........
	18	0.253333	7.40305E-001	5.99599E-003	0.00000E+000	4.43887E-003	3.59960E-001	-1.10263E+000	3.57690E+000	10	...........
	19	0.266667	7.46684E-001	5.99248E-003	0.00000E+000	4.47449E-003	3.59960E-001	-1.11253E+000	3.57690E+000	10	...........
	20	0.28	7.52981E-001	5.99536E-003	0.00000E+000	4.51439E-003	3.59960E-001	-1.10620E+000	3.57690E+000	10	...........
	21	0.293333	7.59277E-001	5.99635E-003	0.00000E+000	4.55289E-003	3.59960E-001	-1.10258E+000	3.57690E+000	10	...........
	22	0.306667	7.65564E-001	5.99592E-003	0.00000E+000	4.59026E-003	3.59960E-001	-1.11263E+000	3.57690E+000	10	...........
	23	0.32	7.71935E-001	5.99442E-003	0.00000E+000	4.62730E-003	3.59960E-001	-1.10656E+000	3.57690E+000	10	...........
	24	0.333333	7.78198E-001	5.99814E-003	0.00000E+000	4.66774E-003	3.59960E-001	-1.10297E+000	3.57690E+000	10	...........
	25	0.346667	7.84477E-001	5.99439E-003	0.00000E+000	4.70246E-003	3.59960E-001	-1.11295E+000	3.57690E+000	10	...........
	26	0.36	7.90704E-001	5.99403E-003	0.00000E+000	4.73951E-003	3.59960E-001	-1.10674E+000	3.57690E+000	10	...........
	27	0.373333	7.96974E-001	5.99471E-003	0.00000E+000	4.77763E-003	3.59960E-001	-1.10314E+000	3.57690E+000	10	...........
	28	0.386667	8.03187E-001	5.99299E-003	0.00000E+000	4.81349E-003	3.59960E-001	-1.11309E+000	3.57690E+000	10	...........
	29	0.4	8.09399E-001	5.99376E-003	0.00000E+000	4.85134E-003	3.59960E-001	-1.10704E+000	3.57690E+000	10	...........
	30	0.413333	8.15622E-001	5.99534E-003	0.00000E+000	4.88993E-003	3.59960E-001	-1.10311E+000	3.57690E+000	10	...........
	31	0.426667	8.21838E-001	5.99864E-003	0.00000E+000	4.92991E-003	3.59960E-001	-1.11299E+000	3.57690E+000	10	...........
	32	0.44	8.28000E-001	5.99671E-003	0.00000E+000	4.96528E-003	3.59960E-001	-1.10695E+000	3.57690E+000	10	...........
	33	0.453333	8.34170E-001	5.99766E-003	0.00000E+000	5.00307E-003	3.59960E-001	-1.10299E+000	3.57690E+000	10	...........
	34	0.466667	8.40329E-001	5.98995E-003	0.00000E+000	5.03353E-003	3.59960E-001	-1.11283E+000	3.57690E+000	10	...........
	35	0.48	8.46482E-001	5.99280E-003	0.00000E+000	5.07280E-003	3.59960E-001	-1.10686E+000	3.57690E+000	10	...........
	36	0.493333	8.52661E-001	5.99550E-003	0.00000E+000	5.11213E-003	3.59960E-001	-1.10305E+000	3.57690E+000	10	...........
	37	0.506667	8.58764E-001	5.99287E-003	0.00000E+000	5.14647E-003	3.59960E-001	-1.11275E+000	3.57690E+000	10	...........
	38	0.52	8.64869E-001	5.99480E-003	0.00000E+000	5.18472E-003	3.59960E-001	-1.10712E+000	3.57690E+000	10	...........
	39	0.533333	8.70963E-001	5.99266E-003	0.00000E+000	5.21939E-003	3.59960E-001	-1.10299E+000	3.57690E+000	10	...........
	40	0.546667	8.77052E-001	5.99454E-003	0.00000E+000	5.25753E-003	3.59960E-001	-1.11284E+000	3.57690E+000	10	...........
	41	0.56	8.83083E-001	5.99399E-003	0.00000E+000	5.29319E-003	3.59960E-001	-1.10731E+000	3.57690E+000	10	...........
	42	0.573333	8.89098E-001	5.99319E-003	0.00000E+000	5.32853E-003	3.59960E-001	-1.10325E+000	3.57690E+000	10	...........
	43	0.586667	8.95105E-001	5.99212E-003	0.00000E+000	5.36358E-003	3.59960E-001	-1.11286E+000	3.57690E+000	10	...........
	44	0.6	9.01066E-001	5.99790E-003	0.00000E+000	5.40451E-003	3.59960E-001	-1.10702E+000	3.57690E+000	10	...........
	45	0.613333	9.07037E-001	5.99523E-003	0.00000E+000	5.43790E-003	3.59960E-001	-1.10306E+000	3.57690E+000	10	...........
	46	0.626667	9.13003E-001	5.99238E-003	0.00000E+000	5.47106E-003	3.59960E-001	-1.11283E+000	3.57690E+000	10	...........
	47	0.64	9.18923E-001	5.99659E-003	0.00000E+000	5.51040E-003	3.59960E-001	-1.10718E+000	3.57690E+000	10	...........
	48	0.653333	9.24845E-001	5.99087E-003	0.00000E+000	5.54063E-003	3.59960E-001	-1.10313E+000	3.57690E+000	10	...........
	49	0.666667	9.30703E-001	5.99365E-003	0.00000E+000	5.57831E-003	3.59960E-001	-1.11299E+000	3.57690E+000	10	...........
	50	0.68	9.36556E-001	5.99510E-003	0.00000E+000	5.61474E-003	3.59960E-001	-1.10752E+000	3.57690E+000	10	...........
	51	0.693333	9.42331E-001	5.99292E-003	0.00000E+000	5.64731E-003	3.59960E-001	-1.10327E+000	3.57690E+000	10	...........
	52	0.706667	9.48107E-001	5.99721E-003	0.00000E+000	5.68600E-003	3.59960E-001	-1.11302E+000	3.57690E+000	10	...........
	53	0.72	9.53837E-001	5.99446E-003	0.00000E+000	5.71774E-003	3.59960E-001	-1.10761E+000	3.57690E+000	10	...........
	54	0.733333	9.59547E-001	5.99599E-003	0.00000E+000	5.75343E-003	3.59960E-001	-1.10341E+000	3.57690E+000	10	...........
	55	0.746667	9.65212E-001	5.99735E-003	0.00000E+000	5.78871E-003	3.59960E-001	-1.11278E+000	3.57690E+000	10	...........
	56	0.76	9.70823E-001	5.99761E-003	0.00000E+000	5.82262E-003	3.59960E-001	-1.10710E+000	3.57690E+000	10	...........
	57	0.773333	9.76433E-001	5.99175E-003	0.00000E+000	5.85054E-003	3.59960E-001	-1.10284E+000	3.57690E+000	10	...........
	58	0.786667	9.81945E-001	5.98821E-003	0.00000E+000	5.88009E-003	3.59960E-001	-1.11234E+000	3.57690E+000	10	...........
	59	0.8	9.87471E-001	5.99904E-003	0.00000E+000	5.92387E-003	3.59960E-001	-1.10710E+000	3.57690E+000	10	...........
	60	0.813333	9.92924E-001	5.99238E-003	0.00000E+000	5.94998E-003	3.59960E-001	-1.10289E+000	3.57690E+000	10	...........
	61	0.825	9.98000E-001	5.99511E-003	0.00000E+000	5.98313E-003	3.59960E-001	-1.11444E+000	3.57690E+000	10	...........
STARTTIMEOFFSET	QUANT	552.6483	Start Time Offset (s)