File: Data/CV_CRGO300517_1/PWRCCD_CRGO300517_1/CHARGE_DISCHARGE/CHARGE_#935.DTA
EXPLAIN
TAG	PWR800_CHARGE
TITLE	LABEL	PWR Cyclic Charge Discharge (Cell) - Charge Step	Test &Identifier
DATE	LABEL	22-6-2017	Date
TIME	LABEL	16:12:16	Time
NOTES	NOTES	3	&Notes...
	supercap test cell
	0.6mg
	6M KOH
PSTAT	PSTAT	IFC5000-01520	Potentiostat
CAPACITY	QUANT	1.00000E-003	Capacity (A-hr)
CELLTYPE	SELECTOR	1	&Cell Type
WORKINGCONNECTION	SELECTOR	0	&Working Lead
MAXCHARGETIME	VARIABLEANDUNITS	1.00000E+002	s	1.00000E+002	second(s)	Max &Charge Time
CHARGECURRENT	QUANT	6.00000E-003	&Charge Current (A)
VOLTAGEFINISH	TWOPARAM	F	1.00000E-003	3.60000E+003	&Voltage Finish	 I (A) < 	Max Time(s)
SAMPLETIME	QUANT	1.00000E-002	Sa&mple Period (s)
CHARGESTOPAT1	MULTIPARAM	4	1.00000E+000	Charge Stop At &1	Voltage > Limit	V
CHARGESTOPAT2	MULTIPARAM	0	0.00000E+000	Charge Stop At &2	None	N/A
AESBHCSELECTOR	TOGGLE	F	Save Both Half Cells
IRCOMP	TOGGLE	F	IR &Measure
EOC	QUANT	0	Open Circuit (V)
SEQUENCER	TOGGLE	TRUE	Run as Sequence
PSTATMODEL	IQUANT	53	Pstat Model
PSTATSECTION	LABEL	IFC5000-01520	Pstat Section
PSTATSERIALNO	LABEL	01520	Pstat Serial Number
CTRLMODE	IQUANT	0	Control Mode
ELECTROMETER	IQUANT	1	RE=0 or CS=1
IESTAB	IQUANT	0	I/E Stability
CASPEED	IQUANT	4	Control Amp Speed
CONVENTION	IQUANT	1	Current Convention
ICHRANGE	IQUANT	2	Ich Range
ICHRANGEMODE	TOGGLE	T	Ich Auto Range
ICHOFFSETENABLE	TOGGLE	F	Ich Offset Enable
ICHOFFSET	QUANT	0	Ich Offset (V)
ICHFILTER	IQUANT	1	Ich Filter
VCHRANGE	IQUANT	2	Vch Range
VCHRANGEMODE	TOGGLE	T	Vch Auto Range
VCHOFFSETENABLE	TOGGLE	F	Vch Offset Enable
VCHOFFSET	QUANT	0	Vch Offset (V)
VCHFILTER	IQUANT	1	Vch Filter
IERANGELOWERLIMIT	IQUANT	9	I/E Range Lower Limit
IERANGEMODE	TOGGLE	F	I/E AutoRange
IERANGE	IQUANT	10	I/E Range
ACHSELECT	IQUANT	1	Ach Select
ACHRANGE	IQUANT	2	Ach Range
ACHOFFSETENABLE	TOGGLE	F	Ach Offset Enable
ACHOFFSET	QUANT	0	Ach Offset (V)
ACHFILTER	IQUANT	1	Ach Filter
CABLEID	IQUANT	14	Cable ID
DCCALDATE	LABEL	20-10-2016	DC Calibration Date
ACCALDATE	LABEL	12/3/2015	AC Calibration Date
FRAMEWORKVERSION	QUANT	7.01	Framework Version
INSTRUMENTVERSION	LABEL	4.00	Instrument Version
CURVE	TABLE	53
	Pt	T	Vf	Im	Vu	Pwr	Sig	Ach	Temp	IERange	Over
	#	s	V	A	V	W	V	V	deg C	#	bits
	0	0.013333	6.54691E-001	5.99346E-003	0.00000E+000	3.92386E-003	3.59960E-001	-1.18347E+000	3.57640E+000	10	...........
	1	0.026667	6.64001E-001	5.98933E-003	0.00000E+000	3.97692E-003	3.59960E-001	-1.17302E+000	3.57640E+000	10	...........
	2	0.04	6.72582E-001	5.99585E-003	0.00000E+000	4.03270E-003	3.59960E-001	-1.17492E+000	3.57640E+000	10	...........
	3	0.053333	6.80735E-001	5.99743E-003	0.00000E+000	4.08266E-003	3.59960E-001	-1.18335E+000	3.57640E+000	10	...........
	4	0.066667	6.88558E-001	5.99556E-003	0.00000E+000	4.12829E-003	3.59960E-001	-1.17252E+000	3.57640E+000	10	...........
	5	0.08	6.96109E-001	5.98739E-003	0.00000E+000	4.16787E-003	3.59960E-001	-1.17427E+000	3.57640E+000	10	...........
	6	0.093333	7.03628E-001	5.99459E-003	0.00000E+000	4.21797E-003	3.59960E-001	-1.18323E+000	3.57640E+000	10	...........
	7	0.106667	7.10957E-001	5.99447E-003	0.00000E+000	4.26181E-003	3.59960E-001	-1.17266E+000	3.57640E+000	10	...........
	8	0.12	7.18197E-001	5.99245E-003	0.00000E+000	4.30376E-003	3.59960E-001	-1.17457E+000	3.57640E+000	10	...........
	9	0.133333	7.25421E-001	5.99176E-003	0.00000E+000	4.34655E-003	3.59960E-001	-1.18291E+000	3.57640E+000	10	...........
	10	0.146667	7.32543E-001	5.99259E-003	0.00000E+000	4.38983E-003	3.59960E-001	-1.17249E+000	3.57640E+000	10	...........
	11	0.16	7.39594E-001	5.99405E-003	0.00000E+000	4.43316E-003	3.59960E-001	-1.17424E+000	3.57640E+000	10	...........
	12	0.173333	7.46602E-001	5.99388E-003	0.00000E+000	4.47504E-003	3.59960E-001	-1.18306E+000	3.57640E+000	10	...........
	13	0.186667	7.53598E-001	5.99525E-003	0.00000E+000	4.51801E-003	3.59960E-001	-1.17232E+000	3.57640E+000	10	...........
	14	0.2	7.60518E-001	5.99733E-003	0.00000E+000	4.56108E-003	3.59960E-001	-1.17435E+000	3.57640E+000	10	...........
	15	0.213333	7.67417E-001	5.99466E-003	0.00000E+000	4.60040E-003	3.59960E-001	-1.18284E+000	3.57640E+000	10	...........
	16	0.226667	7.74301E-001	5.99133E-003	0.00000E+000	4.63909E-003	3.59960E-001	-1.17221E+000	3.57640E+000	10	...........
	17	0.24	7.81116E-001	5.99486E-003	0.00000E+000	4.68267E-003	3.59960E-001	-1.17435E+000	3.57640E+000	10	...........
	18	0.253333	7.87958E-001	5.99123E-003	0.00000E+000	4.72083E-003	3.59960E-001	-1.18275E+000	3.57640E+000	10	...........
	19	0.266667	7.94757E-001	5.99359E-003	0.00000E+000	4.76345E-003	3.59960E-001	-1.17229E+000	3.57640E+000	10	...........
	20	0.28	8.01489E-001	5.99204E-003	0.00000E+000	4.80256E-003	3.59960E-001	-1.17405E+000	3.57640E+000	10	...........
	21	0.293333	8.08159E-001	5.99661E-003	0.00000E+000	4.84621E-003	3.59960E-001	-1.18261E+000	3.57640E+000	10	...........
	22	0.306667	8.14903E-001	5.99001E-003	0.00000E+000	4.88127E-003	3.59960E-001	-1.17245E+000	3.57640E+000	10	...........
	23	0.32	8.21577E-001	5.99305E-003	0.00000E+000	4.92375E-003	3.59960E-001	-1.17438E+000	3.57640E+000	10	...........
	24	0.333333	8.28225E-001	5.99327E-003	0.00000E+000	4.96378E-003	3.59960E-001	-1.18245E+000	3.57640E+000	10	...........
	25	0.346667	8.34773E-001	5.99689E-003	0.00000E+000	5.00604E-003	3.59960E-001	-1.17215E+000	3.57640E+000	10	...........
	26	0.36	8.41404E-001	5.99340E-003	0.00000E+000	5.04287E-003	3.59960E-001	-1.17411E+000	3.57640E+000	10	...........
	27	0.373333	8.48048E-001	5.99642E-003	0.00000E+000	5.08525E-003	3.59960E-001	-1.18222E+000	3.57640E+000	10	...........
	28	0.386667	8.54575E-001	5.99747E-003	0.00000E+000	5.12529E-003	3.59960E-001	-1.17169E+000	3.57640E+000	10	...........
	29	0.4	8.61076E-001	5.99864E-003	0.00000E+000	5.16529E-003	3.59960E-001	-1.17355E+000	3.57640E+000	10	...........
	30	0.413333	8.67569E-001	5.99312E-003	0.00000E+000	5.19945E-003	3.59960E-001	-1.18200E+000	3.57640E+000	10	...........
	31	0.426667	8.74067E-001	5.99690E-003	0.00000E+000	5.24169E-003	3.59960E-001	-1.17162E+000	3.57640E+000	10	...........
	32	0.44	8.80480E-001	5.99381E-003	0.00000E+000	5.27743E-003	3.59960E-001	-1.17379E+000	3.57660E+000	10	...........
	33	0.453333	8.86883E-001	5.99396E-003	0.00000E+000	5.31594E-003	3.59960E-001	-1.18213E+000	3.57660E+000	10	...........
	34	0.466667	8.93239E-001	5.99534E-003	0.00000E+000	5.35527E-003	3.59960E-001	-1.17151E+000	3.57660E+000	10	...........
	35	0.48	8.99516E-001	5.99321E-003	0.00000E+000	5.39098E-003	3.59960E-001	-1.17336E+000	3.57660E+000	10	...........
	36	0.493333	9.05832E-001	5.99892E-003	0.00000E+000	5.43401E-003	3.59960E-001	-1.18202E+000	3.57660E+000	10	...........
	37	0.506667	9.12041E-001	5.98984E-003	0.00000E+000	5.46298E-003	3.59960E-001	-1.17171E+000	3.57660E+000	10	...........
	38	0.52	9.18239E-001	5.99528E-003	0.00000E+000	5.50510E-003	3.59960E-001	-1.17376E+000	3.57660E+000	10	...........
	39	0.533333	9.24441E-001	5.99635E-003	0.00000E+000	5.54327E-003	3.59960E-001	-1.18192E+000	3.57660E+000	10	...........
	40	0.546667	9.30606E-001	5.99299E-003	0.00000E+000	5.57711E-003	3.59960E-001	-1.17146E+000	3.57660E+000	10	...........
	41	0.56	9.36666E-001	5.99223E-003	0.00000E+000	5.61271E-003	3.59960E-001	-1.17356E+000	3.57660E+000	10	...........
	42	0.573333	9.42677E-001	5.99128E-003	0.00000E+000	5.64784E-003	3.59960E-001	-1.18196E+000	3.57660E+000	10	...........
	43	0.586667	9.48674E-001	5.98983E-003	0.00000E+000	5.68239E-003	3.59960E-001	-1.17165E+000	3.57660E+000	10	...........
	44	0.6	9.54625E-001	5.99476E-003	0.00000E+000	5.72275E-003	3.59960E-001	-1.17344E+000	3.57660E+000	10	...........
	45	0.613333	9.60516E-001	5.99349E-003	0.00000E+000	5.75684E-003	3.59960E-001	-1.18192E+000	3.57660E+000	10	...........
	46	0.626667	9.66388E-001	5.99504E-003	0.00000E+000	5.79354E-003	3.59960E-001	-1.17141E+000	3.57660E+000	10	...........
	47	0.64	9.72152E-001	5.99469E-003	0.00000E+000	5.82775E-003	3.59960E-001	-1.17393E+000	3.57660E+000	10	...........
	48	0.653333	9.77948E-001	5.99649E-003	0.00000E+000	5.86426E-003	3.59960E-001	-1.18214E+000	3.57660E+000	10	...........
	49	0.666667	9.83602E-001	5.99762E-003	0.00000E+000	5.89927E-003	3.59960E-001	-1.17153E+000	3.57660E+000	10	...........
	50	0.68	9.89247E-001	5.99466E-003	0.00000E+000	5.93020E-003	3.59960E-001	-1.17358E+000	3.57660E+000	10	...........
	51	0.693333	9.94813E-001	5.99595E-003	0.00000E+000	5.96485E-003	3.59960E-001	-1.18157E+000	3.57660E+000	10	...........
	52	0.701667	9.99308E-001	5.99129E-003	0.00000E+000	5.98714E-003	3.59960E-001	-1.16391E+000	3.57660E+000	10	...........
STARTTIMEOFFSET	QUANT	1495.055	Start Time Offset (s)