File: Data/CV_CRGO300517_1/PWRCCD_CRGO300517_1/CHARGE_DISCHARGE/CHARGE_#851.DTA
EXPLAIN
TAG	PWR800_CHARGE
TITLE	LABEL	PWR Cyclic Charge Discharge (Cell) - Charge Step	Test &Identifier
DATE	LABEL	22-6-2017	Date
TIME	LABEL	16:09:10	Time
NOTES	NOTES	3	&Notes...
	supercap test cell
	0.6mg
	6M KOH
PSTAT	PSTAT	IFC5000-01520	Potentiostat
CAPACITY	QUANT	1.00000E-003	Capacity (A-hr)
CELLTYPE	SELECTOR	1	&Cell Type
WORKINGCONNECTION	SELECTOR	0	&Working Lead
MAXCHARGETIME	VARIABLEANDUNITS	1.00000E+002	s	1.00000E+002	second(s)	Max &Charge Time
CHARGECURRENT	QUANT	6.00000E-003	&Charge Current (A)
VOLTAGEFINISH	TWOPARAM	F	1.00000E-003	3.60000E+003	&Voltage Finish	 I (A) < 	Max Time(s)
SAMPLETIME	QUANT	1.00000E-002	Sa&mple Period (s)
CHARGESTOPAT1	MULTIPARAM	4	1.00000E+000	Charge Stop At &1	Voltage > Limit	V
CHARGESTOPAT2	MULTIPARAM	0	0.00000E+000	Charge Stop At &2	None	N/A
AESBHCSELECTOR	TOGGLE	F	Save Both Half Cells
IRCOMP	TOGGLE	F	IR &Measure
EOC	QUANT	0	Open Circuit (V)
SEQUENCER	TOGGLE	TRUE	Run as Sequence
PSTATMODEL	IQUANT	53	Pstat Model
PSTATSECTION	LABEL	IFC5000-01520	Pstat Section
PSTATSERIALNO	LABEL	01520	Pstat Serial Number
CTRLMODE	IQUANT	0	Control Mode
ELECTROMETER	IQUANT	1	RE=0 or CS=1
IESTAB	IQUANT	0	I/E Stability
CASPEED	IQUANT	4	Control Amp Speed
CONVENTION	IQUANT	1	Current Convention
ICHRANGE	IQUANT	2	Ich Range
ICHRANGEMODE	TOGGLE	T	Ich Auto Range
ICHOFFSETENABLE	TOGGLE	F	Ich Offset Enable
ICHOFFSET	QUANT	0	Ich Offset (V)
ICHFILTER	IQUANT	1	Ich Filter
VCHRANGE	IQUANT	2	Vch Range
VCHRANGEMODE	TOGGLE	T	Vch Auto Range
VCHOFFSETENABLE	TOGGLE	F	Vch Offset Enable
VCHOFFSET	QUANT	0	Vch Offset (V)
VCHFILTER	IQUANT	1	Vch Filter
IERANGELOWERLIMIT	IQUANT	9	I/E Range Lower Limit
IERANGEMODE	TOGGLE	F	I/E AutoRange
IERANGE	IQUANT	10	I/E Range
ACHSELECT	IQUANT	1	Ach Select
ACHRANGE	IQUANT	2	Ach Range
ACHOFFSETENABLE	TOGGLE	F	Ach Offset Enable
ACHOFFSET	QUANT	0	Ach Offset (V)
ACHFILTER	IQUANT	1	Ach Filter
CABLEID	IQUANT	14	Cable ID
DCCALDATE	LABEL	20-10-2016	DC Calibration Date
ACCALDATE	LABEL	12/3/2015	AC Calibration Date
FRAMEWORKVERSION	QUANT	7.01	Framework Version
INSTRUMENTVERSION	LABEL	4.00	Instrument Version
CURVE	TABLE	54
	Pt	T	Vf	Im	Vu	Pwr	Sig	Ach	Temp	IERange	Over
	#	s	V	A	V	W	V	V	deg C	#	bits
	0	0.013333	6.51288E-001	5.99054E-003	0.00000E+000	3.90156E-003	3.59960E-001	-1.16880E+000	3.57780E+000	10	...........
	1	0.026667	6.60476E-001	5.99595E-003	0.00000E+000	3.96018E-003	3.59960E-001	-1.16307E+000	3.57780E+000	10	...........
	2	0.04	6.69005E-001	5.99482E-003	0.00000E+000	4.01057E-003	3.59960E-001	-1.17131E+000	3.57780E+000	10	...........
	3	0.053333	6.77007E-001	5.98705E-003	0.00000E+000	4.05328E-003	3.59960E-001	-1.16918E+000	3.57780E+000	10	...........
	4	0.066667	6.84742E-001	5.99772E-003	0.00000E+000	4.10690E-003	3.59960E-001	-1.16293E+000	3.57780E+000	10	...........
	5	0.08	6.92329E-001	5.99739E-003	0.00000E+000	4.15217E-003	3.59960E-001	-1.17097E+000	3.57780E+000	10	...........
	6	0.093333	6.99764E-001	5.99683E-003	0.00000E+000	4.19637E-003	3.59960E-001	-1.16887E+000	3.57780E+000	10	...........
	7	0.106667	7.07072E-001	5.99451E-003	0.00000E+000	4.23855E-003	3.59960E-001	-1.16285E+000	3.57780E+000	10	...........
	8	0.12	7.14238E-001	5.99551E-003	0.00000E+000	4.28222E-003	3.59960E-001	-1.17112E+000	3.57780E+000	10	...........
	9	0.133333	7.21422E-001	5.99308E-003	0.00000E+000	4.32354E-003	3.59960E-001	-1.16888E+000	3.57780E+000	10	...........
	10	0.146667	7.28467E-001	5.99743E-003	0.00000E+000	4.36893E-003	3.59960E-001	-1.16265E+000	3.57780E+000	10	...........
	11	0.16	7.35429E-001	5.99219E-003	0.00000E+000	4.40683E-003	3.59960E-001	-1.17070E+000	3.57780E+000	10	...........
	12	0.173333	7.42402E-001	6.00132E-003	0.00000E+000	4.45540E-003	3.59960E-001	-1.16917E+000	3.57780E+000	10	...........
	13	0.186667	7.49340E-001	5.99324E-003	0.00000E+000	4.49097E-003	3.59960E-001	-1.16274E+000	3.57780E+000	10	...........
	14	0.2	7.56231E-001	5.99213E-003	0.00000E+000	4.53144E-003	3.59960E-001	-1.17055E+000	3.57780E+000	10	...........
	15	0.213333	7.63069E-001	5.99278E-003	0.00000E+000	4.57290E-003	3.59960E-001	-1.16887E+000	3.57780E+000	10	...........
	16	0.226667	7.69890E-001	5.99300E-003	0.00000E+000	4.61395E-003	3.59960E-001	-1.16245E+000	3.57780E+000	10	...........
	17	0.24	7.76676E-001	5.98989E-003	0.00000E+000	4.65221E-003	3.59960E-001	-1.17019E+000	3.57780E+000	10	...........
	18	0.253333	7.83455E-001	5.99397E-003	0.00000E+000	4.69601E-003	3.59960E-001	-1.16871E+000	3.57780E+000	10	...........
	19	0.266667	7.90184E-001	5.99158E-003	0.00000E+000	4.73445E-003	3.59960E-001	-1.16202E+000	3.57780E+000	10	...........
	20	0.28	7.96906E-001	5.99060E-003	0.00000E+000	4.77395E-003	3.59960E-001	-1.16994E+000	3.57780E+000	10	...........
	21	0.293333	8.03598E-001	5.99089E-003	0.00000E+000	4.81427E-003	3.59960E-001	-1.16867E+000	3.57780E+000	10	...........
	22	0.306667	8.10241E-001	5.99459E-003	0.00000E+000	4.85707E-003	3.59960E-001	-1.16217E+000	3.57780E+000	10	...........
	23	0.32	8.16898E-001	5.99089E-003	0.00000E+000	4.89394E-003	3.59960E-001	-1.16992E+000	3.57780E+000	10	...........
	24	0.333333	8.23532E-001	5.98990E-003	0.00000E+000	4.93288E-003	3.59960E-001	-1.16862E+000	3.57780E+000	10	...........
	25	0.346667	8.30119E-001	5.99652E-003	0.00000E+000	4.97783E-003	3.59960E-001	-1.16186E+000	3.57780E+000	10	...........
	26	0.36	8.36661E-001	5.99047E-003	0.00000E+000	5.01200E-003	3.59960E-001	-1.16941E+000	3.57780E+000	10	...........
	27	0.373333	8.43181E-001	5.99269E-003	0.00000E+000	5.05292E-003	3.59960E-001	-1.16892E+000	3.57780E+000	10	...........
	28	0.386667	8.49721E-001	5.99111E-003	0.00000E+000	5.09077E-003	3.59960E-001	-1.16214E+000	3.57780E+000	10	...........
	29	0.4	8.56232E-001	5.99683E-003	0.00000E+000	5.13468E-003	3.59960E-001	-1.16930E+000	3.57780E+000	10	...........
	30	0.413333	8.62728E-001	5.99620E-003	0.00000E+000	5.17309E-003	3.59960E-001	-1.16833E+000	3.57780E+000	10	...........
	31	0.426667	8.69184E-001	5.99006E-003	0.00000E+000	5.20646E-003	3.59960E-001	-1.16142E+000	3.57780E+000	10	...........
	32	0.44	8.75592E-001	5.99252E-003	0.00000E+000	5.24700E-003	3.59960E-001	-1.16933E+000	3.57780E+000	10	...........
	33	0.453333	8.81973E-001	5.99492E-003	0.00000E+000	5.28735E-003	3.59960E-001	-1.16865E+000	3.57780E+000	10	...........
	34	0.466667	8.88348E-001	5.99241E-003	0.00000E+000	5.32335E-003	3.59960E-001	-1.16161E+000	3.57780E+000	10	...........
	35	0.48	8.94646E-001	5.99712E-003	0.00000E+000	5.36530E-003	3.59960E-001	-1.16891E+000	3.57780E+000	10	...........
	36	0.493333	9.00942E-001	5.99870E-003	0.00000E+000	5.40449E-003	3.59960E-001	-1.16860E+000	3.57780E+000	10	...........
	37	0.506667	9.07217E-001	5.99531E-003	0.00000E+000	5.43905E-003	3.59960E-001	-1.16182E+000	3.57780E+000	10	...........
	38	0.52	9.13406E-001	5.99503E-003	0.00000E+000	5.47590E-003	3.59960E-001	-1.16903E+000	3.57780E+000	10	...........
	39	0.533333	9.19586E-001	5.99337E-003	0.00000E+000	5.51142E-003	3.59960E-001	-1.16846E+000	3.57780E+000	10	...........
	40	0.546667	9.25747E-001	5.99002E-003	0.00000E+000	5.54524E-003	3.59960E-001	-1.16118E+000	3.57780E+000	10	...........
	41	0.56	9.31830E-001	5.99222E-003	0.00000E+000	5.58373E-003	3.59960E-001	-1.16854E+000	3.57780E+000	10	...........
	42	0.573333	9.37881E-001	5.99779E-003	0.00000E+000	5.62521E-003	3.59960E-001	-1.16847E+000	3.57780E+000	10	...........
	43	0.586667	9.43864E-001	5.99020E-003	0.00000E+000	5.65394E-003	3.59960E-001	-1.16126E+000	3.57780E+000	10	...........
	44	0.6	9.49870E-001	5.99034E-003	0.00000E+000	5.69005E-003	3.59960E-001	-1.16831E+000	3.57903E+000	10	...........
	45	0.613333	9.55774E-001	5.99250E-003	0.00000E+000	5.72747E-003	3.59960E-001	-1.16805E+000	3.57920E+000	10	...........
	46	0.626667	9.61627E-001	5.99132E-003	0.00000E+000	5.76142E-003	3.59960E-001	-1.16101E+000	3.57920E+000	10	...........
	47	0.64	9.67416E-001	5.99584E-003	0.00000E+000	5.80047E-003	3.59960E-001	-1.16831E+000	3.57920E+000	10	...........
	48	0.653333	9.73229E-001	5.99961E-003	0.00000E+000	5.83900E-003	3.59960E-001	-1.16834E+000	3.57920E+000	10	...........
	49	0.666667	9.78936E-001	5.99130E-003	0.00000E+000	5.86510E-003	3.59960E-001	-1.16105E+000	3.57920E+000	10	...........
	50	0.68	9.84583E-001	5.99203E-003	0.00000E+000	5.89965E-003	3.59960E-001	-1.16788E+000	3.57920E+000	10	...........
	51	0.693333	9.90170E-001	5.98894E-003	0.00000E+000	5.93007E-003	3.59960E-001	-1.16832E+000	3.57920E+000	10	...........
	52	0.706667	9.95746E-001	5.99308E-003	0.00000E+000	5.96759E-003	3.59960E-001	-1.16119E+000	3.57920E+000	10	...........
	53	0.711667	9.99534E-001	5.98294E-003	0.00000E+000	5.98015E-003	3.59960E-001	-1.17592E+000	3.57920E+000	10	...........
STARTTIMEOFFSET	QUANT	1376.863	Start Time Offset (s)