File: Data/CV_CRGO300517_1/PWRCCD_CRGO300517_1/CHARGE_DISCHARGE/CHARGE_#772.DTA
EXPLAIN
TAG	PWR800_CHARGE
TITLE	LABEL	PWR Cyclic Charge Discharge (Cell) - Charge Step	Test &Identifier
DATE	LABEL	22-6-2017	Date
TIME	LABEL	16:06:14	Time
NOTES	NOTES	3	&Notes...
	supercap test cell
	0.6mg
	6M KOH
PSTAT	PSTAT	IFC5000-01520	Potentiostat
CAPACITY	QUANT	1.00000E-003	Capacity (A-hr)
CELLTYPE	SELECTOR	1	&Cell Type
WORKINGCONNECTION	SELECTOR	0	&Working Lead
MAXCHARGETIME	VARIABLEANDUNITS	1.00000E+002	s	1.00000E+002	second(s)	Max &Charge Time
CHARGECURRENT	QUANT	6.00000E-003	&Charge Current (A)
VOLTAGEFINISH	TWOPARAM	F	1.00000E-003	3.60000E+003	&Voltage Finish	 I (A) < 	Max Time(s)
SAMPLETIME	QUANT	1.00000E-002	Sa&mple Period (s)
CHARGESTOPAT1	MULTIPARAM	4	1.00000E+000	Charge Stop At &1	Voltage > Limit	V
CHARGESTOPAT2	MULTIPARAM	0	0.00000E+000	Charge Stop At &2	None	N/A
AESBHCSELECTOR	TOGGLE	F	Save Both Half Cells
IRCOMP	TOGGLE	F	IR &Measure
EOC	QUANT	0	Open Circuit (V)
SEQUENCER	TOGGLE	TRUE	Run as Sequence
PSTATMODEL	IQUANT	53	Pstat Model
PSTATSECTION	LABEL	IFC5000-01520	Pstat Section
PSTATSERIALNO	LABEL	01520	Pstat Serial Number
CTRLMODE	IQUANT	0	Control Mode
ELECTROMETER	IQUANT	1	RE=0 or CS=1
IESTAB	IQUANT	0	I/E Stability
CASPEED	IQUANT	4	Control Amp Speed
CONVENTION	IQUANT	1	Current Convention
ICHRANGE	IQUANT	2	Ich Range
ICHRANGEMODE	TOGGLE	T	Ich Auto Range
ICHOFFSETENABLE	TOGGLE	F	Ich Offset Enable
ICHOFFSET	QUANT	0	Ich Offset (V)
ICHFILTER	IQUANT	1	Ich Filter
VCHRANGE	IQUANT	2	Vch Range
VCHRANGEMODE	TOGGLE	T	Vch Auto Range
VCHOFFSETENABLE	TOGGLE	F	Vch Offset Enable
VCHOFFSET	QUANT	0	Vch Offset (V)
VCHFILTER	IQUANT	1	Vch Filter
IERANGELOWERLIMIT	IQUANT	9	I/E Range Lower Limit
IERANGEMODE	TOGGLE	F	I/E AutoRange
IERANGE	IQUANT	10	I/E Range
ACHSELECT	IQUANT	1	Ach Select
ACHRANGE	IQUANT	2	Ach Range
ACHOFFSETENABLE	TOGGLE	F	Ach Offset Enable
ACHOFFSET	QUANT	0	Ach Offset (V)
ACHFILTER	IQUANT	1	Ach Filter
CABLEID	IQUANT	14	Cable ID
DCCALDATE	LABEL	20-10-2016	DC Calibration Date
ACCALDATE	LABEL	12/3/2015	AC Calibration Date
FRAMEWORKVERSION	QUANT	7.01	Framework Version
INSTRUMENTVERSION	LABEL	4.00	Instrument Version
CURVE	TABLE	55
	Pt	T	Vf	Im	Vu	Pwr	Sig	Ach	Temp	IERange	Over
	#	s	V	A	V	W	V	V	deg C	#	bits
	0	0.013333	6.46690E-001	5.99722E-003	0.00000E+000	3.87834E-003	3.59960E-001	-1.16073E+000	3.57660E+000	10	...........
	1	0.026667	6.55842E-001	5.99661E-003	0.00000E+000	3.93283E-003	3.59960E-001	-1.15749E+000	3.57660E+000	10	...........
	2	0.04	6.64262E-001	5.99596E-003	0.00000E+000	3.98289E-003	3.59960E-001	-1.16881E+000	3.57660E+000	10	...........
	3	0.053333	6.72285E-001	5.99246E-003	0.00000E+000	4.02864E-003	3.59960E-001	-1.16084E+000	3.57660E+000	10	...........
	4	0.066667	6.80021E-001	5.99239E-003	0.00000E+000	4.07495E-003	3.59960E-001	-1.15760E+000	3.57660E+000	10	...........
	5	0.08	6.87536E-001	5.99239E-003	0.00000E+000	4.11999E-003	3.59960E-001	-1.16866E+000	3.57660E+000	10	...........
	6	0.093333	6.94870E-001	5.99231E-003	0.00000E+000	4.16388E-003	3.59960E-001	-1.16039E+000	3.57660E+000	10	...........
	7	0.106667	7.02111E-001	5.99250E-003	0.00000E+000	4.20740E-003	3.59960E-001	-1.15744E+000	3.57660E+000	10	...........
	8	0.12	7.09244E-001	5.99036E-003	0.00000E+000	4.24863E-003	3.59960E-001	-1.16850E+000	3.57660E+000	10	...........
	9	0.133333	7.16338E-001	5.99199E-003	0.00000E+000	4.29229E-003	3.59960E-001	-1.15997E+000	3.57660E+000	10	...........
	10	0.146667	7.23393E-001	5.99136E-003	0.00000E+000	4.33411E-003	3.59960E-001	-1.15696E+000	3.57660E+000	10	...........
	11	0.16	7.30336E-001	5.99759E-003	0.00000E+000	4.38025E-003	3.59960E-001	-1.16818E+000	3.57660E+000	10	...........
	12	0.173333	7.37234E-001	5.99456E-003	0.00000E+000	4.41940E-003	3.59960E-001	-1.15977E+000	3.57660E+000	10	...........
	13	0.186667	7.44144E-001	5.99189E-003	0.00000E+000	4.45883E-003	3.59960E-001	-1.15725E+000	3.57660E+000	10	...........
	14	0.2	7.50951E-001	5.99572E-003	0.00000E+000	4.50249E-003	3.59960E-001	-1.16826E+000	3.57660E+000	10	...........
	15	0.213333	7.57781E-001	5.99112E-003	0.00000E+000	4.53996E-003	3.59960E-001	-1.15960E+000	3.57660E+000	10	...........
	16	0.226667	7.64517E-001	5.99003E-003	0.00000E+000	4.57948E-003	3.59960E-001	-1.15687E+000	3.57660E+000	10	...........
	17	0.24	7.71302E-001	5.99710E-003	0.00000E+000	4.62557E-003	3.59960E-001	-1.16827E+000	3.57660E+000	10	...........
	18	0.253333	7.78041E-001	5.99240E-003	0.00000E+000	4.66233E-003	3.59960E-001	-1.15961E+000	3.57660E+000	10	...........
	19	0.266667	7.84702E-001	5.99296E-003	0.00000E+000	4.70268E-003	3.59960E-001	-1.15693E+000	3.57660E+000	10	...........
	20	0.28	7.91388E-001	5.99285E-003	0.00000E+000	4.74267E-003	3.59960E-001	-1.16786E+000	3.57660E+000	10	...........
	21	0.293333	7.98078E-001	5.99403E-003	0.00000E+000	4.78371E-003	3.59960E-001	-1.15921E+000	3.57660E+000	10	...........
	22	0.306667	8.04709E-001	5.99465E-003	0.00000E+000	4.82395E-003	3.59960E-001	-1.15682E+000	3.57660E+000	10	...........
	23	0.32	8.11268E-001	5.99123E-003	0.00000E+000	4.86049E-003	3.59960E-001	-1.16794E+000	3.57660E+000	10	...........
	24	0.333333	8.17865E-001	5.99776E-003	0.00000E+000	4.90536E-003	3.59960E-001	-1.15926E+000	3.57660E+000	10	...........
	25	0.346667	8.24457E-001	5.99805E-003	0.00000E+000	4.94513E-003	3.59960E-001	-1.15667E+000	3.57660E+000	10	...........
	26	0.36	8.30993E-001	5.99870E-003	0.00000E+000	4.98488E-003	3.59960E-001	-1.16805E+000	3.57660E+000	10	...........
	27	0.373333	8.37488E-001	5.99478E-003	0.00000E+000	5.02056E-003	3.59960E-001	-1.15922E+000	3.57660E+000	10	...........
	28	0.386667	8.44018E-001	5.98889E-003	0.00000E+000	5.05473E-003	3.59960E-001	-1.15693E+000	3.57660E+000	10	...........
	29	0.4	8.50510E-001	5.99038E-003	0.00000E+000	5.09488E-003	3.59960E-001	-1.16830E+000	3.57660E+000	10	...........
	30	0.413333	8.56944E-001	5.98525E-003	0.00000E+000	5.12902E-003	3.59960E-001	-1.15909E+000	3.57660E+000	10	...........
	31	0.426667	8.63406E-001	5.99585E-003	0.00000E+000	5.17685E-003	3.59960E-001	-1.15668E+000	3.57660E+000	10	...........
	32	0.44	8.69820E-001	5.99697E-003	0.00000E+000	5.21628E-003	3.59960E-001	-1.16768E+000	3.57660E+000	10	...........
	33	0.453333	8.76183E-001	5.99415E-003	0.00000E+000	5.25197E-003	3.59960E-001	-1.15867E+000	3.57660E+000	10	...........
	34	0.466667	8.82532E-001	5.99667E-003	0.00000E+000	5.29225E-003	3.59960E-001	-1.15639E+000	3.57660E+000	10	...........
	35	0.48	8.88872E-001	5.99403E-003	0.00000E+000	5.32792E-003	3.59960E-001	-1.16762E+000	3.57660E+000	10	...........
	36	0.493333	8.95153E-001	5.99611E-003	0.00000E+000	5.36743E-003	3.59960E-001	-1.15847E+000	3.57660E+000	10	...........
	37	0.506667	9.01421E-001	5.99334E-003	0.00000E+000	5.40253E-003	3.59960E-001	-1.15646E+000	3.57664E+000	10	...........
	38	0.52	9.07672E-001	5.99420E-003	0.00000E+000	5.44077E-003	3.59960E-001	-1.16788E+000	3.57670E+000	10	...........
	39	0.533333	9.13816E-001	5.98847E-003	0.00000E+000	5.47236E-003	3.59960E-001	-1.15826E+000	3.57670E+000	10	...........
	40	0.546667	9.19976E-001	5.99372E-003	0.00000E+000	5.51407E-003	3.59960E-001	-1.15637E+000	3.57670E+000	10	...........
	41	0.56	9.26113E-001	5.99617E-003	0.00000E+000	5.55313E-003	3.59960E-001	-1.16762E+000	3.57670E+000	10	...........
	42	0.573333	9.32188E-001	5.99532E-003	0.00000E+000	5.58877E-003	3.59960E-001	-1.15819E+000	3.57670E+000	10	...........
	43	0.586667	9.38209E-001	5.99326E-003	0.00000E+000	5.62293E-003	3.59960E-001	-1.15647E+000	3.57670E+000	10	...........
	44	0.6	9.44181E-001	5.99474E-003	0.00000E+000	5.66012E-003	3.59960E-001	-1.16754E+000	3.57670E+000	10	...........
	45	0.613333	9.50143E-001	5.99281E-003	0.00000E+000	5.69403E-003	3.59960E-001	-1.15814E+000	3.57670E+000	10	...........
	46	0.626667	9.56032E-001	5.99489E-003	0.00000E+000	5.73130E-003	3.59960E-001	-1.15619E+000	3.57670E+000	10	...........
	47	0.64	9.61886E-001	5.99724E-003	0.00000E+000	5.76867E-003	3.59960E-001	-1.16764E+000	3.57670E+000	10	...........
	48	0.653333	9.67628E-001	5.99642E-003	0.00000E+000	5.80231E-003	3.59960E-001	-1.15834E+000	3.57670E+000	10	...........
	49	0.666667	9.73450E-001	5.99541E-003	0.00000E+000	5.83623E-003	3.59960E-001	-1.15642E+000	3.57670E+000	10	...........
	50	0.68	9.79137E-001	5.99613E-003	0.00000E+000	5.87103E-003	3.59960E-001	-1.16775E+000	3.57670E+000	10	...........
	51	0.693333	9.84781E-001	5.99622E-003	0.00000E+000	5.90496E-003	3.59960E-001	-1.15807E+000	3.57670E+000	10	...........
	52	0.706667	9.90425E-001	5.99532E-003	0.00000E+000	5.93792E-003	3.59960E-001	-1.15652E+000	3.57670E+000	10	...........
	53	0.72	9.95936E-001	5.99711E-003	0.00000E+000	5.97274E-003	3.59960E-001	-1.16786E+000	3.57670E+000	10	...........
	54	0.725	9.99727E-001	5.99618E-003	0.00000E+000	5.99455E-003	3.59960E-001	-1.14494E+000	3.57670E+000	10	...........
STARTTIMEOFFSET	QUANT	1263.865	Start Time Offset (s)