File: Data/CV_CRGO300517_1/PWRCCD_CRGO300517_1/CHARGE_DISCHARGE/CHARGE_#490.DTA
EXPLAIN
TAG	PWR800_CHARGE
TITLE	LABEL	PWR Cyclic Charge Discharge (Cell) - Charge Step	Test &Identifier
DATE	LABEL	22-6-2017	Date
TIME	LABEL	15:55:32	Time
NOTES	NOTES	3	&Notes...
	supercap test cell
	0.6mg
	6M KOH
PSTAT	PSTAT	IFC5000-01520	Potentiostat
CAPACITY	QUANT	1.00000E-003	Capacity (A-hr)
CELLTYPE	SELECTOR	1	&Cell Type
WORKINGCONNECTION	SELECTOR	0	&Working Lead
MAXCHARGETIME	VARIABLEANDUNITS	1.00000E+002	s	1.00000E+002	second(s)	Max &Charge Time
CHARGECURRENT	QUANT	6.00000E-003	&Charge Current (A)
VOLTAGEFINISH	TWOPARAM	F	1.00000E-003	3.60000E+003	&Voltage Finish	 I (A) < 	Max Time(s)
SAMPLETIME	QUANT	1.00000E-002	Sa&mple Period (s)
CHARGESTOPAT1	MULTIPARAM	4	1.00000E+000	Charge Stop At &1	Voltage > Limit	V
CHARGESTOPAT2	MULTIPARAM	0	0.00000E+000	Charge Stop At &2	None	N/A
AESBHCSELECTOR	TOGGLE	F	Save Both Half Cells
IRCOMP	TOGGLE	F	IR &Measure
EOC	QUANT	0	Open Circuit (V)
SEQUENCER	TOGGLE	TRUE	Run as Sequence
PSTATMODEL	IQUANT	53	Pstat Model
PSTATSECTION	LABEL	IFC5000-01520	Pstat Section
PSTATSERIALNO	LABEL	01520	Pstat Serial Number
CTRLMODE	IQUANT	0	Control Mode
ELECTROMETER	IQUANT	1	RE=0 or CS=1
IESTAB	IQUANT	0	I/E Stability
CASPEED	IQUANT	4	Control Amp Speed
CONVENTION	IQUANT	1	Current Convention
ICHRANGE	IQUANT	2	Ich Range
ICHRANGEMODE	TOGGLE	T	Ich Auto Range
ICHOFFSETENABLE	TOGGLE	F	Ich Offset Enable
ICHOFFSET	QUANT	0	Ich Offset (V)
ICHFILTER	IQUANT	1	Ich Filter
VCHRANGE	IQUANT	2	Vch Range
VCHRANGEMODE	TOGGLE	T	Vch Auto Range
VCHOFFSETENABLE	TOGGLE	F	Vch Offset Enable
VCHOFFSET	QUANT	0	Vch Offset (V)
VCHFILTER	IQUANT	1	Vch Filter
IERANGELOWERLIMIT	IQUANT	9	I/E Range Lower Limit
IERANGEMODE	TOGGLE	F	I/E AutoRange
IERANGE	IQUANT	10	I/E Range
ACHSELECT	IQUANT	1	Ach Select
ACHRANGE	IQUANT	2	Ach Range
ACHOFFSETENABLE	TOGGLE	F	Ach Offset Enable
ACHOFFSET	QUANT	0	Ach Offset (V)
ACHFILTER	IQUANT	1	Ach Filter
CABLEID	IQUANT	14	Cable ID
DCCALDATE	LABEL	20-10-2016	DC Calibration Date
ACCALDATE	LABEL	12/3/2015	AC Calibration Date
FRAMEWORKVERSION	QUANT	7.01	Framework Version
INSTRUMENTVERSION	LABEL	4.00	Instrument Version
CURVE	TABLE	59
	Pt	T	Vf	Im	Vu	Pwr	Sig	Ach	Temp	IERange	Over
	#	s	V	A	V	W	V	V	deg C	#	bits
	0	0.013333	6.31236E-001	5.99158E-003	0.00000E+000	3.78210E-003	3.59960E-001	-1.13437E+000	3.57680E+000	10	...........
	1	0.026667	6.40082E-001	5.98941E-003	0.00000E+000	3.83371E-003	3.59960E-001	-1.13833E+000	3.57680E+000	10	...........
	2	0.04	6.48225E-001	6.00033E-003	0.00000E+000	3.88957E-003	3.59960E-001	-1.14342E+000	3.57680E+000	10	...........
	3	0.053333	6.55977E-001	5.99200E-003	0.00000E+000	3.93061E-003	3.59960E-001	-1.13447E+000	3.57680E+000	10	...........
	4	0.066667	6.63431E-001	5.99355E-003	0.00000E+000	3.97631E-003	3.59960E-001	-1.13847E+000	3.57680E+000	10	...........
	5	0.08	6.70672E-001	5.99356E-003	0.00000E+000	4.01972E-003	3.59960E-001	-1.14350E+000	3.57680E+000	10	...........
	6	0.093333	6.77789E-001	5.99359E-003	0.00000E+000	4.06239E-003	3.59960E-001	-1.13423E+000	3.57680E+000	10	...........
	7	0.106667	6.84809E-001	5.99418E-003	0.00000E+000	4.10487E-003	3.59960E-001	-1.13820E+000	3.57680E+000	10	...........
	8	0.12	6.91699E-001	5.99612E-003	0.00000E+000	4.14751E-003	3.59960E-001	-1.14365E+000	3.57680E+000	10	...........
	9	0.133333	6.98565E-001	5.99175E-003	0.00000E+000	4.18563E-003	3.59960E-001	-1.13446E+000	3.57680E+000	10	...........
	10	0.146667	7.05350E-001	5.99420E-003	0.00000E+000	4.22801E-003	3.59960E-001	-1.13826E+000	3.57680E+000	10	...........
	11	0.16	7.12090E-001	5.98750E-003	0.00000E+000	4.26364E-003	3.59960E-001	-1.14364E+000	3.57680E+000	10	...........
	12	0.173333	7.18850E-001	5.99403E-003	0.00000E+000	4.30881E-003	3.59960E-001	-1.13457E+000	3.57680E+000	10	...........
	13	0.186667	7.25479E-001	5.99209E-003	0.00000E+000	4.34713E-003	3.59960E-001	-1.13840E+000	3.57680E+000	10	...........
	14	0.2	7.32046E-001	5.99189E-003	0.00000E+000	4.38634E-003	3.59960E-001	-1.14394E+000	3.57680E+000	10	...........
	15	0.213333	7.38660E-001	5.99749E-003	0.00000E+000	4.43011E-003	3.59960E-001	-1.13447E+000	3.57680E+000	10	...........
	16	0.226667	7.45254E-001	5.99637E-003	0.00000E+000	4.46881E-003	3.59960E-001	-1.13843E+000	3.57680E+000	10	...........
	17	0.24	7.51788E-001	5.99376E-003	0.00000E+000	4.50604E-003	3.59960E-001	-1.14389E+000	3.57680E+000	10	...........
	18	0.253333	7.58307E-001	5.99238E-003	0.00000E+000	4.54407E-003	3.59960E-001	-1.13458E+000	3.57680E+000	10	...........
	19	0.266667	7.64821E-001	5.99594E-003	0.00000E+000	4.58582E-003	3.59960E-001	-1.13832E+000	3.57680E+000	10	...........
	20	0.28	7.71351E-001	5.99553E-003	0.00000E+000	4.62466E-003	3.59960E-001	-1.14363E+000	3.57680E+000	10	...........
	21	0.293333	7.77813E-001	5.99499E-003	0.00000E+000	4.66298E-003	3.59960E-001	-1.13430E+000	3.57680E+000	10	...........
	22	0.306667	7.84273E-001	5.99281E-003	0.00000E+000	4.70000E-003	3.59960E-001	-1.13812E+000	3.57680E+000	10	...........
	23	0.32	7.90750E-001	5.99464E-003	0.00000E+000	4.74026E-003	3.59960E-001	-1.14388E+000	3.57680E+000	10	...........
	24	0.333333	7.97234E-001	5.99935E-003	0.00000E+000	4.78289E-003	3.59960E-001	-1.13450E+000	3.57680E+000	10	...........
	25	0.346667	8.03596E-001	5.99802E-003	0.00000E+000	4.81998E-003	3.59960E-001	-1.13803E+000	3.57680E+000	10	...........
	26	0.36	8.09985E-001	5.99463E-003	0.00000E+000	4.85556E-003	3.59960E-001	-1.14384E+000	3.57680E+000	10	...........
	27	0.373333	8.16382E-001	5.99538E-003	0.00000E+000	4.89452E-003	3.59960E-001	-1.13448E+000	3.57680E+000	10	...........
	28	0.386667	8.22772E-001	5.99784E-003	0.00000E+000	4.93485E-003	3.59960E-001	-1.13792E+000	3.57680E+000	10	...........
	29	0.4	8.29116E-001	5.99373E-003	0.00000E+000	4.96949E-003	3.59960E-001	-1.14377E+000	3.57680E+000	10	...........
	30	0.413333	8.35411E-001	5.98779E-003	0.00000E+000	5.00227E-003	3.59960E-001	-1.13433E+000	3.57680E+000	10	...........
	31	0.426667	8.41738E-001	5.99363E-003	0.00000E+000	5.04507E-003	3.59960E-001	-1.13773E+000	3.57680E+000	10	...........
	32	0.44	8.48063E-001	5.99022E-003	0.00000E+000	5.08009E-003	3.59960E-001	-1.14381E+000	3.57680E+000	10	...........
	33	0.453333	8.54369E-001	5.99378E-003	0.00000E+000	5.12090E-003	3.59960E-001	-1.13433E+000	3.57680E+000	10	...........
	34	0.466667	8.60622E-001	5.99416E-003	0.00000E+000	5.15871E-003	3.59960E-001	-1.13812E+000	3.57680E+000	10	...........
	35	0.48	8.66914E-001	5.99338E-003	0.00000E+000	5.19575E-003	3.59960E-001	-1.14378E+000	3.57680E+000	10	...........
	36	0.493333	8.73142E-001	5.99579E-003	0.00000E+000	5.23518E-003	3.59960E-001	-1.13445E+000	3.57680E+000	10	...........
	37	0.506667	8.79289E-001	5.99625E-003	0.00000E+000	5.27244E-003	3.59960E-001	-1.13795E+000	3.57680E+000	10	...........
	38	0.52	8.85482E-001	5.99538E-003	0.00000E+000	5.30880E-003	3.59960E-001	-1.14417E+000	3.57680E+000	10	...........
	39	0.533333	8.91643E-001	5.99049E-003	0.00000E+000	5.34137E-003	3.59960E-001	-1.13444E+000	3.57680E+000	10	...........
	40	0.546667	8.97761E-001	5.99797E-003	0.00000E+000	5.38475E-003	3.59960E-001	-1.13781E+000	3.57680E+000	10	...........
	41	0.56	9.03866E-001	5.99443E-003	0.00000E+000	5.41816E-003	3.59960E-001	-1.14398E+000	3.57680E+000	10	...........
	42	0.573333	9.09933E-001	5.99629E-003	0.00000E+000	5.45623E-003	3.59960E-001	-1.13448E+000	3.57680E+000	10	...........
	43	0.586667	9.15998E-001	5.99445E-003	0.00000E+000	5.49090E-003	3.59960E-001	-1.13749E+000	3.57680E+000	10	...........
	44	0.6	9.22055E-001	5.99843E-003	0.00000E+000	5.53089E-003	3.59960E-001	-1.14399E+000	3.57680E+000	10	...........
	45	0.613333	9.28000E-001	5.99672E-003	0.00000E+000	5.56496E-003	3.59960E-001	-1.13412E+000	3.57680E+000	10	...........
	46	0.626667	9.33916E-001	5.99633E-003	0.00000E+000	5.60006E-003	3.59960E-001	-1.13756E+000	3.57680E+000	10	...........
	47	0.64	9.39812E-001	5.99005E-003	0.00000E+000	5.62952E-003	3.59960E-001	-1.14402E+000	3.57680E+000	10	...........
	48	0.653333	9.45701E-001	5.99667E-003	0.00000E+000	5.67106E-003	3.59960E-001	-1.13418E+000	3.57680E+000	10	...........
	49	0.666667	9.51555E-001	5.99604E-003	0.00000E+000	5.70556E-003	3.59960E-001	-1.13749E+000	3.57680E+000	10	...........
	50	0.68	9.57384E-001	5.99005E-003	0.00000E+000	5.73478E-003	3.59960E-001	-1.14389E+000	3.57680E+000	10	...........
	51	0.693333	9.63093E-001	5.99018E-003	0.00000E+000	5.76910E-003	3.59960E-001	-1.13421E+000	3.57680E+000	10	...........
	52	0.706667	9.68812E-001	5.99632E-003	0.00000E+000	5.80931E-003	3.59960E-001	-1.13743E+000	3.57680E+000	10	...........
	53	0.72	9.74511E-001	5.99068E-003	0.00000E+000	5.83799E-003	3.59960E-001	-1.14434E+000	3.57680E+000	10	...........
	54	0.733333	9.80125E-001	5.99670E-003	0.00000E+000	5.87752E-003	3.59960E-001	-1.13438E+000	3.57680E+000	10	...........
	55	0.746667	9.85712E-001	5.99618E-003	0.00000E+000	5.91051E-003	3.59960E-001	-1.13743E+000	3.57680E+000	10	...........
	56	0.76	9.91247E-001	5.99501E-003	0.00000E+000	5.94254E-003	3.59960E-001	-1.14418E+000	3.57680E+000	10	...........
	57	0.773333	9.96730E-001	5.99840E-003	0.00000E+000	5.97879E-003	3.59960E-001	-1.13445E+000	3.57680E+000	10	...........
	58	0.776667	1.00018E+000	5.99630E-003	0.00000E+000	5.99737E-003	3.59960E-001	-1.14879E+000	3.57680E+000	10	...........
STARTTIMEOFFSET	QUANT	843.6086	Start Time Offset (s)