File: Data/CV_CRGO300517_1/PWRCCD_CRGO300517_1/CHARGE_DISCHARGE/CHARGE_#753.DTA
EXPLAIN
TAG	PWR800_CHARGE
TITLE	LABEL	PWR Cyclic Charge Discharge (Cell) - Charge Step	Test &Identifier
DATE	LABEL	22-6-2017	Date
TIME	LABEL	16:05:32	Time
NOTES	NOTES	3	&Notes...
	supercap test cell
	0.6mg
	6M KOH
PSTAT	PSTAT	IFC5000-01520	Potentiostat
CAPACITY	QUANT	1.00000E-003	Capacity (A-hr)
CELLTYPE	SELECTOR	1	&Cell Type
WORKINGCONNECTION	SELECTOR	0	&Working Lead
MAXCHARGETIME	VARIABLEANDUNITS	1.00000E+002	s	1.00000E+002	second(s)	Max &Charge Time
CHARGECURRENT	QUANT	6.00000E-003	&Charge Current (A)
VOLTAGEFINISH	TWOPARAM	F	1.00000E-003	3.60000E+003	&Voltage Finish	 I (A) < 	Max Time(s)
SAMPLETIME	QUANT	1.00000E-002	Sa&mple Period (s)
CHARGESTOPAT1	MULTIPARAM	4	1.00000E+000	Charge Stop At &1	Voltage > Limit	V
CHARGESTOPAT2	MULTIPARAM	0	0.00000E+000	Charge Stop At &2	None	N/A
AESBHCSELECTOR	TOGGLE	F	Save Both Half Cells
IRCOMP	TOGGLE	F	IR &Measure
EOC	QUANT	0	Open Circuit (V)
SEQUENCER	TOGGLE	TRUE	Run as Sequence
PSTATMODEL	IQUANT	53	Pstat Model
PSTATSECTION	LABEL	IFC5000-01520	Pstat Section
PSTATSERIALNO	LABEL	01520	Pstat Serial Number
CTRLMODE	IQUANT	0	Control Mode
ELECTROMETER	IQUANT	1	RE=0 or CS=1
IESTAB	IQUANT	0	I/E Stability
CASPEED	IQUANT	4	Control Amp Speed
CONVENTION	IQUANT	1	Current Convention
ICHRANGE	IQUANT	2	Ich Range
ICHRANGEMODE	TOGGLE	T	Ich Auto Range
ICHOFFSETENABLE	TOGGLE	F	Ich Offset Enable
ICHOFFSET	QUANT	0	Ich Offset (V)
ICHFILTER	IQUANT	1	Ich Filter
VCHRANGE	IQUANT	2	Vch Range
VCHRANGEMODE	TOGGLE	T	Vch Auto Range
VCHOFFSETENABLE	TOGGLE	F	Vch Offset Enable
VCHOFFSET	QUANT	0	Vch Offset (V)
VCHFILTER	IQUANT	1	Vch Filter
IERANGELOWERLIMIT	IQUANT	9	I/E Range Lower Limit
IERANGEMODE	TOGGLE	F	I/E AutoRange
IERANGE	IQUANT	10	I/E Range
ACHSELECT	IQUANT	1	Ach Select
ACHRANGE	IQUANT	2	Ach Range
ACHOFFSETENABLE	TOGGLE	F	Ach Offset Enable
ACHOFFSET	QUANT	0	Ach Offset (V)
ACHFILTER	IQUANT	1	Ach Filter
CABLEID	IQUANT	14	Cable ID
DCCALDATE	LABEL	20-10-2016	DC Calibration Date
ACCALDATE	LABEL	12/3/2015	AC Calibration Date
FRAMEWORKVERSION	QUANT	7.01	Framework Version
INSTRUMENTVERSION	LABEL	4.00	Instrument Version
CURVE	TABLE	55
	Pt	T	Vf	Im	Vu	Pwr	Sig	Ach	Temp	IERange	Over
	#	s	V	A	V	W	V	V	deg C	#	bits
	0	0.013333	6.45874E-001	5.99832E-003	0.00000E+000	3.87416E-003	3.59960E-001	-1.16545E+000	3.57780E+000	10	...........
	1	0.026667	6.55015E-001	5.99393E-003	0.00000E+000	3.92611E-003	3.59960E-001	-1.16608E+000	3.57780E+000	10	...........
	2	0.04	6.63427E-001	5.99470E-003	0.00000E+000	3.97705E-003	3.59960E-001	-1.15819E+000	3.57780E+000	10	...........
	3	0.053333	6.71438E-001	5.99563E-003	0.00000E+000	4.02569E-003	3.59960E-001	-1.16532E+000	3.57780E+000	10	...........
	4	0.066667	6.79083E-001	5.99098E-003	0.00000E+000	4.06837E-003	3.59960E-001	-1.16589E+000	3.57780E+000	10	...........
	5	0.08	6.86598E-001	6.00079E-003	0.00000E+000	4.12013E-003	3.59960E-001	-1.15820E+000	3.57780E+000	10	...........
	6	0.093333	6.93937E-001	5.99406E-003	0.00000E+000	4.15950E-003	3.59960E-001	-1.16497E+000	3.57780E+000	10	...........
	7	0.106667	7.01123E-001	5.99322E-003	0.00000E+000	4.20199E-003	3.59960E-001	-1.16557E+000	3.57780E+000	10	...........
	8	0.12	7.08247E-001	5.98891E-003	0.00000E+000	4.24163E-003	3.59960E-001	-1.15802E+000	3.57780E+000	10	...........
	9	0.133333	7.15282E-001	5.99491E-003	0.00000E+000	4.28805E-003	3.59960E-001	-1.16538E+000	3.57780E+000	10	...........
	10	0.146667	7.22304E-001	5.99256E-003	0.00000E+000	4.32845E-003	3.59960E-001	-1.16568E+000	3.57780E+000	10	...........
	11	0.16	7.29261E-001	5.99056E-003	0.00000E+000	4.36868E-003	3.59960E-001	-1.15787E+000	3.57780E+000	10	...........
	12	0.173333	7.36179E-001	5.99478E-003	0.00000E+000	4.41323E-003	3.59960E-001	-1.16526E+000	3.57780E+000	10	...........
	13	0.186667	7.43114E-001	5.99548E-003	0.00000E+000	4.45533E-003	3.59960E-001	-1.16564E+000	3.57780E+000	10	...........
	14	0.2	7.49922E-001	5.99247E-003	0.00000E+000	4.49388E-003	3.59960E-001	-1.15808E+000	3.57780E+000	10	...........
	15	0.213333	7.56744E-001	5.99422E-003	0.00000E+000	4.53609E-003	3.59960E-001	-1.16564E+000	3.57780E+000	10	...........
	16	0.226667	7.63465E-001	5.99261E-003	0.00000E+000	4.57515E-003	3.59960E-001	-1.16532E+000	3.57780E+000	10	...........
	17	0.24	7.70203E-001	5.98865E-003	0.00000E+000	4.61247E-003	3.59960E-001	-1.15798E+000	3.57780E+000	10	...........
	18	0.253333	7.76945E-001	5.98941E-003	0.00000E+000	4.65344E-003	3.59960E-001	-1.16539E+000	3.57780E+000	10	...........
	19	0.266667	7.83663E-001	5.99594E-003	0.00000E+000	4.69879E-003	3.59960E-001	-1.16568E+000	3.57780E+000	10	...........
	20	0.28	7.90324E-001	5.99336E-003	0.00000E+000	4.73670E-003	3.59960E-001	-1.15811E+000	3.57780E+000	10	...........
	21	0.293333	7.96980E-001	5.99397E-003	0.00000E+000	4.77707E-003	3.59960E-001	-1.16563E+000	3.57780E+000	10	...........
	22	0.306667	8.03589E-001	5.99302E-003	0.00000E+000	4.81592E-003	3.59960E-001	-1.16479E+000	3.57780E+000	10	...........
	23	0.32	8.10190E-001	5.99399E-003	0.00000E+000	4.85627E-003	3.59960E-001	-1.15762E+000	3.57780E+000	10	...........
	24	0.333333	8.16841E-001	5.99299E-003	0.00000E+000	4.89532E-003	3.59960E-001	-1.16555E+000	3.57780E+000	10	...........
	25	0.346667	8.23409E-001	5.99902E-003	0.00000E+000	4.93964E-003	3.59960E-001	-1.16463E+000	3.57780E+000	10	...........
	26	0.36	8.29936E-001	5.99134E-003	0.00000E+000	4.97243E-003	3.59960E-001	-1.15742E+000	3.57780E+000	10	...........
	27	0.373333	8.36437E-001	5.99066E-003	0.00000E+000	5.01081E-003	3.59960E-001	-1.16537E+000	3.57780E+000	10	...........
	28	0.386667	8.42940E-001	5.99418E-003	0.00000E+000	5.05273E-003	3.59960E-001	-1.16453E+000	3.57780E+000	10	...........
	29	0.4	8.49421E-001	5.99414E-003	0.00000E+000	5.09154E-003	3.59960E-001	-1.15772E+000	3.57780E+000	10	...........
	30	0.413333	8.55811E-001	5.99326E-003	0.00000E+000	5.12910E-003	3.59960E-001	-1.16571E+000	3.57780E+000	10	...........
	31	0.426667	8.62279E-001	5.99476E-003	0.00000E+000	5.16916E-003	3.59960E-001	-1.16441E+000	3.57780E+000	10	...........
	32	0.44	8.68684E-001	5.99447E-003	0.00000E+000	5.20730E-003	3.59960E-001	-1.15763E+000	3.57780E+000	10	...........
	33	0.453333	8.75018E-001	5.99247E-003	0.00000E+000	5.24352E-003	3.59960E-001	-1.16547E+000	3.57780E+000	10	...........
	34	0.466667	8.81374E-001	5.99401E-003	0.00000E+000	5.28296E-003	3.59960E-001	-1.16436E+000	3.57780E+000	10	...........
	35	0.48	8.87707E-001	5.99886E-003	0.00000E+000	5.32523E-003	3.59960E-001	-1.15750E+000	3.57780E+000	10	...........
	36	0.493333	8.93992E-001	5.99487E-003	0.00000E+000	5.35936E-003	3.59960E-001	-1.16541E+000	3.57780E+000	10	...........
	37	0.506667	9.00220E-001	5.99353E-003	0.00000E+000	5.39549E-003	3.59960E-001	-1.16386E+000	3.57780E+000	10	...........
	38	0.52	9.06464E-001	5.99648E-003	0.00000E+000	5.43560E-003	3.59960E-001	-1.15731E+000	3.57780E+000	10	...........
	39	0.533333	9.12652E-001	5.98841E-003	0.00000E+000	5.46533E-003	3.59960E-001	-1.16547E+000	3.57780E+000	10	...........
	40	0.546667	9.18846E-001	5.99500E-003	0.00000E+000	5.50849E-003	3.59960E-001	-1.16401E+000	3.57780E+000	10	...........
	41	0.56	9.24972E-001	5.99577E-003	0.00000E+000	5.54593E-003	3.59960E-001	-1.15718E+000	3.57780E+000	10	...........
	42	0.573333	9.31040E-001	5.99369E-003	0.00000E+000	5.58036E-003	3.59960E-001	-1.16534E+000	3.57780E+000	10	...........
	43	0.586667	9.37038E-001	5.98940E-003	0.00000E+000	5.61230E-003	3.59960E-001	-1.16376E+000	3.57780E+000	10	...........
	44	0.6	9.42999E-001	5.99205E-003	0.00000E+000	5.65050E-003	3.59960E-001	-1.15716E+000	3.57780E+000	10	...........
	45	0.613333	9.48994E-001	5.98961E-003	0.00000E+000	5.68410E-003	3.59960E-001	-1.16567E+000	3.57780E+000	10	...........
	46	0.626667	9.54842E-001	5.98795E-003	0.00000E+000	5.71755E-003	3.59960E-001	-1.16347E+000	3.57780E+000	10	...........
	47	0.64	9.60738E-001	5.99829E-003	0.00000E+000	5.76278E-003	3.59960E-001	-1.15693E+000	3.57780E+000	10	...........
	48	0.653333	9.66503E-001	5.99173E-003	0.00000E+000	5.79102E-003	3.59960E-001	-1.16553E+000	3.57780E+000	10	...........
	49	0.666667	9.72294E-001	5.98964E-003	0.00000E+000	5.82369E-003	3.59960E-001	-1.16339E+000	3.57780E+000	10	...........
	50	0.68	9.78002E-001	5.99296E-003	0.00000E+000	5.86112E-003	3.59960E-001	-1.15728E+000	3.57780E+000	10	...........
	51	0.693333	9.83658E-001	5.99264E-003	0.00000E+000	5.89471E-003	3.59960E-001	-1.16585E+000	3.57780E+000	10	...........
	52	0.706667	9.89266E-001	5.99301E-003	0.00000E+000	5.92868E-003	3.59960E-001	-1.16319E+000	3.57780E+000	10	...........
	53	0.72	9.94825E-001	5.99186E-003	0.00000E+000	5.96085E-003	3.59960E-001	-1.15715E+000	3.57780E+000	10	...........
	54	0.726667	9.98981E-001	5.99550E-003	0.00000E+000	5.98939E-003	3.59960E-001	-1.17205E+000	3.57780E+000	10	...........
STARTTIMEOFFSET	QUANT	1236.423	Start Time Offset (s)