File: Data/CV_CRGO300517_1/PWRCCD_CRGO300517_1/CHARGE_DISCHARGE/CHARGE_#807.DTA
EXPLAIN
TAG	PWR800_CHARGE
TITLE	LABEL	PWR Cyclic Charge Discharge (Cell) - Charge Step	Test &Identifier
DATE	LABEL	22-6-2017	Date
TIME	LABEL	16:07:33	Time
NOTES	NOTES	3	&Notes...
	supercap test cell
	0.6mg
	6M KOH
PSTAT	PSTAT	IFC5000-01520	Potentiostat
CAPACITY	QUANT	1.00000E-003	Capacity (A-hr)
CELLTYPE	SELECTOR	1	&Cell Type
WORKINGCONNECTION	SELECTOR	0	&Working Lead
MAXCHARGETIME	VARIABLEANDUNITS	1.00000E+002	s	1.00000E+002	second(s)	Max &Charge Time
CHARGECURRENT	QUANT	6.00000E-003	&Charge Current (A)
VOLTAGEFINISH	TWOPARAM	F	1.00000E-003	3.60000E+003	&Voltage Finish	 I (A) < 	Max Time(s)
SAMPLETIME	QUANT	1.00000E-002	Sa&mple Period (s)
CHARGESTOPAT1	MULTIPARAM	4	1.00000E+000	Charge Stop At &1	Voltage > Limit	V
CHARGESTOPAT2	MULTIPARAM	0	0.00000E+000	Charge Stop At &2	None	N/A
AESBHCSELECTOR	TOGGLE	F	Save Both Half Cells
IRCOMP	TOGGLE	F	IR &Measure
EOC	QUANT	0	Open Circuit (V)
SEQUENCER	TOGGLE	TRUE	Run as Sequence
PSTATMODEL	IQUANT	53	Pstat Model
PSTATSECTION	LABEL	IFC5000-01520	Pstat Section
PSTATSERIALNO	LABEL	01520	Pstat Serial Number
CTRLMODE	IQUANT	0	Control Mode
ELECTROMETER	IQUANT	1	RE=0 or CS=1
IESTAB	IQUANT	0	I/E Stability
CASPEED	IQUANT	4	Control Amp Speed
CONVENTION	IQUANT	1	Current Convention
ICHRANGE	IQUANT	2	Ich Range
ICHRANGEMODE	TOGGLE	T	Ich Auto Range
ICHOFFSETENABLE	TOGGLE	F	Ich Offset Enable
ICHOFFSET	QUANT	0	Ich Offset (V)
ICHFILTER	IQUANT	1	Ich Filter
VCHRANGE	IQUANT	2	Vch Range
VCHRANGEMODE	TOGGLE	T	Vch Auto Range
VCHOFFSETENABLE	TOGGLE	F	Vch Offset Enable
VCHOFFSET	QUANT	0	Vch Offset (V)
VCHFILTER	IQUANT	1	Vch Filter
IERANGELOWERLIMIT	IQUANT	9	I/E Range Lower Limit
IERANGEMODE	TOGGLE	F	I/E AutoRange
IERANGE	IQUANT	10	I/E Range
ACHSELECT	IQUANT	1	Ach Select
ACHRANGE	IQUANT	2	Ach Range
ACHOFFSETENABLE	TOGGLE	F	Ach Offset Enable
ACHOFFSET	QUANT	0	Ach Offset (V)
ACHFILTER	IQUANT	1	Ach Filter
CABLEID	IQUANT	14	Cable ID
DCCALDATE	LABEL	20-10-2016	DC Calibration Date
ACCALDATE	LABEL	12/3/2015	AC Calibration Date
FRAMEWORKVERSION	QUANT	7.01	Framework Version
INSTRUMENTVERSION	LABEL	4.00	Instrument Version
CURVE	TABLE	54
	Pt	T	Vf	Im	Vu	Pwr	Sig	Ach	Temp	IERange	Over
	#	s	V	A	V	W	V	V	deg C	#	bits
	0	0.013333	6.48994E-001	5.99162E-003	0.00000E+000	3.88853E-003	3.59960E-001	-1.16022E+000	3.57640E+000	10	...........
	1	0.026667	6.58188E-001	5.99193E-003	0.00000E+000	3.94382E-003	3.59960E-001	-1.17095E+000	3.57640E+000	10	...........
	2	0.04	6.66592E-001	5.99321E-003	0.00000E+000	3.99502E-003	3.59960E-001	-1.16489E+000	3.57640E+000	10	...........
	3	0.053333	6.74687E-001	5.99463E-003	0.00000E+000	4.04450E-003	3.59960E-001	-1.16008E+000	3.57640E+000	10	...........
	4	0.066667	6.82382E-001	5.99936E-003	0.00000E+000	4.09385E-003	3.59960E-001	-1.17062E+000	3.57640E+000	10	...........
	5	0.08	6.89887E-001	5.99805E-003	0.00000E+000	4.13797E-003	3.59960E-001	-1.16470E+000	3.57640E+000	10	...........
	6	0.093333	6.97320E-001	5.99718E-003	0.00000E+000	4.18195E-003	3.59960E-001	-1.16027E+000	3.57640E+000	10	...........
	7	0.106667	7.04605E-001	5.99453E-003	0.00000E+000	4.22378E-003	3.59960E-001	-1.17074E+000	3.57640E+000	10	...........
	8	0.12	7.11756E-001	5.99248E-003	0.00000E+000	4.26518E-003	3.59960E-001	-1.16474E+000	3.57643E+000	10	...........
	9	0.133333	7.18866E-001	5.99129E-003	0.00000E+000	4.30693E-003	3.59960E-001	-1.15986E+000	3.57660E+000	10	...........
	10	0.146667	7.25890E-001	5.99134E-003	0.00000E+000	4.34905E-003	3.59960E-001	-1.17034E+000	3.57660E+000	10	...........
	11	0.16	7.32853E-001	5.99146E-003	0.00000E+000	4.39085E-003	3.59960E-001	-1.16459E+000	3.57660E+000	10	...........
	12	0.173333	7.39774E-001	5.99410E-003	0.00000E+000	4.43428E-003	3.59960E-001	-1.16023E+000	3.57660E+000	10	...........
	13	0.186667	7.46713E-001	5.99493E-003	0.00000E+000	4.47649E-003	3.59960E-001	-1.17050E+000	3.57660E+000	10	...........
	14	0.2	7.53520E-001	5.99343E-003	0.00000E+000	4.51617E-003	3.59960E-001	-1.16466E+000	3.57660E+000	10	...........
	15	0.213333	7.60325E-001	5.99129E-003	0.00000E+000	4.55533E-003	3.59960E-001	-1.15978E+000	3.57660E+000	10	...........
	16	0.226667	7.67130E-001	5.99292E-003	0.00000E+000	4.59735E-003	3.59960E-001	-1.17037E+000	3.57660E+000	10	...........
	17	0.24	7.73904E-001	5.99064E-003	0.00000E+000	4.63618E-003	3.59960E-001	-1.16463E+000	3.57660E+000	10	...........
	18	0.253333	7.80628E-001	5.98891E-003	0.00000E+000	4.67511E-003	3.59960E-001	-1.15980E+000	3.57660E+000	10	...........
	19	0.266667	7.87319E-001	5.99093E-003	0.00000E+000	4.71678E-003	3.59960E-001	-1.17007E+000	3.57660E+000	10	...........
	20	0.28	7.94072E-001	5.99911E-003	0.00000E+000	4.76372E-003	3.59960E-001	-1.16398E+000	3.57660E+000	10	...........
	21	0.293333	8.00723E-001	5.99257E-003	0.00000E+000	4.79839E-003	3.59960E-001	-1.15918E+000	3.57660E+000	10	...........
	22	0.306667	8.07325E-001	5.99392E-003	0.00000E+000	4.83904E-003	3.59960E-001	-1.16983E+000	3.57660E+000	10	...........
	23	0.32	8.13959E-001	5.99355E-003	0.00000E+000	4.87851E-003	3.59960E-001	-1.16391E+000	3.57660E+000	10	...........
	24	0.333333	8.20560E-001	5.99369E-003	0.00000E+000	4.91818E-003	3.59960E-001	-1.15906E+000	3.57660E+000	10	...........
	25	0.346667	8.27143E-001	5.98994E-003	0.00000E+000	4.95454E-003	3.59960E-001	-1.16970E+000	3.57660E+000	10	...........
	26	0.36	8.33686E-001	5.99203E-003	0.00000E+000	4.99547E-003	3.59960E-001	-1.16391E+000	3.57660E+000	10	...........
	27	0.373333	8.40210E-001	5.99213E-003	0.00000E+000	5.03465E-003	3.59960E-001	-1.15923E+000	3.57660E+000	10	...........
	28	0.386667	8.46699E-001	5.99490E-003	0.00000E+000	5.07587E-003	3.59960E-001	-1.16972E+000	3.57660E+000	10	...........
	29	0.4	8.53235E-001	5.99471E-003	0.00000E+000	5.11489E-003	3.59960E-001	-1.16363E+000	3.57660E+000	10	...........
	30	0.413333	8.59687E-001	5.99752E-003	0.00000E+000	5.15599E-003	3.59960E-001	-1.15885E+000	3.57660E+000	10	...........
	31	0.426667	8.66084E-001	5.99256E-003	0.00000E+000	5.19006E-003	3.59960E-001	-1.16972E+000	3.57660E+000	10	...........
	32	0.44	8.72536E-001	5.99926E-003	0.00000E+000	5.23457E-003	3.59960E-001	-1.16382E+000	3.57660E+000	10	...........
	33	0.453333	8.78880E-001	5.99319E-003	0.00000E+000	5.26729E-003	3.59960E-001	-1.15917E+000	3.57660E+000	10	...........
	34	0.466667	8.85268E-001	5.98887E-003	0.00000E+000	5.30175E-003	3.59960E-001	-1.16939E+000	3.57660E+000	10	...........
	35	0.48	8.91576E-001	5.99480E-003	0.00000E+000	5.34482E-003	3.59960E-001	-1.16356E+000	3.57660E+000	10	...........
	36	0.493333	8.97865E-001	5.99761E-003	0.00000E+000	5.38504E-003	3.59960E-001	-1.15897E+000	3.57660E+000	10	...........
	37	0.506667	9.04090E-001	5.99292E-003	0.00000E+000	5.41813E-003	3.59960E-001	-1.16951E+000	3.57660E+000	10	...........
	38	0.52	9.10310E-001	5.99177E-003	0.00000E+000	5.45436E-003	3.59960E-001	-1.16372E+000	3.57660E+000	10	...........
	39	0.533333	9.16476E-001	5.99616E-003	0.00000E+000	5.49533E-003	3.59960E-001	-1.15900E+000	3.57660E+000	10	...........
	40	0.546667	9.22690E-001	5.99374E-003	0.00000E+000	5.53037E-003	3.59960E-001	-1.16929E+000	3.57660E+000	10	...........
	41	0.56	9.28780E-001	5.99574E-003	0.00000E+000	5.56873E-003	3.59960E-001	-1.16356E+000	3.57660E+000	10	...........
	42	0.573333	9.34824E-001	5.99434E-003	0.00000E+000	5.60365E-003	3.59960E-001	-1.15886E+000	3.57660E+000	10	...........
	43	0.586667	9.40861E-001	5.99767E-003	0.00000E+000	5.64297E-003	3.59960E-001	-1.16930E+000	3.57660E+000	10	...........
	44	0.6	9.46867E-001	5.99053E-003	0.00000E+000	5.67223E-003	3.59960E-001	-1.16312E+000	3.57660E+000	10	...........
	45	0.613333	9.52790E-001	5.99087E-003	0.00000E+000	5.70804E-003	3.59960E-001	-1.15798E+000	3.57660E+000	10	...........
	46	0.626667	9.58576E-001	5.99257E-003	0.00000E+000	5.74434E-003	3.59960E-001	-1.16868E+000	3.57660E+000	10	...........
	47	0.64	9.64443E-001	5.98995E-003	0.00000E+000	5.77697E-003	3.59960E-001	-1.16294E+000	3.57660E+000	10	...........
	48	0.653333	9.70200E-001	5.99570E-003	0.00000E+000	5.81703E-003	3.59960E-001	-1.15806E+000	3.57660E+000	10	...........
	49	0.666667	9.75994E-001	5.99340E-003	0.00000E+000	5.84952E-003	3.59960E-001	-1.16853E+000	3.57660E+000	10	...........
	50	0.68	9.81642E-001	5.99602E-003	0.00000E+000	5.88595E-003	3.59960E-001	-1.16277E+000	3.57660E+000	10	...........
	51	0.693333	9.87278E-001	5.99778E-003	0.00000E+000	5.92147E-003	3.59960E-001	-1.15833E+000	3.57660E+000	10	...........
	52	0.706667	9.92869E-001	5.99694E-003	0.00000E+000	5.95418E-003	3.59960E-001	-1.16888E+000	3.57660E+000	10	...........
	53	0.718333	9.98075E-001	5.99708E-003	0.00000E+000	5.98554E-003	3.59960E-001	-1.16160E+000	3.57660E+000	10	...........
STARTTIMEOFFSET	QUANT	1314.148	Start Time Offset (s)