File: Data/CV_CRGO300517_1/PWRCCD_CRGO300517_1/CHARGE_DISCHARGE/CHARGE_#778.DTA
EXPLAIN
TAG	PWR800_CHARGE
TITLE	LABEL	PWR Cyclic Charge Discharge (Cell) - Charge Step	Test &Identifier
DATE	LABEL	22-6-2017	Date
TIME	LABEL	16:06:28	Time
NOTES	NOTES	3	&Notes...
	supercap test cell
	0.6mg
	6M KOH
PSTAT	PSTAT	IFC5000-01520	Potentiostat
CAPACITY	QUANT	1.00000E-003	Capacity (A-hr)
CELLTYPE	SELECTOR	1	&Cell Type
WORKINGCONNECTION	SELECTOR	0	&Working Lead
MAXCHARGETIME	VARIABLEANDUNITS	1.00000E+002	s	1.00000E+002	second(s)	Max &Charge Time
CHARGECURRENT	QUANT	6.00000E-003	&Charge Current (A)
VOLTAGEFINISH	TWOPARAM	F	1.00000E-003	3.60000E+003	&Voltage Finish	 I (A) < 	Max Time(s)
SAMPLETIME	QUANT	1.00000E-002	Sa&mple Period (s)
CHARGESTOPAT1	MULTIPARAM	4	1.00000E+000	Charge Stop At &1	Voltage > Limit	V
CHARGESTOPAT2	MULTIPARAM	0	0.00000E+000	Charge Stop At &2	None	N/A
AESBHCSELECTOR	TOGGLE	F	Save Both Half Cells
IRCOMP	TOGGLE	F	IR &Measure
EOC	QUANT	0	Open Circuit (V)
SEQUENCER	TOGGLE	TRUE	Run as Sequence
PSTATMODEL	IQUANT	53	Pstat Model
PSTATSECTION	LABEL	IFC5000-01520	Pstat Section
PSTATSERIALNO	LABEL	01520	Pstat Serial Number
CTRLMODE	IQUANT	0	Control Mode
ELECTROMETER	IQUANT	1	RE=0 or CS=1
IESTAB	IQUANT	0	I/E Stability
CASPEED	IQUANT	4	Control Amp Speed
CONVENTION	IQUANT	1	Current Convention
ICHRANGE	IQUANT	2	Ich Range
ICHRANGEMODE	TOGGLE	T	Ich Auto Range
ICHOFFSETENABLE	TOGGLE	F	Ich Offset Enable
ICHOFFSET	QUANT	0	Ich Offset (V)
ICHFILTER	IQUANT	1	Ich Filter
VCHRANGE	IQUANT	2	Vch Range
VCHRANGEMODE	TOGGLE	T	Vch Auto Range
VCHOFFSETENABLE	TOGGLE	F	Vch Offset Enable
VCHOFFSET	QUANT	0	Vch Offset (V)
VCHFILTER	IQUANT	1	Vch Filter
IERANGELOWERLIMIT	IQUANT	9	I/E Range Lower Limit
IERANGEMODE	TOGGLE	F	I/E AutoRange
IERANGE	IQUANT	10	I/E Range
ACHSELECT	IQUANT	1	Ach Select
ACHRANGE	IQUANT	2	Ach Range
ACHOFFSETENABLE	TOGGLE	F	Ach Offset Enable
ACHOFFSET	QUANT	0	Ach Offset (V)
ACHFILTER	IQUANT	1	Ach Filter
CABLEID	IQUANT	14	Cable ID
DCCALDATE	LABEL	20-10-2016	DC Calibration Date
ACCALDATE	LABEL	12/3/2015	AC Calibration Date
FRAMEWORKVERSION	QUANT	7.01	Framework Version
INSTRUMENTVERSION	LABEL	4.00	Instrument Version
CURVE	TABLE	55
	Pt	T	Vf	Im	Vu	Pwr	Sig	Ach	Temp	IERange	Over
	#	s	V	A	V	W	V	V	deg C	#	bits
	0	0.013333	6.47312E-001	5.99684E-003	0.00000E+000	3.88183E-003	3.59960E-001	-1.17172E+000	3.57630E+000	10	...........
	1	0.026667	6.56518E-001	5.99686E-003	0.00000E+000	3.93705E-003	3.59960E-001	-1.16862E+000	3.57630E+000	10	...........
	2	0.04	6.64889E-001	5.99494E-003	0.00000E+000	3.98597E-003	3.59960E-001	-1.16291E+000	3.57630E+000	10	...........
	3	0.053333	6.72876E-001	5.99922E-003	0.00000E+000	4.03673E-003	3.59960E-001	-1.17159E+000	3.57630E+000	10	...........
	4	0.066667	6.80573E-001	5.99335E-003	0.00000E+000	4.07892E-003	3.59960E-001	-1.16850E+000	3.57630E+000	10	...........
	5	0.08	6.88112E-001	5.99551E-003	0.00000E+000	4.12559E-003	3.59960E-001	-1.16277E+000	3.57630E+000	10	...........
	6	0.093333	6.95481E-001	5.99460E-003	0.00000E+000	4.16914E-003	3.59960E-001	-1.17157E+000	3.57630E+000	10	...........
	7	0.106667	7.02714E-001	5.99489E-003	0.00000E+000	4.21269E-003	3.59960E-001	-1.16855E+000	3.57630E+000	10	...........
	8	0.12	7.09840E-001	6.00035E-003	0.00000E+000	4.25929E-003	3.59960E-001	-1.16290E+000	3.57630E+000	10	...........
	9	0.133333	7.16959E-001	5.99507E-003	0.00000E+000	4.29822E-003	3.59960E-001	-1.17163E+000	3.57630E+000	10	...........
	10	0.146667	7.23986E-001	5.99239E-003	0.00000E+000	4.33841E-003	3.59960E-001	-1.16830E+000	3.57630E+000	10	...........
	11	0.16	7.30936E-001	5.99600E-003	0.00000E+000	4.38269E-003	3.59960E-001	-1.16250E+000	3.57630E+000	10	...........
	12	0.173333	7.37871E-001	5.99350E-003	0.00000E+000	4.42243E-003	3.59960E-001	-1.17173E+000	3.57630E+000	10	...........
	13	0.186667	7.44733E-001	5.99282E-003	0.00000E+000	4.46305E-003	3.59960E-001	-1.16859E+000	3.57630E+000	10	...........
	14	0.2	7.51583E-001	5.99105E-003	0.00000E+000	4.50277E-003	3.59960E-001	-1.16284E+000	3.57630E+000	10	...........
	15	0.213333	7.58402E-001	5.99038E-003	0.00000E+000	4.54312E-003	3.59960E-001	-1.17172E+000	3.57660E+000	10	...........
	16	0.226667	7.65151E-001	5.99446E-003	0.00000E+000	4.58667E-003	3.59960E-001	-1.16835E+000	3.57670E+000	10	...........
	17	0.24	7.71920E-001	5.98997E-003	0.00000E+000	4.62378E-003	3.59960E-001	-1.16279E+000	3.57670E+000	10	...........
	18	0.253333	7.78608E-001	5.98950E-003	0.00000E+000	4.66348E-003	3.59960E-001	-1.17178E+000	3.57670E+000	10	...........
	19	0.266667	7.85298E-001	5.99554E-003	0.00000E+000	4.70829E-003	3.59960E-001	-1.16836E+000	3.57670E+000	10	...........
	20	0.28	7.91945E-001	5.99470E-003	0.00000E+000	4.74747E-003	3.59960E-001	-1.16267E+000	3.57670E+000	10	...........
	21	0.293333	7.98691E-001	5.99537E-003	0.00000E+000	4.78844E-003	3.59960E-001	-1.17131E+000	3.57670E+000	10	...........
	22	0.306667	8.05291E-001	5.99285E-003	0.00000E+000	4.82599E-003	3.59960E-001	-1.16793E+000	3.57670E+000	10	...........
	23	0.32	8.11918E-001	5.99344E-003	0.00000E+000	4.86618E-003	3.59960E-001	-1.16258E+000	3.57670E+000	10	...........
	24	0.333333	8.18491E-001	5.99522E-003	0.00000E+000	4.90703E-003	3.59960E-001	-1.17151E+000	3.57670E+000	10	...........
	25	0.346667	8.25058E-001	5.99726E-003	0.00000E+000	4.94809E-003	3.59960E-001	-1.16767E+000	3.57670E+000	10	...........
	26	0.36	8.31605E-001	5.99344E-003	0.00000E+000	4.98417E-003	3.59960E-001	-1.16256E+000	3.57670E+000	10	...........
	27	0.373333	8.38145E-001	5.99013E-003	0.00000E+000	5.02060E-003	3.59960E-001	-1.17157E+000	3.57670E+000	10	...........
	28	0.386667	8.44707E-001	5.99567E-003	0.00000E+000	5.06458E-003	3.59960E-001	-1.16792E+000	3.57670E+000	10	...........
	29	0.4	8.51173E-001	5.99589E-003	0.00000E+000	5.10354E-003	3.59960E-001	-1.16237E+000	3.57670E+000	10	...........
	30	0.413333	8.57613E-001	5.99722E-003	0.00000E+000	5.14329E-003	3.59960E-001	-1.17147E+000	3.57670E+000	10	...........
	31	0.426667	8.64052E-001	5.99561E-003	0.00000E+000	5.18052E-003	3.59960E-001	-1.16747E+000	3.57670E+000	10	...........
	32	0.44	8.70470E-001	5.99626E-003	0.00000E+000	5.21957E-003	3.59960E-001	-1.16202E+000	3.57670E+000	10	...........
	33	0.453333	8.76837E-001	5.99349E-003	0.00000E+000	5.25531E-003	3.59960E-001	-1.17150E+000	3.57670E+000	10	...........
	34	0.466667	8.83192E-001	5.99074E-003	0.00000E+000	5.29097E-003	3.59960E-001	-1.16752E+000	3.57670E+000	10	...........
	35	0.48	8.89503E-001	5.99551E-003	0.00000E+000	5.33303E-003	3.59960E-001	-1.16216E+000	3.57670E+000	10	...........
	36	0.493333	8.95779E-001	5.99472E-003	0.00000E+000	5.36994E-003	3.59960E-001	-1.17146E+000	3.57670E+000	10	...........
	37	0.506667	9.02008E-001	5.99230E-003	0.00000E+000	5.40510E-003	3.59960E-001	-1.16771E+000	3.57670E+000	10	...........
	38	0.52	9.08214E-001	5.99492E-003	0.00000E+000	5.44467E-003	3.59960E-001	-1.16248E+000	3.57670E+000	10	...........
	39	0.533333	9.14391E-001	5.99667E-003	0.00000E+000	5.48330E-003	3.59960E-001	-1.17157E+000	3.57670E+000	10	...........
	40	0.546667	9.20553E-001	5.99295E-003	0.00000E+000	5.51683E-003	3.59960E-001	-1.16765E+000	3.57670E+000	10	...........
	41	0.56	9.26707E-001	5.98982E-003	0.00000E+000	5.55081E-003	3.59960E-001	-1.16221E+000	3.57670E+000	10	...........
	42	0.573333	9.32787E-001	5.99325E-003	0.00000E+000	5.59042E-003	3.59960E-001	-1.17155E+000	3.57670E+000	10	...........
	43	0.586667	9.38756E-001	5.99276E-003	0.00000E+000	5.62574E-003	3.59960E-001	-1.16760E+000	3.57670E+000	10	...........
	44	0.6	9.44782E-001	5.99141E-003	0.00000E+000	5.66058E-003	3.59960E-001	-1.16216E+000	3.57670E+000	10	...........
	45	0.613333	9.50721E-001	5.99325E-003	0.00000E+000	5.69791E-003	3.59960E-001	-1.17126E+000	3.57670E+000	10	...........
	46	0.626667	9.56633E-001	5.99489E-003	0.00000E+000	5.73491E-003	3.59960E-001	-1.16713E+000	3.57670E+000	10	...........
	47	0.64	9.62459E-001	5.99237E-003	0.00000E+000	5.76741E-003	3.59960E-001	-1.16204E+000	3.57670E+000	10	...........
	48	0.653333	9.68196E-001	5.99672E-003	0.00000E+000	5.80600E-003	3.59960E-001	-1.17147E+000	3.57670E+000	10	...........
	49	0.666667	9.73983E-001	5.99467E-003	0.00000E+000	5.83871E-003	3.59960E-001	-1.16713E+000	3.57670E+000	10	...........
	50	0.68	9.79646E-001	5.99070E-003	0.00000E+000	5.86877E-003	3.59960E-001	-1.16199E+000	3.57670E+000	10	...........
	51	0.693333	9.85312E-001	5.99415E-003	0.00000E+000	5.90611E-003	3.59960E-001	-1.17146E+000	3.57670E+000	10	...........
	52	0.706667	9.90909E-001	5.99669E-003	0.00000E+000	5.94218E-003	3.59960E-001	-1.16712E+000	3.57670E+000	10	...........
	53	0.72	9.96438E-001	5.98829E-003	0.00000E+000	5.96696E-003	3.59960E-001	-1.16194E+000	3.57670E+000	10	...........
	54	0.723333	9.99894E-001	5.99546E-003	0.00000E+000	5.99483E-003	3.59960E-001	-1.17653E+000	3.57670E+000	10	...........
STARTTIMEOFFSET	QUANT	1272.512	Start Time Offset (s)