File: Data/CV_CRGO300517_1/PWRCCD_CRGO300517_1/CHARGE_DISCHARGE/CHARGE_#639.DTA
EXPLAIN
TAG	PWR800_CHARGE
TITLE	LABEL	PWR Cyclic Charge Discharge (Cell) - Charge Step	Test &Identifier
DATE	LABEL	22-6-2017	Date
TIME	LABEL	16:01:15	Time
NOTES	NOTES	3	&Notes...
	supercap test cell
	0.6mg
	6M KOH
PSTAT	PSTAT	IFC5000-01520	Potentiostat
CAPACITY	QUANT	1.00000E-003	Capacity (A-hr)
CELLTYPE	SELECTOR	1	&Cell Type
WORKINGCONNECTION	SELECTOR	0	&Working Lead
MAXCHARGETIME	VARIABLEANDUNITS	1.00000E+002	s	1.00000E+002	second(s)	Max &Charge Time
CHARGECURRENT	QUANT	6.00000E-003	&Charge Current (A)
VOLTAGEFINISH	TWOPARAM	F	1.00000E-003	3.60000E+003	&Voltage Finish	 I (A) < 	Max Time(s)
SAMPLETIME	QUANT	1.00000E-002	Sa&mple Period (s)
CHARGESTOPAT1	MULTIPARAM	4	1.00000E+000	Charge Stop At &1	Voltage > Limit	V
CHARGESTOPAT2	MULTIPARAM	0	0.00000E+000	Charge Stop At &2	None	N/A
AESBHCSELECTOR	TOGGLE	F	Save Both Half Cells
IRCOMP	TOGGLE	F	IR &Measure
EOC	QUANT	0	Open Circuit (V)
SEQUENCER	TOGGLE	TRUE	Run as Sequence
PSTATMODEL	IQUANT	53	Pstat Model
PSTATSECTION	LABEL	IFC5000-01520	Pstat Section
PSTATSERIALNO	LABEL	01520	Pstat Serial Number
CTRLMODE	IQUANT	0	Control Mode
ELECTROMETER	IQUANT	1	RE=0 or CS=1
IESTAB	IQUANT	0	I/E Stability
CASPEED	IQUANT	4	Control Amp Speed
CONVENTION	IQUANT	1	Current Convention
ICHRANGE	IQUANT	2	Ich Range
ICHRANGEMODE	TOGGLE	T	Ich Auto Range
ICHOFFSETENABLE	TOGGLE	F	Ich Offset Enable
ICHOFFSET	QUANT	0	Ich Offset (V)
ICHFILTER	IQUANT	1	Ich Filter
VCHRANGE	IQUANT	2	Vch Range
VCHRANGEMODE	TOGGLE	T	Vch Auto Range
VCHOFFSETENABLE	TOGGLE	F	Vch Offset Enable
VCHOFFSET	QUANT	0	Vch Offset (V)
VCHFILTER	IQUANT	1	Vch Filter
IERANGELOWERLIMIT	IQUANT	9	I/E Range Lower Limit
IERANGEMODE	TOGGLE	F	I/E AutoRange
IERANGE	IQUANT	10	I/E Range
ACHSELECT	IQUANT	1	Ach Select
ACHRANGE	IQUANT	2	Ach Range
ACHOFFSETENABLE	TOGGLE	F	Ach Offset Enable
ACHOFFSET	QUANT	0	Ach Offset (V)
ACHFILTER	IQUANT	1	Ach Filter
CABLEID	IQUANT	14	Cable ID
DCCALDATE	LABEL	20-10-2016	DC Calibration Date
ACCALDATE	LABEL	12/3/2015	AC Calibration Date
FRAMEWORKVERSION	QUANT	7.01	Framework Version
INSTRUMENTVERSION	LABEL	4.00	Instrument Version
CURVE	TABLE	56
	Pt	T	Vf	Im	Vu	Pwr	Sig	Ach	Temp	IERange	Over
	#	s	V	A	V	W	V	V	deg C	#	bits
	0	0.013333	6.40251E-001	5.99205E-003	0.00000E+000	3.83642E-003	3.59960E-001	-1.15833E+000	3.57660E+000	10	...........
	1	0.026667	6.49283E-001	5.99636E-003	0.00000E+000	3.89333E-003	3.59960E-001	-1.14890E+000	3.57660E+000	10	...........
	2	0.04	6.57625E-001	5.99127E-003	0.00000E+000	3.94001E-003	3.59960E-001	-1.15319E+000	3.57660E+000	10	...........
	3	0.053333	6.65515E-001	5.99278E-003	0.00000E+000	3.98829E-003	3.59960E-001	-1.15793E+000	3.57660E+000	10	...........
	4	0.066667	6.73141E-001	5.99517E-003	0.00000E+000	4.03559E-003	3.59960E-001	-1.14862E+000	3.57660E+000	10	...........
	5	0.08	6.80555E-001	5.99058E-003	0.00000E+000	4.07692E-003	3.59960E-001	-1.15294E+000	3.57660E+000	10	...........
	6	0.093333	6.87775E-001	5.99356E-003	0.00000E+000	4.12222E-003	3.59960E-001	-1.15784E+000	3.57660E+000	10	...........
	7	0.106667	6.94901E-001	5.99540E-003	0.00000E+000	4.16621E-003	3.59960E-001	-1.14878E+000	3.57660E+000	10	...........
	8	0.12	7.01929E-001	5.99032E-003	0.00000E+000	4.20478E-003	3.59960E-001	-1.15311E+000	3.57660E+000	10	...........
	9	0.133333	7.08879E-001	5.99325E-003	0.00000E+000	4.24849E-003	3.59960E-001	-1.15766E+000	3.57660E+000	10	...........
	10	0.146667	7.15825E-001	5.99293E-003	0.00000E+000	4.28989E-003	3.59960E-001	-1.14851E+000	3.57660E+000	10	...........
	11	0.16	7.22671E-001	5.99458E-003	0.00000E+000	4.33211E-003	3.59960E-001	-1.15279E+000	3.57660E+000	10	...........
	12	0.173333	7.29510E-001	5.99407E-003	0.00000E+000	4.37274E-003	3.59960E-001	-1.15765E+000	3.57660E+000	10	...........
	13	0.186667	7.36271E-001	5.99363E-003	0.00000E+000	4.41294E-003	3.59960E-001	-1.14856E+000	3.57660E+000	10	...........
	14	0.2	7.42989E-001	5.99529E-003	0.00000E+000	4.45444E-003	3.59960E-001	-1.15260E+000	3.57660E+000	10	...........
	15	0.213333	7.49715E-001	5.99046E-003	0.00000E+000	4.49114E-003	3.59960E-001	-1.15749E+000	3.57660E+000	10	...........
	16	0.226667	7.56463E-001	5.99514E-003	0.00000E+000	4.53510E-003	3.59960E-001	-1.14835E+000	3.57660E+000	10	...........
	17	0.24	7.63089E-001	5.98907E-003	0.00000E+000	4.57019E-003	3.59960E-001	-1.15280E+000	3.57660E+000	10	...........
	18	0.253333	7.69725E-001	5.99475E-003	0.00000E+000	4.61431E-003	3.59960E-001	-1.15778E+000	3.57660E+000	10	...........
	19	0.266667	7.76336E-001	5.99698E-003	0.00000E+000	4.65568E-003	3.59960E-001	-1.14837E+000	3.57660E+000	10	...........
	20	0.28	7.82937E-001	5.99512E-003	0.00000E+000	4.69380E-003	3.59960E-001	-1.15266E+000	3.57660E+000	10	...........
	21	0.293333	7.89499E-001	5.99627E-003	0.00000E+000	4.73405E-003	3.59960E-001	-1.15786E+000	3.57660E+000	10	...........
	22	0.306667	7.96074E-001	5.99527E-003	0.00000E+000	4.77268E-003	3.59960E-001	-1.14857E+000	3.57660E+000	10	...........
	23	0.32	8.02605E-001	5.99817E-003	0.00000E+000	4.81416E-003	3.59960E-001	-1.15286E+000	3.57660E+000	10	...........
	24	0.333333	8.09133E-001	5.99465E-003	0.00000E+000	4.85047E-003	3.59960E-001	-1.15770E+000	3.57660E+000	10	...........
	25	0.346667	8.15680E-001	5.99642E-003	0.00000E+000	4.89116E-003	3.59960E-001	-1.14808E+000	3.57660E+000	10	...........
	26	0.36	8.22119E-001	5.99390E-003	0.00000E+000	4.92770E-003	3.59960E-001	-1.15222E+000	3.57660E+000	10	...........
	27	0.373333	8.28607E-001	5.98812E-003	0.00000E+000	4.96180E-003	3.59960E-001	-1.15708E+000	3.57660E+000	10	...........
	28	0.386667	8.35045E-001	5.99463E-003	0.00000E+000	5.00579E-003	3.59960E-001	-1.14809E+000	3.57660E+000	10	...........
	29	0.4	8.41428E-001	5.98912E-003	0.00000E+000	5.03941E-003	3.59960E-001	-1.15239E+000	3.57660E+000	10	...........
	30	0.413333	8.47884E-001	5.99063E-003	0.00000E+000	5.07936E-003	3.59960E-001	-1.15700E+000	3.57660E+000	10	...........
	31	0.426667	8.54271E-001	5.99071E-003	0.00000E+000	5.11770E-003	3.59960E-001	-1.14792E+000	3.57660E+000	10	...........
	32	0.44	8.60636E-001	5.99766E-003	0.00000E+000	5.16180E-003	3.59960E-001	-1.15231E+000	3.57660E+000	10	...........
	33	0.453333	8.67001E-001	5.99393E-003	0.00000E+000	5.19674E-003	3.59960E-001	-1.15724E+000	3.57660E+000	10	...........
	34	0.466667	8.73351E-001	5.99515E-003	0.00000E+000	5.23587E-003	3.59960E-001	-1.14781E+000	3.57660E+000	10	...........
	35	0.48	8.79640E-001	5.99318E-003	0.00000E+000	5.27183E-003	3.59960E-001	-1.15222E+000	3.57660E+000	10	...........
	36	0.493333	8.85894E-001	5.98826E-003	0.00000E+000	5.30497E-003	3.59960E-001	-1.15718E+000	3.57660E+000	10	...........
	37	0.506667	8.92097E-001	5.99631E-003	0.00000E+000	5.34928E-003	3.59960E-001	-1.14812E+000	3.57660E+000	10	...........
	38	0.52	8.98339E-001	5.99276E-003	0.00000E+000	5.38353E-003	3.59960E-001	-1.15226E+000	3.57660E+000	10	...........
	39	0.533333	9.04514E-001	5.99589E-003	0.00000E+000	5.42336E-003	3.59960E-001	-1.15710E+000	3.57660E+000	10	...........
	40	0.546667	9.10678E-001	5.99127E-003	0.00000E+000	5.45612E-003	3.59960E-001	-1.14790E+000	3.57660E+000	10	...........
	41	0.56	9.16774E-001	5.99412E-003	0.00000E+000	5.49525E-003	3.59960E-001	-1.15234E+000	3.57660E+000	10	...........
	42	0.573333	9.22923E-001	5.99235E-003	0.00000E+000	5.53048E-003	3.59960E-001	-1.15726E+000	3.57660E+000	10	...........
	43	0.586667	9.28953E-001	5.99577E-003	0.00000E+000	5.56979E-003	3.59960E-001	-1.14803E+000	3.57660E+000	10	...........
	44	0.6	9.34945E-001	5.99219E-003	0.00000E+000	5.60236E-003	3.59960E-001	-1.15234E+000	3.57660E+000	10	...........
	45	0.613333	9.40871E-001	5.98965E-003	0.00000E+000	5.63549E-003	3.59960E-001	-1.15711E+000	3.57660E+000	10	...........
	46	0.626667	9.46822E-001	5.99322E-003	0.00000E+000	5.67451E-003	3.59960E-001	-1.14813E+000	3.57660E+000	10	...........
	47	0.64	9.52666E-001	5.99406E-003	0.00000E+000	5.71034E-003	3.59960E-001	-1.15256E+000	3.57660E+000	10	...........
	48	0.653333	9.58479E-001	5.99684E-003	0.00000E+000	5.74784E-003	3.59960E-001	-1.15727E+000	3.57660E+000	10	...........
	49	0.666667	9.64221E-001	5.99269E-003	0.00000E+000	5.77827E-003	3.59960E-001	-1.14787E+000	3.57660E+000	10	...........
	50	0.68	9.69957E-001	5.99492E-003	0.00000E+000	5.81481E-003	3.59960E-001	-1.15180E+000	3.57660E+000	10	...........
	51	0.693333	9.75715E-001	5.99574E-003	0.00000E+000	5.85014E-003	3.59960E-001	-1.15677E+000	3.57660E+000	10	...........
	52	0.706667	9.81336E-001	5.99566E-003	0.00000E+000	5.88375E-003	3.59960E-001	-1.14760E+000	3.57660E+000	10	...........
	53	0.72	9.86917E-001	5.99044E-003	0.00000E+000	5.91207E-003	3.59960E-001	-1.15197E+000	3.57660E+000	10	...........
	54	0.733333	9.92441E-001	5.99256E-003	0.00000E+000	5.94726E-003	3.59960E-001	-1.15678E+000	3.57660E+000	10	...........
	55	0.746667	9.97998E-001	5.99231E-003	0.00000E+000	5.98032E-003	3.59960E-001	-1.14745E+000	3.57660E+000	10	...........
STARTTIMEOFFSET	QUANT	1069.143	Start Time Offset (s)