File: Data/CV_CRGO300517_1/PWRCCD_CRGO300517_1/CHARGE_DISCHARGE/CHARGE_#592.DTA
EXPLAIN
TAG	PWR800_CHARGE
TITLE	LABEL	PWR Cyclic Charge Discharge (Cell) - Charge Step	Test &Identifier
DATE	LABEL	22-6-2017	Date
TIME	LABEL	15:59:28	Time
NOTES	NOTES	3	&Notes...
	supercap test cell
	0.6mg
	6M KOH
PSTAT	PSTAT	IFC5000-01520	Potentiostat
CAPACITY	QUANT	1.00000E-003	Capacity (A-hr)
CELLTYPE	SELECTOR	1	&Cell Type
WORKINGCONNECTION	SELECTOR	0	&Working Lead
MAXCHARGETIME	VARIABLEANDUNITS	1.00000E+002	s	1.00000E+002	second(s)	Max &Charge Time
CHARGECURRENT	QUANT	6.00000E-003	&Charge Current (A)
VOLTAGEFINISH	TWOPARAM	F	1.00000E-003	3.60000E+003	&Voltage Finish	 I (A) < 	Max Time(s)
SAMPLETIME	QUANT	1.00000E-002	Sa&mple Period (s)
CHARGESTOPAT1	MULTIPARAM	4	1.00000E+000	Charge Stop At &1	Voltage > Limit	V
CHARGESTOPAT2	MULTIPARAM	0	0.00000E+000	Charge Stop At &2	None	N/A
AESBHCSELECTOR	TOGGLE	F	Save Both Half Cells
IRCOMP	TOGGLE	F	IR &Measure
EOC	QUANT	0	Open Circuit (V)
SEQUENCER	TOGGLE	TRUE	Run as Sequence
PSTATMODEL	IQUANT	53	Pstat Model
PSTATSECTION	LABEL	IFC5000-01520	Pstat Section
PSTATSERIALNO	LABEL	01520	Pstat Serial Number
CTRLMODE	IQUANT	0	Control Mode
ELECTROMETER	IQUANT	1	RE=0 or CS=1
IESTAB	IQUANT	0	I/E Stability
CASPEED	IQUANT	4	Control Amp Speed
CONVENTION	IQUANT	1	Current Convention
ICHRANGE	IQUANT	2	Ich Range
ICHRANGEMODE	TOGGLE	T	Ich Auto Range
ICHOFFSETENABLE	TOGGLE	F	Ich Offset Enable
ICHOFFSET	QUANT	0	Ich Offset (V)
ICHFILTER	IQUANT	1	Ich Filter
VCHRANGE	IQUANT	2	Vch Range
VCHRANGEMODE	TOGGLE	T	Vch Auto Range
VCHOFFSETENABLE	TOGGLE	F	Vch Offset Enable
VCHOFFSET	QUANT	0	Vch Offset (V)
VCHFILTER	IQUANT	1	Vch Filter
IERANGELOWERLIMIT	IQUANT	9	I/E Range Lower Limit
IERANGEMODE	TOGGLE	F	I/E AutoRange
IERANGE	IQUANT	10	I/E Range
ACHSELECT	IQUANT	1	Ach Select
ACHRANGE	IQUANT	2	Ach Range
ACHOFFSETENABLE	TOGGLE	F	Ach Offset Enable
ACHOFFSET	QUANT	0	Ach Offset (V)
ACHFILTER	IQUANT	1	Ach Filter
CABLEID	IQUANT	14	Cable ID
DCCALDATE	LABEL	20-10-2016	DC Calibration Date
ACCALDATE	LABEL	12/3/2015	AC Calibration Date
FRAMEWORKVERSION	QUANT	7.01	Framework Version
INSTRUMENTVERSION	LABEL	4.00	Instrument Version
CURVE	TABLE	57
	Pt	T	Vf	Im	Vu	Pwr	Sig	Ach	Temp	IERange	Over
	#	s	V	A	V	W	V	V	deg C	#	bits
	0	0.013333	6.37970E-001	5.98604E-003	0.00000E+000	3.81892E-003	3.59960E-001	-1.15284E+000	3.57640E+000	10	...........
	1	0.026667	6.46941E-001	5.99327E-003	0.00000E+000	3.87729E-003	3.59960E-001	-1.15240E+000	3.57640E+000	10	...........
	2	0.04	6.55213E-001	5.98944E-003	0.00000E+000	3.92436E-003	3.59960E-001	-1.14534E+000	3.57640E+000	10	...........
	3	0.053333	6.63053E-001	5.99358E-003	0.00000E+000	3.97406E-003	3.59960E-001	-1.15272E+000	3.57640E+000	10	...........
	4	0.066667	6.70578E-001	5.99374E-003	0.00000E+000	4.01927E-003	3.59960E-001	-1.15178E+000	3.57640E+000	10	...........
	5	0.08	6.77927E-001	5.98975E-003	0.00000E+000	4.06062E-003	3.59960E-001	-1.14496E+000	3.57640E+000	10	...........
	6	0.093333	6.85163E-001	5.99317E-003	0.00000E+000	4.10629E-003	3.59960E-001	-1.15260E+000	3.57640E+000	10	...........
	7	0.106667	6.92241E-001	5.99628E-003	0.00000E+000	4.15088E-003	3.59960E-001	-1.15201E+000	3.57640E+000	10	...........
	8	0.12	6.99230E-001	5.99476E-003	0.00000E+000	4.19172E-003	3.59960E-001	-1.14492E+000	3.57640E+000	10	...........
	9	0.133333	7.06149E-001	5.99492E-003	0.00000E+000	4.23331E-003	3.59960E-001	-1.15233E+000	3.57640E+000	10	...........
	10	0.146667	7.13000E-001	5.99186E-003	0.00000E+000	4.27220E-003	3.59960E-001	-1.15190E+000	3.57640E+000	10	...........
	11	0.16	7.19868E-001	5.99138E-003	0.00000E+000	4.31300E-003	3.59960E-001	-1.14504E+000	3.57640E+000	10	...........
	12	0.173333	7.26653E-001	5.99295E-003	0.00000E+000	4.35479E-003	3.59960E-001	-1.15269E+000	3.57640E+000	10	...........
	13	0.186667	7.33410E-001	5.99651E-003	0.00000E+000	4.39791E-003	3.59960E-001	-1.15184E+000	3.57640E+000	10	...........
	14	0.2	7.40084E-001	5.99490E-003	0.00000E+000	4.43673E-003	3.59960E-001	-1.14468E+000	3.57640E+000	10	...........
	15	0.213333	7.46789E-001	5.99176E-003	0.00000E+000	4.47458E-003	3.59960E-001	-1.15236E+000	3.57640E+000	10	...........
	16	0.226667	7.53417E-001	5.99195E-003	0.00000E+000	4.51443E-003	3.59960E-001	-1.15182E+000	3.57651E+000	10	...........
	17	0.24	7.60070E-001	5.99909E-003	0.00000E+000	4.55973E-003	3.59960E-001	-1.14480E+000	3.57670E+000	10	...........
	18	0.253333	7.66649E-001	5.99482E-003	0.00000E+000	4.59593E-003	3.59960E-001	-1.15194E+000	3.57670E+000	10	...........
	19	0.266667	7.73229E-001	5.98960E-003	0.00000E+000	4.63133E-003	3.59960E-001	-1.15107E+000	3.57670E+000	10	...........
	20	0.28	7.79790E-001	5.99041E-003	0.00000E+000	4.67126E-003	3.59960E-001	-1.14404E+000	3.57670E+000	10	...........
	21	0.293333	7.86331E-001	5.99089E-003	0.00000E+000	4.71083E-003	3.59960E-001	-1.15182E+000	3.57670E+000	10	...........
	22	0.306667	7.92872E-001	6.00025E-003	0.00000E+000	4.75743E-003	3.59960E-001	-1.15122E+000	3.57670E+000	10	...........
	23	0.32	7.99382E-001	5.99281E-003	0.00000E+000	4.79055E-003	3.59960E-001	-1.14399E+000	3.57670E+000	10	...........
	24	0.333333	8.05877E-001	5.99489E-003	0.00000E+000	4.83114E-003	3.59960E-001	-1.15132E+000	3.57670E+000	10	...........
	25	0.346667	8.12398E-001	5.99706E-003	0.00000E+000	4.87200E-003	3.59960E-001	-1.15101E+000	3.57670E+000	10	...........
	26	0.36	8.18883E-001	5.99098E-003	0.00000E+000	4.90591E-003	3.59960E-001	-1.14409E+000	3.57670E+000	10	...........
	27	0.373333	8.25357E-001	5.99107E-003	0.00000E+000	4.94477E-003	3.59960E-001	-1.15146E+000	3.57670E+000	10	...........
	28	0.386667	8.31777E-001	5.99563E-003	0.00000E+000	4.98702E-003	3.59960E-001	-1.15094E+000	3.57670E+000	10	...........
	29	0.4	8.38180E-001	5.99378E-003	0.00000E+000	5.02387E-003	3.59960E-001	-1.14373E+000	3.57670E+000	10	...........
	30	0.413333	8.44579E-001	5.99185E-003	0.00000E+000	5.06059E-003	3.59960E-001	-1.15129E+000	3.57670E+000	10	...........
	31	0.426667	8.50918E-001	5.99504E-003	0.00000E+000	5.10129E-003	3.59960E-001	-1.15093E+000	3.57670E+000	10	...........
	32	0.44	8.57271E-001	5.99429E-003	0.00000E+000	5.13873E-003	3.59960E-001	-1.14374E+000	3.57670E+000	10	...........
	33	0.453333	8.63607E-001	5.99367E-003	0.00000E+000	5.17617E-003	3.59960E-001	-1.15123E+000	3.57670E+000	10	...........
	34	0.466667	8.69948E-001	5.99283E-003	0.00000E+000	5.21345E-003	3.59960E-001	-1.15070E+000	3.57670E+000	10	...........
	35	0.48	8.76229E-001	5.99652E-003	0.00000E+000	5.25433E-003	3.59960E-001	-1.14362E+000	3.57670E+000	10	...........
	36	0.493333	8.82494E-001	5.99273E-003	0.00000E+000	5.28855E-003	3.59960E-001	-1.15126E+000	3.57670E+000	10	...........
	37	0.506667	8.88715E-001	5.99270E-003	0.00000E+000	5.32580E-003	3.59960E-001	-1.15114E+000	3.57670E+000	10	...........
	38	0.52	8.94909E-001	5.99036E-003	0.00000E+000	5.36083E-003	3.59960E-001	-1.14372E+000	3.57670E+000	10	...........
	39	0.533333	9.01070E-001	5.99090E-003	0.00000E+000	5.39822E-003	3.59960E-001	-1.15102E+000	3.57670E+000	10	...........
	40	0.546667	9.07258E-001	5.98981E-003	0.00000E+000	5.43430E-003	3.59960E-001	-1.15095E+000	3.57670E+000	10	...........
	41	0.56	9.13416E-001	5.99819E-003	0.00000E+000	5.47884E-003	3.59960E-001	-1.14398E+000	3.57670E+000	10	...........
	42	0.573333	9.19452E-001	5.99400E-003	0.00000E+000	5.51119E-003	3.59960E-001	-1.15114E+000	3.57670E+000	10	...........
	43	0.586667	9.25514E-001	5.99010E-003	0.00000E+000	5.54392E-003	3.59960E-001	-1.15053E+000	3.57670E+000	10	...........
	44	0.6	9.31531E-001	5.99213E-003	0.00000E+000	5.58186E-003	3.59960E-001	-1.14343E+000	3.57670E+000	10	...........
	45	0.613333	9.37483E-001	5.99760E-003	0.00000E+000	5.62265E-003	3.59960E-001	-1.15066E+000	3.57670E+000	10	...........
	46	0.626667	9.43396E-001	5.99373E-003	0.00000E+000	5.65446E-003	3.59960E-001	-1.15088E+000	3.57670E+000	10	...........
	47	0.64	9.49296E-001	5.99208E-003	0.00000E+000	5.68826E-003	3.59960E-001	-1.14361E+000	3.57670E+000	10	...........
	48	0.653333	9.55126E-001	5.99261E-003	0.00000E+000	5.72370E-003	3.59960E-001	-1.15047E+000	3.57670E+000	10	...........
	49	0.666667	9.60917E-001	5.99487E-003	0.00000E+000	5.76057E-003	3.59960E-001	-1.15037E+000	3.57670E+000	10	...........
	50	0.68	9.66670E-001	5.99539E-003	0.00000E+000	5.79556E-003	3.59960E-001	-1.14318E+000	3.57670E+000	10	...........
	51	0.693333	9.72419E-001	5.99337E-003	0.00000E+000	5.82807E-003	3.59960E-001	-1.15062E+000	3.57670E+000	10	...........
	52	0.706667	9.78101E-001	5.99169E-003	0.00000E+000	5.86048E-003	3.59960E-001	-1.15044E+000	3.57670E+000	10	...........
	53	0.72	9.83700E-001	5.99534E-003	0.00000E+000	5.89761E-003	3.59960E-001	-1.14322E+000	3.57670E+000	10	...........
	54	0.733333	9.89271E-001	5.99156E-003	0.00000E+000	5.92728E-003	3.59960E-001	-1.15040E+000	3.57670E+000	10	...........
	55	0.746667	9.94758E-001	5.99329E-003	0.00000E+000	5.96188E-003	3.59960E-001	-1.15048E+000	3.57670E+000	10	...........
	56	0.755	9.99254E-001	5.99563E-003	0.00000E+000	5.99115E-003	3.59960E-001	-1.14084E+000	3.57670E+000	10	...........
STARTTIMEOFFSET	QUANT	998.93	Start Time Offset (s)