File: Data/CV_CRGO300517_1/PWRCCD_CRGO300517_1/CHARGE_DISCHARGE/CHARGE_#507.DTA
EXPLAIN
TAG	PWR800_CHARGE
TITLE	LABEL	PWR Cyclic Charge Discharge (Cell) - Charge Step	Test &Identifier
DATE	LABEL	22-6-2017	Date
TIME	LABEL	15:56:11	Time
NOTES	NOTES	3	&Notes...
	supercap test cell
	0.6mg
	6M KOH
PSTAT	PSTAT	IFC5000-01520	Potentiostat
CAPACITY	QUANT	1.00000E-003	Capacity (A-hr)
CELLTYPE	SELECTOR	1	&Cell Type
WORKINGCONNECTION	SELECTOR	0	&Working Lead
MAXCHARGETIME	VARIABLEANDUNITS	1.00000E+002	s	1.00000E+002	second(s)	Max &Charge Time
CHARGECURRENT	QUANT	6.00000E-003	&Charge Current (A)
VOLTAGEFINISH	TWOPARAM	F	1.00000E-003	3.60000E+003	&Voltage Finish	 I (A) < 	Max Time(s)
SAMPLETIME	QUANT	1.00000E-002	Sa&mple Period (s)
CHARGESTOPAT1	MULTIPARAM	4	1.00000E+000	Charge Stop At &1	Voltage > Limit	V
CHARGESTOPAT2	MULTIPARAM	0	0.00000E+000	Charge Stop At &2	None	N/A
AESBHCSELECTOR	TOGGLE	F	Save Both Half Cells
IRCOMP	TOGGLE	F	IR &Measure
EOC	QUANT	0	Open Circuit (V)
SEQUENCER	TOGGLE	TRUE	Run as Sequence
PSTATMODEL	IQUANT	53	Pstat Model
PSTATSECTION	LABEL	IFC5000-01520	Pstat Section
PSTATSERIALNO	LABEL	01520	Pstat Serial Number
CTRLMODE	IQUANT	0	Control Mode
ELECTROMETER	IQUANT	1	RE=0 or CS=1
IESTAB	IQUANT	0	I/E Stability
CASPEED	IQUANT	4	Control Amp Speed
CONVENTION	IQUANT	1	Current Convention
ICHRANGE	IQUANT	2	Ich Range
ICHRANGEMODE	TOGGLE	T	Ich Auto Range
ICHOFFSETENABLE	TOGGLE	F	Ich Offset Enable
ICHOFFSET	QUANT	0	Ich Offset (V)
ICHFILTER	IQUANT	1	Ich Filter
VCHRANGE	IQUANT	2	Vch Range
VCHRANGEMODE	TOGGLE	T	Vch Auto Range
VCHOFFSETENABLE	TOGGLE	F	Vch Offset Enable
VCHOFFSET	QUANT	0	Vch Offset (V)
VCHFILTER	IQUANT	1	Vch Filter
IERANGELOWERLIMIT	IQUANT	9	I/E Range Lower Limit
IERANGEMODE	TOGGLE	F	I/E AutoRange
IERANGE	IQUANT	10	I/E Range
ACHSELECT	IQUANT	1	Ach Select
ACHRANGE	IQUANT	2	Ach Range
ACHOFFSETENABLE	TOGGLE	F	Ach Offset Enable
ACHOFFSET	QUANT	0	Ach Offset (V)
ACHFILTER	IQUANT	1	Ach Filter
CABLEID	IQUANT	14	Cable ID
DCCALDATE	LABEL	20-10-2016	DC Calibration Date
ACCALDATE	LABEL	12/3/2015	AC Calibration Date
FRAMEWORKVERSION	QUANT	7.01	Framework Version
INSTRUMENTVERSION	LABEL	4.00	Instrument Version
CURVE	TABLE	58
	Pt	T	Vf	Im	Vu	Pwr	Sig	Ach	Temp	IERange	Over
	#	s	V	A	V	W	V	V	deg C	#	bits
	0	0.013333	6.31924E-001	5.99600E-003	0.00000E+000	3.78902E-003	3.59960E-001	-1.11905E+000	3.57640E+000	10	...........
	1	0.026667	6.40805E-001	5.99376E-003	0.00000E+000	3.84083E-003	3.59960E-001	-1.12997E+000	3.57640E+000	10	...........
	2	0.04	6.49042E-001	5.99472E-003	0.00000E+000	3.89082E-003	3.59960E-001	-1.12084E+000	3.57640E+000	10	...........
	3	0.053333	6.56788E-001	5.99395E-003	0.00000E+000	3.93676E-003	3.59960E-001	-1.11927E+000	3.57640E+000	10	...........
	4	0.066667	6.64255E-001	5.99889E-003	0.00000E+000	3.98479E-003	3.59960E-001	-1.13008E+000	3.57640E+000	10	...........
	5	0.08	6.71548E-001	5.99394E-003	0.00000E+000	4.02521E-003	3.59960E-001	-1.12079E+000	3.57640E+000	10	...........
	6	0.093333	6.78663E-001	5.99729E-003	0.00000E+000	4.07013E-003	3.59960E-001	-1.11953E+000	3.57640E+000	10	...........
	7	0.106667	6.85723E-001	5.99361E-003	0.00000E+000	4.10996E-003	3.59960E-001	-1.13025E+000	3.57640E+000	10	...........
	8	0.12	6.92653E-001	5.99590E-003	0.00000E+000	4.15308E-003	3.59960E-001	-1.12113E+000	3.57640E+000	10	...........
	9	0.133333	6.99553E-001	5.99773E-003	0.00000E+000	4.19573E-003	3.59960E-001	-1.11979E+000	3.57640E+000	10	...........
	10	0.146667	7.06369E-001	5.99435E-003	0.00000E+000	4.23423E-003	3.59960E-001	-1.13040E+000	3.57640E+000	10	...........
	11	0.16	7.13084E-001	5.99238E-003	0.00000E+000	4.27307E-003	3.59960E-001	-1.12082E+000	3.57640E+000	10	...........
	12	0.173333	7.19848E-001	5.99120E-003	0.00000E+000	4.31276E-003	3.59960E-001	-1.11999E+000	3.57640E+000	10	...........
	13	0.186667	7.26533E-001	5.99801E-003	0.00000E+000	4.35775E-003	3.59960E-001	-1.13082E+000	3.57640E+000	10	...........
	14	0.2	7.33184E-001	5.99301E-003	0.00000E+000	4.39398E-003	3.59960E-001	-1.12089E+000	3.57640E+000	10	...........
	15	0.213333	7.39794E-001	5.99261E-003	0.00000E+000	4.43330E-003	3.59960E-001	-1.11994E+000	3.57640E+000	10	...........
	16	0.226667	7.46408E-001	5.99173E-003	0.00000E+000	4.47227E-003	3.59960E-001	-1.13061E+000	3.57640E+000	10	...........
	17	0.24	7.52954E-001	5.99461E-003	0.00000E+000	4.51366E-003	3.59960E-001	-1.12053E+000	3.57640E+000	10	...........
	18	0.253333	7.59483E-001	5.99143E-003	0.00000E+000	4.55039E-003	3.59960E-001	-1.11971E+000	3.57640E+000	10	...........
	19	0.266667	7.66046E-001	5.99936E-003	0.00000E+000	4.59579E-003	3.59960E-001	-1.12963E+000	3.57640E+000	10	...........
	20	0.28	7.72596E-001	5.99642E-003	0.00000E+000	4.63281E-003	3.59960E-001	-1.11976E+000	3.57640E+000	10	...........
	21	0.293333	7.79104E-001	5.99714E-003	0.00000E+000	4.67239E-003	3.59960E-001	-1.11880E+000	3.57647E+000	10	...........
	22	0.306667	7.85550E-001	5.99520E-003	0.00000E+000	4.70953E-003	3.59960E-001	-1.12951E+000	3.57660E+000	10	...........
	23	0.32	7.92027E-001	5.99569E-003	0.00000E+000	4.74875E-003	3.59960E-001	-1.11969E+000	3.57660E+000	10	...........
	24	0.333333	7.98497E-001	5.99407E-003	0.00000E+000	4.78625E-003	3.59960E-001	-1.11925E+000	3.57660E+000	10	...........
	25	0.346667	8.04904E-001	5.99437E-003	0.00000E+000	4.82489E-003	3.59960E-001	-1.12985E+000	3.57660E+000	10	...........
	26	0.36	8.11283E-001	5.99278E-003	0.00000E+000	4.86184E-003	3.59960E-001	-1.11977E+000	3.57660E+000	10	...........
	27	0.373333	8.17715E-001	5.99312E-003	0.00000E+000	4.90067E-003	3.59960E-001	-1.11971E+000	3.57660E+000	10	...........
	28	0.386667	8.24121E-001	5.99345E-003	0.00000E+000	4.93933E-003	3.59960E-001	-1.13005E+000	3.57660E+000	10	...........
	29	0.4	8.30483E-001	5.99390E-003	0.00000E+000	4.97783E-003	3.59960E-001	-1.12005E+000	3.57660E+000	10	...........
	30	0.413333	8.36815E-001	6.00059E-003	0.00000E+000	5.02138E-003	3.59960E-001	-1.11955E+000	3.57660E+000	10	...........
	31	0.426667	8.43145E-001	5.99472E-003	0.00000E+000	5.05442E-003	3.59960E-001	-1.12940E+000	3.57660E+000	10	...........
	32	0.44	8.49511E-001	5.99385E-003	0.00000E+000	5.09184E-003	3.59960E-001	-1.11944E+000	3.57660E+000	10	...........
	33	0.453333	8.55809E-001	5.99458E-003	0.00000E+000	5.13022E-003	3.59960E-001	-1.11925E+000	3.57660E+000	10	...........
	34	0.466667	8.62084E-001	5.99271E-003	0.00000E+000	5.16622E-003	3.59960E-001	-1.12946E+000	3.57660E+000	10	...........
	35	0.48	8.68343E-001	5.99492E-003	0.00000E+000	5.20564E-003	3.59960E-001	-1.11948E+000	3.57660E+000	10	...........
	36	0.493333	8.74595E-001	5.99206E-003	0.00000E+000	5.24063E-003	3.59960E-001	-1.11921E+000	3.57660E+000	10	...........
	37	0.506667	8.80779E-001	5.99437E-003	0.00000E+000	5.27971E-003	3.59960E-001	-1.12952E+000	3.57660E+000	10	...........
	38	0.52	8.87027E-001	5.99555E-003	0.00000E+000	5.31822E-003	3.59960E-001	-1.11955E+000	3.57660E+000	10	...........
	39	0.533333	8.93202E-001	6.00011E-003	0.00000E+000	5.35931E-003	3.59960E-001	-1.11922E+000	3.57660E+000	10	...........
	40	0.546667	8.99353E-001	5.99439E-003	0.00000E+000	5.39107E-003	3.59960E-001	-1.12941E+000	3.57660E+000	10	...........
	41	0.56	9.05442E-001	5.99468E-003	0.00000E+000	5.42783E-003	3.59960E-001	-1.11894E+000	3.57660E+000	10	...........
	42	0.573333	9.11531E-001	5.99467E-003	0.00000E+000	5.46433E-003	3.59960E-001	-1.11900E+000	3.57660E+000	10	...........
	43	0.586667	9.17597E-001	5.99681E-003	0.00000E+000	5.50265E-003	3.59960E-001	-1.12935E+000	3.57660E+000	10	...........
	44	0.6	9.23644E-001	5.99354E-003	0.00000E+000	5.53590E-003	3.59960E-001	-1.11883E+000	3.57660E+000	10	...........
	45	0.613333	9.29592E-001	5.99042E-003	0.00000E+000	5.56865E-003	3.59960E-001	-1.11905E+000	3.57660E+000	10	...........
	46	0.626667	9.35526E-001	5.99498E-003	0.00000E+000	5.60846E-003	3.59960E-001	-1.12902E+000	3.57660E+000	10	...........
	47	0.64	9.41384E-001	5.99827E-003	0.00000E+000	5.64667E-003	3.59960E-001	-1.11912E+000	3.57660E+000	10	...........
	48	0.653333	9.47251E-001	5.99165E-003	0.00000E+000	5.67560E-003	3.59960E-001	-1.11962E+000	3.57660E+000	10	...........
	49	0.666667	9.53124E-001	5.99222E-003	0.00000E+000	5.71133E-003	3.59960E-001	-1.12944E+000	3.57660E+000	10	...........
	50	0.68	9.58933E-001	5.99363E-003	0.00000E+000	5.74749E-003	3.59960E-001	-1.11922E+000	3.57660E+000	10	...........
	51	0.693333	9.64675E-001	5.99389E-003	0.00000E+000	5.78215E-003	3.59960E-001	-1.11972E+000	3.57660E+000	10	...........
	52	0.706667	9.70403E-001	5.99809E-003	0.00000E+000	5.82056E-003	3.59960E-001	-1.12965E+000	3.57660E+000	10	...........
	53	0.72	9.76155E-001	5.99884E-003	0.00000E+000	5.85580E-003	3.59960E-001	-1.11962E+000	3.57660E+000	10	...........
	54	0.733333	9.81745E-001	5.99455E-003	0.00000E+000	5.88512E-003	3.59960E-001	-1.12055E+000	3.57660E+000	10	...........
	55	0.746667	9.87314E-001	5.99444E-003	0.00000E+000	5.91839E-003	3.59960E-001	-1.12964E+000	3.57660E+000	10	...........
	56	0.76	9.92821E-001	5.99745E-003	0.00000E+000	5.95440E-003	3.59960E-001	-1.11906E+000	3.57660E+000	10	...........
	57	0.771667	9.97996E-001	5.99460E-003	0.00000E+000	5.98259E-003	3.59960E-001	-1.12155E+000	3.57660E+000	10	...........
STARTTIMEOFFSET	QUANT	869.7986	Start Time Offset (s)