File: Data/CV_CRGO300517_1/PWRCCD_CRGO300517_1/CHARGE_DISCHARGE/CHARGE_#958.DTA
EXPLAIN
TAG	PWR800_CHARGE
TITLE	LABEL	PWR Cyclic Charge Discharge (Cell) - Charge Step	Test &Identifier
DATE	LABEL	22-6-2017	Date
TIME	LABEL	16:13:06	Time
NOTES	NOTES	3	&Notes...
	supercap test cell
	0.6mg
	6M KOH
PSTAT	PSTAT	IFC5000-01520	Potentiostat
CAPACITY	QUANT	1.00000E-003	Capacity (A-hr)
CELLTYPE	SELECTOR	1	&Cell Type
WORKINGCONNECTION	SELECTOR	0	&Working Lead
MAXCHARGETIME	VARIABLEANDUNITS	1.00000E+002	s	1.00000E+002	second(s)	Max &Charge Time
CHARGECURRENT	QUANT	6.00000E-003	&Charge Current (A)
VOLTAGEFINISH	TWOPARAM	F	1.00000E-003	3.60000E+003	&Voltage Finish	 I (A) < 	Max Time(s)
SAMPLETIME	QUANT	1.00000E-002	Sa&mple Period (s)
CHARGESTOPAT1	MULTIPARAM	4	1.00000E+000	Charge Stop At &1	Voltage > Limit	V
CHARGESTOPAT2	MULTIPARAM	0	0.00000E+000	Charge Stop At &2	None	N/A
AESBHCSELECTOR	TOGGLE	F	Save Both Half Cells
IRCOMP	TOGGLE	F	IR &Measure
EOC	QUANT	0	Open Circuit (V)
SEQUENCER	TOGGLE	TRUE	Run as Sequence
PSTATMODEL	IQUANT	53	Pstat Model
PSTATSECTION	LABEL	IFC5000-01520	Pstat Section
PSTATSERIALNO	LABEL	01520	Pstat Serial Number
CTRLMODE	IQUANT	0	Control Mode
ELECTROMETER	IQUANT	1	RE=0 or CS=1
IESTAB	IQUANT	0	I/E Stability
CASPEED	IQUANT	4	Control Amp Speed
CONVENTION	IQUANT	1	Current Convention
ICHRANGE	IQUANT	2	Ich Range
ICHRANGEMODE	TOGGLE	T	Ich Auto Range
ICHOFFSETENABLE	TOGGLE	F	Ich Offset Enable
ICHOFFSET	QUANT	0	Ich Offset (V)
ICHFILTER	IQUANT	1	Ich Filter
VCHRANGE	IQUANT	2	Vch Range
VCHRANGEMODE	TOGGLE	T	Vch Auto Range
VCHOFFSETENABLE	TOGGLE	F	Vch Offset Enable
VCHOFFSET	QUANT	0	Vch Offset (V)
VCHFILTER	IQUANT	1	Vch Filter
IERANGELOWERLIMIT	IQUANT	9	I/E Range Lower Limit
IERANGEMODE	TOGGLE	F	I/E AutoRange
IERANGE	IQUANT	10	I/E Range
ACHSELECT	IQUANT	1	Ach Select
ACHRANGE	IQUANT	2	Ach Range
ACHOFFSETENABLE	TOGGLE	F	Ach Offset Enable
ACHOFFSET	QUANT	0	Ach Offset (V)
ACHFILTER	IQUANT	1	Ach Filter
CABLEID	IQUANT	14	Cable ID
DCCALDATE	LABEL	20-10-2016	DC Calibration Date
ACCALDATE	LABEL	12/3/2015	AC Calibration Date
FRAMEWORKVERSION	QUANT	7.01	Framework Version
INSTRUMENTVERSION	LABEL	4.00	Instrument Version
CURVE	TABLE	53
	Pt	T	Vf	Im	Vu	Pwr	Sig	Ach	Temp	IERange	Over
	#	s	V	A	V	W	V	V	deg C	#	bits
	0	0.013333	6.55133E-001	5.99136E-003	0.00000E+000	3.92514E-003	3.59960E-001	-1.17718E+000	3.57640E+000	10	...........
	1	0.026667	6.64440E-001	5.98584E-003	0.00000E+000	3.97723E-003	3.59960E-001	-1.17048E+000	3.57640E+000	10	...........
	2	0.04	6.73042E-001	5.99419E-003	0.00000E+000	4.03434E-003	3.59960E-001	-1.16646E+000	3.57640E+000	10	...........
	3	0.053333	6.81211E-001	5.99215E-003	0.00000E+000	4.08192E-003	3.59960E-001	-1.17690E+000	3.57640E+000	10	...........
	4	0.066667	6.88994E-001	5.98876E-003	0.00000E+000	4.12622E-003	3.59960E-001	-1.17005E+000	3.57640E+000	10	...........
	5	0.08	6.96682E-001	5.99239E-003	0.00000E+000	4.17479E-003	3.59960E-001	-1.16617E+000	3.57640E+000	10	...........
	6	0.093333	7.04137E-001	5.99191E-003	0.00000E+000	4.21913E-003	3.59960E-001	-1.17700E+000	3.57640E+000	10	...........
	7	0.106667	7.11547E-001	5.99062E-003	0.00000E+000	4.26261E-003	3.59960E-001	-1.17020E+000	3.57640E+000	10	...........
	8	0.12	7.18860E-001	6.00012E-003	0.00000E+000	4.31325E-003	3.59960E-001	-1.16622E+000	3.57640E+000	10	...........
	9	0.133333	7.26071E-001	5.99757E-003	0.00000E+000	4.35466E-003	3.59960E-001	-1.17681E+000	3.57640E+000	10	...........
	10	0.146667	7.33192E-001	5.98986E-003	0.00000E+000	4.39171E-003	3.59960E-001	-1.17002E+000	3.57640E+000	10	...........
	11	0.16	7.40248E-001	5.99092E-003	0.00000E+000	4.43477E-003	3.59960E-001	-1.16652E+000	3.57640E+000	10	...........
	12	0.173333	7.47279E-001	5.99092E-003	0.00000E+000	4.47689E-003	3.59960E-001	-1.17692E+000	3.57640E+000	10	...........
	13	0.186667	7.54269E-001	5.99343E-003	0.00000E+000	4.52066E-003	3.59960E-001	-1.17019E+000	3.57640E+000	10	...........
	14	0.2	7.61186E-001	5.99765E-003	0.00000E+000	4.56533E-003	3.59960E-001	-1.16619E+000	3.57640E+000	10	...........
	15	0.213333	7.68104E-001	5.99263E-003	0.00000E+000	4.60297E-003	3.59960E-001	-1.17687E+000	3.57640E+000	10	...........
	16	0.226667	7.75030E-001	5.99442E-003	0.00000E+000	4.64585E-003	3.59960E-001	-1.17012E+000	3.57640E+000	10	...........
	17	0.24	7.81848E-001	5.99742E-003	0.00000E+000	4.68907E-003	3.59960E-001	-1.16623E+000	3.57640E+000	10	...........
	18	0.253333	7.88668E-001	5.99300E-003	0.00000E+000	4.72649E-003	3.59960E-001	-1.17628E+000	3.57640E+000	10	...........
	19	0.266667	7.95491E-001	5.99287E-003	0.00000E+000	4.76728E-003	3.59960E-001	-1.16955E+000	3.57640E+000	10	...........
	20	0.28	8.02268E-001	5.99345E-003	0.00000E+000	4.80835E-003	3.59960E-001	-1.16585E+000	3.57640E+000	10	...........
	21	0.293333	8.08977E-001	5.99240E-003	0.00000E+000	4.84772E-003	3.59960E-001	-1.17656E+000	3.57660E+000	10	...........
	22	0.306667	8.15675E-001	5.99152E-003	0.00000E+000	4.88713E-003	3.59960E-001	-1.16977E+000	3.57660E+000	10	...........
	23	0.32	8.22407E-001	5.99425E-003	0.00000E+000	4.92971E-003	3.59960E-001	-1.16569E+000	3.57660E+000	10	...........
	24	0.333333	8.29023E-001	5.99305E-003	0.00000E+000	4.96838E-003	3.59960E-001	-1.17634E+000	3.57660E+000	10	...........
	25	0.346667	8.35656E-001	5.99397E-003	0.00000E+000	5.00889E-003	3.59960E-001	-1.16975E+000	3.57660E+000	10	...........
	26	0.36	8.42216E-001	5.99397E-003	0.00000E+000	5.04821E-003	3.59960E-001	-1.16591E+000	3.57660E+000	10	...........
	27	0.373333	8.48837E-001	5.99786E-003	0.00000E+000	5.09120E-003	3.59960E-001	-1.17643E+000	3.57660E+000	10	...........
	28	0.386667	8.55332E-001	5.99116E-003	0.00000E+000	5.12443E-003	3.59960E-001	-1.16965E+000	3.57660E+000	10	...........
	29	0.4	8.61873E-001	5.99427E-003	0.00000E+000	5.16630E-003	3.59960E-001	-1.16576E+000	3.57660E+000	10	...........
	30	0.413333	8.68374E-001	5.99729E-003	0.00000E+000	5.20789E-003	3.59960E-001	-1.17631E+000	3.57660E+000	10	...........
	31	0.426667	8.74879E-001	5.99722E-003	0.00000E+000	5.24684E-003	3.59960E-001	-1.16972E+000	3.57660E+000	10	...........
	32	0.44	8.81274E-001	5.99343E-003	0.00000E+000	5.28185E-003	3.59960E-001	-1.16578E+000	3.57660E+000	10	...........
	33	0.453333	8.87699E-001	5.99198E-003	0.00000E+000	5.31907E-003	3.59960E-001	-1.17641E+000	3.57660E+000	10	...........
	34	0.466667	8.94035E-001	5.99166E-003	0.00000E+000	5.35676E-003	3.59960E-001	-1.16969E+000	3.57660E+000	10	...........
	35	0.48	9.00393E-001	5.99654E-003	0.00000E+000	5.39925E-003	3.59960E-001	-1.16573E+000	3.57660E+000	10	...........
	36	0.493333	9.06667E-001	5.99031E-003	0.00000E+000	5.43121E-003	3.59960E-001	-1.17651E+000	3.57660E+000	10	...........
	37	0.506667	9.12934E-001	5.99351E-003	0.00000E+000	5.47168E-003	3.59960E-001	-1.16976E+000	3.57660E+000	10	...........
	38	0.52	9.19150E-001	5.99324E-003	0.00000E+000	5.50869E-003	3.59960E-001	-1.16593E+000	3.57660E+000	10	...........
	39	0.533333	9.25374E-001	5.99182E-003	0.00000E+000	5.54467E-003	3.59960E-001	-1.17645E+000	3.57660E+000	10	...........
	40	0.546667	9.31465E-001	5.99990E-003	0.00000E+000	5.58870E-003	3.59960E-001	-1.16981E+000	3.57660E+000	10	...........
	41	0.56	9.37542E-001	5.99701E-003	0.00000E+000	5.62245E-003	3.59960E-001	-1.16596E+000	3.57660E+000	10	...........
	42	0.573333	9.43567E-001	5.99217E-003	0.00000E+000	5.65402E-003	3.59960E-001	-1.17630E+000	3.57660E+000	10	...........
	43	0.586667	9.49552E-001	5.98907E-003	0.00000E+000	5.68693E-003	3.59960E-001	-1.16922E+000	3.57660E+000	10	...........
	44	0.6	9.55533E-001	5.99774E-003	0.00000E+000	5.73104E-003	3.59960E-001	-1.16554E+000	3.57660E+000	10	...........
	45	0.613333	9.61415E-001	5.99307E-003	0.00000E+000	5.76183E-003	3.59960E-001	-1.17611E+000	3.57660E+000	10	...........
	46	0.626667	9.67227E-001	5.99578E-003	0.00000E+000	5.79928E-003	3.59960E-001	-1.16975E+000	3.57660E+000	10	...........
	47	0.64	9.73024E-001	5.99042E-003	0.00000E+000	5.82882E-003	3.59960E-001	-1.16573E+000	3.57660E+000	10	...........
	48	0.653333	9.78764E-001	5.99011E-003	0.00000E+000	5.86290E-003	3.59960E-001	-1.17624E+000	3.57660E+000	10	...........
	49	0.666667	9.84394E-001	5.99321E-003	0.00000E+000	5.89968E-003	3.59960E-001	-1.16947E+000	3.57660E+000	10	...........
	50	0.68	9.90053E-001	5.99424E-003	0.00000E+000	5.93461E-003	3.59960E-001	-1.16598E+000	3.57660E+000	10	...........
	51	0.693333	9.95617E-001	5.99284E-003	0.00000E+000	5.96658E-003	3.59960E-001	-1.17667E+000	3.57660E+000	10	...........
	52	0.698333	9.99420E-001	5.99051E-003	0.00000E+000	5.98704E-003	3.59960E-001	-1.15546E+000	3.57660E+000	10	...........
STARTTIMEOFFSET	QUANT	1527.102	Start Time Offset (s)