File: Data/CV_CRGO300517_1/PWRCCD_CRGO300517_1/CHARGE_DISCHARGE/CHARGE_#666.DTA
EXPLAIN
TAG	PWR800_CHARGE
TITLE	LABEL	PWR Cyclic Charge Discharge (Cell) - Charge Step	Test &Identifier
DATE	LABEL	22-6-2017	Date
TIME	LABEL	16:02:16	Time
NOTES	NOTES	3	&Notes...
	supercap test cell
	0.6mg
	6M KOH
PSTAT	PSTAT	IFC5000-01520	Potentiostat
CAPACITY	QUANT	1.00000E-003	Capacity (A-hr)
CELLTYPE	SELECTOR	1	&Cell Type
WORKINGCONNECTION	SELECTOR	0	&Working Lead
MAXCHARGETIME	VARIABLEANDUNITS	1.00000E+002	s	1.00000E+002	second(s)	Max &Charge Time
CHARGECURRENT	QUANT	6.00000E-003	&Charge Current (A)
VOLTAGEFINISH	TWOPARAM	F	1.00000E-003	3.60000E+003	&Voltage Finish	 I (A) < 	Max Time(s)
SAMPLETIME	QUANT	1.00000E-002	Sa&mple Period (s)
CHARGESTOPAT1	MULTIPARAM	4	1.00000E+000	Charge Stop At &1	Voltage > Limit	V
CHARGESTOPAT2	MULTIPARAM	0	0.00000E+000	Charge Stop At &2	None	N/A
AESBHCSELECTOR	TOGGLE	F	Save Both Half Cells
IRCOMP	TOGGLE	F	IR &Measure
EOC	QUANT	0	Open Circuit (V)
SEQUENCER	TOGGLE	TRUE	Run as Sequence
PSTATMODEL	IQUANT	53	Pstat Model
PSTATSECTION	LABEL	IFC5000-01520	Pstat Section
PSTATSERIALNO	LABEL	01520	Pstat Serial Number
CTRLMODE	IQUANT	0	Control Mode
ELECTROMETER	IQUANT	1	RE=0 or CS=1
IESTAB	IQUANT	0	I/E Stability
CASPEED	IQUANT	4	Control Amp Speed
CONVENTION	IQUANT	1	Current Convention
ICHRANGE	IQUANT	2	Ich Range
ICHRANGEMODE	TOGGLE	T	Ich Auto Range
ICHOFFSETENABLE	TOGGLE	F	Ich Offset Enable
ICHOFFSET	QUANT	0	Ich Offset (V)
ICHFILTER	IQUANT	1	Ich Filter
VCHRANGE	IQUANT	2	Vch Range
VCHRANGEMODE	TOGGLE	T	Vch Auto Range
VCHOFFSETENABLE	TOGGLE	F	Vch Offset Enable
VCHOFFSET	QUANT	0	Vch Offset (V)
VCHFILTER	IQUANT	1	Vch Filter
IERANGELOWERLIMIT	IQUANT	9	I/E Range Lower Limit
IERANGEMODE	TOGGLE	F	I/E AutoRange
IERANGE	IQUANT	10	I/E Range
ACHSELECT	IQUANT	1	Ach Select
ACHRANGE	IQUANT	2	Ach Range
ACHOFFSETENABLE	TOGGLE	F	Ach Offset Enable
ACHOFFSET	QUANT	0	Ach Offset (V)
ACHFILTER	IQUANT	1	Ach Filter
CABLEID	IQUANT	14	Cable ID
DCCALDATE	LABEL	20-10-2016	DC Calibration Date
ACCALDATE	LABEL	12/3/2015	AC Calibration Date
FRAMEWORKVERSION	QUANT	7.01	Framework Version
INSTRUMENTVERSION	LABEL	4.00	Instrument Version
CURVE	TABLE	56
	Pt	T	Vf	Im	Vu	Pwr	Sig	Ach	Temp	IERange	Over
	#	s	V	A	V	W	V	V	deg C	#	bits
	0	0.013333	6.42099E-001	5.99150E-003	0.00000E+000	3.84713E-003	3.59960E-001	-1.14880E+000	3.57640E+000	10	...........
	1	0.026667	6.51046E-001	5.99554E-003	0.00000E+000	3.90338E-003	3.59960E-001	-1.15747E+000	3.57640E+000	10	...........
	2	0.04	6.59321E-001	5.98895E-003	0.00000E+000	3.94864E-003	3.59960E-001	-1.15434E+000	3.57640E+000	10	...........
	3	0.053333	6.67242E-001	5.99208E-003	0.00000E+000	3.99817E-003	3.59960E-001	-1.14860E+000	3.57640E+000	10	...........
	4	0.066667	6.74856E-001	5.99607E-003	0.00000E+000	4.04648E-003	3.59960E-001	-1.15760E+000	3.57640E+000	10	...........
	5	0.08	6.82238E-001	5.99413E-003	0.00000E+000	4.08942E-003	3.59960E-001	-1.15452E+000	3.57640E+000	10	...........
	6	0.093333	6.89513E-001	5.99421E-003	0.00000E+000	4.13308E-003	3.59960E-001	-1.14884E+000	3.57640E+000	10	...........
	7	0.106667	6.96643E-001	5.99178E-003	0.00000E+000	4.17413E-003	3.59960E-001	-1.15734E+000	3.57640E+000	10	...........
	8	0.12	7.03719E-001	5.99263E-003	0.00000E+000	4.21713E-003	3.59960E-001	-1.15426E+000	3.57640E+000	10	...........
	9	0.133333	7.10698E-001	5.99345E-003	0.00000E+000	4.25953E-003	3.59960E-001	-1.14854E+000	3.57640E+000	10	...........
	10	0.146667	7.17688E-001	5.99229E-003	0.00000E+000	4.30060E-003	3.59960E-001	-1.15739E+000	3.57640E+000	10	...........
	11	0.16	7.24533E-001	5.99203E-003	0.00000E+000	4.34142E-003	3.59960E-001	-1.15451E+000	3.57640E+000	10	...........
	12	0.173333	7.31330E-001	5.99366E-003	0.00000E+000	4.38334E-003	3.59960E-001	-1.14858E+000	3.57640E+000	10	...........
	13	0.186667	7.38093E-001	5.99802E-003	0.00000E+000	4.42710E-003	3.59960E-001	-1.15736E+000	3.57640E+000	10	...........
	14	0.2	7.44855E-001	5.99184E-003	0.00000E+000	4.46305E-003	3.59960E-001	-1.15413E+000	3.57640E+000	10	...........
	15	0.213333	7.51562E-001	5.99601E-003	0.00000E+000	4.50638E-003	3.59960E-001	-1.14846E+000	3.57640E+000	10	...........
	16	0.226667	7.58275E-001	6.00018E-003	0.00000E+000	4.54978E-003	3.59960E-001	-1.15754E+000	3.57640E+000	10	...........
	17	0.24	7.64931E-001	5.99030E-003	0.00000E+000	4.58216E-003	3.59960E-001	-1.15428E+000	3.57640E+000	10	...........
	18	0.253333	7.71587E-001	5.99384E-003	0.00000E+000	4.62477E-003	3.59960E-001	-1.14868E+000	3.57640E+000	10	...........
	19	0.266667	7.78209E-001	5.99416E-003	0.00000E+000	4.66471E-003	3.59960E-001	-1.15744E+000	3.57640E+000	10	...........
	20	0.28	7.84857E-001	5.99758E-003	0.00000E+000	4.70724E-003	3.59960E-001	-1.15415E+000	3.57640E+000	10	...........
	21	0.293333	7.91436E-001	5.99153E-003	0.00000E+000	4.74191E-003	3.59960E-001	-1.14844E+000	3.57640E+000	10	...........
	22	0.306667	7.98032E-001	5.98948E-003	0.00000E+000	4.77980E-003	3.59960E-001	-1.15751E+000	3.57640E+000	10	...........
	23	0.32	8.04573E-001	5.99012E-003	0.00000E+000	4.81949E-003	3.59960E-001	-1.15414E+000	3.57640E+000	10	...........
	24	0.333333	8.11130E-001	5.99283E-003	0.00000E+000	4.86097E-003	3.59960E-001	-1.14837E+000	3.57660E+000	10	...........
	25	0.346667	8.17604E-001	5.99532E-003	0.00000E+000	4.90180E-003	3.59960E-001	-1.15712E+000	3.57660E+000	10	...........
	26	0.36	8.24115E-001	5.99349E-003	0.00000E+000	4.93933E-003	3.59960E-001	-1.15373E+000	3.57660E+000	10	...........
	27	0.373333	8.30571E-001	5.99442E-003	0.00000E+000	4.97879E-003	3.59960E-001	-1.14826E+000	3.57660E+000	10	...........
	28	0.386667	8.37012E-001	5.99250E-003	0.00000E+000	5.01580E-003	3.59960E-001	-1.15709E+000	3.57660E+000	10	...........
	29	0.4	8.43490E-001	5.99273E-003	0.00000E+000	5.05480E-003	3.59960E-001	-1.15377E+000	3.57660E+000	10	...........
	30	0.413333	8.49920E-001	5.99300E-003	0.00000E+000	5.09357E-003	3.59960E-001	-1.14829E+000	3.57660E+000	10	...........
	31	0.426667	8.56331E-001	5.99629E-003	0.00000E+000	5.13481E-003	3.59960E-001	-1.15722E+000	3.57660E+000	10	...........
	32	0.44	8.62703E-001	5.99150E-003	0.00000E+000	5.16888E-003	3.59960E-001	-1.15365E+000	3.57660E+000	10	...........
	33	0.453333	8.69041E-001	5.99499E-003	0.00000E+000	5.20989E-003	3.59960E-001	-1.14805E+000	3.57660E+000	10	...........
	34	0.466667	8.75360E-001	5.99484E-003	0.00000E+000	5.24765E-003	3.59960E-001	-1.15706E+000	3.57660E+000	10	...........
	35	0.48	8.81626E-001	5.99620E-003	0.00000E+000	5.28641E-003	3.59960E-001	-1.15349E+000	3.57660E+000	10	...........
	36	0.493333	8.87880E-001	5.99769E-003	0.00000E+000	5.32523E-003	3.59960E-001	-1.14811E+000	3.57660E+000	10	...........
	37	0.506667	8.94089E-001	5.99577E-003	0.00000E+000	5.36075E-003	3.59960E-001	-1.15719E+000	3.57660E+000	10	...........
	38	0.52	9.00312E-001	5.98682E-003	0.00000E+000	5.39001E-003	3.59960E-001	-1.15348E+000	3.57660E+000	10	...........
	39	0.533333	9.06511E-001	5.99548E-003	0.00000E+000	5.43497E-003	3.59960E-001	-1.14814E+000	3.57660E+000	10	...........
	40	0.546667	9.12647E-001	5.99198E-003	0.00000E+000	5.46856E-003	3.59960E-001	-1.15735E+000	3.57660E+000	10	...........
	41	0.56	9.18765E-001	5.99460E-003	0.00000E+000	5.50763E-003	3.59960E-001	-1.15369E+000	3.57660E+000	10	...........
	42	0.573333	9.24876E-001	5.99289E-003	0.00000E+000	5.54269E-003	3.59960E-001	-1.14815E+000	3.57660E+000	10	...........
	43	0.586667	9.30926E-001	5.99607E-003	0.00000E+000	5.58189E-003	3.59960E-001	-1.15726E+000	3.57660E+000	10	...........
	44	0.6	9.36871E-001	5.99375E-003	0.00000E+000	5.61537E-003	3.59960E-001	-1.15364E+000	3.57660E+000	10	...........
	45	0.613333	9.42817E-001	5.99495E-003	0.00000E+000	5.65214E-003	3.59960E-001	-1.14818E+000	3.57660E+000	10	...........
	46	0.626667	9.48761E-001	5.99554E-003	0.00000E+000	5.68834E-003	3.59960E-001	-1.15744E+000	3.57660E+000	10	...........
	47	0.64	9.54657E-001	5.99663E-003	0.00000E+000	5.72472E-003	3.59960E-001	-1.15369E+000	3.57660E+000	10	...........
	48	0.653333	9.60506E-001	5.99174E-003	0.00000E+000	5.75510E-003	3.59960E-001	-1.14788E+000	3.57660E+000	10	...........
	49	0.666667	9.66259E-001	5.99362E-003	0.00000E+000	5.79139E-003	3.59960E-001	-1.15684E+000	3.57660E+000	10	...........
	50	0.68	9.71989E-001	5.99059E-003	0.00000E+000	5.82278E-003	3.59960E-001	-1.15319E+000	3.57660E+000	10	...........
	51	0.693333	9.77727E-001	5.99558E-003	0.00000E+000	5.86204E-003	3.59960E-001	-1.14804E+000	3.57660E+000	10	...........
	52	0.706667	9.83332E-001	5.99151E-003	0.00000E+000	5.89164E-003	3.59960E-001	-1.15711E+000	3.57660E+000	10	...........
	53	0.72	9.88922E-001	5.99372E-003	0.00000E+000	5.92732E-003	3.59960E-001	-1.15322E+000	3.57660E+000	10	...........
	54	0.733333	9.94444E-001	5.99458E-003	0.00000E+000	5.96128E-003	3.59960E-001	-1.14789E+000	3.57660E+000	10	...........
	55	0.741667	9.98964E-001	5.99800E-003	0.00000E+000	5.99178E-003	3.59960E-001	-1.16212E+000	3.57660E+000	10	...........
STARTTIMEOFFSET	QUANT	1109.155	Start Time Offset (s)