File: Data/CV_CRGO300517_1/PWRCCD_CRGO300517_1/CHARGE_DISCHARGE/CHARGE_#894.DTA
EXPLAIN
TAG	PWR800_CHARGE
TITLE	LABEL	PWR Cyclic Charge Discharge (Cell) - Charge Step	Test &Identifier
DATE	LABEL	22-6-2017	Date
TIME	LABEL	16:10:46	Time
NOTES	NOTES	3	&Notes...
	supercap test cell
	0.6mg
	6M KOH
PSTAT	PSTAT	IFC5000-01520	Potentiostat
CAPACITY	QUANT	1.00000E-003	Capacity (A-hr)
CELLTYPE	SELECTOR	1	&Cell Type
WORKINGCONNECTION	SELECTOR	0	&Working Lead
MAXCHARGETIME	VARIABLEANDUNITS	1.00000E+002	s	1.00000E+002	second(s)	Max &Charge Time
CHARGECURRENT	QUANT	6.00000E-003	&Charge Current (A)
VOLTAGEFINISH	TWOPARAM	F	1.00000E-003	3.60000E+003	&Voltage Finish	 I (A) < 	Max Time(s)
SAMPLETIME	QUANT	1.00000E-002	Sa&mple Period (s)
CHARGESTOPAT1	MULTIPARAM	4	1.00000E+000	Charge Stop At &1	Voltage > Limit	V
CHARGESTOPAT2	MULTIPARAM	0	0.00000E+000	Charge Stop At &2	None	N/A
AESBHCSELECTOR	TOGGLE	F	Save Both Half Cells
IRCOMP	TOGGLE	F	IR &Measure
EOC	QUANT	0	Open Circuit (V)
SEQUENCER	TOGGLE	TRUE	Run as Sequence
PSTATMODEL	IQUANT	53	Pstat Model
PSTATSECTION	LABEL	IFC5000-01520	Pstat Section
PSTATSERIALNO	LABEL	01520	Pstat Serial Number
CTRLMODE	IQUANT	0	Control Mode
ELECTROMETER	IQUANT	1	RE=0 or CS=1
IESTAB	IQUANT	0	I/E Stability
CASPEED	IQUANT	4	Control Amp Speed
CONVENTION	IQUANT	1	Current Convention
ICHRANGE	IQUANT	2	Ich Range
ICHRANGEMODE	TOGGLE	T	Ich Auto Range
ICHOFFSETENABLE	TOGGLE	F	Ich Offset Enable
ICHOFFSET	QUANT	0	Ich Offset (V)
ICHFILTER	IQUANT	1	Ich Filter
VCHRANGE	IQUANT	2	Vch Range
VCHRANGEMODE	TOGGLE	T	Vch Auto Range
VCHOFFSETENABLE	TOGGLE	F	Vch Offset Enable
VCHOFFSET	QUANT	0	Vch Offset (V)
VCHFILTER	IQUANT	1	Vch Filter
IERANGELOWERLIMIT	IQUANT	9	I/E Range Lower Limit
IERANGEMODE	TOGGLE	F	I/E AutoRange
IERANGE	IQUANT	10	I/E Range
ACHSELECT	IQUANT	1	Ach Select
ACHRANGE	IQUANT	2	Ach Range
ACHOFFSETENABLE	TOGGLE	F	Ach Offset Enable
ACHOFFSET	QUANT	0	Ach Offset (V)
ACHFILTER	IQUANT	1	Ach Filter
CABLEID	IQUANT	14	Cable ID
DCCALDATE	LABEL	20-10-2016	DC Calibration Date
ACCALDATE	LABEL	12/3/2015	AC Calibration Date
FRAMEWORKVERSION	QUANT	7.01	Framework Version
INSTRUMENTVERSION	LABEL	4.00	Instrument Version
CURVE	TABLE	53
	Pt	T	Vf	Im	Vu	Pwr	Sig	Ach	Temp	IERange	Over
	#	s	V	A	V	W	V	V	deg C	#	bits
	0	0.013333	6.52579E-001	5.99421E-003	0.00000E+000	3.91170E-003	3.59960E-001	-1.16941E+000	3.57660E+000	10	...........
	1	0.026667	6.61850E-001	5.99092E-003	0.00000E+000	3.96509E-003	3.59960E-001	-1.16793E+000	3.57660E+000	10	...........
	2	0.04	6.70392E-001	5.99228E-003	0.00000E+000	4.01718E-003	3.59960E-001	-1.17943E+000	3.57660E+000	10	...........
	3	0.053333	6.78465E-001	5.99346E-003	0.00000E+000	4.06635E-003	3.59960E-001	-1.16936E+000	3.57660E+000	10	...........
	4	0.066667	6.86260E-001	5.99010E-003	0.00000E+000	4.11077E-003	3.59960E-001	-1.16807E+000	3.57660E+000	10	...........
	5	0.08	6.93872E-001	5.99561E-003	0.00000E+000	4.16018E-003	3.59960E-001	-1.17919E+000	3.57660E+000	10	...........
	6	0.093333	7.01306E-001	5.99276E-003	0.00000E+000	4.20276E-003	3.59960E-001	-1.16910E+000	3.57660E+000	10	...........
	7	0.106667	7.08633E-001	5.98786E-003	0.00000E+000	4.24319E-003	3.59960E-001	-1.16794E+000	3.57660E+000	10	...........
	8	0.12	7.15868E-001	5.99597E-003	0.00000E+000	4.29232E-003	3.59960E-001	-1.17919E+000	3.57660E+000	10	...........
	9	0.133333	7.22979E-001	5.99247E-003	0.00000E+000	4.33243E-003	3.59960E-001	-1.16868E+000	3.57660E+000	10	...........
	10	0.146667	7.30075E-001	5.99557E-003	0.00000E+000	4.37722E-003	3.59960E-001	-1.16730E+000	3.57660E+000	10	...........
	11	0.16	7.37104E-001	5.99401E-003	0.00000E+000	4.41821E-003	3.59960E-001	-1.17853E+000	3.57660E+000	10	...........
	12	0.173333	7.44117E-001	5.99525E-003	0.00000E+000	4.46117E-003	3.59960E-001	-1.16871E+000	3.57660E+000	10	...........
	13	0.186667	7.51068E-001	5.99343E-003	0.00000E+000	4.50147E-003	3.59960E-001	-1.16746E+000	3.57660E+000	10	...........
	14	0.2	7.58003E-001	5.99445E-003	0.00000E+000	4.54381E-003	3.59960E-001	-1.17851E+000	3.57660E+000	10	...........
	15	0.213333	7.64840E-001	5.99414E-003	0.00000E+000	4.58455E-003	3.59960E-001	-1.16857E+000	3.57660E+000	10	...........
	16	0.226667	7.71748E-001	5.99379E-003	0.00000E+000	4.62570E-003	3.59960E-001	-1.16729E+000	3.57660E+000	10	...........
	17	0.24	7.78562E-001	5.99150E-003	0.00000E+000	4.66475E-003	3.59960E-001	-1.17848E+000	3.57660E+000	10	...........
	18	0.253333	7.85371E-001	5.99720E-003	0.00000E+000	4.71003E-003	3.59960E-001	-1.16851E+000	3.57660E+000	10	...........
	19	0.266667	7.92112E-001	5.99612E-003	0.00000E+000	4.74960E-003	3.59960E-001	-1.16712E+000	3.57660E+000	10	...........
	20	0.28	7.98828E-001	5.99252E-003	0.00000E+000	4.78699E-003	3.59960E-001	-1.17817E+000	3.57660E+000	10	...........
	21	0.293333	8.05537E-001	5.99257E-003	0.00000E+000	4.82724E-003	3.59960E-001	-1.16837E+000	3.57660E+000	10	...........
	22	0.306667	8.12177E-001	5.99536E-003	0.00000E+000	4.86929E-003	3.59960E-001	-1.16731E+000	3.57660E+000	10	...........
	23	0.32	8.18871E-001	5.99386E-003	0.00000E+000	4.90820E-003	3.59960E-001	-1.17823E+000	3.57660E+000	10	...........
	24	0.333333	8.25486E-001	5.99418E-003	0.00000E+000	4.94811E-003	3.59960E-001	-1.16817E+000	3.57660E+000	10	...........
	25	0.346667	8.32091E-001	5.99286E-003	0.00000E+000	4.98661E-003	3.59960E-001	-1.16699E+000	3.57660E+000	10	...........
	26	0.36	8.38709E-001	5.99562E-003	0.00000E+000	5.02858E-003	3.59960E-001	-1.17829E+000	3.57660E+000	10	...........
	27	0.373333	8.45291E-001	5.99336E-003	0.00000E+000	5.06613E-003	3.59960E-001	-1.16839E+000	3.57660E+000	10	...........
	28	0.386667	8.51832E-001	5.99091E-003	0.00000E+000	5.10325E-003	3.59960E-001	-1.16726E+000	3.57660E+000	10	...........
	29	0.4	8.58320E-001	5.99001E-003	0.00000E+000	5.14134E-003	3.59960E-001	-1.17835E+000	3.57660E+000	10	...........
	30	0.413333	8.64795E-001	5.99460E-003	0.00000E+000	5.18411E-003	3.59960E-001	-1.16810E+000	3.57660E+000	10	...........
	31	0.426667	8.71263E-001	5.98584E-003	0.00000E+000	5.21524E-003	3.59960E-001	-1.16706E+000	3.57660E+000	10	...........
	32	0.44	8.77698E-001	5.99412E-003	0.00000E+000	5.26102E-003	3.59960E-001	-1.17820E+000	3.57660E+000	10	...........
	33	0.453333	8.84080E-001	5.99393E-003	0.00000E+000	5.29911E-003	3.59960E-001	-1.16810E+000	3.57660E+000	10	...........
	34	0.466667	8.90454E-001	5.99632E-003	0.00000E+000	5.33944E-003	3.59960E-001	-1.16663E+000	3.57660E+000	10	...........
	35	0.48	8.96811E-001	5.99139E-003	0.00000E+000	5.37314E-003	3.59960E-001	-1.17765E+000	3.57660E+000	10	...........
	36	0.493333	9.03029E-001	5.99121E-003	0.00000E+000	5.41024E-003	3.59960E-001	-1.16751E+000	3.57660E+000	10	...........
	37	0.506667	9.09279E-001	5.99316E-003	0.00000E+000	5.44945E-003	3.59960E-001	-1.16676E+000	3.57660E+000	10	...........
	38	0.52	9.15505E-001	5.99564E-003	0.00000E+000	5.48904E-003	3.59960E-001	-1.17775E+000	3.57660E+000	10	...........
	39	0.533333	9.21666E-001	5.99309E-003	0.00000E+000	5.52363E-003	3.59960E-001	-1.16771E+000	3.57660E+000	10	...........
	40	0.546667	9.27791E-001	5.99623E-003	0.00000E+000	5.56325E-003	3.59960E-001	-1.16651E+000	3.57660E+000	10	...........
	41	0.56	9.33861E-001	5.99283E-003	0.00000E+000	5.59647E-003	3.59960E-001	-1.17779E+000	3.57660E+000	10	...........
	42	0.573333	9.39875E-001	5.99098E-003	0.00000E+000	5.63077E-003	3.59960E-001	-1.16787E+000	3.57660E+000	10	...........
	43	0.586667	9.45924E-001	5.99611E-003	0.00000E+000	5.67186E-003	3.59960E-001	-1.16652E+000	3.57660E+000	10	...........
	44	0.6	9.51849E-001	5.99265E-003	0.00000E+000	5.70410E-003	3.59960E-001	-1.17743E+000	3.57660E+000	10	...........
	45	0.613333	9.57741E-001	5.99376E-003	0.00000E+000	5.74047E-003	3.59960E-001	-1.16746E+000	3.57660E+000	10	...........
	46	0.626667	9.63593E-001	5.99850E-003	0.00000E+000	5.78011E-003	3.59960E-001	-1.16633E+000	3.57660E+000	10	...........
	47	0.64	9.69403E-001	5.99572E-003	0.00000E+000	5.81227E-003	3.59960E-001	-1.17758E+000	3.57660E+000	10	...........
	48	0.653333	9.75211E-001	5.99205E-003	0.00000E+000	5.84351E-003	3.59960E-001	-1.16732E+000	3.57660E+000	10	...........
	49	0.666667	9.80897E-001	5.99076E-003	0.00000E+000	5.87631E-003	3.59960E-001	-1.16638E+000	3.57660E+000	10	...........
	50	0.68	9.86545E-001	5.99466E-003	0.00000E+000	5.91400E-003	3.59960E-001	-1.17758E+000	3.57660E+000	10	...........
	51	0.693333	9.92124E-001	5.99031E-003	0.00000E+000	5.94313E-003	3.59960E-001	-1.16755E+000	3.57660E+000	10	...........
	52	0.706667	9.97698E-001	5.99113E-003	0.00000E+000	5.97734E-003	3.59960E-001	-1.16659E+000	3.57660E+000	10	...........
STARTTIMEOFFSET	QUANT	1437.623	Start Time Offset (s)