File: Data/CV_CRGO300517_1/PWRCCD_CRGO300517_1/CHARGE_DISCHARGE/CHARGE_#551.DTA
EXPLAIN
TAG	PWR800_CHARGE
TITLE	LABEL	PWR Cyclic Charge Discharge (Cell) - Charge Step	Test &Identifier
DATE	LABEL	22-6-2017	Date
TIME	LABEL	15:57:53	Time
NOTES	NOTES	3	&Notes...
	supercap test cell
	0.6mg
	6M KOH
PSTAT	PSTAT	IFC5000-01520	Potentiostat
CAPACITY	QUANT	1.00000E-003	Capacity (A-hr)
CELLTYPE	SELECTOR	1	&Cell Type
WORKINGCONNECTION	SELECTOR	0	&Working Lead
MAXCHARGETIME	VARIABLEANDUNITS	1.00000E+002	s	1.00000E+002	second(s)	Max &Charge Time
CHARGECURRENT	QUANT	6.00000E-003	&Charge Current (A)
VOLTAGEFINISH	TWOPARAM	F	1.00000E-003	3.60000E+003	&Voltage Finish	 I (A) < 	Max Time(s)
SAMPLETIME	QUANT	1.00000E-002	Sa&mple Period (s)
CHARGESTOPAT1	MULTIPARAM	4	1.00000E+000	Charge Stop At &1	Voltage > Limit	V
CHARGESTOPAT2	MULTIPARAM	0	0.00000E+000	Charge Stop At &2	None	N/A
AESBHCSELECTOR	TOGGLE	F	Save Both Half Cells
IRCOMP	TOGGLE	F	IR &Measure
EOC	QUANT	0	Open Circuit (V)
SEQUENCER	TOGGLE	TRUE	Run as Sequence
PSTATMODEL	IQUANT	53	Pstat Model
PSTATSECTION	LABEL	IFC5000-01520	Pstat Section
PSTATSERIALNO	LABEL	01520	Pstat Serial Number
CTRLMODE	IQUANT	0	Control Mode
ELECTROMETER	IQUANT	1	RE=0 or CS=1
IESTAB	IQUANT	0	I/E Stability
CASPEED	IQUANT	4	Control Amp Speed
CONVENTION	IQUANT	1	Current Convention
ICHRANGE	IQUANT	2	Ich Range
ICHRANGEMODE	TOGGLE	T	Ich Auto Range
ICHOFFSETENABLE	TOGGLE	F	Ich Offset Enable
ICHOFFSET	QUANT	0	Ich Offset (V)
ICHFILTER	IQUANT	1	Ich Filter
VCHRANGE	IQUANT	2	Vch Range
VCHRANGEMODE	TOGGLE	T	Vch Auto Range
VCHOFFSETENABLE	TOGGLE	F	Vch Offset Enable
VCHOFFSET	QUANT	0	Vch Offset (V)
VCHFILTER	IQUANT	1	Vch Filter
IERANGELOWERLIMIT	IQUANT	9	I/E Range Lower Limit
IERANGEMODE	TOGGLE	F	I/E AutoRange
IERANGE	IQUANT	10	I/E Range
ACHSELECT	IQUANT	1	Ach Select
ACHRANGE	IQUANT	2	Ach Range
ACHOFFSETENABLE	TOGGLE	F	Ach Offset Enable
ACHOFFSET	QUANT	0	Ach Offset (V)
ACHFILTER	IQUANT	1	Ach Filter
CABLEID	IQUANT	14	Cable ID
DCCALDATE	LABEL	20-10-2016	DC Calibration Date
ACCALDATE	LABEL	12/3/2015	AC Calibration Date
FRAMEWORKVERSION	QUANT	7.01	Framework Version
INSTRUMENTVERSION	LABEL	4.00	Instrument Version
CURVE	TABLE	58
	Pt	T	Vf	Im	Vu	Pwr	Sig	Ach	Temp	IERange	Over
	#	s	V	A	V	W	V	V	deg C	#	bits
	0	0.013333	6.36023E-001	5.99042E-003	0.00000E+000	3.81005E-003	3.59960E-001	-1.14107E+000	3.57790E+000	10	...........
	1	0.026667	6.44976E-001	5.99555E-003	0.00000E+000	3.86699E-003	3.59960E-001	-1.13613E+000	3.57790E+000	10	...........
	2	0.04	6.53137E-001	5.99243E-003	0.00000E+000	3.91387E-003	3.59960E-001	-1.14601E+000	3.57790E+000	10	...........
	3	0.053333	6.60919E-001	5.98905E-003	0.00000E+000	3.95827E-003	3.59960E-001	-1.14046E+000	3.57790E+000	10	...........
	4	0.066667	6.68484E-001	5.99522E-003	0.00000E+000	4.00771E-003	3.59960E-001	-1.13581E+000	3.57790E+000	10	...........
	5	0.08	6.75737E-001	5.99569E-003	0.00000E+000	4.05151E-003	3.59960E-001	-1.14577E+000	3.57790E+000	10	...........
	6	0.093333	6.82941E-001	5.99029E-003	0.00000E+000	4.09101E-003	3.59960E-001	-1.14024E+000	3.57790E+000	10	...........
	7	0.106667	6.89997E-001	5.99234E-003	0.00000E+000	4.13470E-003	3.59960E-001	-1.13573E+000	3.57790E+000	10	...........
	8	0.12	6.96997E-001	5.99477E-003	0.00000E+000	4.17834E-003	3.59960E-001	-1.14562E+000	3.57790E+000	10	...........
	9	0.133333	7.03905E-001	5.99079E-003	0.00000E+000	4.21694E-003	3.59960E-001	-1.13982E+000	3.57790E+000	10	...........
	10	0.146667	7.10699E-001	5.99368E-003	0.00000E+000	4.25970E-003	3.59960E-001	-1.13534E+000	3.57790E+000	10	...........
	11	0.16	7.17535E-001	5.98843E-003	0.00000E+000	4.29691E-003	3.59960E-001	-1.14576E+000	3.57790E+000	10	...........
	12	0.173333	7.24307E-001	5.99758E-003	0.00000E+000	4.34409E-003	3.59960E-001	-1.13985E+000	3.57790E+000	10	...........
	13	0.186667	7.30997E-001	5.99185E-003	0.00000E+000	4.38003E-003	3.59960E-001	-1.13539E+000	3.57790E+000	10	...........
	14	0.2	7.37648E-001	5.99042E-003	0.00000E+000	4.41882E-003	3.59960E-001	-1.14566E+000	3.57790E+000	10	...........
	15	0.213333	7.44354E-001	5.99690E-003	0.00000E+000	4.46382E-003	3.59960E-001	-1.13938E+000	3.57790E+000	10	...........
	16	0.226667	7.50952E-001	5.99718E-003	0.00000E+000	4.50359E-003	3.59960E-001	-1.13539E+000	3.57790E+000	10	...........
	17	0.24	7.57542E-001	5.99765E-003	0.00000E+000	4.54347E-003	3.59960E-001	-1.14595E+000	3.57790E+000	10	...........
	18	0.253333	7.64079E-001	5.99569E-003	0.00000E+000	4.58118E-003	3.59960E-001	-1.13920E+000	3.57790E+000	10	...........
	19	0.266667	7.70662E-001	5.99391E-003	0.00000E+000	4.61927E-003	3.59960E-001	-1.13539E+000	3.57790E+000	10	...........
	20	0.28	7.77184E-001	5.98918E-003	0.00000E+000	4.65470E-003	3.59960E-001	-1.14574E+000	3.57790E+000	10	...........
	21	0.293333	7.83688E-001	5.99271E-003	0.00000E+000	4.69641E-003	3.59960E-001	-1.13913E+000	3.57790E+000	10	...........
	22	0.306667	7.90180E-001	5.99112E-003	0.00000E+000	4.73406E-003	3.59960E-001	-1.13543E+000	3.57790E+000	10	...........
	23	0.32	7.96734E-001	5.99083E-003	0.00000E+000	4.77310E-003	3.59960E-001	-1.14576E+000	3.57790E+000	10	...........
	24	0.333333	8.03216E-001	5.99742E-003	0.00000E+000	4.81723E-003	3.59960E-001	-1.13873E+000	3.57790E+000	10	...........
	25	0.346667	8.09666E-001	5.99356E-003	0.00000E+000	4.85278E-003	3.59960E-001	-1.13483E+000	3.57790E+000	10	...........
	26	0.36	8.16139E-001	5.99156E-003	0.00000E+000	4.88994E-003	3.59960E-001	-1.14565E+000	3.57790E+000	10	...........
	27	0.373333	8.22547E-001	5.99807E-003	0.00000E+000	4.93369E-003	3.59960E-001	-1.13839E+000	3.57790E+000	10	...........
	28	0.386667	8.28947E-001	6.00161E-003	0.00000E+000	4.97502E-003	3.59960E-001	-1.13472E+000	3.57790E+000	10	...........
	29	0.4	8.35338E-001	5.99366E-003	0.00000E+000	5.00673E-003	3.59960E-001	-1.14531E+000	3.57790E+000	10	...........
	30	0.413333	8.41648E-001	5.99643E-003	0.00000E+000	5.04688E-003	3.59960E-001	-1.13812E+000	3.57790E+000	10	...........
	31	0.426667	8.48030E-001	5.99065E-003	0.00000E+000	5.08025E-003	3.59960E-001	-1.13489E+000	3.57790E+000	10	...........
	32	0.44	8.54359E-001	5.99082E-003	0.00000E+000	5.11831E-003	3.59960E-001	-1.14562E+000	3.57790E+000	10	...........
	33	0.453333	8.60676E-001	5.99385E-003	0.00000E+000	5.15877E-003	3.59960E-001	-1.13776E+000	3.57790E+000	10	...........
	34	0.466667	8.66962E-001	5.99003E-003	0.00000E+000	5.19313E-003	3.59960E-001	-1.13449E+000	3.57790E+000	10	...........
	35	0.48	8.73230E-001	5.98829E-003	0.00000E+000	5.22916E-003	3.59960E-001	-1.14544E+000	3.57790E+000	10	...........
	36	0.493333	8.79497E-001	5.99175E-003	0.00000E+000	5.26972E-003	3.59960E-001	-1.13766E+000	3.57790E+000	10	...........
	37	0.506667	8.85700E-001	5.99133E-003	0.00000E+000	5.30652E-003	3.59960E-001	-1.13467E+000	3.57790E+000	10	...........
	38	0.52	8.91902E-001	5.99665E-003	0.00000E+000	5.34842E-003	3.59960E-001	-1.14549E+000	3.57790E+000	10	...........
	39	0.533333	8.98060E-001	5.99393E-003	0.00000E+000	5.38291E-003	3.59960E-001	-1.13731E+000	3.57790E+000	10	...........
	40	0.546667	9.04190E-001	5.99685E-003	0.00000E+000	5.42229E-003	3.59960E-001	-1.13435E+000	3.57790E+000	10	...........
	41	0.56	9.10300E-001	5.99154E-003	0.00000E+000	5.45409E-003	3.59960E-001	-1.14553E+000	3.57790E+000	10	...........
	42	0.573333	9.16406E-001	5.99547E-003	0.00000E+000	5.49428E-003	3.59960E-001	-1.13750E+000	3.57790E+000	10	...........
	43	0.586667	9.22488E-001	5.99258E-003	0.00000E+000	5.52808E-003	3.59960E-001	-1.13450E+000	3.57715E+000	10	...........
	44	0.6	9.28470E-001	5.99229E-003	0.00000E+000	5.56366E-003	3.59960E-001	-1.14553E+000	3.57690E+000	10	...........
	45	0.613333	9.34412E-001	5.99300E-003	0.00000E+000	5.59993E-003	3.59960E-001	-1.13709E+000	3.57690E+000	10	...........
	46	0.626667	9.40323E-001	5.99269E-003	0.00000E+000	5.63506E-003	3.59960E-001	-1.13469E+000	3.57690E+000	10	...........
	47	0.64	9.46260E-001	5.99955E-003	0.00000E+000	5.67714E-003	3.59960E-001	-1.14573E+000	3.57690E+000	10	...........
	48	0.653333	9.52135E-001	5.99728E-003	0.00000E+000	5.71022E-003	3.59960E-001	-1.13716E+000	3.57690E+000	10	...........
	49	0.666667	9.57963E-001	5.99406E-003	0.00000E+000	5.74209E-003	3.59960E-001	-1.13447E+000	3.57690E+000	10	...........
	50	0.68	9.63766E-001	5.99932E-003	0.00000E+000	5.78194E-003	3.59960E-001	-1.14527E+000	3.57690E+000	10	...........
	51	0.693333	9.69461E-001	5.99310E-003	0.00000E+000	5.81008E-003	3.59960E-001	-1.13677E+000	3.57690E+000	10	...........
	52	0.706667	9.75215E-001	5.99077E-003	0.00000E+000	5.84228E-003	3.59960E-001	-1.13440E+000	3.57690E+000	10	...........
	53	0.72	9.80863E-001	5.99541E-003	0.00000E+000	5.88067E-003	3.59960E-001	-1.14553E+000	3.57690E+000	10	...........
	54	0.733333	9.86435E-001	5.99239E-003	0.00000E+000	5.91111E-003	3.59960E-001	-1.13646E+000	3.57690E+000	10	...........
	55	0.746667	9.91943E-001	5.99312E-003	0.00000E+000	5.94484E-003	3.59960E-001	-1.13425E+000	3.57690E+000	10	...........
	56	0.76	9.97443E-001	5.99054E-003	0.00000E+000	5.97522E-003	3.59960E-001	-1.14541E+000	3.57690E+000	10	...........
	57	0.761667	1.00054E+000	6.00055E-003	0.00000E+000	6.00382E-003	3.59960E-001	-1.12428E+000	3.57690E+000	10	...........
STARTTIMEOFFSET	QUANT	937.0234	Start Time Offset (s)