File: Data/CV_CRGO300517_1/PWRCCD_CRGO300517_1/CHARGE_DISCHARGE/CHARGE_#355.DTA
EXPLAIN
TAG	PWR800_CHARGE
TITLE	LABEL	PWR Cyclic Charge Discharge (Cell) - Charge Step	Test &Identifier
DATE	LABEL	22-6-2017	Date
TIME	LABEL	15:50:10	Time
NOTES	NOTES	3	&Notes...
	supercap test cell
	0.6mg
	6M KOH
PSTAT	PSTAT	IFC5000-01520	Potentiostat
CAPACITY	QUANT	1.00000E-003	Capacity (A-hr)
CELLTYPE	SELECTOR	1	&Cell Type
WORKINGCONNECTION	SELECTOR	0	&Working Lead
MAXCHARGETIME	VARIABLEANDUNITS	1.00000E+002	s	1.00000E+002	second(s)	Max &Charge Time
CHARGECURRENT	QUANT	6.00000E-003	&Charge Current (A)
VOLTAGEFINISH	TWOPARAM	F	1.00000E-003	3.60000E+003	&Voltage Finish	 I (A) < 	Max Time(s)
SAMPLETIME	QUANT	1.00000E-002	Sa&mple Period (s)
CHARGESTOPAT1	MULTIPARAM	4	1.00000E+000	Charge Stop At &1	Voltage > Limit	V
CHARGESTOPAT2	MULTIPARAM	0	0.00000E+000	Charge Stop At &2	None	N/A
AESBHCSELECTOR	TOGGLE	F	Save Both Half Cells
IRCOMP	TOGGLE	F	IR &Measure
EOC	QUANT	0	Open Circuit (V)
SEQUENCER	TOGGLE	TRUE	Run as Sequence
PSTATMODEL	IQUANT	53	Pstat Model
PSTATSECTION	LABEL	IFC5000-01520	Pstat Section
PSTATSERIALNO	LABEL	01520	Pstat Serial Number
CTRLMODE	IQUANT	0	Control Mode
ELECTROMETER	IQUANT	1	RE=0 or CS=1
IESTAB	IQUANT	0	I/E Stability
CASPEED	IQUANT	4	Control Amp Speed
CONVENTION	IQUANT	1	Current Convention
ICHRANGE	IQUANT	2	Ich Range
ICHRANGEMODE	TOGGLE	T	Ich Auto Range
ICHOFFSETENABLE	TOGGLE	F	Ich Offset Enable
ICHOFFSET	QUANT	0	Ich Offset (V)
ICHFILTER	IQUANT	1	Ich Filter
VCHRANGE	IQUANT	2	Vch Range
VCHRANGEMODE	TOGGLE	T	Vch Auto Range
VCHOFFSETENABLE	TOGGLE	F	Vch Offset Enable
VCHOFFSET	QUANT	0	Vch Offset (V)
VCHFILTER	IQUANT	1	Vch Filter
IERANGELOWERLIMIT	IQUANT	9	I/E Range Lower Limit
IERANGEMODE	TOGGLE	F	I/E AutoRange
IERANGE	IQUANT	10	I/E Range
ACHSELECT	IQUANT	1	Ach Select
ACHRANGE	IQUANT	2	Ach Range
ACHOFFSETENABLE	TOGGLE	F	Ach Offset Enable
ACHOFFSET	QUANT	0	Ach Offset (V)
ACHFILTER	IQUANT	1	Ach Filter
CABLEID	IQUANT	14	Cable ID
DCCALDATE	LABEL	20-10-2016	DC Calibration Date
ACCALDATE	LABEL	12/3/2015	AC Calibration Date
FRAMEWORKVERSION	QUANT	7.01	Framework Version
INSTRUMENTVERSION	LABEL	4.00	Instrument Version
CURVE	TABLE	61
	Pt	T	Vf	Im	Vu	Pwr	Sig	Ach	Temp	IERange	Over
	#	s	V	A	V	W	V	V	deg C	#	bits
	0	0.013333	6.21428E-001	5.99348E-003	0.00000E+000	3.72451E-003	3.59960E-001	-1.12834E+000	3.57800E+000	10	...........
	1	0.026667	6.30110E-001	5.99059E-003	0.00000E+000	3.77473E-003	3.59960E-001	-1.12012E+000	3.57800E+000	10	...........
	2	0.04	6.38088E-001	5.99465E-003	0.00000E+000	3.82511E-003	3.59960E-001	-1.11734E+000	3.57800E+000	10	...........
	3	0.053333	6.45699E-001	5.99016E-003	0.00000E+000	3.86784E-003	3.59960E-001	-1.12815E+000	3.57800E+000	10	...........
	4	0.066667	6.52968E-001	5.99011E-003	0.00000E+000	3.91135E-003	3.59960E-001	-1.11996E+000	3.57800E+000	10	...........
	5	0.08	6.60095E-001	5.99480E-003	0.00000E+000	3.95714E-003	3.59960E-001	-1.11702E+000	3.57800E+000	10	...........
	6	0.093333	6.67100E-001	5.99325E-003	0.00000E+000	3.99809E-003	3.59960E-001	-1.12838E+000	3.57800E+000	10	...........
	7	0.106667	6.73926E-001	5.99414E-003	0.00000E+000	4.03960E-003	3.59960E-001	-1.12027E+000	3.57800E+000	10	...........
	8	0.12	6.80712E-001	5.99496E-003	0.00000E+000	4.08084E-003	3.59960E-001	-1.11684E+000	3.57800E+000	10	...........
	9	0.133333	6.87410E-001	5.99373E-003	0.00000E+000	4.12015E-003	3.59960E-001	-1.12791E+000	3.57800E+000	10	...........
	10	0.146667	6.94067E-001	5.99835E-003	0.00000E+000	4.16326E-003	3.59960E-001	-1.12011E+000	3.57800E+000	10	...........
	11	0.16	7.00668E-001	5.99419E-003	0.00000E+000	4.19994E-003	3.59960E-001	-1.11690E+000	3.57800E+000	10	...........
	12	0.173333	7.07208E-001	5.99210E-003	0.00000E+000	4.23766E-003	3.59960E-001	-1.12781E+000	3.57800E+000	10	...........
	13	0.186667	7.13711E-001	5.99899E-003	0.00000E+000	4.28154E-003	3.59960E-001	-1.12019E+000	3.57800E+000	10	...........
	14	0.2	7.20279E-001	5.99162E-003	0.00000E+000	4.31564E-003	3.59960E-001	-1.11647E+000	3.57800E+000	10	...........
	15	0.213333	7.26725E-001	5.99486E-003	0.00000E+000	4.35661E-003	3.59960E-001	-1.12763E+000	3.57800E+000	10	...........
	16	0.226667	7.33127E-001	5.99208E-003	0.00000E+000	4.39295E-003	3.59960E-001	-1.12057E+000	3.57800E+000	10	...........
	17	0.24	7.39569E-001	5.99285E-003	0.00000E+000	4.43213E-003	3.59960E-001	-1.11650E+000	3.57800E+000	10	...........
	18	0.253333	7.45986E-001	5.99419E-003	0.00000E+000	4.47158E-003	3.59960E-001	-1.12761E+000	3.57800E+000	10	...........
	19	0.266667	7.52332E-001	5.99136E-003	0.00000E+000	4.50750E-003	3.59960E-001	-1.12025E+000	3.57800E+000	10	...........
	20	0.28	7.58736E-001	5.99500E-003	0.00000E+000	4.54862E-003	3.59960E-001	-1.11647E+000	3.57800E+000	10	...........
	21	0.293333	7.65062E-001	5.99273E-003	0.00000E+000	4.58481E-003	3.59960E-001	-1.12729E+000	3.57800E+000	10	...........
	22	0.306667	7.71426E-001	5.99188E-003	0.00000E+000	4.62229E-003	3.59960E-001	-1.12034E+000	3.57800E+000	10	...........
	23	0.32	7.77756E-001	5.99478E-003	0.00000E+000	4.66248E-003	3.59960E-001	-1.11597E+000	3.57800E+000	10	...........
	24	0.333333	7.84065E-001	5.99255E-003	0.00000E+000	4.69855E-003	3.59960E-001	-1.12656E+000	3.57800E+000	10	...........
	25	0.346667	7.90357E-001	5.99328E-003	0.00000E+000	4.73683E-003	3.59960E-001	-1.11998E+000	3.57800E+000	10	...........
	26	0.36	7.96711E-001	5.99252E-003	0.00000E+000	4.77431E-003	3.59960E-001	-1.11601E+000	3.57800E+000	10	...........
	27	0.373333	8.02971E-001	5.99151E-003	0.00000E+000	4.81101E-003	3.59960E-001	-1.12669E+000	3.57800E+000	10	...........
	28	0.386667	8.09236E-001	5.99456E-003	0.00000E+000	4.85102E-003	3.59960E-001	-1.12019E+000	3.57800E+000	10	...........
	29	0.4	8.15496E-001	5.99235E-003	0.00000E+000	4.88674E-003	3.59960E-001	-1.11580E+000	3.57800E+000	10	...........
	30	0.413333	8.21752E-001	5.99368E-003	0.00000E+000	4.92531E-003	3.59960E-001	-1.12643E+000	3.57800E+000	10	...........
	31	0.426667	8.27968E-001	5.99522E-003	0.00000E+000	4.96385E-003	3.59960E-001	-1.12048E+000	3.57800E+000	10	...........
	32	0.44	8.34194E-001	5.99298E-003	0.00000E+000	4.99931E-003	3.59960E-001	-1.11606E+000	3.57800E+000	10	...........
	33	0.453333	8.40352E-001	5.99311E-003	0.00000E+000	5.03633E-003	3.59960E-001	-1.12626E+000	3.57800E+000	10	...........
	34	0.466667	8.46610E-001	5.99605E-003	0.00000E+000	5.07632E-003	3.59960E-001	-1.12050E+000	3.57800E+000	10	...........
	35	0.48	8.52802E-001	5.99717E-003	0.00000E+000	5.11440E-003	3.59960E-001	-1.11605E+000	3.57800E+000	10	...........
	36	0.493333	8.58966E-001	5.99725E-003	0.00000E+000	5.15144E-003	3.59960E-001	-1.12624E+000	3.57800E+000	10	...........
	37	0.506667	8.65085E-001	5.99386E-003	0.00000E+000	5.18520E-003	3.59960E-001	-1.12088E+000	3.57800E+000	10	...........
	38	0.52	8.71269E-001	5.98978E-003	0.00000E+000	5.21871E-003	3.59960E-001	-1.11619E+000	3.57800E+000	10	...........
	39	0.533333	8.77401E-001	5.99266E-003	0.00000E+000	5.25797E-003	3.59960E-001	-1.12633E+000	3.57800E+000	10	...........
	40	0.546667	8.83558E-001	5.99327E-003	0.00000E+000	5.29540E-003	3.59960E-001	-1.12116E+000	3.57747E+000	10	...........
	41	0.56	8.89622E-001	5.99397E-003	0.00000E+000	5.33237E-003	3.59960E-001	-1.11640E+000	3.57730E+000	10	...........
	42	0.573333	8.95635E-001	5.99462E-003	0.00000E+000	5.36899E-003	3.59960E-001	-1.12638E+000	3.57730E+000	10	...........
	43	0.586667	9.01663E-001	5.99517E-003	0.00000E+000	5.40562E-003	3.59960E-001	-1.12116E+000	3.57730E+000	10	...........
	44	0.6	9.07666E-001	5.99337E-003	0.00000E+000	5.43998E-003	3.59960E-001	-1.11610E+000	3.57730E+000	10	...........
	45	0.613333	9.13655E-001	5.99621E-003	0.00000E+000	5.47847E-003	3.59960E-001	-1.12610E+000	3.57730E+000	10	...........
	46	0.626667	9.19602E-001	5.99212E-003	0.00000E+000	5.51037E-003	3.59960E-001	-1.12132E+000	3.57730E+000	10	...........
	47	0.64	9.25539E-001	5.99529E-003	0.00000E+000	5.54888E-003	3.59960E-001	-1.11599E+000	3.57730E+000	10	...........
	48	0.653333	9.31432E-001	5.99205E-003	0.00000E+000	5.58119E-003	3.59960E-001	-1.12549E+000	3.57730E+000	10	...........
	49	0.666667	9.37236E-001	5.99507E-003	0.00000E+000	5.61880E-003	3.59960E-001	-1.12103E+000	3.57730E+000	10	...........
	50	0.68	9.43087E-001	5.99119E-003	0.00000E+000	5.65022E-003	3.59960E-001	-1.11581E+000	3.57730E+000	10	...........
	51	0.693333	9.48924E-001	5.99214E-003	0.00000E+000	5.68609E-003	3.59960E-001	-1.12514E+000	3.57730E+000	10	...........
	52	0.706667	9.54677E-001	5.99474E-003	0.00000E+000	5.72304E-003	3.59960E-001	-1.12124E+000	3.57730E+000	10	...........
	53	0.72	9.60363E-001	5.99686E-003	0.00000E+000	5.75916E-003	3.59960E-001	-1.11598E+000	3.57730E+000	10	...........
	54	0.733333	9.66028E-001	5.99362E-003	0.00000E+000	5.79001E-003	3.59960E-001	-1.12545E+000	3.57730E+000	10	...........
	55	0.746667	9.71722E-001	5.99713E-003	0.00000E+000	5.82754E-003	3.59960E-001	-1.12187E+000	3.57730E+000	10	...........
	56	0.76	9.77379E-001	5.99836E-003	0.00000E+000	5.86267E-003	3.59960E-001	-1.11653E+000	3.57730E+000	10	...........
	57	0.773333	9.82890E-001	5.99445E-003	0.00000E+000	5.89188E-003	3.59960E-001	-1.12563E+000	3.57730E+000	10	...........
	58	0.786667	9.88437E-001	5.99066E-003	0.00000E+000	5.92139E-003	3.59960E-001	-1.12219E+000	3.57730E+000	10	...........
	59	0.8	9.93905E-001	5.99371E-003	0.00000E+000	5.95718E-003	3.59960E-001	-1.11667E+000	3.57730E+000	10	...........
	60	0.81	9.98712E-001	5.99381E-003	0.00000E+000	5.98608E-003	3.59960E-001	-1.13050E+000	3.57730E+000	10	...........
STARTTIMEOFFSET	QUANT	630.7231	Start Time Offset (s)