File: Data/CV_CRGO300517_1/PWRCCD_CRGO300517_1/CHARGE_DISCHARGE/CHARGE_#692.DTA
EXPLAIN
TAG	PWR800_CHARGE
TITLE	LABEL	PWR Cyclic Charge Discharge (Cell) - Charge Step	Test &Identifier
DATE	LABEL	22-6-2017	Date
TIME	LABEL	16:03:15	Time
NOTES	NOTES	3	&Notes...
	supercap test cell
	0.6mg
	6M KOH
PSTAT	PSTAT	IFC5000-01520	Potentiostat
CAPACITY	QUANT	1.00000E-003	Capacity (A-hr)
CELLTYPE	SELECTOR	1	&Cell Type
WORKINGCONNECTION	SELECTOR	0	&Working Lead
MAXCHARGETIME	VARIABLEANDUNITS	1.00000E+002	s	1.00000E+002	second(s)	Max &Charge Time
CHARGECURRENT	QUANT	6.00000E-003	&Charge Current (A)
VOLTAGEFINISH	TWOPARAM	F	1.00000E-003	3.60000E+003	&Voltage Finish	 I (A) < 	Max Time(s)
SAMPLETIME	QUANT	1.00000E-002	Sa&mple Period (s)
CHARGESTOPAT1	MULTIPARAM	4	1.00000E+000	Charge Stop At &1	Voltage > Limit	V
CHARGESTOPAT2	MULTIPARAM	0	0.00000E+000	Charge Stop At &2	None	N/A
AESBHCSELECTOR	TOGGLE	F	Save Both Half Cells
IRCOMP	TOGGLE	F	IR &Measure
EOC	QUANT	0	Open Circuit (V)
SEQUENCER	TOGGLE	TRUE	Run as Sequence
PSTATMODEL	IQUANT	53	Pstat Model
PSTATSECTION	LABEL	IFC5000-01520	Pstat Section
PSTATSERIALNO	LABEL	01520	Pstat Serial Number
CTRLMODE	IQUANT	0	Control Mode
ELECTROMETER	IQUANT	1	RE=0 or CS=1
IESTAB	IQUANT	0	I/E Stability
CASPEED	IQUANT	4	Control Amp Speed
CONVENTION	IQUANT	1	Current Convention
ICHRANGE	IQUANT	2	Ich Range
ICHRANGEMODE	TOGGLE	T	Ich Auto Range
ICHOFFSETENABLE	TOGGLE	F	Ich Offset Enable
ICHOFFSET	QUANT	0	Ich Offset (V)
ICHFILTER	IQUANT	1	Ich Filter
VCHRANGE	IQUANT	2	Vch Range
VCHRANGEMODE	TOGGLE	T	Vch Auto Range
VCHOFFSETENABLE	TOGGLE	F	Vch Offset Enable
VCHOFFSET	QUANT	0	Vch Offset (V)
VCHFILTER	IQUANT	1	Vch Filter
IERANGELOWERLIMIT	IQUANT	9	I/E Range Lower Limit
IERANGEMODE	TOGGLE	F	I/E AutoRange
IERANGE	IQUANT	10	I/E Range
ACHSELECT	IQUANT	1	Ach Select
ACHRANGE	IQUANT	2	Ach Range
ACHOFFSETENABLE	TOGGLE	F	Ach Offset Enable
ACHOFFSET	QUANT	0	Ach Offset (V)
ACHFILTER	IQUANT	1	Ach Filter
CABLEID	IQUANT	14	Cable ID
DCCALDATE	LABEL	20-10-2016	DC Calibration Date
ACCALDATE	LABEL	12/3/2015	AC Calibration Date
FRAMEWORKVERSION	QUANT	7.01	Framework Version
INSTRUMENTVERSION	LABEL	4.00	Instrument Version
CURVE	TABLE	56
	Pt	T	Vf	Im	Vu	Pwr	Sig	Ach	Temp	IERange	Over
	#	s	V	A	V	W	V	V	deg C	#	bits
	0	0.013333	6.42345E-001	5.99407E-003	0.00000E+000	3.85027E-003	3.59960E-001	-1.15775E+000	3.57780E+000	10	...........
	1	0.026667	6.51461E-001	5.99493E-003	0.00000E+000	3.90546E-003	3.59960E-001	-1.15476E+000	3.57780E+000	10	...........
	2	0.04	6.59794E-001	5.99281E-003	0.00000E+000	3.95402E-003	3.59960E-001	-1.14882E+000	3.57780E+000	10	...........
	3	0.053333	6.67737E-001	5.99189E-003	0.00000E+000	4.00101E-003	3.59960E-001	-1.15752E+000	3.57780E+000	10	...........
	4	0.066667	6.75391E-001	5.99224E-003	0.00000E+000	4.04711E-003	3.59960E-001	-1.15452E+000	3.57780E+000	10	...........
	5	0.08	6.82832E-001	5.99726E-003	0.00000E+000	4.09512E-003	3.59960E-001	-1.14857E+000	3.57780E+000	10	...........
	6	0.093333	6.90123E-001	5.99667E-003	0.00000E+000	4.13844E-003	3.59960E-001	-1.15745E+000	3.57780E+000	10	...........
	7	0.106667	6.97306E-001	5.99227E-003	0.00000E+000	4.17844E-003	3.59960E-001	-1.15450E+000	3.57780E+000	10	...........
	8	0.12	7.04361E-001	5.99568E-003	0.00000E+000	4.22312E-003	3.59960E-001	-1.14887E+000	3.57780E+000	10	...........
	9	0.133333	7.11354E-001	5.99504E-003	0.00000E+000	4.26459E-003	3.59960E-001	-1.15755E+000	3.57780E+000	10	...........
	10	0.146667	7.18342E-001	5.99478E-003	0.00000E+000	4.30631E-003	3.59960E-001	-1.15422E+000	3.57780E+000	10	...........
	11	0.16	7.25250E-001	5.99453E-003	0.00000E+000	4.34753E-003	3.59960E-001	-1.14865E+000	3.57780E+000	10	...........
	12	0.173333	7.32076E-001	5.99258E-003	0.00000E+000	4.38703E-003	3.59960E-001	-1.15770E+000	3.57780E+000	10	...........
	13	0.186667	7.38866E-001	5.99157E-003	0.00000E+000	4.42697E-003	3.59960E-001	-1.15428E+000	3.57780E+000	10	...........
	14	0.2	7.45705E-001	5.99220E-003	0.00000E+000	4.46841E-003	3.59960E-001	-1.14852E+000	3.57780E+000	10	...........
	15	0.213333	7.52426E-001	5.99534E-003	0.00000E+000	4.51105E-003	3.59960E-001	-1.15739E+000	3.57780E+000	10	...........
	16	0.226667	7.59102E-001	5.99416E-003	0.00000E+000	4.55018E-003	3.59960E-001	-1.15394E+000	3.57780E+000	10	...........
	17	0.24	7.65792E-001	5.99408E-003	0.00000E+000	4.59022E-003	3.59960E-001	-1.14858E+000	3.57780E+000	10	...........
	18	0.253333	7.72485E-001	5.99100E-003	0.00000E+000	4.62795E-003	3.59960E-001	-1.15773E+000	3.57780E+000	10	...........
	19	0.266667	7.79141E-001	5.99031E-003	0.00000E+000	4.66729E-003	3.59960E-001	-1.15419E+000	3.57780E+000	10	...........
	20	0.28	7.85790E-001	5.99125E-003	0.00000E+000	4.70786E-003	3.59960E-001	-1.14858E+000	3.57780E+000	10	...........
	21	0.293333	7.92425E-001	5.99625E-003	0.00000E+000	4.75158E-003	3.59960E-001	-1.15786E+000	3.57780E+000	10	...........
	22	0.306667	7.98973E-001	5.98730E-003	0.00000E+000	4.78370E-003	3.59960E-001	-1.15414E+000	3.57780E+000	10	...........
	23	0.32	8.05570E-001	5.99717E-003	0.00000E+000	4.83114E-003	3.59960E-001	-1.14872E+000	3.57780E+000	10	...........
	24	0.333333	8.12133E-001	5.99632E-003	0.00000E+000	4.86981E-003	3.59960E-001	-1.15786E+000	3.57780E+000	10	...........
	25	0.346667	8.18717E-001	5.99513E-003	0.00000E+000	4.90831E-003	3.59960E-001	-1.15362E+000	3.57780E+000	10	...........
	26	0.36	8.25197E-001	5.99285E-003	0.00000E+000	4.94528E-003	3.59960E-001	-1.14808E+000	3.57780E+000	10	...........
	27	0.373333	8.31668E-001	5.99516E-003	0.00000E+000	4.98598E-003	3.59960E-001	-1.15755E+000	3.57780E+000	10	...........
	28	0.386667	8.38115E-001	5.99571E-003	0.00000E+000	5.02510E-003	3.59960E-001	-1.15367E+000	3.57780E+000	10	...........
	29	0.4	8.44585E-001	5.99489E-003	0.00000E+000	5.06319E-003	3.59960E-001	-1.14830E+000	3.57780E+000	10	...........
	30	0.413333	8.51015E-001	5.99213E-003	0.00000E+000	5.09940E-003	3.59960E-001	-1.15751E+000	3.57780E+000	10	...........
	31	0.426667	8.57415E-001	5.99293E-003	0.00000E+000	5.13842E-003	3.59960E-001	-1.15350E+000	3.57780E+000	10	...........
	32	0.44	8.63810E-001	5.99052E-003	0.00000E+000	5.17467E-003	3.59960E-001	-1.14823E+000	3.57780E+000	10	...........
	33	0.453333	8.70202E-001	5.99639E-003	0.00000E+000	5.21807E-003	3.59960E-001	-1.15751E+000	3.57780E+000	10	...........
	34	0.466667	8.76498E-001	5.99178E-003	0.00000E+000	5.25178E-003	3.59960E-001	-1.15332E+000	3.57780E+000	10	...........
	35	0.48	8.82849E-001	5.99573E-003	0.00000E+000	5.29333E-003	3.59960E-001	-1.14796E+000	3.57780E+000	10	...........
	36	0.493333	8.89133E-001	5.99375E-003	0.00000E+000	5.32924E-003	3.59960E-001	-1.15734E+000	3.57780E+000	10	...........
	37	0.506667	8.95393E-001	5.99652E-003	0.00000E+000	5.36924E-003	3.59960E-001	-1.15337E+000	3.57780E+000	10	...........
	38	0.52	9.01588E-001	5.99588E-003	0.00000E+000	5.40581E-003	3.59960E-001	-1.14800E+000	3.57780E+000	10	...........
	39	0.533333	9.07767E-001	5.99579E-003	0.00000E+000	5.44279E-003	3.59960E-001	-1.15746E+000	3.57780E+000	10	...........
	40	0.546667	9.13922E-001	5.99467E-003	0.00000E+000	5.47866E-003	3.59960E-001	-1.15303E+000	3.57780E+000	10	...........
	41	0.56	9.20064E-001	5.99144E-003	0.00000E+000	5.51252E-003	3.59960E-001	-1.14800E+000	3.57780E+000	10	...........
	42	0.573333	9.26154E-001	5.99634E-003	0.00000E+000	5.55353E-003	3.59960E-001	-1.15774E+000	3.57780E+000	10	...........
	43	0.586667	9.32165E-001	5.99354E-003	0.00000E+000	5.58697E-003	3.59960E-001	-1.15341E+000	3.57780E+000	10	...........
	44	0.6	9.38132E-001	5.99289E-003	0.00000E+000	5.62213E-003	3.59960E-001	-1.14820E+000	3.57780E+000	10	...........
	45	0.613333	9.44067E-001	5.99399E-003	0.00000E+000	5.65873E-003	3.59960E-001	-1.15769E+000	3.57780E+000	10	...........
	46	0.626667	9.50037E-001	5.99474E-003	0.00000E+000	5.69522E-003	3.59960E-001	-1.15329E+000	3.57780E+000	10	...........
	47	0.64	9.55890E-001	5.99133E-003	0.00000E+000	5.72705E-003	3.59960E-001	-1.14827E+000	3.57780E+000	10	...........
	48	0.653333	9.61687E-001	5.99833E-003	0.00000E+000	5.76852E-003	3.59960E-001	-1.15805E+000	3.57780E+000	10	...........
	49	0.666667	9.67472E-001	5.99737E-003	0.00000E+000	5.80229E-003	3.59960E-001	-1.15294E+000	3.57783E+000	10	...........
	50	0.68	9.73240E-001	5.99487E-003	0.00000E+000	5.83444E-003	3.59960E-001	-1.14769E+000	3.57790E+000	10	...........
	51	0.693333	9.78920E-001	5.99413E-003	0.00000E+000	5.86777E-003	3.59960E-001	-1.15757E+000	3.57790E+000	10	...........
	52	0.706667	9.84538E-001	5.99003E-003	0.00000E+000	5.89741E-003	3.59960E-001	-1.15298E+000	3.57790E+000	10	...........
	53	0.72	9.90128E-001	5.99457E-003	0.00000E+000	5.93539E-003	3.59960E-001	-1.14805E+000	3.57790E+000	10	...........
	54	0.733333	9.95622E-001	5.99131E-003	0.00000E+000	5.96508E-003	3.59960E-001	-1.15755E+000	3.57790E+000	10	...........
	55	0.738333	9.99440E-001	6.00136E-003	0.00000E+000	5.99800E-003	3.59960E-001	-1.13819E+000	3.57790E+000	10	...........
STARTTIMEOFFSET	QUANT	1147.472	Start Time Offset (s)