File: Data/CV_CRGO300517_1/PWRCCD_CRGO300517_1/CHARGE_DISCHARGE/CHARGE_#903.DTA
EXPLAIN
TAG	PWR800_CHARGE
TITLE	LABEL	PWR Cyclic Charge Discharge (Cell) - Charge Step	Test &Identifier
DATE	LABEL	22-6-2017	Date
TIME	LABEL	16:11:06	Time
NOTES	NOTES	3	&Notes...
	supercap test cell
	0.6mg
	6M KOH
PSTAT	PSTAT	IFC5000-01520	Potentiostat
CAPACITY	QUANT	1.00000E-003	Capacity (A-hr)
CELLTYPE	SELECTOR	1	&Cell Type
WORKINGCONNECTION	SELECTOR	0	&Working Lead
MAXCHARGETIME	VARIABLEANDUNITS	1.00000E+002	s	1.00000E+002	second(s)	Max &Charge Time
CHARGECURRENT	QUANT	6.00000E-003	&Charge Current (A)
VOLTAGEFINISH	TWOPARAM	F	1.00000E-003	3.60000E+003	&Voltage Finish	 I (A) < 	Max Time(s)
SAMPLETIME	QUANT	1.00000E-002	Sa&mple Period (s)
CHARGESTOPAT1	MULTIPARAM	4	1.00000E+000	Charge Stop At &1	Voltage > Limit	V
CHARGESTOPAT2	MULTIPARAM	0	0.00000E+000	Charge Stop At &2	None	N/A
AESBHCSELECTOR	TOGGLE	F	Save Both Half Cells
IRCOMP	TOGGLE	F	IR &Measure
EOC	QUANT	0	Open Circuit (V)
SEQUENCER	TOGGLE	TRUE	Run as Sequence
PSTATMODEL	IQUANT	53	Pstat Model
PSTATSECTION	LABEL	IFC5000-01520	Pstat Section
PSTATSERIALNO	LABEL	01520	Pstat Serial Number
CTRLMODE	IQUANT	0	Control Mode
ELECTROMETER	IQUANT	1	RE=0 or CS=1
IESTAB	IQUANT	0	I/E Stability
CASPEED	IQUANT	4	Control Amp Speed
CONVENTION	IQUANT	1	Current Convention
ICHRANGE	IQUANT	2	Ich Range
ICHRANGEMODE	TOGGLE	T	Ich Auto Range
ICHOFFSETENABLE	TOGGLE	F	Ich Offset Enable
ICHOFFSET	QUANT	0	Ich Offset (V)
ICHFILTER	IQUANT	1	Ich Filter
VCHRANGE	IQUANT	2	Vch Range
VCHRANGEMODE	TOGGLE	T	Vch Auto Range
VCHOFFSETENABLE	TOGGLE	F	Vch Offset Enable
VCHOFFSET	QUANT	0	Vch Offset (V)
VCHFILTER	IQUANT	1	Vch Filter
IERANGELOWERLIMIT	IQUANT	9	I/E Range Lower Limit
IERANGEMODE	TOGGLE	F	I/E AutoRange
IERANGE	IQUANT	10	I/E Range
ACHSELECT	IQUANT	1	Ach Select
ACHRANGE	IQUANT	2	Ach Range
ACHOFFSETENABLE	TOGGLE	F	Ach Offset Enable
ACHOFFSET	QUANT	0	Ach Offset (V)
ACHFILTER	IQUANT	1	Ach Filter
CABLEID	IQUANT	14	Cable ID
DCCALDATE	LABEL	20-10-2016	DC Calibration Date
ACCALDATE	LABEL	12/3/2015	AC Calibration Date
FRAMEWORKVERSION	QUANT	7.01	Framework Version
INSTRUMENTVERSION	LABEL	4.00	Instrument Version
CURVE	TABLE	53
	Pt	T	Vf	Im	Vu	Pwr	Sig	Ach	Temp	IERange	Over
	#	s	V	A	V	W	V	V	deg C	#	bits
	0	0.013333	6.53190E-001	5.98861E-003	0.00000E+000	3.91170E-003	3.59960E-001	-1.17734E+000	3.57640E+000	10	...........
	1	0.026667	6.62444E-001	5.98906E-003	0.00000E+000	3.96742E-003	3.59960E-001	-1.16819E+000	3.57640E+000	10	...........
	2	0.04	6.70989E-001	5.99506E-003	0.00000E+000	4.02262E-003	3.59960E-001	-1.17279E+000	3.57640E+000	10	...........
	3	0.053333	6.79052E-001	5.99663E-003	0.00000E+000	4.07202E-003	3.59960E-001	-1.17696E+000	3.57640E+000	10	...........
	4	0.066667	6.86824E-001	5.99040E-003	0.00000E+000	4.11435E-003	3.59960E-001	-1.16808E+000	3.57640E+000	10	...........
	5	0.08	6.94434E-001	5.99766E-003	0.00000E+000	4.16498E-003	3.59960E-001	-1.17294E+000	3.57640E+000	10	...........
	6	0.093333	7.01891E-001	5.99453E-003	0.00000E+000	4.20751E-003	3.59960E-001	-1.17701E+000	3.57640E+000	10	...........
	7	0.106667	7.09153E-001	5.98930E-003	0.00000E+000	4.24733E-003	3.59960E-001	-1.16796E+000	3.57640E+000	10	...........
	8	0.12	7.16433E-001	5.99515E-003	0.00000E+000	4.29512E-003	3.59960E-001	-1.17284E+000	3.57640E+000	10	...........
	9	0.133333	7.23596E-001	5.99422E-003	0.00000E+000	4.33739E-003	3.59960E-001	-1.17712E+000	3.57655E+000	10	...........
	10	0.146667	7.30672E-001	5.98941E-003	0.00000E+000	4.37629E-003	3.59960E-001	-1.16827E+000	3.57660E+000	10	...........
	11	0.16	7.37717E-001	5.99104E-003	0.00000E+000	4.41969E-003	3.59960E-001	-1.17296E+000	3.57660E+000	10	...........
	12	0.173333	7.44722E-001	5.99127E-003	0.00000E+000	4.46183E-003	3.59960E-001	-1.17681E+000	3.57660E+000	10	...........
	13	0.186667	7.51653E-001	5.99759E-003	0.00000E+000	4.50811E-003	3.59960E-001	-1.16806E+000	3.57660E+000	10	...........
	14	0.2	7.58570E-001	5.99465E-003	0.00000E+000	4.54736E-003	3.59960E-001	-1.17272E+000	3.57660E+000	10	...........
	15	0.213333	7.65456E-001	5.99306E-003	0.00000E+000	4.58742E-003	3.59960E-001	-1.17639E+000	3.57660E+000	10	...........
	16	0.226667	7.72286E-001	5.98948E-003	0.00000E+000	4.62559E-003	3.59960E-001	-1.16746E+000	3.57660E+000	10	...........
	17	0.24	7.79099E-001	5.99684E-003	0.00000E+000	4.67213E-003	3.59960E-001	-1.17255E+000	3.57660E+000	10	...........
	18	0.253333	7.85904E-001	5.99306E-003	0.00000E+000	4.70997E-003	3.59960E-001	-1.17625E+000	3.57660E+000	10	...........
	19	0.266667	7.92690E-001	5.99298E-003	0.00000E+000	4.75057E-003	3.59960E-001	-1.16740E+000	3.57660E+000	10	...........
	20	0.28	7.99445E-001	5.99134E-003	0.00000E+000	4.78975E-003	3.59960E-001	-1.17243E+000	3.57660E+000	10	...........
	21	0.293333	8.06105E-001	5.99244E-003	0.00000E+000	4.83053E-003	3.59960E-001	-1.17637E+000	3.57660E+000	10	...........
	22	0.306667	8.12826E-001	5.99585E-003	0.00000E+000	4.87358E-003	3.59960E-001	-1.16737E+000	3.57660E+000	10	...........
	23	0.32	8.19505E-001	5.98886E-003	0.00000E+000	4.90790E-003	3.59960E-001	-1.17213E+000	3.57660E+000	10	...........
	24	0.333333	8.26131E-001	5.98916E-003	0.00000E+000	4.94783E-003	3.59960E-001	-1.17613E+000	3.57660E+000	10	...........
	25	0.346667	8.32733E-001	5.99408E-003	0.00000E+000	4.99147E-003	3.59960E-001	-1.16731E+000	3.57660E+000	10	...........
	26	0.36	8.39327E-001	5.99201E-003	0.00000E+000	5.02925E-003	3.59960E-001	-1.17237E+000	3.57660E+000	10	...........
	27	0.373333	8.45886E-001	5.99237E-003	0.00000E+000	5.06886E-003	3.59960E-001	-1.17581E+000	3.57660E+000	10	...........
	28	0.386667	8.52438E-001	5.99311E-003	0.00000E+000	5.10876E-003	3.59960E-001	-1.16710E+000	3.57660E+000	10	...........
	29	0.4	8.58948E-001	5.99132E-003	0.00000E+000	5.14623E-003	3.59960E-001	-1.17216E+000	3.57660E+000	10	...........
	30	0.413333	8.65400E-001	5.99500E-003	0.00000E+000	5.18808E-003	3.59960E-001	-1.17594E+000	3.57660E+000	10	...........
	31	0.426667	8.71882E-001	5.99350E-003	0.00000E+000	5.22562E-003	3.59960E-001	-1.16721E+000	3.57660E+000	10	...........
	32	0.44	8.78291E-001	5.99091E-003	0.00000E+000	5.26177E-003	3.59960E-001	-1.17216E+000	3.57660E+000	10	...........
	33	0.453333	8.84734E-001	5.99391E-003	0.00000E+000	5.30301E-003	3.59960E-001	-1.17558E+000	3.57660E+000	10	...........
	34	0.466667	8.91052E-001	5.99749E-003	0.00000E+000	5.34408E-003	3.59960E-001	-1.16723E+000	3.57660E+000	10	...........
	35	0.48	8.97382E-001	5.99435E-003	0.00000E+000	5.37923E-003	3.59960E-001	-1.17253E+000	3.57660E+000	10	...........
	36	0.493333	9.03673E-001	5.99832E-003	0.00000E+000	5.42052E-003	3.59960E-001	-1.17579E+000	3.57660E+000	10	...........
	37	0.506667	9.09941E-001	5.99505E-003	0.00000E+000	5.45514E-003	3.59960E-001	-1.16712E+000	3.57660E+000	10	...........
	38	0.52	9.16107E-001	5.99474E-003	0.00000E+000	5.49182E-003	3.59960E-001	-1.17206E+000	3.57660E+000	10	...........
	39	0.533333	9.22372E-001	5.99181E-003	0.00000E+000	5.52667E-003	3.59960E-001	-1.17502E+000	3.57660E+000	10	...........
	40	0.546667	9.28485E-001	5.99292E-003	0.00000E+000	5.56433E-003	3.59960E-001	-1.16655E+000	3.57660E+000	10	...........
	41	0.56	9.34562E-001	5.99489E-003	0.00000E+000	5.60259E-003	3.59960E-001	-1.17195E+000	3.57660E+000	10	...........
	42	0.573333	9.40541E-001	5.99545E-003	0.00000E+000	5.63896E-003	3.59960E-001	-1.17511E+000	3.57660E+000	10	...........
	43	0.586667	9.46570E-001	5.99614E-003	0.00000E+000	5.67577E-003	3.59960E-001	-1.16615E+000	3.57660E+000	10	...........
	44	0.6	9.52541E-001	5.99607E-003	0.00000E+000	5.71150E-003	3.59960E-001	-1.17168E+000	3.57660E+000	10	...........
	45	0.613333	9.58411E-001	5.99311E-003	0.00000E+000	5.74387E-003	3.59960E-001	-1.17492E+000	3.57660E+000	10	...........
	46	0.626667	9.64271E-001	5.99150E-003	0.00000E+000	5.77743E-003	3.59960E-001	-1.16635E+000	3.57660E+000	10	...........
	47	0.64	9.70060E-001	5.98804E-003	0.00000E+000	5.80876E-003	3.59960E-001	-1.17168E+000	3.57660E+000	10	...........
	48	0.653333	9.75828E-001	5.99080E-003	0.00000E+000	5.84599E-003	3.59960E-001	-1.17457E+000	3.57660E+000	10	...........
	49	0.666667	9.81480E-001	5.99848E-003	0.00000E+000	5.88738E-003	3.59960E-001	-1.16624E+000	3.57660E+000	10	...........
	50	0.68	9.87098E-001	5.99446E-003	0.00000E+000	5.91712E-003	3.59960E-001	-1.17180E+000	3.57660E+000	10	...........
	51	0.693333	9.92704E-001	5.99380E-003	0.00000E+000	5.95007E-003	3.59960E-001	-1.17469E+000	3.57660E+000	10	...........
	52	0.705	9.97916E-001	5.99154E-003	0.00000E+000	5.97905E-003	3.59960E-001	-1.16415E+000	3.57660E+000	10	...........
STARTTIMEOFFSET	QUANT	1450.277	Start Time Offset (s)