File: Data/CV_CRGO300517_1/PWRCCD_CRGO300517_1/CHARGE_DISCHARGE/CHARGE_#444.DTA
EXPLAIN
TAG	PWR800_CHARGE
TITLE	LABEL	PWR Cyclic Charge Discharge (Cell) - Charge Step	Test &Identifier
DATE	LABEL	22-6-2017	Date
TIME	LABEL	15:53:42	Time
NOTES	NOTES	3	&Notes...
	supercap test cell
	0.6mg
	6M KOH
PSTAT	PSTAT	IFC5000-01520	Potentiostat
CAPACITY	QUANT	1.00000E-003	Capacity (A-hr)
CELLTYPE	SELECTOR	1	&Cell Type
WORKINGCONNECTION	SELECTOR	0	&Working Lead
MAXCHARGETIME	VARIABLEANDUNITS	1.00000E+002	s	1.00000E+002	second(s)	Max &Charge Time
CHARGECURRENT	QUANT	6.00000E-003	&Charge Current (A)
VOLTAGEFINISH	TWOPARAM	F	1.00000E-003	3.60000E+003	&Voltage Finish	 I (A) < 	Max Time(s)
SAMPLETIME	QUANT	1.00000E-002	Sa&mple Period (s)
CHARGESTOPAT1	MULTIPARAM	4	1.00000E+000	Charge Stop At &1	Voltage > Limit	V
CHARGESTOPAT2	MULTIPARAM	0	0.00000E+000	Charge Stop At &2	None	N/A
AESBHCSELECTOR	TOGGLE	F	Save Both Half Cells
IRCOMP	TOGGLE	F	IR &Measure
EOC	QUANT	0	Open Circuit (V)
SEQUENCER	TOGGLE	TRUE	Run as Sequence
PSTATMODEL	IQUANT	53	Pstat Model
PSTATSECTION	LABEL	IFC5000-01520	Pstat Section
PSTATSERIALNO	LABEL	01520	Pstat Serial Number
CTRLMODE	IQUANT	0	Control Mode
ELECTROMETER	IQUANT	1	RE=0 or CS=1
IESTAB	IQUANT	0	I/E Stability
CASPEED	IQUANT	4	Control Amp Speed
CONVENTION	IQUANT	1	Current Convention
ICHRANGE	IQUANT	2	Ich Range
ICHRANGEMODE	TOGGLE	T	Ich Auto Range
ICHOFFSETENABLE	TOGGLE	F	Ich Offset Enable
ICHOFFSET	QUANT	0	Ich Offset (V)
ICHFILTER	IQUANT	1	Ich Filter
VCHRANGE	IQUANT	2	Vch Range
VCHRANGEMODE	TOGGLE	T	Vch Auto Range
VCHOFFSETENABLE	TOGGLE	F	Vch Offset Enable
VCHOFFSET	QUANT	0	Vch Offset (V)
VCHFILTER	IQUANT	1	Vch Filter
IERANGELOWERLIMIT	IQUANT	9	I/E Range Lower Limit
IERANGEMODE	TOGGLE	F	I/E AutoRange
IERANGE	IQUANT	10	I/E Range
ACHSELECT	IQUANT	1	Ach Select
ACHRANGE	IQUANT	2	Ach Range
ACHOFFSETENABLE	TOGGLE	F	Ach Offset Enable
ACHOFFSET	QUANT	0	Ach Offset (V)
ACHFILTER	IQUANT	1	Ach Filter
CABLEID	IQUANT	14	Cable ID
DCCALDATE	LABEL	20-10-2016	DC Calibration Date
ACCALDATE	LABEL	12/3/2015	AC Calibration Date
FRAMEWORKVERSION	QUANT	7.01	Framework Version
INSTRUMENTVERSION	LABEL	4.00	Instrument Version
CURVE	TABLE	59
	Pt	T	Vf	Im	Vu	Pwr	Sig	Ach	Temp	IERange	Over
	#	s	V	A	V	W	V	V	deg C	#	bits
	0	0.013333	6.27898E-001	5.99518E-003	0.00000E+000	3.76436E-003	3.59960E-001	-1.13438E+000	3.57760E+000	10	...........
	1	0.026667	6.36717E-001	5.99050E-003	0.00000E+000	3.81425E-003	3.59960E-001	-1.14180E+000	3.57760E+000	10	...........
	2	0.04	6.44811E-001	5.99408E-003	0.00000E+000	3.86505E-003	3.59960E-001	-1.14145E+000	3.57760E+000	10	...........
	3	0.053333	6.52435E-001	5.99701E-003	0.00000E+000	3.91266E-003	3.59960E-001	-1.13440E+000	3.57760E+000	10	...........
	4	0.066667	6.59803E-001	5.99397E-003	0.00000E+000	3.95484E-003	3.59960E-001	-1.14182E+000	3.57760E+000	10	...........
	5	0.08	6.66992E-001	5.99744E-003	0.00000E+000	4.00025E-003	3.59960E-001	-1.14120E+000	3.57760E+000	10	...........
	6	0.093333	6.74070E-001	5.99140E-003	0.00000E+000	4.03862E-003	3.59960E-001	-1.13445E+000	3.57760E+000	10	...........
	7	0.106667	6.81022E-001	5.99468E-003	0.00000E+000	4.08251E-003	3.59960E-001	-1.14222E+000	3.57760E+000	10	...........
	8	0.12	6.87879E-001	5.99496E-003	0.00000E+000	4.12380E-003	3.59960E-001	-1.14117E+000	3.57760E+000	10	...........
	9	0.133333	6.94714E-001	5.99564E-003	0.00000E+000	4.16525E-003	3.59960E-001	-1.13436E+000	3.57760E+000	10	...........
	10	0.146667	7.01469E-001	5.99089E-003	0.00000E+000	4.20242E-003	3.59960E-001	-1.14216E+000	3.57760E+000	10	...........
	11	0.16	7.08106E-001	5.99502E-003	0.00000E+000	4.24511E-003	3.59960E-001	-1.14100E+000	3.57760E+000	10	...........
	12	0.173333	7.14754E-001	5.99196E-003	0.00000E+000	4.28277E-003	3.59960E-001	-1.13439E+000	3.57760E+000	10	...........
	13	0.186667	7.21424E-001	5.99472E-003	0.00000E+000	4.32473E-003	3.59960E-001	-1.14233E+000	3.57760E+000	10	...........
	14	0.2	7.27990E-001	5.99064E-003	0.00000E+000	4.36112E-003	3.59960E-001	-1.14082E+000	3.57760E+000	10	...........
	15	0.213333	7.34545E-001	5.99467E-003	0.00000E+000	4.40335E-003	3.59960E-001	-1.13427E+000	3.57760E+000	10	...........
	16	0.226667	7.41043E-001	5.99668E-003	0.00000E+000	4.44380E-003	3.59960E-001	-1.14249E+000	3.57760E+000	10	...........
	17	0.24	7.47609E-001	5.99429E-003	0.00000E+000	4.48139E-003	3.59960E-001	-1.14066E+000	3.57760E+000	10	...........
	18	0.253333	7.54147E-001	5.99325E-003	0.00000E+000	4.51979E-003	3.59960E-001	-1.13456E+000	3.57760E+000	10	...........
	19	0.266667	7.60577E-001	5.99657E-003	0.00000E+000	4.56085E-003	3.59960E-001	-1.14271E+000	3.57760E+000	10	...........
	20	0.28	7.67079E-001	5.99633E-003	0.00000E+000	4.59966E-003	3.59960E-001	-1.14055E+000	3.57760E+000	10	...........
	21	0.293333	7.73525E-001	5.99286E-003	0.00000E+000	4.63563E-003	3.59960E-001	-1.13455E+000	3.57739E+000	10	...........
	22	0.306667	7.79938E-001	6.00022E-003	0.00000E+000	4.67979E-003	3.59960E-001	-1.14308E+000	3.57700E+000	10	...........
	23	0.32	7.86365E-001	6.00133E-003	0.00000E+000	4.71924E-003	3.59960E-001	-1.14020E+000	3.57700E+000	10	...........
	24	0.333333	7.92767E-001	5.99448E-003	0.00000E+000	4.75223E-003	3.59960E-001	-1.13399E+000	3.57700E+000	10	...........
	25	0.346667	7.99136E-001	5.99117E-003	0.00000E+000	4.78776E-003	3.59960E-001	-1.14252E+000	3.57700E+000	10	...........
	26	0.36	8.05518E-001	5.99371E-003	0.00000E+000	4.82804E-003	3.59960E-001	-1.13987E+000	3.57700E+000	10	...........
	27	0.373333	8.11838E-001	5.99409E-003	0.00000E+000	4.86623E-003	3.59960E-001	-1.13410E+000	3.57700E+000	10	...........
	28	0.386667	8.18224E-001	5.99391E-003	0.00000E+000	4.90436E-003	3.59960E-001	-1.14281E+000	3.57700E+000	10	...........
	29	0.4	8.24579E-001	5.99353E-003	0.00000E+000	4.94214E-003	3.59960E-001	-1.13942E+000	3.57700E+000	10	...........
	30	0.413333	8.30918E-001	5.99664E-003	0.00000E+000	4.98271E-003	3.59960E-001	-1.13393E+000	3.57700E+000	10	...........
	31	0.426667	8.37191E-001	5.99741E-003	0.00000E+000	5.02098E-003	3.59960E-001	-1.14282E+000	3.57700E+000	10	...........
	32	0.44	8.43472E-001	6.00060E-003	0.00000E+000	5.06134E-003	3.59960E-001	-1.13946E+000	3.57700E+000	10	...........
	33	0.453333	8.49737E-001	5.99750E-003	0.00000E+000	5.09630E-003	3.59960E-001	-1.13376E+000	3.57700E+000	10	...........
	34	0.466667	8.55961E-001	5.99565E-003	0.00000E+000	5.13204E-003	3.59960E-001	-1.14284E+000	3.57700E+000	10	...........
	35	0.48	8.62195E-001	5.99641E-003	0.00000E+000	5.17008E-003	3.59960E-001	-1.13911E+000	3.57700E+000	10	...........
	36	0.493333	8.68417E-001	5.99827E-003	0.00000E+000	5.20899E-003	3.59960E-001	-1.13375E+000	3.57700E+000	10	...........
	37	0.506667	8.74600E-001	5.99497E-003	0.00000E+000	5.24320E-003	3.59960E-001	-1.14288E+000	3.57700E+000	10	...........
	38	0.52	8.80769E-001	5.99104E-003	0.00000E+000	5.27672E-003	3.59960E-001	-1.13880E+000	3.57700E+000	10	...........
	39	0.533333	8.86911E-001	5.99633E-003	0.00000E+000	5.31821E-003	3.59960E-001	-1.13355E+000	3.57700E+000	10	...........
	40	0.546667	8.93033E-001	5.98801E-003	0.00000E+000	5.34749E-003	3.59960E-001	-1.14307E+000	3.57700E+000	10	...........
	41	0.56	8.99134E-001	5.99620E-003	0.00000E+000	5.39139E-003	3.59960E-001	-1.13878E+000	3.57700E+000	10	...........
	42	0.573333	9.05221E-001	5.99472E-003	0.00000E+000	5.42655E-003	3.59960E-001	-1.13378E+000	3.57700E+000	10	...........
	43	0.586667	9.11245E-001	5.98883E-003	0.00000E+000	5.45729E-003	3.59960E-001	-1.14321E+000	3.57700E+000	10	...........
	44	0.6	9.17276E-001	5.99976E-003	0.00000E+000	5.50343E-003	3.59960E-001	-1.13851E+000	3.57700E+000	10	...........
	45	0.613333	9.23282E-001	5.99350E-003	0.00000E+000	5.53369E-003	3.59960E-001	-1.13341E+000	3.57700E+000	10	...........
	46	0.626667	9.29224E-001	5.99989E-003	0.00000E+000	5.57525E-003	3.59960E-001	-1.14315E+000	3.57700E+000	10	...........
	47	0.64	9.35116E-001	5.99604E-003	0.00000E+000	5.60700E-003	3.59960E-001	-1.13832E+000	3.57700E+000	10	...........
	48	0.653333	9.40980E-001	5.99192E-003	0.00000E+000	5.63828E-003	3.59960E-001	-1.13324E+000	3.57700E+000	10	...........
	49	0.666667	9.46836E-001	5.99450E-003	0.00000E+000	5.67581E-003	3.59960E-001	-1.14277E+000	3.57700E+000	10	...........
	50	0.68	9.52670E-001	5.99688E-003	0.00000E+000	5.71305E-003	3.59960E-001	-1.13751E+000	3.57700E+000	10	...........
	51	0.693333	9.58397E-001	5.99274E-003	0.00000E+000	5.74342E-003	3.59960E-001	-1.13305E+000	3.57700E+000	10	...........
	52	0.706667	9.64076E-001	5.99394E-003	0.00000E+000	5.77861E-003	3.59960E-001	-1.14289E+000	3.57700E+000	10	...........
	53	0.72	9.69782E-001	5.99161E-003	0.00000E+000	5.81055E-003	3.59960E-001	-1.13757E+000	3.57700E+000	10	...........
	54	0.733333	9.75504E-001	5.99648E-003	0.00000E+000	5.84959E-003	3.59960E-001	-1.13295E+000	3.57700E+000	10	...........
	55	0.746667	9.81097E-001	5.99290E-003	0.00000E+000	5.87962E-003	3.59960E-001	-1.14300E+000	3.57700E+000	10	...........
	56	0.76	9.86637E-001	5.98679E-003	0.00000E+000	5.90679E-003	3.59960E-001	-1.13709E+000	3.57700E+000	10	...........
	57	0.773333	9.92127E-001	5.99592E-003	0.00000E+000	5.94872E-003	3.59960E-001	-1.13318E+000	3.57700E+000	10	...........
	58	0.786667	9.97633E-001	5.99219E-003	0.00000E+000	5.97800E-003	3.59960E-001	-1.14316E+000	3.57700E+000	10	...........
STARTTIMEOFFSET	QUANT	772.0585	Start Time Offset (s)