File: Data/CV_CRGO300517_1/PWRCCD_CRGO300517_1/CHARGE_DISCHARGE/CHARGE_#267.DTA
EXPLAIN
TAG	PWR800_CHARGE
TITLE	LABEL	PWR Cyclic Charge Discharge (Cell) - Charge Step	Test &Identifier
DATE	LABEL	22-6-2017	Date
TIME	LABEL	15:46:35	Time
NOTES	NOTES	3	&Notes...
	supercap test cell
	0.6mg
	6M KOH
PSTAT	PSTAT	IFC5000-01520	Potentiostat
CAPACITY	QUANT	1.00000E-003	Capacity (A-hr)
CELLTYPE	SELECTOR	1	&Cell Type
WORKINGCONNECTION	SELECTOR	0	&Working Lead
MAXCHARGETIME	VARIABLEANDUNITS	1.00000E+002	s	1.00000E+002	second(s)	Max &Charge Time
CHARGECURRENT	QUANT	6.00000E-003	&Charge Current (A)
VOLTAGEFINISH	TWOPARAM	F	1.00000E-003	3.60000E+003	&Voltage Finish	 I (A) < 	Max Time(s)
SAMPLETIME	QUANT	1.00000E-002	Sa&mple Period (s)
CHARGESTOPAT1	MULTIPARAM	4	1.00000E+000	Charge Stop At &1	Voltage > Limit	V
CHARGESTOPAT2	MULTIPARAM	0	0.00000E+000	Charge Stop At &2	None	N/A
AESBHCSELECTOR	TOGGLE	F	Save Both Half Cells
IRCOMP	TOGGLE	F	IR &Measure
EOC	QUANT	0	Open Circuit (V)
SEQUENCER	TOGGLE	TRUE	Run as Sequence
PSTATMODEL	IQUANT	53	Pstat Model
PSTATSECTION	LABEL	IFC5000-01520	Pstat Section
PSTATSERIALNO	LABEL	01520	Pstat Serial Number
CTRLMODE	IQUANT	0	Control Mode
ELECTROMETER	IQUANT	1	RE=0 or CS=1
IESTAB	IQUANT	0	I/E Stability
CASPEED	IQUANT	4	Control Amp Speed
CONVENTION	IQUANT	1	Current Convention
ICHRANGE	IQUANT	2	Ich Range
ICHRANGEMODE	TOGGLE	T	Ich Auto Range
ICHOFFSETENABLE	TOGGLE	F	Ich Offset Enable
ICHOFFSET	QUANT	0	Ich Offset (V)
ICHFILTER	IQUANT	1	Ich Filter
VCHRANGE	IQUANT	2	Vch Range
VCHRANGEMODE	TOGGLE	T	Vch Auto Range
VCHOFFSETENABLE	TOGGLE	F	Vch Offset Enable
VCHOFFSET	QUANT	0	Vch Offset (V)
VCHFILTER	IQUANT	1	Vch Filter
IERANGELOWERLIMIT	IQUANT	9	I/E Range Lower Limit
IERANGEMODE	TOGGLE	F	I/E AutoRange
IERANGE	IQUANT	10	I/E Range
ACHSELECT	IQUANT	1	Ach Select
ACHRANGE	IQUANT	2	Ach Range
ACHOFFSETENABLE	TOGGLE	F	Ach Offset Enable
ACHOFFSET	QUANT	0	Ach Offset (V)
ACHFILTER	IQUANT	1	Ach Filter
CABLEID	IQUANT	14	Cable ID
DCCALDATE	LABEL	20-10-2016	DC Calibration Date
ACCALDATE	LABEL	12/3/2015	AC Calibration Date
FRAMEWORKVERSION	QUANT	7.01	Framework Version
INSTRUMENTVERSION	LABEL	4.00	Instrument Version
CURVE	TABLE	63
	Pt	T	Vf	Im	Vu	Pwr	Sig	Ach	Temp	IERange	Over
	#	s	V	A	V	W	V	V	deg C	#	bits
	0	0.013333	6.12880E-001	5.99385E-003	0.00000E+000	3.67351E-003	3.59960E-001	-1.10141E+000	3.57670E+000	10	...........
	1	0.026667	6.21487E-001	5.99190E-003	0.00000E+000	3.72389E-003	3.59960E-001	-1.10763E+000	3.57670E+000	10	...........
	2	0.04	6.29332E-001	5.99306E-003	0.00000E+000	3.77163E-003	3.59960E-001	-1.09851E+000	3.57670E+000	10	...........
	3	0.053333	6.36778E-001	5.99087E-003	0.00000E+000	3.81486E-003	3.59960E-001	-1.10180E+000	3.57670E+000	10	...........
	4	0.066667	6.44020E-001	5.99811E-003	0.00000E+000	3.86290E-003	3.59960E-001	-1.10794E+000	3.57670E+000	10	...........
	5	0.08	6.51020E-001	5.99487E-003	0.00000E+000	3.90278E-003	3.59960E-001	-1.09883E+000	3.57670E+000	10	...........
	6	0.093333	6.57883E-001	5.99731E-003	0.00000E+000	3.94552E-003	3.59960E-001	-1.10190E+000	3.57670E+000	10	...........
	7	0.106667	6.64625E-001	5.99528E-003	0.00000E+000	3.98461E-003	3.59960E-001	-1.10802E+000	3.57670E+000	10	...........
	8	0.12	6.71309E-001	5.99358E-003	0.00000E+000	4.02354E-003	3.59960E-001	-1.09879E+000	3.57670E+000	10	...........
	9	0.133333	6.77840E-001	5.99043E-003	0.00000E+000	4.06055E-003	3.59960E-001	-1.10186E+000	3.57670E+000	10	...........
	10	0.146667	6.84375E-001	5.99205E-003	0.00000E+000	4.10081E-003	3.59960E-001	-1.10766E+000	3.57670E+000	10	...........
	11	0.16	6.90867E-001	5.99506E-003	0.00000E+000	4.14179E-003	3.59960E-001	-1.09865E+000	3.57690E+000	10	...........
	12	0.173333	6.97317E-001	5.99110E-003	0.00000E+000	4.17770E-003	3.59960E-001	-1.10153E+000	3.57690E+000	10	...........
	13	0.186667	7.03762E-001	5.99515E-003	0.00000E+000	4.21916E-003	3.59960E-001	-1.10774E+000	3.57690E+000	10	...........
	14	0.2	7.10144E-001	5.99629E-003	0.00000E+000	4.25823E-003	3.59960E-001	-1.09854E+000	3.57690E+000	10	...........
	15	0.213333	7.16478E-001	5.99344E-003	0.00000E+000	4.29417E-003	3.59960E-001	-1.10136E+000	3.57690E+000	10	...........
	16	0.226667	7.22813E-001	5.99713E-003	0.00000E+000	4.33480E-003	3.59960E-001	-1.10792E+000	3.57690E+000	10	...........
	17	0.24	7.29128E-001	5.99182E-003	0.00000E+000	4.36880E-003	3.59960E-001	-1.09854E+000	3.57690E+000	10	...........
	18	0.253333	7.35405E-001	5.99244E-003	0.00000E+000	4.40687E-003	3.59960E-001	-1.10141E+000	3.57690E+000	10	...........
	19	0.266667	7.41673E-001	5.99449E-003	0.00000E+000	4.44595E-003	3.59960E-001	-1.10801E+000	3.57690E+000	10	...........
	20	0.28	7.47941E-001	5.99448E-003	0.00000E+000	4.48352E-003	3.59960E-001	-1.09876E+000	3.57690E+000	10	...........
	21	0.293333	7.54202E-001	5.99656E-003	0.00000E+000	4.52261E-003	3.59960E-001	-1.10161E+000	3.57690E+000	10	...........
	22	0.306667	7.60482E-001	5.99627E-003	0.00000E+000	4.56006E-003	3.59960E-001	-1.10782E+000	3.57690E+000	10	...........
	23	0.32	7.66705E-001	5.99331E-003	0.00000E+000	4.59510E-003	3.59960E-001	-1.09860E+000	3.57690E+000	10	...........
	24	0.333333	7.72943E-001	5.99200E-003	0.00000E+000	4.63147E-003	3.59960E-001	-1.10128E+000	3.57690E+000	10	...........
	25	0.346667	7.79176E-001	5.99261E-003	0.00000E+000	4.66930E-003	3.59960E-001	-1.10804E+000	3.57690E+000	10	...........
	26	0.36	7.85352E-001	5.99344E-003	0.00000E+000	4.70696E-003	3.59960E-001	-1.09883E+000	3.57690E+000	10	...........
	27	0.373333	7.91581E-001	5.99012E-003	0.00000E+000	4.74166E-003	3.59960E-001	-1.10145E+000	3.57690E+000	10	...........
	28	0.386667	7.97784E-001	5.99455E-003	0.00000E+000	4.78236E-003	3.59960E-001	-1.10799E+000	3.57690E+000	10	...........
	29	0.4	8.03969E-001	5.99138E-003	0.00000E+000	4.81689E-003	3.59960E-001	-1.09876E+000	3.57690E+000	10	...........
	30	0.413333	8.10110E-001	5.99640E-003	0.00000E+000	4.85774E-003	3.59960E-001	-1.10128E+000	3.57690E+000	10	...........
	31	0.426667	8.16269E-001	5.99498E-003	0.00000E+000	4.89351E-003	3.59960E-001	-1.10823E+000	3.57690E+000	10	...........
	32	0.44	8.22456E-001	5.99520E-003	0.00000E+000	4.93079E-003	3.59960E-001	-1.09871E+000	3.57690E+000	10	...........
	33	0.453333	8.28604E-001	5.99881E-003	0.00000E+000	4.97064E-003	3.59960E-001	-1.10112E+000	3.57690E+000	10	...........
	34	0.466667	8.34733E-001	5.99384E-003	0.00000E+000	5.00326E-003	3.59960E-001	-1.10762E+000	3.57690E+000	10	...........
	35	0.48	8.40818E-001	5.99231E-003	0.00000E+000	5.03844E-003	3.59960E-001	-1.09842E+000	3.57690E+000	10	...........
	36	0.493333	8.46971E-001	5.99683E-003	0.00000E+000	5.07914E-003	3.59960E-001	-1.10084E+000	3.57690E+000	10	...........
	37	0.506667	8.53031E-001	5.99605E-003	0.00000E+000	5.11482E-003	3.59960E-001	-1.10770E+000	3.57690E+000	10	...........
	38	0.52	8.59104E-001	5.99440E-003	0.00000E+000	5.14981E-003	3.59960E-001	-1.09818E+000	3.57690E+000	10	...........
	39	0.533333	8.65182E-001	5.99423E-003	0.00000E+000	5.18610E-003	3.59960E-001	-1.10065E+000	3.57690E+000	10	...........
	40	0.546667	8.71248E-001	5.99508E-003	0.00000E+000	5.22320E-003	3.59960E-001	-1.10761E+000	3.57690E+000	10	...........
	41	0.56	8.77299E-001	5.99941E-003	0.00000E+000	5.26328E-003	3.59960E-001	-1.09835E+000	3.57690E+000	10	...........
	42	0.573333	8.83322E-001	5.99756E-003	0.00000E+000	5.29777E-003	3.59960E-001	-1.10064E+000	3.57690E+000	10	...........
	43	0.586667	8.89339E-001	5.99593E-003	0.00000E+000	5.33242E-003	3.59960E-001	-1.10704E+000	3.57690E+000	10	...........
	44	0.6	8.95334E-001	5.99007E-003	0.00000E+000	5.36311E-003	3.59960E-001	-1.09774E+000	3.57690E+000	10	...........
	45	0.613333	9.01295E-001	5.99634E-003	0.00000E+000	5.40447E-003	3.59960E-001	-1.10004E+000	3.57690E+000	10	...........
	46	0.626667	9.07211E-001	5.99476E-003	0.00000E+000	5.43851E-003	3.59960E-001	-1.10702E+000	3.57690E+000	10	...........
	47	0.64	9.13123E-001	5.99541E-003	0.00000E+000	5.47455E-003	3.59960E-001	-1.09738E+000	3.57690E+000	10	...........
	48	0.653333	9.18998E-001	5.99259E-003	0.00000E+000	5.50718E-003	3.59960E-001	-1.09959E+000	3.57690E+000	10	...........
	49	0.666667	9.24909E-001	5.98980E-003	0.00000E+000	5.54001E-003	3.59960E-001	-1.10678E+000	3.57690E+000	10	...........
	50	0.68	9.30747E-001	5.99521E-003	0.00000E+000	5.58002E-003	3.59960E-001	-1.09727E+000	3.57690E+000	10	...........
	51	0.693333	9.36526E-001	5.99181E-003	0.00000E+000	5.61148E-003	3.59960E-001	-1.09947E+000	3.57690E+000	10	...........
	52	0.706667	9.42298E-001	5.98926E-003	0.00000E+000	5.64367E-003	3.59960E-001	-1.10646E+000	3.57690E+000	10	...........
	53	0.72	9.48064E-001	5.99107E-003	0.00000E+000	5.67991E-003	3.59960E-001	-1.09675E+000	3.57690E+000	10	...........
	54	0.733333	9.53783E-001	5.99525E-003	0.00000E+000	5.71817E-003	3.59960E-001	-1.09905E+000	3.57690E+000	10	...........
	55	0.746667	9.59424E-001	5.99571E-003	0.00000E+000	5.75243E-003	3.59960E-001	-1.10615E+000	3.57690E+000	10	...........
	56	0.76	9.65052E-001	5.99123E-003	0.00000E+000	5.78185E-003	3.59960E-001	-1.09666E+000	3.57690E+000	10	...........
	57	0.773333	9.70714E-001	5.99375E-003	0.00000E+000	5.81822E-003	3.59960E-001	-1.09845E+000	3.57690E+000	10	...........
	58	0.786667	9.76309E-001	5.99289E-003	0.00000E+000	5.85092E-003	3.59960E-001	-1.10523E+000	3.57690E+000	10	...........
	59	0.8	9.81818E-001	5.99439E-003	0.00000E+000	5.88540E-003	3.59960E-001	-1.09589E+000	3.57690E+000	10	...........
	60	0.813333	9.87322E-001	5.99226E-003	0.00000E+000	5.91629E-003	3.59960E-001	-1.09786E+000	3.57690E+000	10	...........
	61	0.826667	9.92743E-001	5.98982E-003	0.00000E+000	5.94635E-003	3.59960E-001	-1.10522E+000	3.57690E+000	10	...........
	62	0.84	9.98180E-001	5.99399E-003	0.00000E+000	5.98308E-003	3.59960E-001	-1.09580E+000	3.57690E+000	10	...........
STARTTIMEOFFSET	QUANT	486.4317	Start Time Offset (s)