File: Data/CV_CRGO300517_1/PWRCCD_CRGO300517_1/CHARGE_DISCHARGE/CHARGE_#425.DTA
EXPLAIN
TAG	PWR800_CHARGE
TITLE	LABEL	PWR Cyclic Charge Discharge (Cell) - Charge Step	Test &Identifier
DATE	LABEL	22-6-2017	Date
TIME	LABEL	15:52:57	Time
NOTES	NOTES	3	&Notes...
	supercap test cell
	0.6mg
	6M KOH
PSTAT	PSTAT	IFC5000-01520	Potentiostat
CAPACITY	QUANT	1.00000E-003	Capacity (A-hr)
CELLTYPE	SELECTOR	1	&Cell Type
WORKINGCONNECTION	SELECTOR	0	&Working Lead
MAXCHARGETIME	VARIABLEANDUNITS	1.00000E+002	s	1.00000E+002	second(s)	Max &Charge Time
CHARGECURRENT	QUANT	6.00000E-003	&Charge Current (A)
VOLTAGEFINISH	TWOPARAM	F	1.00000E-003	3.60000E+003	&Voltage Finish	 I (A) < 	Max Time(s)
SAMPLETIME	QUANT	1.00000E-002	Sa&mple Period (s)
CHARGESTOPAT1	MULTIPARAM	4	1.00000E+000	Charge Stop At &1	Voltage > Limit	V
CHARGESTOPAT2	MULTIPARAM	0	0.00000E+000	Charge Stop At &2	None	N/A
AESBHCSELECTOR	TOGGLE	F	Save Both Half Cells
IRCOMP	TOGGLE	F	IR &Measure
EOC	QUANT	0	Open Circuit (V)
SEQUENCER	TOGGLE	TRUE	Run as Sequence
PSTATMODEL	IQUANT	53	Pstat Model
PSTATSECTION	LABEL	IFC5000-01520	Pstat Section
PSTATSERIALNO	LABEL	01520	Pstat Serial Number
CTRLMODE	IQUANT	0	Control Mode
ELECTROMETER	IQUANT	1	RE=0 or CS=1
IESTAB	IQUANT	0	I/E Stability
CASPEED	IQUANT	4	Control Amp Speed
CONVENTION	IQUANT	1	Current Convention
ICHRANGE	IQUANT	2	Ich Range
ICHRANGEMODE	TOGGLE	T	Ich Auto Range
ICHOFFSETENABLE	TOGGLE	F	Ich Offset Enable
ICHOFFSET	QUANT	0	Ich Offset (V)
ICHFILTER	IQUANT	1	Ich Filter
VCHRANGE	IQUANT	2	Vch Range
VCHRANGEMODE	TOGGLE	T	Vch Auto Range
VCHOFFSETENABLE	TOGGLE	F	Vch Offset Enable
VCHOFFSET	QUANT	0	Vch Offset (V)
VCHFILTER	IQUANT	1	Vch Filter
IERANGELOWERLIMIT	IQUANT	9	I/E Range Lower Limit
IERANGEMODE	TOGGLE	F	I/E AutoRange
IERANGE	IQUANT	10	I/E Range
ACHSELECT	IQUANT	1	Ach Select
ACHRANGE	IQUANT	2	Ach Range
ACHOFFSETENABLE	TOGGLE	F	Ach Offset Enable
ACHOFFSET	QUANT	0	Ach Offset (V)
ACHFILTER	IQUANT	1	Ach Filter
CABLEID	IQUANT	14	Cable ID
DCCALDATE	LABEL	20-10-2016	DC Calibration Date
ACCALDATE	LABEL	12/3/2015	AC Calibration Date
FRAMEWORKVERSION	QUANT	7.01	Framework Version
INSTRUMENTVERSION	LABEL	4.00	Instrument Version
CURVE	TABLE	60
	Pt	T	Vf	Im	Vu	Pwr	Sig	Ach	Temp	IERange	Over
	#	s	V	A	V	W	V	V	deg C	#	bits
	0	0.013333	6.26468E-001	5.99186E-003	0.00000E+000	3.75371E-003	3.59960E-001	-1.13638E+000	3.57700E+000	10	...........
	1	0.026667	6.35265E-001	5.99426E-003	0.00000E+000	3.80795E-003	3.59960E-001	-1.14177E+000	3.57700E+000	10	...........
	2	0.04	6.43381E-001	5.99142E-003	0.00000E+000	3.85477E-003	3.59960E-001	-1.13247E+000	3.57700E+000	10	...........
	3	0.053333	6.51041E-001	5.99750E-003	0.00000E+000	3.90462E-003	3.59960E-001	-1.13643E+000	3.57700E+000	10	...........
	4	0.066667	6.58400E-001	5.99501E-003	0.00000E+000	3.94712E-003	3.59960E-001	-1.14162E+000	3.57700E+000	10	...........
	5	0.08	6.65583E-001	5.99307E-003	0.00000E+000	3.98889E-003	3.59960E-001	-1.13225E+000	3.57700E+000	10	...........
	6	0.093333	6.72673E-001	5.99453E-003	0.00000E+000	4.03236E-003	3.59960E-001	-1.13587E+000	3.57700E+000	10	...........
	7	0.106667	6.79614E-001	5.99605E-003	0.00000E+000	4.07500E-003	3.59960E-001	-1.14114E+000	3.57700E+000	10	...........
	8	0.12	6.86461E-001	5.99407E-003	0.00000E+000	4.11469E-003	3.59960E-001	-1.13197E+000	3.57700E+000	10	...........
	9	0.133333	6.93259E-001	5.99621E-003	0.00000E+000	4.15693E-003	3.59960E-001	-1.13622E+000	3.57700E+000	10	...........
	10	0.146667	6.99974E-001	5.99739E-003	0.00000E+000	4.19802E-003	3.59960E-001	-1.14111E+000	3.57700E+000	10	...........
	11	0.16	7.06614E-001	5.99231E-003	0.00000E+000	4.23425E-003	3.59960E-001	-1.13194E+000	3.57700E+000	10	...........
	12	0.173333	7.13213E-001	5.99540E-003	0.00000E+000	4.27600E-003	3.59960E-001	-1.13601E+000	3.57700E+000	10	...........
	13	0.186667	7.19904E-001	5.99127E-003	0.00000E+000	4.31314E-003	3.59960E-001	-1.14108E+000	3.57700E+000	10	...........
	14	0.2	7.26448E-001	5.99350E-003	0.00000E+000	4.35397E-003	3.59960E-001	-1.13184E+000	3.57700E+000	10	...........
	15	0.213333	7.32971E-001	5.99172E-003	0.00000E+000	4.39176E-003	3.59960E-001	-1.13581E+000	3.57700E+000	10	...........
	16	0.226667	7.39491E-001	5.99448E-003	0.00000E+000	4.43287E-003	3.59960E-001	-1.14064E+000	3.57700E+000	10	...........
	17	0.24	7.46009E-001	5.99341E-003	0.00000E+000	4.47113E-003	3.59960E-001	-1.13170E+000	3.57700E+000	10	...........
	18	0.253333	7.52467E-001	5.99317E-003	0.00000E+000	4.50966E-003	3.59960E-001	-1.13608E+000	3.57700E+000	10	...........
	19	0.266667	7.58909E-001	5.99401E-003	0.00000E+000	4.54891E-003	3.59960E-001	-1.14067E+000	3.57678E+000	10	...........
	20	0.28	7.65336E-001	5.99017E-003	0.00000E+000	4.58449E-003	3.59960E-001	-1.13187E+000	3.57670E+000	10	...........
	21	0.293333	7.71800E-001	5.99564E-003	0.00000E+000	4.62743E-003	3.59960E-001	-1.13608E+000	3.57670E+000	10	...........
	22	0.306667	7.78232E-001	5.99587E-003	0.00000E+000	4.66618E-003	3.59960E-001	-1.14070E+000	3.57670E+000	10	...........
	23	0.32	7.84622E-001	5.98933E-003	0.00000E+000	4.69936E-003	3.59960E-001	-1.13191E+000	3.57670E+000	10	...........
	24	0.333333	7.91032E-001	5.99419E-003	0.00000E+000	4.74159E-003	3.59960E-001	-1.13631E+000	3.57670E+000	10	...........
	25	0.346667	7.97429E-001	5.99751E-003	0.00000E+000	4.78259E-003	3.59960E-001	-1.14045E+000	3.57670E+000	10	...........
	26	0.36	8.03740E-001	5.99381E-003	0.00000E+000	4.81747E-003	3.59960E-001	-1.13157E+000	3.57670E+000	10	...........
	27	0.373333	8.10061E-001	5.99601E-003	0.00000E+000	4.85714E-003	3.59960E-001	-1.13623E+000	3.57670E+000	10	...........
	28	0.386667	8.16426E-001	5.99383E-003	0.00000E+000	4.89352E-003	3.59960E-001	-1.14036E+000	3.57670E+000	10	...........
	29	0.4	8.22751E-001	5.99485E-003	0.00000E+000	4.93226E-003	3.59960E-001	-1.13160E+000	3.57670E+000	10	...........
	30	0.413333	8.29021E-001	5.99465E-003	0.00000E+000	4.96969E-003	3.59960E-001	-1.13583E+000	3.57670E+000	10	...........
	31	0.426667	8.35338E-001	5.99432E-003	0.00000E+000	5.00729E-003	3.59960E-001	-1.13978E+000	3.57670E+000	10	...........
	32	0.44	8.41589E-001	5.99654E-003	0.00000E+000	5.04663E-003	3.59960E-001	-1.13129E+000	3.57670E+000	10	...........
	33	0.453333	8.47894E-001	5.99129E-003	0.00000E+000	5.07998E-003	3.59960E-001	-1.13602E+000	3.57670E+000	10	...........
	34	0.466667	8.54054E-001	5.99329E-003	0.00000E+000	5.11859E-003	3.59960E-001	-1.13982E+000	3.57670E+000	10	...........
	35	0.48	8.60327E-001	5.99054E-003	0.00000E+000	5.15382E-003	3.59960E-001	-1.13109E+000	3.57670E+000	10	...........
	36	0.493333	8.66532E-001	5.99040E-003	0.00000E+000	5.19088E-003	3.59960E-001	-1.13579E+000	3.57670E+000	10	...........
	37	0.506667	8.72734E-001	5.99502E-003	0.00000E+000	5.23206E-003	3.59960E-001	-1.13950E+000	3.57670E+000	10	...........
	38	0.52	8.78909E-001	5.99064E-003	0.00000E+000	5.26523E-003	3.59960E-001	-1.13094E+000	3.57670E+000	10	...........
	39	0.533333	8.85044E-001	5.99223E-003	0.00000E+000	5.30338E-003	3.59960E-001	-1.13615E+000	3.57670E+000	10	...........
	40	0.546667	8.91171E-001	5.98953E-003	0.00000E+000	5.33769E-003	3.59960E-001	-1.13949E+000	3.57670E+000	10	...........
	41	0.56	8.97289E-001	5.99781E-003	0.00000E+000	5.38176E-003	3.59960E-001	-1.13085E+000	3.57670E+000	10	...........
	42	0.573333	9.03354E-001	5.99361E-003	0.00000E+000	5.41436E-003	3.59960E-001	-1.13598E+000	3.57670E+000	10	...........
	43	0.586667	9.09398E-001	5.99101E-003	0.00000E+000	5.44821E-003	3.59960E-001	-1.13930E+000	3.57670E+000	10	...........
	44	0.6	9.15374E-001	5.99174E-003	0.00000E+000	5.48468E-003	3.59960E-001	-1.13094E+000	3.57670E+000	10	...........
	45	0.613333	9.21386E-001	5.99074E-003	0.00000E+000	5.51978E-003	3.59960E-001	-1.13608E+000	3.57670E+000	10	...........
	46	0.626667	9.27358E-001	5.99440E-003	0.00000E+000	5.55895E-003	3.59960E-001	-1.13912E+000	3.57670E+000	10	...........
	47	0.64	9.33277E-001	5.99413E-003	0.00000E+000	5.59418E-003	3.59960E-001	-1.13082E+000	3.57670E+000	10	...........
	48	0.653333	9.39143E-001	5.99715E-003	0.00000E+000	5.63218E-003	3.59960E-001	-1.13627E+000	3.57670E+000	10	...........
	49	0.666667	9.45021E-001	5.99595E-003	0.00000E+000	5.66630E-003	3.59960E-001	-1.13911E+000	3.57670E+000	10	...........
	50	0.68	9.50863E-001	5.99562E-003	0.00000E+000	5.70101E-003	3.59960E-001	-1.13089E+000	3.57670E+000	10	...........
	51	0.693333	9.56639E-001	5.99549E-003	0.00000E+000	5.73552E-003	3.59960E-001	-1.13607E+000	3.57670E+000	10	...........
	52	0.706667	9.62366E-001	5.99802E-003	0.00000E+000	5.77229E-003	3.59960E-001	-1.13893E+000	3.57670E+000	10	...........
	53	0.72	9.68070E-001	5.99324E-003	0.00000E+000	5.80187E-003	3.59960E-001	-1.13069E+000	3.57670E+000	10	...........
	54	0.733333	9.73707E-001	5.99089E-003	0.00000E+000	5.83337E-003	3.59960E-001	-1.13592E+000	3.57670E+000	10	...........
	55	0.746667	9.79329E-001	5.99418E-003	0.00000E+000	5.87027E-003	3.59960E-001	-1.13842E+000	3.57670E+000	10	...........
	56	0.76	9.84877E-001	5.99706E-003	0.00000E+000	5.90636E-003	3.59960E-001	-1.13027E+000	3.57670E+000	10	...........
	57	0.773333	9.90405E-001	5.99582E-003	0.00000E+000	5.93829E-003	3.59960E-001	-1.13592E+000	3.57670E+000	10	...........
	58	0.786667	9.95874E-001	5.99596E-003	0.00000E+000	5.97122E-003	3.59960E-001	-1.13829E+000	3.57670E+000	10	...........
	59	0.791667	9.99620E-001	5.99490E-003	0.00000E+000	5.99263E-003	3.59960E-001	-1.13160E+000	3.57670E+000	10	...........
STARTTIMEOFFSET	QUANT	742.2117	Start Time Offset (s)