File: Data/CV_CRGO300517_1/PWRCCD_CRGO300517_1/CHARGE_DISCHARGE/CHARGE_#948.DTA
EXPLAIN
TAG	PWR800_CHARGE
TITLE	LABEL	PWR Cyclic Charge Discharge (Cell) - Charge Step	Test &Identifier
DATE	LABEL	22-6-2017	Date
TIME	LABEL	16:12:45	Time
NOTES	NOTES	3	&Notes...
	supercap test cell
	0.6mg
	6M KOH
PSTAT	PSTAT	IFC5000-01520	Potentiostat
CAPACITY	QUANT	1.00000E-003	Capacity (A-hr)
CELLTYPE	SELECTOR	1	&Cell Type
WORKINGCONNECTION	SELECTOR	0	&Working Lead
MAXCHARGETIME	VARIABLEANDUNITS	1.00000E+002	s	1.00000E+002	second(s)	Max &Charge Time
CHARGECURRENT	QUANT	6.00000E-003	&Charge Current (A)
VOLTAGEFINISH	TWOPARAM	F	1.00000E-003	3.60000E+003	&Voltage Finish	 I (A) < 	Max Time(s)
SAMPLETIME	QUANT	1.00000E-002	Sa&mple Period (s)
CHARGESTOPAT1	MULTIPARAM	4	1.00000E+000	Charge Stop At &1	Voltage > Limit	V
CHARGESTOPAT2	MULTIPARAM	0	0.00000E+000	Charge Stop At &2	None	N/A
AESBHCSELECTOR	TOGGLE	F	Save Both Half Cells
IRCOMP	TOGGLE	F	IR &Measure
EOC	QUANT	0	Open Circuit (V)
SEQUENCER	TOGGLE	TRUE	Run as Sequence
PSTATMODEL	IQUANT	53	Pstat Model
PSTATSECTION	LABEL	IFC5000-01520	Pstat Section
PSTATSERIALNO	LABEL	01520	Pstat Serial Number
CTRLMODE	IQUANT	0	Control Mode
ELECTROMETER	IQUANT	1	RE=0 or CS=1
IESTAB	IQUANT	0	I/E Stability
CASPEED	IQUANT	4	Control Amp Speed
CONVENTION	IQUANT	1	Current Convention
ICHRANGE	IQUANT	2	Ich Range
ICHRANGEMODE	TOGGLE	T	Ich Auto Range
ICHOFFSETENABLE	TOGGLE	F	Ich Offset Enable
ICHOFFSET	QUANT	0	Ich Offset (V)
ICHFILTER	IQUANT	1	Ich Filter
VCHRANGE	IQUANT	2	Vch Range
VCHRANGEMODE	TOGGLE	T	Vch Auto Range
VCHOFFSETENABLE	TOGGLE	F	Vch Offset Enable
VCHOFFSET	QUANT	0	Vch Offset (V)
VCHFILTER	IQUANT	1	Vch Filter
IERANGELOWERLIMIT	IQUANT	9	I/E Range Lower Limit
IERANGEMODE	TOGGLE	F	I/E AutoRange
IERANGE	IQUANT	10	I/E Range
ACHSELECT	IQUANT	1	Ach Select
ACHRANGE	IQUANT	2	Ach Range
ACHOFFSETENABLE	TOGGLE	F	Ach Offset Enable
ACHOFFSET	QUANT	0	Ach Offset (V)
ACHFILTER	IQUANT	1	Ach Filter
CABLEID	IQUANT	14	Cable ID
DCCALDATE	LABEL	20-10-2016	DC Calibration Date
ACCALDATE	LABEL	12/3/2015	AC Calibration Date
FRAMEWORKVERSION	QUANT	7.01	Framework Version
INSTRUMENTVERSION	LABEL	4.00	Instrument Version
CURVE	TABLE	53
	Pt	T	Vf	Im	Vu	Pwr	Sig	Ach	Temp	IERange	Over
	#	s	V	A	V	W	V	V	deg C	#	bits
	0	0.013333	6.55091E-001	5.99434E-003	0.00000E+000	3.92684E-003	3.59960E-001	-1.17710E+000	3.57670E+000	10	...........
	1	0.026667	6.64405E-001	5.99187E-003	0.00000E+000	3.98103E-003	3.59960E-001	-1.17944E+000	3.57670E+000	10	...........
	2	0.04	6.72983E-001	5.99479E-003	0.00000E+000	4.03439E-003	3.59960E-001	-1.17105E+000	3.57670E+000	10	...........
	3	0.053333	6.81109E-001	5.99353E-003	0.00000E+000	4.08225E-003	3.59960E-001	-1.17681E+000	3.57670E+000	10	...........
	4	0.066667	6.88948E-001	5.99348E-003	0.00000E+000	4.12919E-003	3.59960E-001	-1.17937E+000	3.57670E+000	10	...........
	5	0.08	6.96546E-001	5.99276E-003	0.00000E+000	4.17423E-003	3.59960E-001	-1.17121E+000	3.57670E+000	10	...........
	6	0.093333	7.04021E-001	5.99257E-003	0.00000E+000	4.21889E-003	3.59960E-001	-1.17683E+000	3.57673E+000	10	...........
	7	0.106667	7.11350E-001	5.99001E-003	0.00000E+000	4.26099E-003	3.59960E-001	-1.17925E+000	3.57690E+000	10	...........
	8	0.12	7.18644E-001	5.98813E-003	0.00000E+000	4.30333E-003	3.59960E-001	-1.17095E+000	3.57690E+000	10	...........
	9	0.133333	7.25850E-001	5.99416E-003	0.00000E+000	4.35086E-003	3.59960E-001	-1.17654E+000	3.57690E+000	10	...........
	10	0.146667	7.32915E-001	5.99365E-003	0.00000E+000	4.39283E-003	3.59960E-001	-1.17959E+000	3.57690E+000	10	...........
	11	0.16	7.39989E-001	5.99349E-003	0.00000E+000	4.43512E-003	3.59960E-001	-1.17131E+000	3.57690E+000	10	...........
	12	0.173333	7.47075E-001	5.99434E-003	0.00000E+000	4.47823E-003	3.59960E-001	-1.17653E+000	3.57690E+000	10	...........
	13	0.186667	7.54033E-001	5.99040E-003	0.00000E+000	4.51696E-003	3.59960E-001	-1.17948E+000	3.57690E+000	10	...........
	14	0.2	7.60957E-001	5.99014E-003	0.00000E+000	4.55824E-003	3.59960E-001	-1.17103E+000	3.57690E+000	10	...........
	15	0.213333	7.67863E-001	5.99463E-003	0.00000E+000	4.60305E-003	3.59960E-001	-1.17655E+000	3.57690E+000	10	...........
	16	0.226667	7.74721E-001	5.99214E-003	0.00000E+000	4.64224E-003	3.59960E-001	-1.17958E+000	3.57690E+000	10	...........
	17	0.24	7.81551E-001	5.99223E-003	0.00000E+000	4.68323E-003	3.59960E-001	-1.17083E+000	3.57690E+000	10	...........
	18	0.253333	7.88391E-001	5.99684E-003	0.00000E+000	4.72785E-003	3.59960E-001	-1.17580E+000	3.57690E+000	10	...........
	19	0.266667	7.95197E-001	6.00154E-003	0.00000E+000	4.77241E-003	3.59960E-001	-1.17911E+000	3.57690E+000	10	...........
	20	0.28	8.01944E-001	5.99220E-003	0.00000E+000	4.80541E-003	3.59960E-001	-1.17069E+000	3.57690E+000	10	...........
	21	0.293333	8.08647E-001	5.99266E-003	0.00000E+000	4.84595E-003	3.59960E-001	-1.17582E+000	3.57690E+000	10	...........
	22	0.306667	8.15386E-001	5.99266E-003	0.00000E+000	4.88633E-003	3.59960E-001	-1.17920E+000	3.57690E+000	10	...........
	23	0.32	8.22047E-001	5.99415E-003	0.00000E+000	4.92747E-003	3.59960E-001	-1.17057E+000	3.57690E+000	10	...........
	24	0.333333	8.28716E-001	5.99143E-003	0.00000E+000	4.96520E-003	3.59960E-001	-1.17566E+000	3.57690E+000	10	...........
	25	0.346667	8.35302E-001	5.99376E-003	0.00000E+000	5.00660E-003	3.59960E-001	-1.17936E+000	3.57690E+000	10	...........
	26	0.36	8.41918E-001	5.99668E-003	0.00000E+000	5.04871E-003	3.59960E-001	-1.17074E+000	3.57690E+000	10	...........
	27	0.373333	8.48489E-001	5.99143E-003	0.00000E+000	5.08367E-003	3.59960E-001	-1.17562E+000	3.57690E+000	10	...........
	28	0.386667	8.55065E-001	5.99380E-003	0.00000E+000	5.12509E-003	3.59960E-001	-1.17911E+000	3.57690E+000	10	...........
	29	0.4	8.61569E-001	5.99517E-003	0.00000E+000	5.16525E-003	3.59960E-001	-1.17072E+000	3.57690E+000	10	...........
	30	0.413333	8.68093E-001	5.98891E-003	0.00000E+000	5.19893E-003	3.59960E-001	-1.17550E+000	3.57690E+000	10	...........
	31	0.426667	8.74618E-001	5.99412E-003	0.00000E+000	5.24256E-003	3.59960E-001	-1.17941E+000	3.57690E+000	10	...........
	32	0.44	8.81045E-001	5.99517E-003	0.00000E+000	5.28201E-003	3.59960E-001	-1.17049E+000	3.57690E+000	10	...........
	33	0.453333	8.87447E-001	5.99850E-003	0.00000E+000	5.32335E-003	3.59960E-001	-1.17533E+000	3.57690E+000	10	...........
	34	0.466667	8.93797E-001	5.99071E-003	0.00000E+000	5.35448E-003	3.59960E-001	-1.17935E+000	3.57690E+000	10	...........
	35	0.48	9.00132E-001	5.99378E-003	0.00000E+000	5.39519E-003	3.59960E-001	-1.17077E+000	3.57690E+000	10	...........
	36	0.493333	9.06398E-001	5.99286E-003	0.00000E+000	5.43192E-003	3.59960E-001	-1.17538E+000	3.57690E+000	10	...........
	37	0.506667	9.12674E-001	5.99686E-003	0.00000E+000	5.47318E-003	3.59960E-001	-1.17962E+000	3.57690E+000	10	...........
	38	0.52	9.18925E-001	5.99448E-003	0.00000E+000	5.50848E-003	3.59960E-001	-1.17062E+000	3.57690E+000	10	...........
	39	0.533333	9.25153E-001	5.99193E-003	0.00000E+000	5.54345E-003	3.59960E-001	-1.17530E+000	3.57690E+000	10	...........
	40	0.546667	9.31260E-001	5.99184E-003	0.00000E+000	5.57996E-003	3.59960E-001	-1.17978E+000	3.57690E+000	10	...........
	41	0.56	9.37280E-001	5.99394E-003	0.00000E+000	5.61799E-003	3.59960E-001	-1.17084E+000	3.57690E+000	10	...........
	42	0.573333	9.43309E-001	5.99129E-003	0.00000E+000	5.65164E-003	3.59960E-001	-1.17494E+000	3.57690E+000	10	...........
	43	0.586667	9.49313E-001	5.99165E-003	0.00000E+000	5.68795E-003	3.59960E-001	-1.17924E+000	3.57690E+000	10	...........
	44	0.6	9.55274E-001	5.99651E-003	0.00000E+000	5.72831E-003	3.59960E-001	-1.17017E+000	3.57690E+000	10	...........
	45	0.613333	9.61151E-001	5.99683E-003	0.00000E+000	5.76386E-003	3.59960E-001	-1.17485E+000	3.57690E+000	10	...........
	46	0.626667	9.66967E-001	5.99671E-003	0.00000E+000	5.79862E-003	3.59960E-001	-1.17939E+000	3.57690E+000	10	...........
	47	0.64	9.72766E-001	5.99001E-003	0.00000E+000	5.82688E-003	3.59960E-001	-1.17010E+000	3.57690E+000	10	...........
	48	0.653333	9.78536E-001	5.99452E-003	0.00000E+000	5.86586E-003	3.59960E-001	-1.17470E+000	3.57690E+000	10	...........
	49	0.666667	9.84226E-001	5.99141E-003	0.00000E+000	5.89690E-003	3.59960E-001	-1.17947E+000	3.57690E+000	10	...........
	50	0.68	9.89829E-001	5.99147E-003	0.00000E+000	5.93053E-003	3.59960E-001	-1.17011E+000	3.57690E+000	10	...........
	51	0.693333	9.95395E-001	5.99347E-003	0.00000E+000	5.96587E-003	3.59960E-001	-1.17460E+000	3.57690E+000	10	...........
	52	0.7	9.99539E-001	5.99285E-003	0.00000E+000	5.99009E-003	3.59960E-001	-1.17507E+000	3.57690E+000	10	...........
STARTTIMEOFFSET	QUANT	1513.185	Start Time Offset (s)