File: Data/CV_CRGO300517_1/PWRCCD_CRGO300517_1/CHARGE_DISCHARGE/CHARGE_#707.DTA
EXPLAIN
TAG	PWR800_CHARGE
TITLE	LABEL	PWR Cyclic Charge Discharge (Cell) - Charge Step	Test &Identifier
DATE	LABEL	22-6-2017	Date
TIME	LABEL	16:03:49	Time
NOTES	NOTES	3	&Notes...
	supercap test cell
	0.6mg
	6M KOH
PSTAT	PSTAT	IFC5000-01520	Potentiostat
CAPACITY	QUANT	1.00000E-003	Capacity (A-hr)
CELLTYPE	SELECTOR	1	&Cell Type
WORKINGCONNECTION	SELECTOR	0	&Working Lead
MAXCHARGETIME	VARIABLEANDUNITS	1.00000E+002	s	1.00000E+002	second(s)	Max &Charge Time
CHARGECURRENT	QUANT	6.00000E-003	&Charge Current (A)
VOLTAGEFINISH	TWOPARAM	F	1.00000E-003	3.60000E+003	&Voltage Finish	 I (A) < 	Max Time(s)
SAMPLETIME	QUANT	1.00000E-002	Sa&mple Period (s)
CHARGESTOPAT1	MULTIPARAM	4	1.00000E+000	Charge Stop At &1	Voltage > Limit	V
CHARGESTOPAT2	MULTIPARAM	0	0.00000E+000	Charge Stop At &2	None	N/A
AESBHCSELECTOR	TOGGLE	F	Save Both Half Cells
IRCOMP	TOGGLE	F	IR &Measure
EOC	QUANT	0	Open Circuit (V)
SEQUENCER	TOGGLE	TRUE	Run as Sequence
PSTATMODEL	IQUANT	53	Pstat Model
PSTATSECTION	LABEL	IFC5000-01520	Pstat Section
PSTATSERIALNO	LABEL	01520	Pstat Serial Number
CTRLMODE	IQUANT	0	Control Mode
ELECTROMETER	IQUANT	1	RE=0 or CS=1
IESTAB	IQUANT	0	I/E Stability
CASPEED	IQUANT	4	Control Amp Speed
CONVENTION	IQUANT	1	Current Convention
ICHRANGE	IQUANT	2	Ich Range
ICHRANGEMODE	TOGGLE	T	Ich Auto Range
ICHOFFSETENABLE	TOGGLE	F	Ich Offset Enable
ICHOFFSET	QUANT	0	Ich Offset (V)
ICHFILTER	IQUANT	1	Ich Filter
VCHRANGE	IQUANT	2	Vch Range
VCHRANGEMODE	TOGGLE	T	Vch Auto Range
VCHOFFSETENABLE	TOGGLE	F	Vch Offset Enable
VCHOFFSET	QUANT	0	Vch Offset (V)
VCHFILTER	IQUANT	1	Vch Filter
IERANGELOWERLIMIT	IQUANT	9	I/E Range Lower Limit
IERANGEMODE	TOGGLE	F	I/E AutoRange
IERANGE	IQUANT	10	I/E Range
ACHSELECT	IQUANT	1	Ach Select
ACHRANGE	IQUANT	2	Ach Range
ACHOFFSETENABLE	TOGGLE	F	Ach Offset Enable
ACHOFFSET	QUANT	0	Ach Offset (V)
ACHFILTER	IQUANT	1	Ach Filter
CABLEID	IQUANT	14	Cable ID
DCCALDATE	LABEL	20-10-2016	DC Calibration Date
ACCALDATE	LABEL	12/3/2015	AC Calibration Date
FRAMEWORKVERSION	QUANT	7.01	Framework Version
INSTRUMENTVERSION	LABEL	4.00	Instrument Version
CURVE	TABLE	56
	Pt	T	Vf	Im	Vu	Pwr	Sig	Ach	Temp	IERange	Over
	#	s	V	A	V	W	V	V	deg C	#	bits
	0	0.013333	6.43288E-001	5.99012E-003	0.00000E+000	3.85337E-003	3.59960E-001	-1.15307E+000	3.57780E+000	10	...........
	1	0.026667	6.52408E-001	5.99108E-003	0.00000E+000	3.90863E-003	3.59960E-001	-1.14738E+000	3.57780E+000	10	...........
	2	0.04	6.60752E-001	5.99565E-003	0.00000E+000	3.96164E-003	3.59960E-001	-1.15604E+000	3.57780E+000	10	...........
	3	0.053333	6.68721E-001	5.99354E-003	0.00000E+000	4.00801E-003	3.59960E-001	-1.15304E+000	3.57780E+000	10	...........
	4	0.066667	6.76373E-001	5.99326E-003	0.00000E+000	4.05368E-003	3.59960E-001	-1.14730E+000	3.57780E+000	10	...........
	5	0.08	6.83830E-001	5.99787E-003	0.00000E+000	4.10152E-003	3.59960E-001	-1.15608E+000	3.57780E+000	10	...........
	6	0.093333	6.91109E-001	5.99406E-003	0.00000E+000	4.14255E-003	3.59960E-001	-1.15285E+000	3.57780E+000	10	...........
	7	0.106667	6.98317E-001	5.99198E-003	0.00000E+000	4.18430E-003	3.59960E-001	-1.14707E+000	3.57780E+000	10	...........
	8	0.12	7.05434E-001	5.99598E-003	0.00000E+000	4.22977E-003	3.59960E-001	-1.15571E+000	3.57780E+000	10	...........
	9	0.133333	7.12438E-001	5.99086E-003	0.00000E+000	4.26811E-003	3.59960E-001	-1.15215E+000	3.57780E+000	10	...........
	10	0.146667	7.19409E-001	5.99483E-003	0.00000E+000	4.31274E-003	3.59960E-001	-1.14672E+000	3.57780E+000	10	...........
	11	0.16	7.26317E-001	5.99868E-003	0.00000E+000	4.35694E-003	3.59960E-001	-1.15598E+000	3.57780E+000	10	...........
	12	0.173333	7.33157E-001	5.99202E-003	0.00000E+000	4.39309E-003	3.59960E-001	-1.15218E+000	3.57780E+000	10	...........
	13	0.186667	7.39984E-001	5.99474E-003	0.00000E+000	4.43601E-003	3.59960E-001	-1.14656E+000	3.57780E+000	10	...........
	14	0.2	7.46770E-001	5.99463E-003	0.00000E+000	4.47661E-003	3.59960E-001	-1.15571E+000	3.57780E+000	10	...........
	15	0.213333	7.53563E-001	5.99198E-003	0.00000E+000	4.51533E-003	3.59960E-001	-1.15187E+000	3.57780E+000	10	...........
	16	0.226667	7.60295E-001	5.99090E-003	0.00000E+000	4.55486E-003	3.59960E-001	-1.14662E+000	3.57780E+000	10	...........
	17	0.24	7.67012E-001	5.99321E-003	0.00000E+000	4.59686E-003	3.59960E-001	-1.15589E+000	3.57780E+000	10	...........
	18	0.253333	7.73712E-001	5.99289E-003	0.00000E+000	4.63677E-003	3.59960E-001	-1.15160E+000	3.57780E+000	10	...........
	19	0.266667	7.80379E-001	5.99651E-003	0.00000E+000	4.67955E-003	3.59960E-001	-1.14623E+000	3.57780E+000	10	...........
	20	0.28	7.87019E-001	5.99406E-003	0.00000E+000	4.71744E-003	3.59960E-001	-1.15588E+000	3.57780E+000	10	...........
	21	0.293333	7.93695E-001	5.99476E-003	0.00000E+000	4.75801E-003	3.59960E-001	-1.15154E+000	3.57780E+000	10	...........
	22	0.306667	8.00323E-001	5.99199E-003	0.00000E+000	4.79552E-003	3.59960E-001	-1.14634E+000	3.57780E+000	10	...........
	23	0.32	8.06874E-001	5.99310E-003	0.00000E+000	4.83568E-003	3.59960E-001	-1.15573E+000	3.57780E+000	10	...........
	24	0.333333	8.13438E-001	5.99326E-003	0.00000E+000	4.87514E-003	3.59960E-001	-1.15132E+000	3.57780E+000	10	...........
	25	0.346667	8.19971E-001	5.98946E-003	0.00000E+000	4.91119E-003	3.59960E-001	-1.14629E+000	3.57780E+000	10	...........
	26	0.36	8.26462E-001	5.99283E-003	0.00000E+000	4.95285E-003	3.59960E-001	-1.15619E+000	3.57780E+000	10	...........
	27	0.373333	8.32971E-001	5.99478E-003	0.00000E+000	4.99348E-003	3.59960E-001	-1.15131E+000	3.57780E+000	10	...........
	28	0.386667	8.39428E-001	5.99429E-003	0.00000E+000	5.03178E-003	3.59960E-001	-1.14619E+000	3.57780E+000	10	...........
	29	0.4	8.45907E-001	5.99955E-003	0.00000E+000	5.07506E-003	3.59960E-001	-1.15612E+000	3.57780E+000	10	...........
	30	0.413333	8.52354E-001	5.99491E-003	0.00000E+000	5.10979E-003	3.59960E-001	-1.15125E+000	3.57780E+000	10	...........
	31	0.426667	8.58755E-001	5.99601E-003	0.00000E+000	5.14911E-003	3.59960E-001	-1.14630E+000	3.57780E+000	10	...........
	32	0.44	8.65133E-001	5.99349E-003	0.00000E+000	5.18516E-003	3.59960E-001	-1.15578E+000	3.57780E+000	10	...........
	33	0.453333	8.71513E-001	5.98985E-003	0.00000E+000	5.22023E-003	3.59960E-001	-1.15056E+000	3.57780E+000	10	...........
	34	0.466667	8.77871E-001	6.00044E-003	0.00000E+000	5.26761E-003	3.59960E-001	-1.14564E+000	3.57780E+000	10	...........
	35	0.48	8.84159E-001	5.99565E-003	0.00000E+000	5.30110E-003	3.59960E-001	-1.15597E+000	3.57780E+000	10	...........
	36	0.493333	8.90437E-001	5.99378E-003	0.00000E+000	5.33709E-003	3.59960E-001	-1.15064E+000	3.57780E+000	10	...........
	37	0.506667	8.96665E-001	5.99573E-003	0.00000E+000	5.37616E-003	3.59960E-001	-1.14564E+000	3.57780E+000	10	...........
	38	0.52	9.02842E-001	5.99448E-003	0.00000E+000	5.41207E-003	3.59960E-001	-1.15595E+000	3.57780E+000	10	...........
	39	0.533333	9.09058E-001	5.99667E-003	0.00000E+000	5.45132E-003	3.59960E-001	-1.15036E+000	3.57780E+000	10	...........
	40	0.546667	9.15163E-001	5.99391E-003	0.00000E+000	5.48540E-003	3.59960E-001	-1.14587E+000	3.57780E+000	10	...........
	41	0.56	9.21289E-001	5.99220E-003	0.00000E+000	5.52054E-003	3.59960E-001	-1.15589E+000	3.57780E+000	10	...........
	42	0.573333	9.27362E-001	5.99771E-003	0.00000E+000	5.56205E-003	3.59960E-001	-1.15037E+000	3.57780E+000	10	...........
	43	0.586667	9.33417E-001	5.99526E-003	0.00000E+000	5.59608E-003	3.59960E-001	-1.14571E+000	3.57780E+000	10	...........
	44	0.6	9.39427E-001	5.99497E-003	0.00000E+000	5.63183E-003	3.59960E-001	-1.15598E+000	3.57780E+000	10	...........
	45	0.613333	9.45410E-001	5.99776E-003	0.00000E+000	5.67034E-003	3.59960E-001	-1.15011E+000	3.57780E+000	10	...........
	46	0.626667	9.51343E-001	5.99730E-003	0.00000E+000	5.70549E-003	3.59960E-001	-1.14569E+000	3.57780E+000	10	...........
	47	0.64	9.57212E-001	5.99460E-003	0.00000E+000	5.73811E-003	3.59960E-001	-1.15609E+000	3.57780E+000	10	...........
	48	0.653333	9.63025E-001	5.99416E-003	0.00000E+000	5.77252E-003	3.59960E-001	-1.15025E+000	3.57780E+000	10	...........
	49	0.666667	9.68812E-001	5.99660E-003	0.00000E+000	5.80958E-003	3.59960E-001	-1.14575E+000	3.57780E+000	10	...........
	50	0.68	9.74526E-001	5.99543E-003	0.00000E+000	5.84270E-003	3.59960E-001	-1.15643E+000	3.57780E+000	10	...........
	51	0.693333	9.80230E-001	5.99443E-003	0.00000E+000	5.87592E-003	3.59960E-001	-1.15010E+000	3.57780E+000	10	...........
	52	0.706667	9.85852E-001	5.99280E-003	0.00000E+000	5.90802E-003	3.59960E-001	-1.14588E+000	3.57780E+000	10	...........
	53	0.72	9.91412E-001	5.99737E-003	0.00000E+000	5.94586E-003	3.59960E-001	-1.15642E+000	3.57780E+000	10	...........
	54	0.733333	9.96944E-001	5.99638E-003	0.00000E+000	5.97805E-003	3.59960E-001	-1.14984E+000	3.57780E+000	10	...........
	55	0.735	1.00000E+000	5.98937E-003	0.00000E+000	5.98939E-003	3.59960E-001	-1.15876E+000	3.57780E+000	10	...........
STARTTIMEOFFSET	QUANT	1169.486	Start Time Offset (s)