File: Data/CV_CRGO300517_1/PWRCCD_CRGO300517_1/CHARGE_DISCHARGE/CHARGE_#906.DTA
EXPLAIN
TAG	PWR800_CHARGE
TITLE	LABEL	PWR Cyclic Charge Discharge (Cell) - Charge Step	Test &Identifier
DATE	LABEL	22-6-2017	Date
TIME	LABEL	16:11:12	Time
NOTES	NOTES	3	&Notes...
	supercap test cell
	0.6mg
	6M KOH
PSTAT	PSTAT	IFC5000-01520	Potentiostat
CAPACITY	QUANT	1.00000E-003	Capacity (A-hr)
CELLTYPE	SELECTOR	1	&Cell Type
WORKINGCONNECTION	SELECTOR	0	&Working Lead
MAXCHARGETIME	VARIABLEANDUNITS	1.00000E+002	s	1.00000E+002	second(s)	Max &Charge Time
CHARGECURRENT	QUANT	6.00000E-003	&Charge Current (A)
VOLTAGEFINISH	TWOPARAM	F	1.00000E-003	3.60000E+003	&Voltage Finish	 I (A) < 	Max Time(s)
SAMPLETIME	QUANT	1.00000E-002	Sa&mple Period (s)
CHARGESTOPAT1	MULTIPARAM	4	1.00000E+000	Charge Stop At &1	Voltage > Limit	V
CHARGESTOPAT2	MULTIPARAM	0	0.00000E+000	Charge Stop At &2	None	N/A
AESBHCSELECTOR	TOGGLE	F	Save Both Half Cells
IRCOMP	TOGGLE	F	IR &Measure
EOC	QUANT	0	Open Circuit (V)
SEQUENCER	TOGGLE	TRUE	Run as Sequence
PSTATMODEL	IQUANT	53	Pstat Model
PSTATSECTION	LABEL	IFC5000-01520	Pstat Section
PSTATSERIALNO	LABEL	01520	Pstat Serial Number
CTRLMODE	IQUANT	0	Control Mode
ELECTROMETER	IQUANT	1	RE=0 or CS=1
IESTAB	IQUANT	0	I/E Stability
CASPEED	IQUANT	4	Control Amp Speed
CONVENTION	IQUANT	1	Current Convention
ICHRANGE	IQUANT	2	Ich Range
ICHRANGEMODE	TOGGLE	T	Ich Auto Range
ICHOFFSETENABLE	TOGGLE	F	Ich Offset Enable
ICHOFFSET	QUANT	0	Ich Offset (V)
ICHFILTER	IQUANT	1	Ich Filter
VCHRANGE	IQUANT	2	Vch Range
VCHRANGEMODE	TOGGLE	T	Vch Auto Range
VCHOFFSETENABLE	TOGGLE	F	Vch Offset Enable
VCHOFFSET	QUANT	0	Vch Offset (V)
VCHFILTER	IQUANT	1	Vch Filter
IERANGELOWERLIMIT	IQUANT	9	I/E Range Lower Limit
IERANGEMODE	TOGGLE	F	I/E AutoRange
IERANGE	IQUANT	10	I/E Range
ACHSELECT	IQUANT	1	Ach Select
ACHRANGE	IQUANT	2	Ach Range
ACHOFFSETENABLE	TOGGLE	F	Ach Offset Enable
ACHOFFSET	QUANT	0	Ach Offset (V)
ACHFILTER	IQUANT	1	Ach Filter
CABLEID	IQUANT	14	Cable ID
DCCALDATE	LABEL	20-10-2016	DC Calibration Date
ACCALDATE	LABEL	12/3/2015	AC Calibration Date
FRAMEWORKVERSION	QUANT	7.01	Framework Version
INSTRUMENTVERSION	LABEL	4.00	Instrument Version
CURVE	TABLE	53
	Pt	T	Vf	Im	Vu	Pwr	Sig	Ach	Temp	IERange	Over
	#	s	V	A	V	W	V	V	deg C	#	bits
	0	0.013333	6.53797E-001	5.99587E-003	0.00000E+000	3.92008E-003	3.59960E-001	-1.17017E+000	3.57780E+000	10	...........
	1	0.026667	6.63064E-001	5.99234E-003	0.00000E+000	3.97331E-003	3.59960E-001	-1.16223E+000	3.57780E+000	10	...........
	2	0.04	6.71620E-001	5.99341E-003	0.00000E+000	4.02529E-003	3.59960E-001	-1.16881E+000	3.57780E+000	10	...........
	3	0.053333	6.79734E-001	5.98845E-003	0.00000E+000	4.07056E-003	3.59960E-001	-1.16984E+000	3.57780E+000	10	...........
	4	0.066667	6.87517E-001	5.99416E-003	0.00000E+000	4.12109E-003	3.59960E-001	-1.16207E+000	3.57780E+000	10	...........
	5	0.08	6.95143E-001	5.99596E-003	0.00000E+000	4.16805E-003	3.59960E-001	-1.16858E+000	3.57780E+000	10	...........
	6	0.093333	7.02613E-001	5.99619E-003	0.00000E+000	4.21300E-003	3.59960E-001	-1.16985E+000	3.57780E+000	10	...........
	7	0.106667	7.09954E-001	5.99234E-003	0.00000E+000	4.25429E-003	3.59960E-001	-1.16214E+000	3.57780E+000	10	...........
	8	0.12	7.17229E-001	5.99595E-003	0.00000E+000	4.30047E-003	3.59960E-001	-1.16875E+000	3.57780E+000	10	...........
	9	0.133333	7.24381E-001	5.99660E-003	0.00000E+000	4.34382E-003	3.59960E-001	-1.16967E+000	3.57780E+000	10	...........
	10	0.146667	7.31488E-001	5.99383E-003	0.00000E+000	4.38442E-003	3.59960E-001	-1.16167E+000	3.57780E+000	10	...........
	11	0.16	7.38459E-001	5.99663E-003	0.00000E+000	4.42826E-003	3.59960E-001	-1.16856E+000	3.57780E+000	10	...........
	12	0.173333	7.45486E-001	5.99649E-003	0.00000E+000	4.47030E-003	3.59960E-001	-1.16962E+000	3.57780E+000	10	...........
	13	0.186667	7.52421E-001	5.99755E-003	0.00000E+000	4.51268E-003	3.59960E-001	-1.16191E+000	3.57780E+000	10	...........
	14	0.2	7.59326E-001	5.99116E-003	0.00000E+000	4.54925E-003	3.59960E-001	-1.16847E+000	3.57780E+000	10	...........
	15	0.213333	7.66186E-001	5.99456E-003	0.00000E+000	4.59295E-003	3.59960E-001	-1.16957E+000	3.57780E+000	10	...........
	16	0.226667	7.73070E-001	5.99104E-003	0.00000E+000	4.63149E-003	3.59960E-001	-1.16164E+000	3.57780E+000	10	...........
	17	0.24	7.79878E-001	5.99564E-003	0.00000E+000	4.67586E-003	3.59960E-001	-1.16864E+000	3.57780E+000	10	...........
	18	0.253333	7.86709E-001	5.99289E-003	0.00000E+000	4.71466E-003	3.59960E-001	-1.16967E+000	3.57780E+000	10	...........
	19	0.266667	7.93478E-001	5.99689E-003	0.00000E+000	4.75840E-003	3.59960E-001	-1.16184E+000	3.57780E+000	10	...........
	20	0.28	8.00223E-001	5.99617E-003	0.00000E+000	4.79827E-003	3.59960E-001	-1.16835E+000	3.57780E+000	10	...........
	21	0.293333	8.06915E-001	5.99539E-003	0.00000E+000	4.83777E-003	3.59960E-001	-1.16949E+000	3.57780E+000	10	...........
	22	0.306667	8.13589E-001	5.99207E-003	0.00000E+000	4.87508E-003	3.59960E-001	-1.16196E+000	3.57780E+000	10	...........
	23	0.32	8.20268E-001	5.99237E-003	0.00000E+000	4.91535E-003	3.59960E-001	-1.16880E+000	3.57780E+000	10	...........
	24	0.333333	8.26904E-001	5.99907E-003	0.00000E+000	4.96065E-003	3.59960E-001	-1.16944E+000	3.57780E+000	10	...........
	25	0.346667	8.33499E-001	5.99437E-003	0.00000E+000	4.99630E-003	3.59960E-001	-1.16171E+000	3.57780E+000	10	...........
	26	0.36	8.40110E-001	5.99288E-003	0.00000E+000	5.03468E-003	3.59960E-001	-1.16853E+000	3.57780E+000	10	...........
	27	0.373333	8.46740E-001	5.99421E-003	0.00000E+000	5.07554E-003	3.59960E-001	-1.16932E+000	3.57780E+000	10	...........
	28	0.386667	8.53298E-001	5.99051E-003	0.00000E+000	5.11169E-003	3.59960E-001	-1.16161E+000	3.57780E+000	10	...........
	29	0.4	8.59835E-001	5.99935E-003	0.00000E+000	5.15845E-003	3.59960E-001	-1.16858E+000	3.57780E+000	10	...........
	30	0.413333	8.66293E-001	5.99414E-003	0.00000E+000	5.19268E-003	3.59960E-001	-1.16908E+000	3.57780E+000	10	...........
	31	0.426667	8.72796E-001	5.99516E-003	0.00000E+000	5.23255E-003	3.59960E-001	-1.16166E+000	3.57780E+000	10	...........
	32	0.44	8.79236E-001	5.99545E-003	0.00000E+000	5.27141E-003	3.59960E-001	-1.16870E+000	3.57780E+000	10	...........
	33	0.453333	8.85603E-001	5.99446E-003	0.00000E+000	5.30871E-003	3.59960E-001	-1.16962E+000	3.57780E+000	10	...........
	34	0.466667	8.91943E-001	5.99057E-003	0.00000E+000	5.34324E-003	3.59960E-001	-1.16172E+000	3.57780E+000	10	...........
	35	0.48	8.98359E-001	5.99608E-003	0.00000E+000	5.38663E-003	3.59960E-001	-1.16846E+000	3.57780E+000	10	...........
	36	0.493333	9.04602E-001	5.98645E-003	0.00000E+000	5.41536E-003	3.59960E-001	-1.16921E+000	3.57780E+000	10	...........
	37	0.506667	9.10857E-001	5.99166E-003	0.00000E+000	5.45755E-003	3.59960E-001	-1.16178E+000	3.57780E+000	10	...........
	38	0.52	9.17002E-001	5.98739E-003	0.00000E+000	5.49045E-003	3.59960E-001	-1.16861E+000	3.57780E+000	10	...........
	39	0.533333	9.23224E-001	5.99701E-003	0.00000E+000	5.53659E-003	3.59960E-001	-1.16928E+000	3.57780E+000	10	...........
	40	0.546667	9.29380E-001	5.99417E-003	0.00000E+000	5.57086E-003	3.59960E-001	-1.16162E+000	3.57725E+000	10	...........
	41	0.56	9.35419E-001	5.99677E-003	0.00000E+000	5.60950E-003	3.59960E-001	-1.16850E+000	3.57670E+000	10	...........
	42	0.573333	9.41426E-001	5.99479E-003	0.00000E+000	5.64365E-003	3.59960E-001	-1.16955E+000	3.57670E+000	10	...........
	43	0.586667	9.47402E-001	5.99344E-003	0.00000E+000	5.67819E-003	3.59960E-001	-1.16181E+000	3.57670E+000	10	...........
	44	0.6	9.53357E-001	5.99419E-003	0.00000E+000	5.71460E-003	3.59960E-001	-1.16868E+000	3.57670E+000	10	...........
	45	0.613333	9.59230E-001	5.99335E-003	0.00000E+000	5.74901E-003	3.59960E-001	-1.16914E+000	3.57670E+000	10	...........
	46	0.626667	9.65111E-001	5.99361E-003	0.00000E+000	5.78450E-003	3.59960E-001	-1.16155E+000	3.57670E+000	10	...........
	47	0.64	9.70906E-001	5.99180E-003	0.00000E+000	5.81747E-003	3.59960E-001	-1.16878E+000	3.57670E+000	10	...........
	48	0.653333	9.76693E-001	5.99099E-003	0.00000E+000	5.85135E-003	3.59960E-001	-1.16945E+000	3.57670E+000	10	...........
	49	0.666667	9.82372E-001	5.99705E-003	0.00000E+000	5.89133E-003	3.59960E-001	-1.16162E+000	3.57670E+000	10	...........
	50	0.68	9.87981E-001	5.99442E-003	0.00000E+000	5.92237E-003	3.59960E-001	-1.16840E+000	3.57670E+000	10	...........
	51	0.693333	9.93562E-001	5.99446E-003	0.00000E+000	5.95586E-003	3.59960E-001	-1.16900E+000	3.57670E+000	10	...........
	52	0.703333	9.98430E-001	5.99712E-003	0.00000E+000	5.98770E-003	3.59960E-001	-1.15824E+000	3.57670E+000	10	...........
STARTTIMEOFFSET	QUANT	1454.487	Start Time Offset (s)