File: Data/CV_CRGO300517_1/PWRCCD_CRGO300517_1/CHARGE_DISCHARGE/CHARGE_#475.DTA
EXPLAIN
TAG	PWR800_CHARGE
TITLE	LABEL	PWR Cyclic Charge Discharge (Cell) - Charge Step	Test &Identifier
DATE	LABEL	22-6-2017	Date
TIME	LABEL	15:54:56	Time
NOTES	NOTES	3	&Notes...
	supercap test cell
	0.6mg
	6M KOH
PSTAT	PSTAT	IFC5000-01520	Potentiostat
CAPACITY	QUANT	1.00000E-003	Capacity (A-hr)
CELLTYPE	SELECTOR	1	&Cell Type
WORKINGCONNECTION	SELECTOR	0	&Working Lead
MAXCHARGETIME	VARIABLEANDUNITS	1.00000E+002	s	1.00000E+002	second(s)	Max &Charge Time
CHARGECURRENT	QUANT	6.00000E-003	&Charge Current (A)
VOLTAGEFINISH	TWOPARAM	F	1.00000E-003	3.60000E+003	&Voltage Finish	 I (A) < 	Max Time(s)
SAMPLETIME	QUANT	1.00000E-002	Sa&mple Period (s)
CHARGESTOPAT1	MULTIPARAM	4	1.00000E+000	Charge Stop At &1	Voltage > Limit	V
CHARGESTOPAT2	MULTIPARAM	0	0.00000E+000	Charge Stop At &2	None	N/A
AESBHCSELECTOR	TOGGLE	F	Save Both Half Cells
IRCOMP	TOGGLE	F	IR &Measure
EOC	QUANT	0	Open Circuit (V)
SEQUENCER	TOGGLE	TRUE	Run as Sequence
PSTATMODEL	IQUANT	53	Pstat Model
PSTATSECTION	LABEL	IFC5000-01520	Pstat Section
PSTATSERIALNO	LABEL	01520	Pstat Serial Number
CTRLMODE	IQUANT	0	Control Mode
ELECTROMETER	IQUANT	1	RE=0 or CS=1
IESTAB	IQUANT	0	I/E Stability
CASPEED	IQUANT	4	Control Amp Speed
CONVENTION	IQUANT	1	Current Convention
ICHRANGE	IQUANT	2	Ich Range
ICHRANGEMODE	TOGGLE	T	Ich Auto Range
ICHOFFSETENABLE	TOGGLE	F	Ich Offset Enable
ICHOFFSET	QUANT	0	Ich Offset (V)
ICHFILTER	IQUANT	1	Ich Filter
VCHRANGE	IQUANT	2	Vch Range
VCHRANGEMODE	TOGGLE	T	Vch Auto Range
VCHOFFSETENABLE	TOGGLE	F	Vch Offset Enable
VCHOFFSET	QUANT	0	Vch Offset (V)
VCHFILTER	IQUANT	1	Vch Filter
IERANGELOWERLIMIT	IQUANT	9	I/E Range Lower Limit
IERANGEMODE	TOGGLE	F	I/E AutoRange
IERANGE	IQUANT	10	I/E Range
ACHSELECT	IQUANT	1	Ach Select
ACHRANGE	IQUANT	2	Ach Range
ACHOFFSETENABLE	TOGGLE	F	Ach Offset Enable
ACHOFFSET	QUANT	0	Ach Offset (V)
ACHFILTER	IQUANT	1	Ach Filter
CABLEID	IQUANT	14	Cable ID
DCCALDATE	LABEL	20-10-2016	DC Calibration Date
ACCALDATE	LABEL	12/3/2015	AC Calibration Date
FRAMEWORKVERSION	QUANT	7.01	Framework Version
INSTRUMENTVERSION	LABEL	4.00	Instrument Version
CURVE	TABLE	59
	Pt	T	Vf	Im	Vu	Pwr	Sig	Ach	Temp	IERange	Over
	#	s	V	A	V	W	V	V	deg C	#	bits
	0	0.013333	6.30050E-001	5.99337E-003	0.00000E+000	3.77612E-003	3.59960E-001	-1.15261E+000	3.57790E+000	10	...........
	1	0.026667	6.38884E-001	5.99086E-003	0.00000E+000	3.82747E-003	3.59960E-001	-1.14256E+000	3.57790E+000	10	...........
	2	0.04	6.47055E-001	5.99692E-003	0.00000E+000	3.88034E-003	3.59960E-001	-1.14262E+000	3.57790E+000	10	...........
	3	0.053333	6.54780E-001	5.98820E-003	0.00000E+000	3.92095E-003	3.59960E-001	-1.15259E+000	3.57790E+000	10	...........
	4	0.066667	6.62204E-001	5.99549E-003	0.00000E+000	3.97024E-003	3.59960E-001	-1.14266E+000	3.57790E+000	10	...........
	5	0.08	6.69473E-001	6.00001E-003	0.00000E+000	4.01684E-003	3.59960E-001	-1.14268E+000	3.57790E+000	10	...........
	6	0.093333	6.76597E-001	5.99900E-003	0.00000E+000	4.05890E-003	3.59960E-001	-1.15257E+000	3.57790E+000	10	...........
	7	0.106667	6.83541E-001	5.99300E-003	0.00000E+000	4.09646E-003	3.59960E-001	-1.14216E+000	3.57790E+000	10	...........
	8	0.12	6.90413E-001	5.99925E-003	0.00000E+000	4.14196E-003	3.59960E-001	-1.14279E+000	3.57790E+000	10	...........
	9	0.133333	6.97242E-001	5.99199E-003	0.00000E+000	4.17787E-003	3.59960E-001	-1.15271E+000	3.57790E+000	10	...........
	10	0.146667	7.03998E-001	5.99292E-003	0.00000E+000	4.21900E-003	3.59960E-001	-1.14210E+000	3.57790E+000	10	...........
	11	0.16	7.10736E-001	5.99664E-003	0.00000E+000	4.26203E-003	3.59960E-001	-1.14235E+000	3.57790E+000	10	...........
	12	0.173333	7.17402E-001	5.99077E-003	0.00000E+000	4.29779E-003	3.59960E-001	-1.15202E+000	3.57790E+000	10	...........
	13	0.186667	7.24044E-001	5.99586E-003	0.00000E+000	4.34127E-003	3.59960E-001	-1.14174E+000	3.57790E+000	10	...........
	14	0.2	7.30656E-001	5.99376E-003	0.00000E+000	4.37937E-003	3.59960E-001	-1.14249E+000	3.57790E+000	10	...........
	15	0.213333	7.37259E-001	5.99205E-003	0.00000E+000	4.41769E-003	3.59960E-001	-1.15205E+000	3.57790E+000	10	...........
	16	0.226667	7.43868E-001	5.99520E-003	0.00000E+000	4.45964E-003	3.59960E-001	-1.14162E+000	3.57790E+000	10	...........
	17	0.24	7.50349E-001	5.99148E-003	0.00000E+000	4.49570E-003	3.59960E-001	-1.14241E+000	3.57790E+000	10	...........
	18	0.253333	7.56875E-001	5.99589E-003	0.00000E+000	4.53814E-003	3.59960E-001	-1.15195E+000	3.57790E+000	10	...........
	19	0.266667	7.63374E-001	5.99788E-003	0.00000E+000	4.57863E-003	3.59960E-001	-1.14150E+000	3.57790E+000	10	...........
	20	0.28	7.69866E-001	5.99087E-003	0.00000E+000	4.61217E-003	3.59960E-001	-1.14272E+000	3.57790E+000	10	...........
	21	0.293333	7.76330E-001	5.99763E-003	0.00000E+000	4.65614E-003	3.59960E-001	-1.15187E+000	3.57790E+000	10	...........
	22	0.306667	7.82812E-001	5.99604E-003	0.00000E+000	4.69378E-003	3.59960E-001	-1.14158E+000	3.57790E+000	10	...........
	23	0.32	7.89269E-001	5.99539E-003	0.00000E+000	4.73197E-003	3.59960E-001	-1.14269E+000	3.57790E+000	10	...........
	24	0.333333	7.95690E-001	5.99640E-003	0.00000E+000	4.77127E-003	3.59960E-001	-1.15167E+000	3.57790E+000	10	...........
	25	0.346667	8.02130E-001	5.99475E-003	0.00000E+000	4.80857E-003	3.59960E-001	-1.14118E+000	3.57790E+000	10	...........
	26	0.36	8.08473E-001	5.99229E-003	0.00000E+000	4.84460E-003	3.59960E-001	-1.14279E+000	3.57790E+000	10	...........
	27	0.373333	8.14847E-001	5.99506E-003	0.00000E+000	4.88506E-003	3.59960E-001	-1.15148E+000	3.57790E+000	10	...........
	28	0.386667	8.21238E-001	5.99196E-003	0.00000E+000	4.92082E-003	3.59960E-001	-1.14126E+000	3.57790E+000	10	...........
	29	0.4	8.27598E-001	6.00112E-003	0.00000E+000	4.96652E-003	3.59960E-001	-1.14298E+000	3.57790E+000	10	...........
	30	0.413333	8.33888E-001	5.99342E-003	0.00000E+000	4.99784E-003	3.59960E-001	-1.15167E+000	3.57790E+000	10	...........
	31	0.426667	8.40184E-001	5.99710E-003	0.00000E+000	5.03866E-003	3.59960E-001	-1.14132E+000	3.57790E+000	10	...........
	32	0.44	8.46510E-001	5.99220E-003	0.00000E+000	5.07245E-003	3.59960E-001	-1.14289E+000	3.57790E+000	10	...........
	33	0.453333	8.52795E-001	5.99355E-003	0.00000E+000	5.11127E-003	3.59960E-001	-1.15132E+000	3.57790E+000	10	...........
	34	0.466667	8.59042E-001	5.99537E-003	0.00000E+000	5.15027E-003	3.59960E-001	-1.14111E+000	3.57790E+000	10	...........
	35	0.48	8.65274E-001	5.99052E-003	0.00000E+000	5.18344E-003	3.59960E-001	-1.14269E+000	3.57790E+000	10	...........
	36	0.493333	8.71540E-001	5.99910E-003	0.00000E+000	5.22846E-003	3.59960E-001	-1.15097E+000	3.57790E+000	10	...........
	37	0.506667	8.77730E-001	5.99745E-003	0.00000E+000	5.26414E-003	3.59960E-001	-1.14067E+000	3.57790E+000	10	...........
	38	0.52	8.83924E-001	5.99137E-003	0.00000E+000	5.29592E-003	3.59960E-001	-1.14274E+000	3.57790E+000	10	...........
	39	0.533333	8.90097E-001	5.99527E-003	0.00000E+000	5.33637E-003	3.59960E-001	-1.15081E+000	3.57790E+000	10	...........
	40	0.546667	8.96181E-001	5.99429E-003	0.00000E+000	5.37197E-003	3.59960E-001	-1.14070E+000	3.57790E+000	10	...........
	41	0.56	9.02307E-001	5.99452E-003	0.00000E+000	5.40890E-003	3.59960E-001	-1.14267E+000	3.57790E+000	10	...........
	42	0.573333	9.08360E-001	5.99313E-003	0.00000E+000	5.44392E-003	3.59960E-001	-1.15060E+000	3.57790E+000	10	...........
	43	0.586667	9.14385E-001	5.99288E-003	0.00000E+000	5.47980E-003	3.59960E-001	-1.14013E+000	3.57790E+000	10	...........
	44	0.6	9.20410E-001	5.99403E-003	0.00000E+000	5.51696E-003	3.59960E-001	-1.14279E+000	3.57790E+000	10	...........
	45	0.613333	9.26437E-001	5.99378E-003	0.00000E+000	5.55286E-003	3.59960E-001	-1.15044E+000	3.57790E+000	10	...........
	46	0.626667	9.32370E-001	5.99421E-003	0.00000E+000	5.58882E-003	3.59960E-001	-1.14043E+000	3.57790E+000	10	...........
	47	0.64	9.38262E-001	5.99259E-003	0.00000E+000	5.62262E-003	3.59960E-001	-1.14291E+000	3.57790E+000	10	...........
	48	0.653333	9.44137E-001	5.99180E-003	0.00000E+000	5.65708E-003	3.59960E-001	-1.15036E+000	3.57790E+000	10	...........
	49	0.666667	9.50001E-001	5.99251E-003	0.00000E+000	5.69289E-003	3.59960E-001	-1.14049E+000	3.57790E+000	10	...........
	50	0.68	9.55798E-001	5.99790E-003	0.00000E+000	5.73278E-003	3.59960E-001	-1.14336E+000	3.57790E+000	10	...........
	51	0.693333	9.61562E-001	5.99445E-003	0.00000E+000	5.76404E-003	3.59960E-001	-1.15036E+000	3.57790E+000	10	...........
	52	0.706667	9.67272E-001	5.99660E-003	0.00000E+000	5.80034E-003	3.59960E-001	-1.14075E+000	3.57790E+000	10	...........
	53	0.72	9.73001E-001	5.99398E-003	0.00000E+000	5.83215E-003	3.59960E-001	-1.14358E+000	3.57790E+000	10	...........
	54	0.733333	9.78621E-001	5.99321E-003	0.00000E+000	5.86508E-003	3.59960E-001	-1.15036E+000	3.57790E+000	10	...........
	55	0.746667	9.84207E-001	5.99539E-003	0.00000E+000	5.90070E-003	3.59960E-001	-1.14072E+000	3.57790E+000	10	...........
	56	0.76	9.89783E-001	5.99466E-003	0.00000E+000	5.93341E-003	3.59960E-001	-1.14362E+000	3.57790E+000	10	...........
	57	0.773333	9.95257E-001	5.99845E-003	0.00000E+000	5.97000E-003	3.59960E-001	-1.15039E+000	3.57790E+000	10	...........
	58	0.78	9.99354E-001	5.99813E-003	0.00000E+000	5.99425E-003	3.59960E-001	-1.13379E+000	3.57790E+000	10	...........
STARTTIMEOFFSET	QUANT	820.3868	Start Time Offset (s)