File: Data/CV_CRGO300517_1/PWRCCD_CRGO300517_1/CHARGE_DISCHARGE/CHARGE_#739.DTA
EXPLAIN
TAG	PWR800_CHARGE
TITLE	LABEL	PWR Cyclic Charge Discharge (Cell) - Charge Step	Test &Identifier
DATE	LABEL	22-6-2017	Date
TIME	LABEL	16:05:01	Time
NOTES	NOTES	3	&Notes...
	supercap test cell
	0.6mg
	6M KOH
PSTAT	PSTAT	IFC5000-01520	Potentiostat
CAPACITY	QUANT	1.00000E-003	Capacity (A-hr)
CELLTYPE	SELECTOR	1	&Cell Type
WORKINGCONNECTION	SELECTOR	0	&Working Lead
MAXCHARGETIME	VARIABLEANDUNITS	1.00000E+002	s	1.00000E+002	second(s)	Max &Charge Time
CHARGECURRENT	QUANT	6.00000E-003	&Charge Current (A)
VOLTAGEFINISH	TWOPARAM	F	1.00000E-003	3.60000E+003	&Voltage Finish	 I (A) < 	Max Time(s)
SAMPLETIME	QUANT	1.00000E-002	Sa&mple Period (s)
CHARGESTOPAT1	MULTIPARAM	4	1.00000E+000	Charge Stop At &1	Voltage > Limit	V
CHARGESTOPAT2	MULTIPARAM	0	0.00000E+000	Charge Stop At &2	None	N/A
AESBHCSELECTOR	TOGGLE	F	Save Both Half Cells
IRCOMP	TOGGLE	F	IR &Measure
EOC	QUANT	0	Open Circuit (V)
SEQUENCER	TOGGLE	TRUE	Run as Sequence
PSTATMODEL	IQUANT	53	Pstat Model
PSTATSECTION	LABEL	IFC5000-01520	Pstat Section
PSTATSERIALNO	LABEL	01520	Pstat Serial Number
CTRLMODE	IQUANT	0	Control Mode
ELECTROMETER	IQUANT	1	RE=0 or CS=1
IESTAB	IQUANT	0	I/E Stability
CASPEED	IQUANT	4	Control Amp Speed
CONVENTION	IQUANT	1	Current Convention
ICHRANGE	IQUANT	2	Ich Range
ICHRANGEMODE	TOGGLE	T	Ich Auto Range
ICHOFFSETENABLE	TOGGLE	F	Ich Offset Enable
ICHOFFSET	QUANT	0	Ich Offset (V)
ICHFILTER	IQUANT	1	Ich Filter
VCHRANGE	IQUANT	2	Vch Range
VCHRANGEMODE	TOGGLE	T	Vch Auto Range
VCHOFFSETENABLE	TOGGLE	F	Vch Offset Enable
VCHOFFSET	QUANT	0	Vch Offset (V)
VCHFILTER	IQUANT	1	Vch Filter
IERANGELOWERLIMIT	IQUANT	9	I/E Range Lower Limit
IERANGEMODE	TOGGLE	F	I/E AutoRange
IERANGE	IQUANT	10	I/E Range
ACHSELECT	IQUANT	1	Ach Select
ACHRANGE	IQUANT	2	Ach Range
ACHOFFSETENABLE	TOGGLE	F	Ach Offset Enable
ACHOFFSET	QUANT	0	Ach Offset (V)
ACHFILTER	IQUANT	1	Ach Filter
CABLEID	IQUANT	14	Cable ID
DCCALDATE	LABEL	20-10-2016	DC Calibration Date
ACCALDATE	LABEL	12/3/2015	AC Calibration Date
FRAMEWORKVERSION	QUANT	7.01	Framework Version
INSTRUMENTVERSION	LABEL	4.00	Instrument Version
CURVE	TABLE	55
	Pt	T	Vf	Im	Vu	Pwr	Sig	Ach	Temp	IERange	Over
	#	s	V	A	V	W	V	V	deg C	#	bits
	0	0.013333	6.45242E-001	5.99263E-003	0.00000E+000	3.86670E-003	3.59960E-001	-1.16582E+000	3.57720E+000	10	...........
	1	0.026667	6.54401E-001	5.99264E-003	0.00000E+000	3.92159E-003	3.59960E-001	-1.15586E+000	3.57720E+000	10	...........
	2	0.04	6.62768E-001	5.99319E-003	0.00000E+000	3.97209E-003	3.59960E-001	-1.15451E+000	3.57720E+000	10	...........
	3	0.053333	6.70760E-001	5.99730E-003	0.00000E+000	4.02274E-003	3.59960E-001	-1.16568E+000	3.57720E+000	10	...........
	4	0.066667	6.78391E-001	5.99603E-003	0.00000E+000	4.06766E-003	3.59960E-001	-1.15554E+000	3.57720E+000	10	...........
	5	0.08	6.85842E-001	5.99306E-003	0.00000E+000	4.11029E-003	3.59960E-001	-1.15477E+000	3.57720E+000	10	...........
	6	0.093333	6.93203E-001	5.99468E-003	0.00000E+000	4.15553E-003	3.59960E-001	-1.16585E+000	3.57720E+000	10	...........
	7	0.106667	7.00419E-001	5.99556E-003	0.00000E+000	4.19941E-003	3.59960E-001	-1.15530E+000	3.57720E+000	10	...........
	8	0.12	7.07517E-001	5.99660E-003	0.00000E+000	4.24270E-003	3.59960E-001	-1.15473E+000	3.57720E+000	10	...........
	9	0.133333	7.14531E-001	5.99038E-003	0.00000E+000	4.28031E-003	3.59960E-001	-1.16566E+000	3.57697E+000	10	...........
	10	0.146667	7.21602E-001	5.99545E-003	0.00000E+000	4.32633E-003	3.59960E-001	-1.15542E+000	3.57660E+000	10	...........
	11	0.16	7.28531E-001	5.99692E-003	0.00000E+000	4.36894E-003	3.59960E-001	-1.15467E+000	3.57660E+000	10	...........
	12	0.173333	7.35362E-001	5.99742E-003	0.00000E+000	4.41028E-003	3.59960E-001	-1.16557E+000	3.57660E+000	10	...........
	13	0.186667	7.42246E-001	5.99406E-003	0.00000E+000	4.44907E-003	3.59960E-001	-1.15527E+000	3.57660E+000	10	...........
	14	0.2	7.49055E-001	5.99635E-003	0.00000E+000	4.49159E-003	3.59960E-001	-1.15477E+000	3.57660E+000	10	...........
	15	0.213333	7.55856E-001	5.99723E-003	0.00000E+000	4.53305E-003	3.59960E-001	-1.16599E+000	3.57660E+000	10	...........
	16	0.226667	7.62620E-001	5.99169E-003	0.00000E+000	4.56939E-003	3.59960E-001	-1.15529E+000	3.57660E+000	10	...........
	17	0.24	7.69331E-001	5.98895E-003	0.00000E+000	4.60749E-003	3.59960E-001	-1.15490E+000	3.57660E+000	10	...........
	18	0.253333	7.76074E-001	5.99420E-003	0.00000E+000	4.65194E-003	3.59960E-001	-1.16566E+000	3.57660E+000	10	...........
	19	0.266667	7.82805E-001	5.99622E-003	0.00000E+000	4.69387E-003	3.59960E-001	-1.15523E+000	3.57660E+000	10	...........
	20	0.28	7.89421E-001	5.99552E-003	0.00000E+000	4.73299E-003	3.59960E-001	-1.15500E+000	3.57660E+000	10	...........
	21	0.293333	7.96044E-001	5.99324E-003	0.00000E+000	4.77088E-003	3.59960E-001	-1.16562E+000	3.57660E+000	10	...........
	22	0.306667	8.02667E-001	5.99135E-003	0.00000E+000	4.80906E-003	3.59960E-001	-1.15473E+000	3.57660E+000	10	...........
	23	0.32	8.09258E-001	5.99636E-003	0.00000E+000	4.85260E-003	3.59960E-001	-1.15455E+000	3.57660E+000	10	...........
	24	0.333333	8.15835E-001	5.99623E-003	0.00000E+000	4.89193E-003	3.59960E-001	-1.16520E+000	3.57660E+000	10	...........
	25	0.346667	8.22377E-001	5.99341E-003	0.00000E+000	4.92884E-003	3.59960E-001	-1.15474E+000	3.57660E+000	10	...........
	26	0.36	8.28897E-001	5.99668E-003	0.00000E+000	4.97063E-003	3.59960E-001	-1.15471E+000	3.57660E+000	10	...........
	27	0.373333	8.35399E-001	5.99724E-003	0.00000E+000	5.01009E-003	3.59960E-001	-1.16520E+000	3.57660E+000	10	...........
	28	0.386667	8.41903E-001	5.99319E-003	0.00000E+000	5.04568E-003	3.59960E-001	-1.15448E+000	3.57660E+000	10	...........
	29	0.4	8.48377E-001	5.99382E-003	0.00000E+000	5.08502E-003	3.59960E-001	-1.15486E+000	3.57660E+000	10	...........
	30	0.413333	8.54812E-001	5.99513E-003	0.00000E+000	5.12470E-003	3.59960E-001	-1.16527E+000	3.57660E+000	10	...........
	31	0.426667	8.61229E-001	5.99562E-003	0.00000E+000	5.16360E-003	3.59960E-001	-1.15458E+000	3.57660E+000	10	...........
	32	0.44	8.67630E-001	5.99262E-003	0.00000E+000	5.19938E-003	3.59960E-001	-1.15492E+000	3.57660E+000	10	...........
	33	0.453333	8.74011E-001	5.99616E-003	0.00000E+000	5.24071E-003	3.59960E-001	-1.16508E+000	3.57660E+000	10	...........
	34	0.466667	8.80358E-001	5.99302E-003	0.00000E+000	5.27601E-003	3.59960E-001	-1.15449E+000	3.57660E+000	10	...........
	35	0.48	8.86637E-001	5.99709E-003	0.00000E+000	5.31724E-003	3.59960E-001	-1.15502E+000	3.57660E+000	10	...........
	36	0.493333	8.92923E-001	5.99334E-003	0.00000E+000	5.35159E-003	3.59960E-001	-1.16507E+000	3.57660E+000	10	...........
	37	0.506667	8.99190E-001	5.99718E-003	0.00000E+000	5.39261E-003	3.59960E-001	-1.15444E+000	3.57660E+000	10	...........
	38	0.52	9.05387E-001	5.99335E-003	0.00000E+000	5.42630E-003	3.59960E-001	-1.15507E+000	3.57660E+000	10	...........
	39	0.533333	9.11601E-001	5.99071E-003	0.00000E+000	5.46114E-003	3.59960E-001	-1.16533E+000	3.57660E+000	10	...........
	40	0.546667	9.17729E-001	5.99346E-003	0.00000E+000	5.50037E-003	3.59960E-001	-1.15439E+000	3.57660E+000	10	...........
	41	0.56	9.23886E-001	5.99161E-003	0.00000E+000	5.53556E-003	3.59960E-001	-1.15537E+000	3.57660E+000	10	...........
	42	0.573333	9.29946E-001	5.99113E-003	0.00000E+000	5.57143E-003	3.59960E-001	-1.16537E+000	3.57660E+000	10	...........
	43	0.586667	9.35994E-001	5.99248E-003	0.00000E+000	5.60892E-003	3.59960E-001	-1.15449E+000	3.57660E+000	10	...........
	44	0.6	9.41978E-001	5.98778E-003	0.00000E+000	5.64036E-003	3.59960E-001	-1.15533E+000	3.57660E+000	10	...........
	45	0.613333	9.47951E-001	5.99546E-003	0.00000E+000	5.68340E-003	3.59960E-001	-1.16549E+000	3.57660E+000	10	...........
	46	0.626667	9.53849E-001	5.99263E-003	0.00000E+000	5.71607E-003	3.59960E-001	-1.15431E+000	3.57660E+000	10	...........
	47	0.64	9.59668E-001	5.99251E-003	0.00000E+000	5.75082E-003	3.59960E-001	-1.15528E+000	3.57660E+000	10	...........
	48	0.653333	9.65430E-001	5.99065E-003	0.00000E+000	5.78355E-003	3.59960E-001	-1.16491E+000	3.57660E+000	10	...........
	49	0.666667	9.71238E-001	5.99296E-003	0.00000E+000	5.82059E-003	3.59960E-001	-1.15419E+000	3.57660E+000	10	...........
	50	0.68	9.76967E-001	5.98869E-003	0.00000E+000	5.85075E-003	3.59960E-001	-1.15541E+000	3.57660E+000	10	...........
	51	0.693333	9.82638E-001	5.99256E-003	0.00000E+000	5.88852E-003	3.59960E-001	-1.16498E+000	3.57660E+000	10	...........
	52	0.706667	9.88235E-001	5.99248E-003	0.00000E+000	5.92197E-003	3.59960E-001	-1.15410E+000	3.57660E+000	10	...........
	53	0.72	9.93793E-001	5.99237E-003	0.00000E+000	5.95518E-003	3.59960E-001	-1.15541E+000	3.57660E+000	10	...........
	54	0.73	9.98655E-001	5.98712E-003	0.00000E+000	5.97906E-003	3.59960E-001	-1.16480E+000	3.57660E+000	10	...........
STARTTIMEOFFSET	QUANT	1216.129	Start Time Offset (s)