File: Data/CV_CRGO300517_1/PWRCCD_CRGO300517_1/CHARGE_DISCHARGE/CHARGE_#245.DTA
EXPLAIN
TAG	PWR800_CHARGE
TITLE	LABEL	PWR Cyclic Charge Discharge (Cell) - Charge Step	Test &Identifier
DATE	LABEL	22-6-2017	Date
TIME	LABEL	15:45:40	Time
NOTES	NOTES	3	&Notes...
	supercap test cell
	0.6mg
	6M KOH
PSTAT	PSTAT	IFC5000-01520	Potentiostat
CAPACITY	QUANT	1.00000E-003	Capacity (A-hr)
CELLTYPE	SELECTOR	1	&Cell Type
WORKINGCONNECTION	SELECTOR	0	&Working Lead
MAXCHARGETIME	VARIABLEANDUNITS	1.00000E+002	s	1.00000E+002	second(s)	Max &Charge Time
CHARGECURRENT	QUANT	6.00000E-003	&Charge Current (A)
VOLTAGEFINISH	TWOPARAM	F	1.00000E-003	3.60000E+003	&Voltage Finish	 I (A) < 	Max Time(s)
SAMPLETIME	QUANT	1.00000E-002	Sa&mple Period (s)
CHARGESTOPAT1	MULTIPARAM	4	1.00000E+000	Charge Stop At &1	Voltage > Limit	V
CHARGESTOPAT2	MULTIPARAM	0	0.00000E+000	Charge Stop At &2	None	N/A
AESBHCSELECTOR	TOGGLE	F	Save Both Half Cells
IRCOMP	TOGGLE	F	IR &Measure
EOC	QUANT	0	Open Circuit (V)
SEQUENCER	TOGGLE	TRUE	Run as Sequence
PSTATMODEL	IQUANT	53	Pstat Model
PSTATSECTION	LABEL	IFC5000-01520	Pstat Section
PSTATSERIALNO	LABEL	01520	Pstat Serial Number
CTRLMODE	IQUANT	0	Control Mode
ELECTROMETER	IQUANT	1	RE=0 or CS=1
IESTAB	IQUANT	0	I/E Stability
CASPEED	IQUANT	4	Control Amp Speed
CONVENTION	IQUANT	1	Current Convention
ICHRANGE	IQUANT	2	Ich Range
ICHRANGEMODE	TOGGLE	T	Ich Auto Range
ICHOFFSETENABLE	TOGGLE	F	Ich Offset Enable
ICHOFFSET	QUANT	0	Ich Offset (V)
ICHFILTER	IQUANT	1	Ich Filter
VCHRANGE	IQUANT	2	Vch Range
VCHRANGEMODE	TOGGLE	T	Vch Auto Range
VCHOFFSETENABLE	TOGGLE	F	Vch Offset Enable
VCHOFFSET	QUANT	0	Vch Offset (V)
VCHFILTER	IQUANT	1	Vch Filter
IERANGELOWERLIMIT	IQUANT	9	I/E Range Lower Limit
IERANGEMODE	TOGGLE	F	I/E AutoRange
IERANGE	IQUANT	10	I/E Range
ACHSELECT	IQUANT	1	Ach Select
ACHRANGE	IQUANT	2	Ach Range
ACHOFFSETENABLE	TOGGLE	F	Ach Offset Enable
ACHOFFSET	QUANT	0	Ach Offset (V)
ACHFILTER	IQUANT	1	Ach Filter
CABLEID	IQUANT	14	Cable ID
DCCALDATE	LABEL	20-10-2016	DC Calibration Date
ACCALDATE	LABEL	12/3/2015	AC Calibration Date
FRAMEWORKVERSION	QUANT	7.01	Framework Version
INSTRUMENTVERSION	LABEL	4.00	Instrument Version
CURVE	TABLE	64
	Pt	T	Vf	Im	Vu	Pwr	Sig	Ach	Temp	IERange	Over
	#	s	V	A	V	W	V	V	deg C	#	bits
	0	0.013333	6.10920E-001	5.99553E-003	0.00000E+000	3.66279E-003	3.59960E-001	-1.09564E+000	3.57810E+000	10	...........
	1	0.026667	6.19530E-001	5.99238E-003	0.00000E+000	3.71246E-003	3.59960E-001	-1.09844E+000	3.57810E+000	10	...........
	2	0.04	6.27341E-001	5.99782E-003	0.00000E+000	3.76268E-003	3.59960E-001	-1.09093E+000	3.57810E+000	10	...........
	3	0.053333	6.34750E-001	5.99277E-003	0.00000E+000	3.80391E-003	3.59960E-001	-1.09597E+000	3.57810E+000	10	...........
	4	0.066667	6.41935E-001	5.99302E-003	0.00000E+000	3.84713E-003	3.59960E-001	-1.09916E+000	3.57810E+000	10	...........
	5	0.08	6.48928E-001	5.99767E-003	0.00000E+000	3.89206E-003	3.59960E-001	-1.09166E+000	3.57810E+000	10	...........
	6	0.093333	6.55792E-001	5.99283E-003	0.00000E+000	3.93005E-003	3.59960E-001	-1.09622E+000	3.57810E+000	10	...........
	7	0.106667	6.62463E-001	5.98935E-003	0.00000E+000	3.96772E-003	3.59960E-001	-1.09980E+000	3.57810E+000	10	...........
	8	0.12	6.69124E-001	5.99173E-003	0.00000E+000	4.00921E-003	3.59960E-001	-1.09243E+000	3.57810E+000	10	...........
	9	0.133333	6.75652E-001	5.99282E-003	0.00000E+000	4.04906E-003	3.59960E-001	-1.09730E+000	3.57810E+000	10	...........
	10	0.146667	6.82154E-001	5.99086E-003	0.00000E+000	4.08669E-003	3.59960E-001	-1.10068E+000	3.57810E+000	10	...........
	11	0.16	6.88610E-001	5.99218E-003	0.00000E+000	4.12627E-003	3.59960E-001	-1.09307E+000	3.57810E+000	10	...........
	12	0.173333	6.95072E-001	5.99427E-003	0.00000E+000	4.16645E-003	3.59960E-001	-1.09796E+000	3.57810E+000	10	...........
	13	0.186667	7.01410E-001	5.99446E-003	0.00000E+000	4.20457E-003	3.59960E-001	-1.10156E+000	3.57810E+000	10	...........
	14	0.2	7.07772E-001	5.99705E-003	0.00000E+000	4.24454E-003	3.59960E-001	-1.09365E+000	3.57810E+000	10	...........
	15	0.213333	7.14126E-001	5.99696E-003	0.00000E+000	4.28259E-003	3.59960E-001	-1.09788E+000	3.57810E+000	10	...........
	16	0.226667	7.20448E-001	5.99566E-003	0.00000E+000	4.31956E-003	3.59960E-001	-1.10192E+000	3.57810E+000	10	...........
	17	0.24	7.26708E-001	5.99475E-003	0.00000E+000	4.35643E-003	3.59960E-001	-1.09398E+000	3.57810E+000	10	...........
	18	0.253333	7.32963E-001	5.99547E-003	0.00000E+000	4.39446E-003	3.59960E-001	-1.09812E+000	3.57810E+000	10	...........
	19	0.266667	7.39211E-001	5.99383E-003	0.00000E+000	4.43071E-003	3.59960E-001	-1.10198E+000	3.57810E+000	10	...........
	20	0.28	7.45476E-001	5.99464E-003	0.00000E+000	4.46886E-003	3.59960E-001	-1.09401E+000	3.57810E+000	10	...........
	21	0.293333	7.51712E-001	5.99572E-003	0.00000E+000	4.50706E-003	3.59960E-001	-1.09773E+000	3.57810E+000	10	...........
	22	0.306667	7.57952E-001	5.99521E-003	0.00000E+000	4.54408E-003	3.59960E-001	-1.10166E+000	3.57810E+000	10	...........
	23	0.32	7.64129E-001	5.99418E-003	0.00000E+000	4.58033E-003	3.59960E-001	-1.09359E+000	3.57810E+000	10	...........
	24	0.333333	7.70325E-001	5.99627E-003	0.00000E+000	4.61908E-003	3.59960E-001	-1.09786E+000	3.57810E+000	10	...........
	25	0.346667	7.76484E-001	5.99266E-003	0.00000E+000	4.65321E-003	3.59960E-001	-1.10170E+000	3.57810E+000	10	...........
	26	0.36	7.82689E-001	5.99405E-003	0.00000E+000	4.69148E-003	3.59960E-001	-1.09367E+000	3.57810E+000	10	...........
	27	0.373333	7.88845E-001	5.99089E-003	0.00000E+000	4.72588E-003	3.59960E-001	-1.09795E+000	3.57810E+000	10	...........
	28	0.386667	7.95033E-001	5.98931E-003	0.00000E+000	4.76170E-003	3.59960E-001	-1.10190E+000	3.57810E+000	10	...........
	29	0.4	8.01203E-001	5.99383E-003	0.00000E+000	4.80228E-003	3.59960E-001	-1.09382E+000	3.57810E+000	10	...........
	30	0.413333	8.07380E-001	5.99476E-003	0.00000E+000	4.84005E-003	3.59960E-001	-1.09786E+000	3.57810E+000	10	...........
	31	0.426667	8.13464E-001	5.99358E-003	0.00000E+000	4.87556E-003	3.59960E-001	-1.10223E+000	3.57810E+000	10	...........
	32	0.44	8.19619E-001	5.99159E-003	0.00000E+000	4.91082E-003	3.59960E-001	-1.09430E+000	3.57810E+000	10	...........
	33	0.453333	8.25708E-001	5.99335E-003	0.00000E+000	4.94876E-003	3.59960E-001	-1.09837E+000	3.57810E+000	10	...........
	34	0.466667	8.31759E-001	5.99270E-003	0.00000E+000	4.98448E-003	3.59960E-001	-1.10256E+000	3.57810E+000	10	...........
	35	0.48	8.37843E-001	5.99393E-003	0.00000E+000	5.02197E-003	3.59960E-001	-1.09438E+000	3.57810E+000	10	...........
	36	0.493333	8.43906E-001	5.99356E-003	0.00000E+000	5.05800E-003	3.59960E-001	-1.09843E+000	3.57735E+000	10	...........
	37	0.506667	8.50046E-001	5.99554E-003	0.00000E+000	5.09649E-003	3.59960E-001	-1.10312E+000	3.57710E+000	10	...........
	38	0.52	8.56087E-001	5.99444E-003	0.00000E+000	5.13176E-003	3.59960E-001	-1.09503E+000	3.57710E+000	10	...........
	39	0.533333	8.62139E-001	5.99525E-003	0.00000E+000	5.16874E-003	3.59960E-001	-1.09863E+000	3.57710E+000	10	...........
	40	0.546667	8.68195E-001	5.99562E-003	0.00000E+000	5.20537E-003	3.59960E-001	-1.10349E+000	3.57710E+000	10	...........
	41	0.56	8.74245E-001	5.99486E-003	0.00000E+000	5.24097E-003	3.59960E-001	-1.09504E+000	3.57710E+000	10	...........
	42	0.573333	8.80277E-001	5.99444E-003	0.00000E+000	5.27677E-003	3.59960E-001	-1.09877E+000	3.57710E+000	10	...........
	43	0.586667	8.86266E-001	5.99356E-003	0.00000E+000	5.31189E-003	3.59960E-001	-1.10366E+000	3.57710E+000	10	...........
	44	0.6	8.92227E-001	5.99604E-003	0.00000E+000	5.34983E-003	3.59960E-001	-1.09499E+000	3.57710E+000	10	...........
	45	0.613333	8.98185E-001	5.99767E-003	0.00000E+000	5.38702E-003	3.59960E-001	-1.09811E+000	3.57710E+000	10	...........
	46	0.626667	9.04105E-001	5.99257E-003	0.00000E+000	5.41791E-003	3.59960E-001	-1.10299E+000	3.57710E+000	10	...........
	47	0.64	9.10016E-001	5.99431E-003	0.00000E+000	5.45492E-003	3.59960E-001	-1.09452E+000	3.57710E+000	10	...........
	48	0.653333	9.15878E-001	5.99518E-003	0.00000E+000	5.49085E-003	3.59960E-001	-1.09815E+000	3.57710E+000	10	...........
	49	0.666667	9.21786E-001	5.99458E-003	0.00000E+000	5.52573E-003	3.59960E-001	-1.10308E+000	3.57710E+000	10	...........
	50	0.68	9.27603E-001	5.99425E-003	0.00000E+000	5.56029E-003	3.59960E-001	-1.09410E+000	3.57710E+000	10	...........
	51	0.693333	9.33426E-001	5.99378E-003	0.00000E+000	5.59475E-003	3.59960E-001	-1.09753E+000	3.57710E+000	10	...........
	52	0.706667	9.39193E-001	5.99576E-003	0.00000E+000	5.63118E-003	3.59960E-001	-1.10250E+000	3.57710E+000	10	...........
	53	0.72	9.44955E-001	5.99013E-003	0.00000E+000	5.66040E-003	3.59960E-001	-1.09358E+000	3.57710E+000	10	...........
	54	0.733333	9.50709E-001	5.99274E-003	0.00000E+000	5.69735E-003	3.59960E-001	-1.09653E+000	3.57710E+000	10	...........
	55	0.746667	9.56383E-001	5.99080E-003	0.00000E+000	5.72950E-003	3.59960E-001	-1.10149E+000	3.57710E+000	10	...........
	56	0.76	9.62005E-001	5.99433E-003	0.00000E+000	5.76658E-003	3.59960E-001	-1.09281E+000	3.57710E+000	10	...........
	57	0.773333	9.67576E-001	5.99875E-003	0.00000E+000	5.80424E-003	3.59960E-001	-1.09565E+000	3.57710E+000	10	...........
	58	0.786667	9.73167E-001	5.99507E-003	0.00000E+000	5.83421E-003	3.59960E-001	-1.10045E+000	3.57710E+000	10	...........
	59	0.8	9.78720E-001	5.99290E-003	0.00000E+000	5.86537E-003	3.59960E-001	-1.09119E+000	3.57710E+000	10	...........
	60	0.813333	9.84221E-001	5.99566E-003	0.00000E+000	5.90105E-003	3.59960E-001	-1.09373E+000	3.57710E+000	10	...........
	61	0.826667	9.89706E-001	5.99693E-003	0.00000E+000	5.93520E-003	3.59960E-001	-1.09890E+000	3.57710E+000	10	...........
	62	0.84	9.95121E-001	5.99427E-003	0.00000E+000	5.96502E-003	3.59960E-001	-1.08976E+000	3.57710E+000	10	...........
	63	0.846667	9.99144E-001	5.99882E-003	0.00000E+000	5.99368E-003	3.59960E-001	-1.10162E+000	3.57710E+000	10	...........
STARTTIMEOFFSET	QUANT	449.5534	Start Time Offset (s)