File: Data/CV_CRGO300517_1/PWRCCD_CRGO300517_1/CHARGE_DISCHARGE/CHARGE_#885.DTA
EXPLAIN
TAG	PWR800_CHARGE
TITLE	LABEL	PWR Cyclic Charge Discharge (Cell) - Charge Step	Test &Identifier
DATE	LABEL	22-6-2017	Date
TIME	LABEL	16:10:25	Time
NOTES	NOTES	3	&Notes...
	supercap test cell
	0.6mg
	6M KOH
PSTAT	PSTAT	IFC5000-01520	Potentiostat
CAPACITY	QUANT	1.00000E-003	Capacity (A-hr)
CELLTYPE	SELECTOR	1	&Cell Type
WORKINGCONNECTION	SELECTOR	0	&Working Lead
MAXCHARGETIME	VARIABLEANDUNITS	1.00000E+002	s	1.00000E+002	second(s)	Max &Charge Time
CHARGECURRENT	QUANT	6.00000E-003	&Charge Current (A)
VOLTAGEFINISH	TWOPARAM	F	1.00000E-003	3.60000E+003	&Voltage Finish	 I (A) < 	Max Time(s)
SAMPLETIME	QUANT	1.00000E-002	Sa&mple Period (s)
CHARGESTOPAT1	MULTIPARAM	4	1.00000E+000	Charge Stop At &1	Voltage > Limit	V
CHARGESTOPAT2	MULTIPARAM	0	0.00000E+000	Charge Stop At &2	None	N/A
AESBHCSELECTOR	TOGGLE	F	Save Both Half Cells
IRCOMP	TOGGLE	F	IR &Measure
EOC	QUANT	0	Open Circuit (V)
SEQUENCER	TOGGLE	TRUE	Run as Sequence
PSTATMODEL	IQUANT	53	Pstat Model
PSTATSECTION	LABEL	IFC5000-01520	Pstat Section
PSTATSERIALNO	LABEL	01520	Pstat Serial Number
CTRLMODE	IQUANT	0	Control Mode
ELECTROMETER	IQUANT	1	RE=0 or CS=1
IESTAB	IQUANT	0	I/E Stability
CASPEED	IQUANT	4	Control Amp Speed
CONVENTION	IQUANT	1	Current Convention
ICHRANGE	IQUANT	2	Ich Range
ICHRANGEMODE	TOGGLE	T	Ich Auto Range
ICHOFFSETENABLE	TOGGLE	F	Ich Offset Enable
ICHOFFSET	QUANT	0	Ich Offset (V)
ICHFILTER	IQUANT	1	Ich Filter
VCHRANGE	IQUANT	2	Vch Range
VCHRANGEMODE	TOGGLE	T	Vch Auto Range
VCHOFFSETENABLE	TOGGLE	F	Vch Offset Enable
VCHOFFSET	QUANT	0	Vch Offset (V)
VCHFILTER	IQUANT	1	Vch Filter
IERANGELOWERLIMIT	IQUANT	9	I/E Range Lower Limit
IERANGEMODE	TOGGLE	F	I/E AutoRange
IERANGE	IQUANT	10	I/E Range
ACHSELECT	IQUANT	1	Ach Select
ACHRANGE	IQUANT	2	Ach Range
ACHOFFSETENABLE	TOGGLE	F	Ach Offset Enable
ACHOFFSET	QUANT	0	Ach Offset (V)
ACHFILTER	IQUANT	1	Ach Filter
CABLEID	IQUANT	14	Cable ID
DCCALDATE	LABEL	20-10-2016	DC Calibration Date
ACCALDATE	LABEL	12/3/2015	AC Calibration Date
FRAMEWORKVERSION	QUANT	7.01	Framework Version
INSTRUMENTVERSION	LABEL	4.00	Instrument Version
CURVE	TABLE	54
	Pt	T	Vf	Im	Vu	Pwr	Sig	Ach	Temp	IERange	Over
	#	s	V	A	V	W	V	V	deg C	#	bits
	0	0.013333	6.52350E-001	5.99241E-003	0.00000E+000	3.90915E-003	3.59960E-001	-1.15882E+000	3.57690E+000	10	...........
	1	0.026667	6.61594E-001	5.99497E-003	0.00000E+000	3.96624E-003	3.59960E-001	-1.16861E+000	3.57690E+000	10	...........
	2	0.04	6.70094E-001	5.99243E-003	0.00000E+000	4.01549E-003	3.59960E-001	-1.16364E+000	3.57690E+000	10	...........
	3	0.053333	6.78191E-001	5.99232E-003	0.00000E+000	4.06394E-003	3.59960E-001	-1.15868E+000	3.57690E+000	10	...........
	4	0.066667	6.85974E-001	5.99595E-003	0.00000E+000	4.11307E-003	3.59960E-001	-1.16827E+000	3.57690E+000	10	...........
	5	0.08	6.93547E-001	5.99863E-003	0.00000E+000	4.16033E-003	3.59960E-001	-1.16371E+000	3.57690E+000	10	...........
	6	0.093333	7.01002E-001	5.99757E-003	0.00000E+000	4.20431E-003	3.59960E-001	-1.15875E+000	3.57690E+000	10	...........
	7	0.106667	7.08332E-001	5.99517E-003	0.00000E+000	4.24657E-003	3.59960E-001	-1.16830E+000	3.57690E+000	10	...........
	8	0.12	7.15530E-001	5.99290E-003	0.00000E+000	4.28810E-003	3.59960E-001	-1.16329E+000	3.57690E+000	10	...........
	9	0.133333	7.22730E-001	5.99040E-003	0.00000E+000	4.32944E-003	3.59960E-001	-1.15815E+000	3.57690E+000	10	...........
	10	0.146667	7.29800E-001	5.99248E-003	0.00000E+000	4.37331E-003	3.59960E-001	-1.16766E+000	3.57690E+000	10	...........
	11	0.16	7.36842E-001	5.99742E-003	0.00000E+000	4.41915E-003	3.59960E-001	-1.16291E+000	3.57690E+000	10	...........
	12	0.173333	7.43861E-001	5.99712E-003	0.00000E+000	4.46102E-003	3.59960E-001	-1.15751E+000	3.57690E+000	10	...........
	13	0.186667	7.50763E-001	5.99425E-003	0.00000E+000	4.50026E-003	3.59960E-001	-1.16730E+000	3.57690E+000	10	...........
	14	0.2	7.57717E-001	5.99519E-003	0.00000E+000	4.54266E-003	3.59960E-001	-1.16255E+000	3.57690E+000	10	...........
	15	0.213333	7.64566E-001	5.99719E-003	0.00000E+000	4.58525E-003	3.59960E-001	-1.15757E+000	3.57690E+000	10	...........
	16	0.226667	7.71406E-001	5.99607E-003	0.00000E+000	4.62540E-003	3.59960E-001	-1.16714E+000	3.57690E+000	10	...........
	17	0.24	7.78178E-001	5.99189E-003	0.00000E+000	4.66276E-003	3.59960E-001	-1.16251E+000	3.57690E+000	10	...........
	18	0.253333	7.84968E-001	5.99701E-003	0.00000E+000	4.70747E-003	3.59960E-001	-1.15740E+000	3.57690E+000	10	...........
	19	0.266667	7.91731E-001	5.99211E-003	0.00000E+000	4.74414E-003	3.59960E-001	-1.16690E+000	3.57690E+000	10	...........
	20	0.28	7.98499E-001	5.99677E-003	0.00000E+000	4.78842E-003	3.59960E-001	-1.16211E+000	3.57690E+000	10	...........
	21	0.293333	8.05178E-001	5.98937E-003	0.00000E+000	4.82251E-003	3.59960E-001	-1.15747E+000	3.57690E+000	10	...........
	22	0.306667	8.11853E-001	5.99483E-003	0.00000E+000	4.86693E-003	3.59960E-001	-1.16696E+000	3.57690E+000	10	...........
	23	0.32	8.18541E-001	5.99456E-003	0.00000E+000	4.90679E-003	3.59960E-001	-1.16215E+000	3.57690E+000	10	...........
	24	0.333333	8.25156E-001	5.99569E-003	0.00000E+000	4.94738E-003	3.59960E-001	-1.15696E+000	3.57690E+000	10	...........
	25	0.346667	8.31718E-001	5.99132E-003	0.00000E+000	4.98309E-003	3.59960E-001	-1.16668E+000	3.57690E+000	10	...........
	26	0.36	8.38314E-001	5.99548E-003	0.00000E+000	5.02610E-003	3.59960E-001	-1.16234E+000	3.57690E+000	10	...........
	27	0.373333	8.44890E-001	5.99222E-003	0.00000E+000	5.06277E-003	3.59960E-001	-1.15733E+000	3.57690E+000	10	...........
	28	0.386667	8.51462E-001	5.99264E-003	0.00000E+000	5.10251E-003	3.59960E-001	-1.16673E+000	3.57690E+000	10	...........
	29	0.4	8.57933E-001	5.99563E-003	0.00000E+000	5.14384E-003	3.59960E-001	-1.16212E+000	3.57690E+000	10	...........
	30	0.413333	8.64436E-001	5.99094E-003	0.00000E+000	5.17879E-003	3.59960E-001	-1.15689E+000	3.57690E+000	10	...........
	31	0.426667	8.70919E-001	5.99213E-003	0.00000E+000	5.21866E-003	3.59960E-001	-1.16651E+000	3.57690E+000	10	...........
	32	0.44	8.77329E-001	5.99318E-003	0.00000E+000	5.25799E-003	3.59960E-001	-1.16198E+000	3.57690E+000	10	...........
	33	0.453333	8.83755E-001	5.99923E-003	0.00000E+000	5.30184E-003	3.59960E-001	-1.15666E+000	3.57690E+000	10	...........
	34	0.466667	8.90110E-001	5.99551E-003	0.00000E+000	5.33666E-003	3.59960E-001	-1.16554E+000	3.57690E+000	10	...........
	35	0.48	8.96414E-001	5.98958E-003	0.00000E+000	5.36914E-003	3.59960E-001	-1.16137E+000	3.57718E+000	10	...........
	36	0.493333	9.02705E-001	5.99351E-003	0.00000E+000	5.41037E-003	3.59960E-001	-1.15646E+000	3.57720E+000	10	...........
	37	0.506667	9.08968E-001	5.99299E-003	0.00000E+000	5.44743E-003	3.59960E-001	-1.16572E+000	3.57720E+000	10	...........
	38	0.52	9.15180E-001	5.99592E-003	0.00000E+000	5.48735E-003	3.59960E-001	-1.16116E+000	3.57720E+000	10	...........
	39	0.533333	9.21375E-001	5.99231E-003	0.00000E+000	5.52116E-003	3.59960E-001	-1.15586E+000	3.57720E+000	10	...........
	40	0.546667	9.27513E-001	5.99724E-003	0.00000E+000	5.56252E-003	3.59960E-001	-1.16548E+000	3.57720E+000	10	...........
	41	0.56	9.33608E-001	5.99525E-003	0.00000E+000	5.59722E-003	3.59960E-001	-1.16145E+000	3.57720E+000	10	...........
	42	0.573333	9.39635E-001	5.98876E-003	0.00000E+000	5.62725E-003	3.59960E-001	-1.15599E+000	3.57720E+000	10	...........
	43	0.586667	9.45611E-001	5.99617E-003	0.00000E+000	5.67005E-003	3.59960E-001	-1.16528E+000	3.57720E+000	10	...........
	44	0.6	9.51582E-001	5.99690E-003	0.00000E+000	5.70654E-003	3.59960E-001	-1.16098E+000	3.57720E+000	10	...........
	45	0.613333	9.57489E-001	5.98908E-003	0.00000E+000	5.73448E-003	3.59960E-001	-1.15603E+000	3.57720E+000	10	...........
	46	0.626667	9.63357E-001	5.99968E-003	0.00000E+000	5.77984E-003	3.59960E-001	-1.16540E+000	3.57720E+000	10	...........
	47	0.64	9.69134E-001	5.99541E-003	0.00000E+000	5.81035E-003	3.59960E-001	-1.16106E+000	3.57720E+000	10	...........
	48	0.653333	9.74950E-001	5.99192E-003	0.00000E+000	5.84183E-003	3.59960E-001	-1.15563E+000	3.57720E+000	10	...........
	49	0.666667	9.80637E-001	5.99489E-003	0.00000E+000	5.87881E-003	3.59960E-001	-1.16500E+000	3.57720E+000	10	...........
	50	0.68	9.86276E-001	5.99177E-003	0.00000E+000	5.90954E-003	3.59960E-001	-1.16109E+000	3.57720E+000	10	...........
	51	0.693333	9.91848E-001	5.99227E-003	0.00000E+000	5.94342E-003	3.59960E-001	-1.15593E+000	3.57720E+000	10	...........
	52	0.706667	9.97408E-001	5.99180E-003	0.00000E+000	5.97627E-003	3.59960E-001	-1.16521E+000	3.57720E+000	10	...........
	53	0.708333	1.00056E+000	6.00138E-003	0.00000E+000	6.00477E-003	3.59960E-001	-1.14301E+000	3.57720E+000	10	...........
STARTTIMEOFFSET	QUANT	1424.954	Start Time Offset (s)