File: Data/CV_CRGO300517_1/PWRCCD_CRGO300517_1/CHARGE_DISCHARGE/CHARGE_#565.DTA
EXPLAIN
TAG	PWR800_CHARGE
TITLE	LABEL	PWR Cyclic Charge Discharge (Cell) - Charge Step	Test &Identifier
DATE	LABEL	22-6-2017	Date
TIME	LABEL	15:58:25	Time
NOTES	NOTES	3	&Notes...
	supercap test cell
	0.6mg
	6M KOH
PSTAT	PSTAT	IFC5000-01520	Potentiostat
CAPACITY	QUANT	1.00000E-003	Capacity (A-hr)
CELLTYPE	SELECTOR	1	&Cell Type
WORKINGCONNECTION	SELECTOR	0	&Working Lead
MAXCHARGETIME	VARIABLEANDUNITS	1.00000E+002	s	1.00000E+002	second(s)	Max &Charge Time
CHARGECURRENT	QUANT	6.00000E-003	&Charge Current (A)
VOLTAGEFINISH	TWOPARAM	F	1.00000E-003	3.60000E+003	&Voltage Finish	 I (A) < 	Max Time(s)
SAMPLETIME	QUANT	1.00000E-002	Sa&mple Period (s)
CHARGESTOPAT1	MULTIPARAM	4	1.00000E+000	Charge Stop At &1	Voltage > Limit	V
CHARGESTOPAT2	MULTIPARAM	0	0.00000E+000	Charge Stop At &2	None	N/A
AESBHCSELECTOR	TOGGLE	F	Save Both Half Cells
IRCOMP	TOGGLE	F	IR &Measure
EOC	QUANT	0	Open Circuit (V)
SEQUENCER	TOGGLE	TRUE	Run as Sequence
PSTATMODEL	IQUANT	53	Pstat Model
PSTATSECTION	LABEL	IFC5000-01520	Pstat Section
PSTATSERIALNO	LABEL	01520	Pstat Serial Number
CTRLMODE	IQUANT	0	Control Mode
ELECTROMETER	IQUANT	1	RE=0 or CS=1
IESTAB	IQUANT	0	I/E Stability
CASPEED	IQUANT	4	Control Amp Speed
CONVENTION	IQUANT	1	Current Convention
ICHRANGE	IQUANT	2	Ich Range
ICHRANGEMODE	TOGGLE	T	Ich Auto Range
ICHOFFSETENABLE	TOGGLE	F	Ich Offset Enable
ICHOFFSET	QUANT	0	Ich Offset (V)
ICHFILTER	IQUANT	1	Ich Filter
VCHRANGE	IQUANT	2	Vch Range
VCHRANGEMODE	TOGGLE	T	Vch Auto Range
VCHOFFSETENABLE	TOGGLE	F	Vch Offset Enable
VCHOFFSET	QUANT	0	Vch Offset (V)
VCHFILTER	IQUANT	1	Vch Filter
IERANGELOWERLIMIT	IQUANT	9	I/E Range Lower Limit
IERANGEMODE	TOGGLE	F	I/E AutoRange
IERANGE	IQUANT	10	I/E Range
ACHSELECT	IQUANT	1	Ach Select
ACHRANGE	IQUANT	2	Ach Range
ACHOFFSETENABLE	TOGGLE	F	Ach Offset Enable
ACHOFFSET	QUANT	0	Ach Offset (V)
ACHFILTER	IQUANT	1	Ach Filter
CABLEID	IQUANT	14	Cable ID
DCCALDATE	LABEL	20-10-2016	DC Calibration Date
ACCALDATE	LABEL	12/3/2015	AC Calibration Date
FRAMEWORKVERSION	QUANT	7.01	Framework Version
INSTRUMENTVERSION	LABEL	4.00	Instrument Version
CURVE	TABLE	57
	Pt	T	Vf	Im	Vu	Pwr	Sig	Ach	Temp	IERange	Over
	#	s	V	A	V	W	V	V	deg C	#	bits
	0	0.013333	6.36708E-001	5.99199E-003	0.00000E+000	3.81515E-003	3.59960E-001	-1.15217E+000	3.57700E+000	10	...........
	1	0.026667	6.45653E-001	5.99062E-003	0.00000E+000	3.86786E-003	3.59960E-001	-1.14381E+000	3.57700E+000	10	...........
	2	0.04	6.53882E-001	5.99477E-003	0.00000E+000	3.91988E-003	3.59960E-001	-1.14126E+000	3.57700E+000	10	...........
	3	0.053333	6.61703E-001	5.99133E-003	0.00000E+000	3.96448E-003	3.59960E-001	-1.15233E+000	3.57700E+000	10	...........
	4	0.066667	6.69233E-001	5.99137E-003	0.00000E+000	4.00962E-003	3.59960E-001	-1.14359E+000	3.57700E+000	10	...........
	5	0.08	6.76564E-001	5.99331E-003	0.00000E+000	4.05486E-003	3.59960E-001	-1.14113E+000	3.57700E+000	10	...........
	6	0.093333	6.83755E-001	5.99309E-003	0.00000E+000	4.09780E-003	3.59960E-001	-1.15208E+000	3.57700E+000	10	...........
	7	0.106667	6.90833E-001	5.99239E-003	0.00000E+000	4.13975E-003	3.59960E-001	-1.14360E+000	3.57700E+000	10	...........
	8	0.12	6.97787E-001	5.99196E-003	0.00000E+000	4.18111E-003	3.59960E-001	-1.14148E+000	3.57700E+000	10	...........
	9	0.133333	7.04697E-001	5.99108E-003	0.00000E+000	4.22190E-003	3.59960E-001	-1.15267E+000	3.57700E+000	10	...........
	10	0.146667	7.11546E-001	5.99160E-003	0.00000E+000	4.26330E-003	3.59960E-001	-1.14352E+000	3.57700E+000	10	...........
	11	0.16	7.18400E-001	5.99180E-003	0.00000E+000	4.30451E-003	3.59960E-001	-1.14121E+000	3.57700E+000	10	...........
	12	0.173333	7.25152E-001	5.99206E-003	0.00000E+000	4.34516E-003	3.59960E-001	-1.15244E+000	3.57700E+000	10	...........
	13	0.186667	7.31870E-001	5.99293E-003	0.00000E+000	4.38604E-003	3.59960E-001	-1.14365E+000	3.57700E+000	10	...........
	14	0.2	7.38542E-001	5.99311E-003	0.00000E+000	4.42617E-003	3.59960E-001	-1.14127E+000	3.57700E+000	10	...........
	15	0.213333	7.45222E-001	5.99507E-003	0.00000E+000	4.46766E-003	3.59960E-001	-1.15205E+000	3.57700E+000	10	...........
	16	0.226667	7.51825E-001	5.99171E-003	0.00000E+000	4.50471E-003	3.59960E-001	-1.14296E+000	3.57700E+000	10	...........
	17	0.24	7.58473E-001	5.99061E-003	0.00000E+000	4.54372E-003	3.59960E-001	-1.14094E+000	3.57700E+000	10	...........
	18	0.253333	7.65055E-001	5.99485E-003	0.00000E+000	4.58638E-003	3.59960E-001	-1.15211E+000	3.57700E+000	10	...........
	19	0.266667	7.71632E-001	5.99333E-003	0.00000E+000	4.62465E-003	3.59960E-001	-1.14303E+000	3.57700E+000	10	...........
	20	0.28	7.78181E-001	5.99373E-003	0.00000E+000	4.66420E-003	3.59960E-001	-1.14068E+000	3.57700E+000	10	...........
	21	0.293333	7.84686E-001	5.99717E-003	0.00000E+000	4.70589E-003	3.59960E-001	-1.15183E+000	3.57700E+000	10	...........
	22	0.306667	7.91202E-001	5.99393E-003	0.00000E+000	4.74241E-003	3.59960E-001	-1.14301E+000	3.57700E+000	10	...........
	23	0.32	7.97733E-001	5.99478E-003	0.00000E+000	4.78224E-003	3.59960E-001	-1.14112E+000	3.57700E+000	10	...........
	24	0.333333	8.04219E-001	5.99320E-003	0.00000E+000	4.81984E-003	3.59960E-001	-1.15200E+000	3.57700E+000	10	...........
	25	0.346667	8.10638E-001	5.99638E-003	0.00000E+000	4.86089E-003	3.59960E-001	-1.14293E+000	3.57700E+000	10	...........
	26	0.36	8.17123E-001	5.99767E-003	0.00000E+000	4.90083E-003	3.59960E-001	-1.14084E+000	3.57700E+000	10	...........
	27	0.373333	8.23551E-001	5.99108E-003	0.00000E+000	4.93396E-003	3.59960E-001	-1.15212E+000	3.57700E+000	10	...........
	28	0.386667	8.29942E-001	5.99656E-003	0.00000E+000	4.97680E-003	3.59960E-001	-1.14309E+000	3.57706E+000	10	...........
	29	0.4	8.36326E-001	5.99463E-003	0.00000E+000	5.01346E-003	3.59960E-001	-1.14095E+000	3.57720E+000	10	...........
	30	0.413333	8.42705E-001	5.99386E-003	0.00000E+000	5.05106E-003	3.59960E-001	-1.15229E+000	3.57720E+000	10	...........
	31	0.426667	8.49101E-001	5.99643E-003	0.00000E+000	5.09157E-003	3.59960E-001	-1.14283E+000	3.57720E+000	10	...........
	32	0.44	8.55431E-001	5.99609E-003	0.00000E+000	5.12924E-003	3.59960E-001	-1.14118E+000	3.57720E+000	10	...........
	33	0.453333	8.61740E-001	5.99354E-003	0.00000E+000	5.16488E-003	3.59960E-001	-1.15225E+000	3.57720E+000	10	...........
	34	0.466667	8.68023E-001	5.99285E-003	0.00000E+000	5.20193E-003	3.59960E-001	-1.14312E+000	3.57720E+000	10	...........
	35	0.48	8.74311E-001	5.99209E-003	0.00000E+000	5.23895E-003	3.59960E-001	-1.14123E+000	3.57720E+000	10	...........
	36	0.493333	8.80547E-001	5.99835E-003	0.00000E+000	5.28183E-003	3.59960E-001	-1.15222E+000	3.57720E+000	10	...........
	37	0.506667	8.86746E-001	5.99280E-003	0.00000E+000	5.31409E-003	3.59960E-001	-1.14312E+000	3.57720E+000	10	...........
	38	0.52	8.92944E-001	5.99420E-003	0.00000E+000	5.35249E-003	3.59960E-001	-1.14138E+000	3.57720E+000	10	...........
	39	0.533333	8.99130E-001	5.99317E-003	0.00000E+000	5.38864E-003	3.59960E-001	-1.15228E+000	3.57720E+000	10	...........
	40	0.546667	9.05275E-001	5.99549E-003	0.00000E+000	5.42757E-003	3.59960E-001	-1.14257E+000	3.57720E+000	10	...........
	41	0.56	9.11376E-001	5.99056E-003	0.00000E+000	5.45965E-003	3.59960E-001	-1.14084E+000	3.57720E+000	10	...........
	42	0.573333	9.17430E-001	5.99392E-003	0.00000E+000	5.49900E-003	3.59960E-001	-1.15179E+000	3.57720E+000	10	...........
	43	0.586667	9.23521E-001	5.98933E-003	0.00000E+000	5.53127E-003	3.59960E-001	-1.14258E+000	3.57720E+000	10	...........
	44	0.6	9.29528E-001	5.99837E-003	0.00000E+000	5.57565E-003	3.59960E-001	-1.14108E+000	3.57720E+000	10	...........
	45	0.613333	9.35519E-001	5.99223E-003	0.00000E+000	5.60584E-003	3.59960E-001	-1.15191E+000	3.57720E+000	10	...........
	46	0.626667	9.41457E-001	5.99385E-003	0.00000E+000	5.64296E-003	3.59960E-001	-1.14268E+000	3.57720E+000	10	...........
	47	0.64	9.47333E-001	5.99277E-003	0.00000E+000	5.67715E-003	3.59960E-001	-1.14098E+000	3.57720E+000	10	...........
	48	0.653333	9.53172E-001	5.99481E-003	0.00000E+000	5.71409E-003	3.59960E-001	-1.15207E+000	3.57720E+000	10	...........
	49	0.666667	9.58950E-001	5.99106E-003	0.00000E+000	5.74513E-003	3.59960E-001	-1.14277E+000	3.57720E+000	10	...........
	50	0.68	9.64682E-001	5.99413E-003	0.00000E+000	5.78243E-003	3.59960E-001	-1.14093E+000	3.57720E+000	10	...........
	51	0.693333	9.70429E-001	5.99399E-003	0.00000E+000	5.81674E-003	3.59960E-001	-1.15198E+000	3.57720E+000	10	...........
	52	0.706667	9.76208E-001	5.99076E-003	0.00000E+000	5.84822E-003	3.59960E-001	-1.14250E+000	3.57720E+000	10	...........
	53	0.72	9.81846E-001	5.99154E-003	0.00000E+000	5.88277E-003	3.59960E-001	-1.14104E+000	3.57720E+000	10	...........
	54	0.733333	9.87386E-001	5.99236E-003	0.00000E+000	5.91677E-003	3.59960E-001	-1.15236E+000	3.57720E+000	10	...........
	55	0.746667	9.92906E-001	5.99646E-003	0.00000E+000	5.95392E-003	3.59960E-001	-1.14261E+000	3.57720E+000	10	...........
	56	0.758333	9.98080E-001	6.00125E-003	0.00000E+000	5.98973E-003	3.59960E-001	-1.14166E+000	3.57720E+000	10	...........
STARTTIMEOFFSET	QUANT	958.227	Start Time Offset (s)