File: Data/CV_CRGO300517_1/PWRCCD_CRGO300517_1/CHARGE_DISCHARGE/CHARGE_#593.DTA
EXPLAIN
TAG	PWR800_CHARGE
TITLE	LABEL	PWR Cyclic Charge Discharge (Cell) - Charge Step	Test &Identifier
DATE	LABEL	22-6-2017	Date
TIME	LABEL	15:59:30	Time
NOTES	NOTES	3	&Notes...
	supercap test cell
	0.6mg
	6M KOH
PSTAT	PSTAT	IFC5000-01520	Potentiostat
CAPACITY	QUANT	1.00000E-003	Capacity (A-hr)
CELLTYPE	SELECTOR	1	&Cell Type
WORKINGCONNECTION	SELECTOR	0	&Working Lead
MAXCHARGETIME	VARIABLEANDUNITS	1.00000E+002	s	1.00000E+002	second(s)	Max &Charge Time
CHARGECURRENT	QUANT	6.00000E-003	&Charge Current (A)
VOLTAGEFINISH	TWOPARAM	F	1.00000E-003	3.60000E+003	&Voltage Finish	 I (A) < 	Max Time(s)
SAMPLETIME	QUANT	1.00000E-002	Sa&mple Period (s)
CHARGESTOPAT1	MULTIPARAM	4	1.00000E+000	Charge Stop At &1	Voltage > Limit	V
CHARGESTOPAT2	MULTIPARAM	0	0.00000E+000	Charge Stop At &2	None	N/A
AESBHCSELECTOR	TOGGLE	F	Save Both Half Cells
IRCOMP	TOGGLE	F	IR &Measure
EOC	QUANT	0	Open Circuit (V)
SEQUENCER	TOGGLE	TRUE	Run as Sequence
PSTATMODEL	IQUANT	53	Pstat Model
PSTATSECTION	LABEL	IFC5000-01520	Pstat Section
PSTATSERIALNO	LABEL	01520	Pstat Serial Number
CTRLMODE	IQUANT	0	Control Mode
ELECTROMETER	IQUANT	1	RE=0 or CS=1
IESTAB	IQUANT	0	I/E Stability
CASPEED	IQUANT	4	Control Amp Speed
CONVENTION	IQUANT	1	Current Convention
ICHRANGE	IQUANT	2	Ich Range
ICHRANGEMODE	TOGGLE	T	Ich Auto Range
ICHOFFSETENABLE	TOGGLE	F	Ich Offset Enable
ICHOFFSET	QUANT	0	Ich Offset (V)
ICHFILTER	IQUANT	1	Ich Filter
VCHRANGE	IQUANT	2	Vch Range
VCHRANGEMODE	TOGGLE	T	Vch Auto Range
VCHOFFSETENABLE	TOGGLE	F	Vch Offset Enable
VCHOFFSET	QUANT	0	Vch Offset (V)
VCHFILTER	IQUANT	1	Vch Filter
IERANGELOWERLIMIT	IQUANT	9	I/E Range Lower Limit
IERANGEMODE	TOGGLE	F	I/E AutoRange
IERANGE	IQUANT	10	I/E Range
ACHSELECT	IQUANT	1	Ach Select
ACHRANGE	IQUANT	2	Ach Range
ACHOFFSETENABLE	TOGGLE	F	Ach Offset Enable
ACHOFFSET	QUANT	0	Ach Offset (V)
ACHFILTER	IQUANT	1	Ach Filter
CABLEID	IQUANT	14	Cable ID
DCCALDATE	LABEL	20-10-2016	DC Calibration Date
ACCALDATE	LABEL	12/3/2015	AC Calibration Date
FRAMEWORKVERSION	QUANT	7.01	Framework Version
INSTRUMENTVERSION	LABEL	4.00	Instrument Version
CURVE	TABLE	57
	Pt	T	Vf	Im	Vu	Pwr	Sig	Ach	Temp	IERange	Over
	#	s	V	A	V	W	V	V	deg C	#	bits
	0	0.013333	6.37826E-001	5.99244E-003	0.00000E+000	3.82213E-003	3.59960E-001	-1.15654E+000	3.57740E+000	10	...........
	1	0.026667	6.46798E-001	5.99692E-003	0.00000E+000	3.87880E-003	3.59960E-001	-1.14605E+000	3.57740E+000	10	...........
	2	0.04	6.55080E-001	5.99258E-003	0.00000E+000	3.92562E-003	3.59960E-001	-1.14874E+000	3.57740E+000	10	...........
	3	0.053333	6.62882E-001	5.99197E-003	0.00000E+000	3.97197E-003	3.59960E-001	-1.15635E+000	3.57740E+000	10	...........
	4	0.066667	6.70466E-001	5.99024E-003	0.00000E+000	4.01626E-003	3.59960E-001	-1.14608E+000	3.57740E+000	10	...........
	5	0.08	6.77795E-001	5.99506E-003	0.00000E+000	4.06342E-003	3.59960E-001	-1.14886E+000	3.57740E+000	10	...........
	6	0.093333	6.85011E-001	5.99311E-003	0.00000E+000	4.10535E-003	3.59960E-001	-1.15619E+000	3.57740E+000	10	...........
	7	0.106667	6.92090E-001	5.99673E-003	0.00000E+000	4.15028E-003	3.59960E-001	-1.14586E+000	3.57740E+000	10	...........
	8	0.12	6.99054E-001	5.99275E-003	0.00000E+000	4.18925E-003	3.59960E-001	-1.14856E+000	3.57740E+000	10	...........
	9	0.133333	7.06005E-001	5.99374E-003	0.00000E+000	4.23161E-003	3.59960E-001	-1.15635E+000	3.57740E+000	10	...........
	10	0.146667	7.12864E-001	5.99050E-003	0.00000E+000	4.27041E-003	3.59960E-001	-1.14593E+000	3.57740E+000	10	...........
	11	0.16	7.19730E-001	5.99772E-003	0.00000E+000	4.31674E-003	3.59960E-001	-1.14872E+000	3.57740E+000	10	...........
	12	0.173333	7.26503E-001	5.99512E-003	0.00000E+000	4.35547E-003	3.59960E-001	-1.15598E+000	3.57740E+000	10	...........
	13	0.186667	7.33187E-001	5.99200E-003	0.00000E+000	4.39325E-003	3.59960E-001	-1.14590E+000	3.57740E+000	10	...........
	14	0.2	7.39914E-001	5.98898E-003	0.00000E+000	4.43133E-003	3.59960E-001	-1.14853E+000	3.57740E+000	10	...........
	15	0.213333	7.46635E-001	5.98840E-003	0.00000E+000	4.47115E-003	3.59960E-001	-1.15579E+000	3.57740E+000	10	...........
	16	0.226667	7.53274E-001	5.99433E-003	0.00000E+000	4.51538E-003	3.59960E-001	-1.14544E+000	3.57740E+000	10	...........
	17	0.24	7.59880E-001	5.99218E-003	0.00000E+000	4.55334E-003	3.59960E-001	-1.14795E+000	3.57740E+000	10	...........
	18	0.253333	7.66489E-001	5.99699E-003	0.00000E+000	4.59663E-003	3.59960E-001	-1.15565E+000	3.57740E+000	10	...........
	19	0.266667	7.73066E-001	5.99545E-003	0.00000E+000	4.63488E-003	3.59960E-001	-1.14547E+000	3.57740E+000	10	...........
	20	0.28	7.79633E-001	5.99711E-003	0.00000E+000	4.67554E-003	3.59960E-001	-1.14804E+000	3.57740E+000	10	...........
	21	0.293333	7.86171E-001	5.98994E-003	0.00000E+000	4.70912E-003	3.59960E-001	-1.15554E+000	3.57740E+000	10	...........
	22	0.306667	7.92704E-001	5.99692E-003	0.00000E+000	4.75378E-003	3.59960E-001	-1.14505E+000	3.57740E+000	10	...........
	23	0.32	7.99216E-001	5.99241E-003	0.00000E+000	4.78923E-003	3.59960E-001	-1.14789E+000	3.57740E+000	10	...........
	24	0.333333	8.05717E-001	5.99313E-003	0.00000E+000	4.82877E-003	3.59960E-001	-1.15552E+000	3.57740E+000	10	...........
	25	0.346667	8.12177E-001	5.99104E-003	0.00000E+000	4.86578E-003	3.59960E-001	-1.14531E+000	3.57740E+000	10	...........
	26	0.36	8.18666E-001	5.98988E-003	0.00000E+000	4.90371E-003	3.59960E-001	-1.14762E+000	3.57740E+000	10	...........
	27	0.373333	8.25141E-001	5.99931E-003	0.00000E+000	4.95027E-003	3.59960E-001	-1.15529E+000	3.57740E+000	10	...........
	28	0.386667	8.31553E-001	5.99147E-003	0.00000E+000	4.98222E-003	3.59960E-001	-1.14502E+000	3.57740E+000	10	...........
	29	0.4	8.37968E-001	5.99262E-003	0.00000E+000	5.02163E-003	3.59960E-001	-1.14763E+000	3.57740E+000	10	...........
	30	0.413333	8.44376E-001	5.99325E-003	0.00000E+000	5.06056E-003	3.59960E-001	-1.15555E+000	3.57740E+000	10	...........
	31	0.426667	8.50774E-001	5.99666E-003	0.00000E+000	5.10180E-003	3.59960E-001	-1.14513E+000	3.57740E+000	10	...........
	32	0.44	8.57119E-001	5.99784E-003	0.00000E+000	5.14086E-003	3.59960E-001	-1.14752E+000	3.57740E+000	10	...........
	33	0.453333	8.63446E-001	5.99086E-003	0.00000E+000	5.17278E-003	3.59960E-001	-1.15555E+000	3.57740E+000	10	...........
	34	0.466667	8.69773E-001	5.99272E-003	0.00000E+000	5.21231E-003	3.59960E-001	-1.14522E+000	3.57740E+000	10	...........
	35	0.48	8.76054E-001	5.99092E-003	0.00000E+000	5.24837E-003	3.59960E-001	-1.14769E+000	3.57740E+000	10	...........
	36	0.493333	8.82315E-001	5.99358E-003	0.00000E+000	5.28823E-003	3.59960E-001	-1.15529E+000	3.57740E+000	10	...........
	37	0.506667	8.88526E-001	5.99572E-003	0.00000E+000	5.32736E-003	3.59960E-001	-1.14484E+000	3.57740E+000	10	...........
	38	0.52	8.94748E-001	5.99447E-003	0.00000E+000	5.36354E-003	3.59960E-001	-1.14728E+000	3.57740E+000	10	...........
	39	0.533333	9.00902E-001	5.99131E-003	0.00000E+000	5.39758E-003	3.59960E-001	-1.15490E+000	3.57740E+000	10	...........
	40	0.546667	9.07068E-001	5.99293E-003	0.00000E+000	5.43599E-003	3.59960E-001	-1.14441E+000	3.57740E+000	10	...........
	41	0.56	9.13222E-001	5.99435E-003	0.00000E+000	5.47418E-003	3.59960E-001	-1.14675E+000	3.57740E+000	10	...........
	42	0.573333	9.19334E-001	5.99505E-003	0.00000E+000	5.51146E-003	3.59960E-001	-1.15473E+000	3.57740E+000	10	...........
	43	0.586667	9.25404E-001	5.99498E-003	0.00000E+000	5.54778E-003	3.59960E-001	-1.14452E+000	3.57740E+000	10	...........
	44	0.6	9.31386E-001	5.99064E-003	0.00000E+000	5.57960E-003	3.59960E-001	-1.14697E+000	3.57740E+000	10	...........
	45	0.613333	9.37373E-001	5.99373E-003	0.00000E+000	5.61836E-003	3.59960E-001	-1.15495E+000	3.57740E+000	10	...........
	46	0.626667	9.43257E-001	5.99586E-003	0.00000E+000	5.65563E-003	3.59960E-001	-1.14456E+000	3.57740E+000	10	...........
	47	0.64	9.49203E-001	5.99206E-003	0.00000E+000	5.68768E-003	3.59960E-001	-1.14684E+000	3.57740E+000	10	...........
	48	0.653333	9.55056E-001	5.99101E-003	0.00000E+000	5.72175E-003	3.59960E-001	-1.15471E+000	3.57740E+000	10	...........
	49	0.666667	9.60866E-001	5.99528E-003	0.00000E+000	5.76066E-003	3.59960E-001	-1.14451E+000	3.57740E+000	10	...........
	50	0.68	9.66622E-001	5.99112E-003	0.00000E+000	5.79115E-003	3.59960E-001	-1.14685E+000	3.57740E+000	10	...........
	51	0.693333	9.72351E-001	5.99482E-003	0.00000E+000	5.82907E-003	3.59960E-001	-1.15491E+000	3.57740E+000	10	...........
	52	0.706667	9.78012E-001	5.99357E-003	0.00000E+000	5.86179E-003	3.59960E-001	-1.14442E+000	3.57740E+000	10	...........
	53	0.72	9.83609E-001	5.99471E-003	0.00000E+000	5.89645E-003	3.59960E-001	-1.14677E+000	3.57740E+000	10	...........
	54	0.733333	9.89222E-001	5.99083E-003	0.00000E+000	5.92626E-003	3.59960E-001	-1.15507E+000	3.57740E+000	10	...........
	55	0.746667	9.94712E-001	5.99144E-003	0.00000E+000	5.95976E-003	3.59960E-001	-1.14455E+000	3.57740E+000	10	...........
	56	0.755	9.99192E-001	5.99331E-003	0.00000E+000	5.98846E-003	3.59960E-001	-1.15499E+000	3.57740E+000	10	...........
STARTTIMEOFFSET	QUANT	1000.434	Start Time Offset (s)