File: Data/CV_CRGO300517_1/PWRCCD_CRGO300517_1/CHARGE_DISCHARGE/CHARGE_#395.DTA
EXPLAIN
TAG	PWR800_CHARGE
TITLE	LABEL	PWR Cyclic Charge Discharge (Cell) - Charge Step	Test &Identifier
DATE	LABEL	22-6-2017	Date
TIME	LABEL	15:51:46	Time
NOTES	NOTES	3	&Notes...
	supercap test cell
	0.6mg
	6M KOH
PSTAT	PSTAT	IFC5000-01520	Potentiostat
CAPACITY	QUANT	1.00000E-003	Capacity (A-hr)
CELLTYPE	SELECTOR	1	&Cell Type
WORKINGCONNECTION	SELECTOR	0	&Working Lead
MAXCHARGETIME	VARIABLEANDUNITS	1.00000E+002	s	1.00000E+002	second(s)	Max &Charge Time
CHARGECURRENT	QUANT	6.00000E-003	&Charge Current (A)
VOLTAGEFINISH	TWOPARAM	F	1.00000E-003	3.60000E+003	&Voltage Finish	 I (A) < 	Max Time(s)
SAMPLETIME	QUANT	1.00000E-002	Sa&mple Period (s)
CHARGESTOPAT1	MULTIPARAM	4	1.00000E+000	Charge Stop At &1	Voltage > Limit	V
CHARGESTOPAT2	MULTIPARAM	0	0.00000E+000	Charge Stop At &2	None	N/A
AESBHCSELECTOR	TOGGLE	F	Save Both Half Cells
IRCOMP	TOGGLE	F	IR &Measure
EOC	QUANT	0	Open Circuit (V)
SEQUENCER	TOGGLE	TRUE	Run as Sequence
PSTATMODEL	IQUANT	53	Pstat Model
PSTATSECTION	LABEL	IFC5000-01520	Pstat Section
PSTATSERIALNO	LABEL	01520	Pstat Serial Number
CTRLMODE	IQUANT	0	Control Mode
ELECTROMETER	IQUANT	1	RE=0 or CS=1
IESTAB	IQUANT	0	I/E Stability
CASPEED	IQUANT	4	Control Amp Speed
CONVENTION	IQUANT	1	Current Convention
ICHRANGE	IQUANT	2	Ich Range
ICHRANGEMODE	TOGGLE	T	Ich Auto Range
ICHOFFSETENABLE	TOGGLE	F	Ich Offset Enable
ICHOFFSET	QUANT	0	Ich Offset (V)
ICHFILTER	IQUANT	1	Ich Filter
VCHRANGE	IQUANT	2	Vch Range
VCHRANGEMODE	TOGGLE	T	Vch Auto Range
VCHOFFSETENABLE	TOGGLE	F	Vch Offset Enable
VCHOFFSET	QUANT	0	Vch Offset (V)
VCHFILTER	IQUANT	1	Vch Filter
IERANGELOWERLIMIT	IQUANT	9	I/E Range Lower Limit
IERANGEMODE	TOGGLE	F	I/E AutoRange
IERANGE	IQUANT	10	I/E Range
ACHSELECT	IQUANT	1	Ach Select
ACHRANGE	IQUANT	2	Ach Range
ACHOFFSETENABLE	TOGGLE	F	Ach Offset Enable
ACHOFFSET	QUANT	0	Ach Offset (V)
ACHFILTER	IQUANT	1	Ach Filter
CABLEID	IQUANT	14	Cable ID
DCCALDATE	LABEL	20-10-2016	DC Calibration Date
ACCALDATE	LABEL	12/3/2015	AC Calibration Date
FRAMEWORKVERSION	QUANT	7.01	Framework Version
INSTRUMENTVERSION	LABEL	4.00	Instrument Version
CURVE	TABLE	60
	Pt	T	Vf	Im	Vu	Pwr	Sig	Ach	Temp	IERange	Over
	#	s	V	A	V	W	V	V	deg C	#	bits
	0	0.013333	6.24370E-001	5.99517E-003	0.00000E+000	3.74320E-003	3.59960E-001	-1.12383E+000	3.57790E+000	10	...........
	1	0.026667	6.33047E-001	5.99089E-003	0.00000E+000	3.79252E-003	3.59960E-001	-1.12018E+000	3.57790E+000	10	...........
	2	0.04	6.41101E-001	5.99222E-003	0.00000E+000	3.84162E-003	3.59960E-001	-1.13095E+000	3.57790E+000	10	...........
	3	0.053333	6.48722E-001	5.99338E-003	0.00000E+000	3.88804E-003	3.59960E-001	-1.12372E+000	3.57790E+000	10	...........
	4	0.066667	6.56061E-001	5.99441E-003	0.00000E+000	3.93269E-003	3.59960E-001	-1.12012E+000	3.57790E+000	10	...........
	5	0.08	6.63234E-001	5.99462E-003	0.00000E+000	3.97584E-003	3.59960E-001	-1.13076E+000	3.57790E+000	10	...........
	6	0.093333	6.70282E-001	5.99784E-003	0.00000E+000	4.02024E-003	3.59960E-001	-1.12385E+000	3.57790E+000	10	...........
	7	0.106667	6.77176E-001	5.99370E-003	0.00000E+000	4.05879E-003	3.59960E-001	-1.11984E+000	3.57790E+000	10	...........
	8	0.12	6.83951E-001	5.99601E-003	0.00000E+000	4.10098E-003	3.59960E-001	-1.13010E+000	3.57790E+000	10	...........
	9	0.133333	6.90738E-001	5.99237E-003	0.00000E+000	4.13916E-003	3.59960E-001	-1.12336E+000	3.57790E+000	10	...........
	10	0.146667	6.97438E-001	5.99628E-003	0.00000E+000	4.18204E-003	3.59960E-001	-1.11938E+000	3.57790E+000	10	...........
	11	0.16	7.04068E-001	5.99295E-003	0.00000E+000	4.21944E-003	3.59960E-001	-1.13015E+000	3.57790E+000	10	...........
	12	0.173333	7.10635E-001	5.99698E-003	0.00000E+000	4.26166E-003	3.59960E-001	-1.12342E+000	3.57790E+000	10	...........
	13	0.186667	7.17239E-001	5.99098E-003	0.00000E+000	4.29696E-003	3.59960E-001	-1.11953E+000	3.57790E+000	10	...........
	14	0.2	7.23768E-001	5.99090E-003	0.00000E+000	4.33602E-003	3.59960E-001	-1.13012E+000	3.57790E+000	10	...........
	15	0.213333	7.30252E-001	5.99195E-003	0.00000E+000	4.37563E-003	3.59960E-001	-1.12337E+000	3.57790E+000	10	...........
	16	0.226667	7.36759E-001	5.99737E-003	0.00000E+000	4.41862E-003	3.59960E-001	-1.11946E+000	3.57790E+000	10	...........
	17	0.24	7.43259E-001	5.98961E-003	0.00000E+000	4.45183E-003	3.59960E-001	-1.13006E+000	3.57790E+000	10	...........
	18	0.253333	7.49710E-001	5.99903E-003	0.00000E+000	4.49753E-003	3.59960E-001	-1.12339E+000	3.57790E+000	10	...........
	19	0.266667	7.56159E-001	5.99780E-003	0.00000E+000	4.53529E-003	3.59960E-001	-1.11949E+000	3.57790E+000	10	...........
	20	0.28	7.62540E-001	5.99304E-003	0.00000E+000	4.56993E-003	3.59960E-001	-1.13017E+000	3.57790E+000	10	...........
	21	0.293333	7.68974E-001	5.99811E-003	0.00000E+000	4.61239E-003	3.59960E-001	-1.12352E+000	3.57790E+000	10	...........
	22	0.306667	7.75368E-001	5.99593E-003	0.00000E+000	4.64905E-003	3.59960E-001	-1.11963E+000	3.57790E+000	10	...........
	23	0.32	7.81702E-001	5.99643E-003	0.00000E+000	4.68742E-003	3.59960E-001	-1.13025E+000	3.57790E+000	10	...........
	24	0.333333	7.88029E-001	5.99186E-003	0.00000E+000	4.72176E-003	3.59960E-001	-1.12350E+000	3.57790E+000	10	...........
	25	0.346667	7.94441E-001	5.99537E-003	0.00000E+000	4.76296E-003	3.59960E-001	-1.11951E+000	3.57790E+000	10	...........
	26	0.36	8.00770E-001	5.99865E-003	0.00000E+000	4.80354E-003	3.59960E-001	-1.13017E+000	3.57790E+000	10	...........
	27	0.373333	8.07071E-001	5.99247E-003	0.00000E+000	4.83635E-003	3.59960E-001	-1.12358E+000	3.57790E+000	10	...........
	28	0.386667	8.13390E-001	5.99784E-003	0.00000E+000	4.87858E-003	3.59960E-001	-1.11972E+000	3.57790E+000	10	...........
	29	0.4	8.19701E-001	5.99524E-003	0.00000E+000	4.91431E-003	3.59960E-001	-1.13012E+000	3.57790E+000	10	...........
	30	0.413333	8.25982E-001	5.99395E-003	0.00000E+000	4.95089E-003	3.59960E-001	-1.12328E+000	3.57790E+000	10	...........
	31	0.426667	8.32242E-001	5.98787E-003	0.00000E+000	4.98335E-003	3.59960E-001	-1.11948E+000	3.57790E+000	10	...........
	32	0.44	8.38492E-001	5.99575E-003	0.00000E+000	5.02739E-003	3.59960E-001	-1.12972E+000	3.57790E+000	10	...........
	33	0.453333	8.44727E-001	5.99515E-003	0.00000E+000	5.06426E-003	3.59960E-001	-1.12300E+000	3.57790E+000	10	...........
	34	0.466667	8.50959E-001	5.99486E-003	0.00000E+000	5.10138E-003	3.59960E-001	-1.11913E+000	3.57790E+000	10	...........
	35	0.48	8.57161E-001	5.99340E-003	0.00000E+000	5.13731E-003	3.59960E-001	-1.12969E+000	3.57720E+000	10	...........
	36	0.493333	8.63358E-001	5.98912E-003	0.00000E+000	5.17076E-003	3.59960E-001	-1.12302E+000	3.57720E+000	10	...........
	37	0.506667	8.69553E-001	6.00091E-003	0.00000E+000	5.21811E-003	3.59960E-001	-1.11942E+000	3.57720E+000	10	...........
	38	0.52	8.75682E-001	5.99274E-003	0.00000E+000	5.24773E-003	3.59960E-001	-1.12988E+000	3.57720E+000	10	...........
	39	0.533333	8.81809E-001	5.99596E-003	0.00000E+000	5.28729E-003	3.59960E-001	-1.12297E+000	3.57720E+000	10	...........
	40	0.546667	8.87878E-001	5.99345E-003	0.00000E+000	5.32145E-003	3.59960E-001	-1.11894E+000	3.57720E+000	10	...........
	41	0.56	8.94000E-001	5.99613E-003	0.00000E+000	5.36054E-003	3.59960E-001	-1.12988E+000	3.57720E+000	10	...........
	42	0.573333	9.00086E-001	5.99632E-003	0.00000E+000	5.39720E-003	3.59960E-001	-1.12320E+000	3.57720E+000	10	...........
	43	0.586667	9.06114E-001	5.99268E-003	0.00000E+000	5.43005E-003	3.59960E-001	-1.11925E+000	3.57720E+000	10	...........
	44	0.6	9.12135E-001	5.99512E-003	0.00000E+000	5.46836E-003	3.59960E-001	-1.12985E+000	3.57720E+000	10	...........
	45	0.613333	9.18147E-001	5.99629E-003	0.00000E+000	5.50548E-003	3.59960E-001	-1.12308E+000	3.57720E+000	10	...........
	46	0.626667	9.24137E-001	5.98907E-003	0.00000E+000	5.53472E-003	3.59960E-001	-1.11920E+000	3.57720E+000	10	...........
	47	0.64	9.30079E-001	5.99397E-003	0.00000E+000	5.57487E-003	3.59960E-001	-1.13006E+000	3.57720E+000	10	...........
	48	0.653333	9.35998E-001	5.99785E-003	0.00000E+000	5.61397E-003	3.59960E-001	-1.12309E+000	3.57720E+000	10	...........
	49	0.666667	9.41812E-001	5.99004E-003	0.00000E+000	5.64149E-003	3.59960E-001	-1.11906E+000	3.57720E+000	10	...........
	50	0.68	9.47660E-001	5.99661E-003	0.00000E+000	5.68274E-003	3.59960E-001	-1.12989E+000	3.57720E+000	10	...........
	51	0.693333	9.53443E-001	5.99243E-003	0.00000E+000	5.71344E-003	3.59960E-001	-1.12334E+000	3.57720E+000	10	...........
	52	0.706667	9.59165E-001	5.99376E-003	0.00000E+000	5.74901E-003	3.59960E-001	-1.11948E+000	3.57720E+000	10	...........
	53	0.72	9.64895E-001	5.99466E-003	0.00000E+000	5.78421E-003	3.59960E-001	-1.13002E+000	3.57720E+000	10	...........
	54	0.733333	9.70543E-001	5.99180E-003	0.00000E+000	5.81530E-003	3.59960E-001	-1.12301E+000	3.57720E+000	10	...........
	55	0.746667	9.76178E-001	5.99177E-003	0.00000E+000	5.84903E-003	3.59960E-001	-1.11906E+000	3.57720E+000	10	...........
	56	0.76	9.81752E-001	5.99398E-003	0.00000E+000	5.88460E-003	3.59960E-001	-1.12957E+000	3.57720E+000	10	...........
	57	0.773333	9.87289E-001	5.99279E-003	0.00000E+000	5.91662E-003	3.59960E-001	-1.12283E+000	3.57720E+000	10	...........
	58	0.786667	9.92769E-001	5.99433E-003	0.00000E+000	5.95099E-003	3.59960E-001	-1.11893E+000	3.57720E+000	10	...........
	59	0.8	9.98250E-001	5.98832E-003	0.00000E+000	5.97783E-003	3.59960E-001	-1.12939E+000	3.57720E+000	10	...........
STARTTIMEOFFSET	QUANT	694.7251	Start Time Offset (s)