File: Data/CV_CRGO300517_1/PWRCCD_CRGO300517_1/CHARGE_DISCHARGE/CHARGE_#882.DTA
EXPLAIN
TAG	PWR800_CHARGE
TITLE	LABEL	PWR Cyclic Charge Discharge (Cell) - Charge Step	Test &Identifier
DATE	LABEL	22-6-2017	Date
TIME	LABEL	16:10:19	Time
NOTES	NOTES	3	&Notes...
	supercap test cell
	0.6mg
	6M KOH
PSTAT	PSTAT	IFC5000-01520	Potentiostat
CAPACITY	QUANT	1.00000E-003	Capacity (A-hr)
CELLTYPE	SELECTOR	1	&Cell Type
WORKINGCONNECTION	SELECTOR	0	&Working Lead
MAXCHARGETIME	VARIABLEANDUNITS	1.00000E+002	s	1.00000E+002	second(s)	Max &Charge Time
CHARGECURRENT	QUANT	6.00000E-003	&Charge Current (A)
VOLTAGEFINISH	TWOPARAM	F	1.00000E-003	3.60000E+003	&Voltage Finish	 I (A) < 	Max Time(s)
SAMPLETIME	QUANT	1.00000E-002	Sa&mple Period (s)
CHARGESTOPAT1	MULTIPARAM	4	1.00000E+000	Charge Stop At &1	Voltage > Limit	V
CHARGESTOPAT2	MULTIPARAM	0	0.00000E+000	Charge Stop At &2	None	N/A
AESBHCSELECTOR	TOGGLE	F	Save Both Half Cells
IRCOMP	TOGGLE	F	IR &Measure
EOC	QUANT	0	Open Circuit (V)
SEQUENCER	TOGGLE	TRUE	Run as Sequence
PSTATMODEL	IQUANT	53	Pstat Model
PSTATSECTION	LABEL	IFC5000-01520	Pstat Section
PSTATSERIALNO	LABEL	01520	Pstat Serial Number
CTRLMODE	IQUANT	0	Control Mode
ELECTROMETER	IQUANT	1	RE=0 or CS=1
IESTAB	IQUANT	0	I/E Stability
CASPEED	IQUANT	4	Control Amp Speed
CONVENTION	IQUANT	1	Current Convention
ICHRANGE	IQUANT	2	Ich Range
ICHRANGEMODE	TOGGLE	T	Ich Auto Range
ICHOFFSETENABLE	TOGGLE	F	Ich Offset Enable
ICHOFFSET	QUANT	0	Ich Offset (V)
ICHFILTER	IQUANT	1	Ich Filter
VCHRANGE	IQUANT	2	Vch Range
VCHRANGEMODE	TOGGLE	T	Vch Auto Range
VCHOFFSETENABLE	TOGGLE	F	Vch Offset Enable
VCHOFFSET	QUANT	0	Vch Offset (V)
VCHFILTER	IQUANT	1	Vch Filter
IERANGELOWERLIMIT	IQUANT	9	I/E Range Lower Limit
IERANGEMODE	TOGGLE	F	I/E AutoRange
IERANGE	IQUANT	10	I/E Range
ACHSELECT	IQUANT	1	Ach Select
ACHRANGE	IQUANT	2	Ach Range
ACHOFFSETENABLE	TOGGLE	F	Ach Offset Enable
ACHOFFSET	QUANT	0	Ach Offset (V)
ACHFILTER	IQUANT	1	Ach Filter
CABLEID	IQUANT	14	Cable ID
DCCALDATE	LABEL	20-10-2016	DC Calibration Date
ACCALDATE	LABEL	12/3/2015	AC Calibration Date
FRAMEWORKVERSION	QUANT	7.01	Framework Version
INSTRUMENTVERSION	LABEL	4.00	Instrument Version
CURVE	TABLE	54
	Pt	T	Vf	Im	Vu	Pwr	Sig	Ach	Temp	IERange	Over
	#	s	V	A	V	W	V	V	deg C	#	bits
	0	0.013333	6.52399E-001	5.99574E-003	0.00000E+000	3.91162E-003	3.59960E-001	-1.16582E+000	3.57630E+000	10	...........
	1	0.026667	6.61659E-001	5.99061E-003	0.00000E+000	3.96374E-003	3.59960E-001	-1.17154E+000	3.57630E+000	10	...........
	2	0.04	6.70211E-001	5.99021E-003	0.00000E+000	4.01471E-003	3.59960E-001	-1.16177E+000	3.57630E+000	10	...........
	3	0.053333	6.78275E-001	5.99541E-003	0.00000E+000	4.06654E-003	3.59960E-001	-1.16588E+000	3.57630E+000	10	...........
	4	0.066667	6.86049E-001	5.99539E-003	0.00000E+000	4.11313E-003	3.59960E-001	-1.17160E+000	3.57630E+000	10	...........
	5	0.08	6.93648E-001	5.98772E-003	0.00000E+000	4.15337E-003	3.59960E-001	-1.16185E+000	3.57630E+000	10	...........
	6	0.093333	7.01051E-001	5.99573E-003	0.00000E+000	4.20331E-003	3.59960E-001	-1.16563E+000	3.57645E+000	10	...........
	7	0.106667	7.08382E-001	5.99625E-003	0.00000E+000	4.24764E-003	3.59960E-001	-1.17174E+000	3.57660E+000	10	...........
	8	0.12	7.15606E-001	5.98748E-003	0.00000E+000	4.28468E-003	3.59960E-001	-1.16215E+000	3.57660E+000	10	...........
	9	0.133333	7.22775E-001	5.99196E-003	0.00000E+000	4.33084E-003	3.59960E-001	-1.16588E+000	3.57660E+000	10	...........
	10	0.146667	7.29844E-001	5.99741E-003	0.00000E+000	4.37718E-003	3.59960E-001	-1.17198E+000	3.57660E+000	10	...........
	11	0.16	7.36809E-001	5.99149E-003	0.00000E+000	4.41458E-003	3.59960E-001	-1.16215E+000	3.57660E+000	10	...........
	12	0.173333	7.43839E-001	5.99474E-003	0.00000E+000	4.45912E-003	3.59960E-001	-1.16575E+000	3.57660E+000	10	...........
	13	0.186667	7.50768E-001	5.99776E-003	0.00000E+000	4.50292E-003	3.59960E-001	-1.17236E+000	3.57660E+000	10	...........
	14	0.2	7.57633E-001	5.99147E-003	0.00000E+000	4.53933E-003	3.59960E-001	-1.16245E+000	3.57660E+000	10	...........
	15	0.213333	7.64482E-001	5.99867E-003	0.00000E+000	4.58588E-003	3.59960E-001	-1.16578E+000	3.57660E+000	10	...........
	16	0.226667	7.71362E-001	5.99608E-003	0.00000E+000	4.62514E-003	3.59960E-001	-1.17209E+000	3.57660E+000	10	...........
	17	0.24	7.78198E-001	5.99311E-003	0.00000E+000	4.66383E-003	3.59960E-001	-1.16240E+000	3.57660E+000	10	...........
	18	0.253333	7.84994E-001	5.99263E-003	0.00000E+000	4.70418E-003	3.59960E-001	-1.16593E+000	3.57660E+000	10	...........
	19	0.266667	7.91736E-001	5.99243E-003	0.00000E+000	4.74442E-003	3.59960E-001	-1.17262E+000	3.57660E+000	10	...........
	20	0.28	7.98473E-001	5.99373E-003	0.00000E+000	4.78583E-003	3.59960E-001	-1.16281E+000	3.57660E+000	10	...........
	21	0.293333	8.05148E-001	5.99207E-003	0.00000E+000	4.82450E-003	3.59960E-001	-1.16564E+000	3.57660E+000	10	...........
	22	0.306667	8.11804E-001	5.99781E-003	0.00000E+000	4.86905E-003	3.59960E-001	-1.17247E+000	3.57660E+000	10	...........
	23	0.32	8.18472E-001	5.99728E-003	0.00000E+000	4.90860E-003	3.59960E-001	-1.16254E+000	3.57660E+000	10	...........
	24	0.333333	8.25097E-001	5.99442E-003	0.00000E+000	4.94597E-003	3.59960E-001	-1.16593E+000	3.57660E+000	10	...........
	25	0.346667	8.31680E-001	5.99314E-003	0.00000E+000	4.98438E-003	3.59960E-001	-1.17265E+000	3.57660E+000	10	...........
	26	0.36	8.38259E-001	5.99790E-003	0.00000E+000	5.02780E-003	3.59960E-001	-1.16217E+000	3.57660E+000	10	...........
	27	0.373333	8.44833E-001	5.99745E-003	0.00000E+000	5.06684E-003	3.59960E-001	-1.16499E+000	3.57660E+000	10	...........
	28	0.386667	8.51378E-001	5.99185E-003	0.00000E+000	5.10133E-003	3.59960E-001	-1.17233E+000	3.57660E+000	10	...........
	29	0.4	8.57890E-001	5.99129E-003	0.00000E+000	5.13987E-003	3.59960E-001	-1.16208E+000	3.57660E+000	10	...........
	30	0.413333	8.64393E-001	5.99551E-003	0.00000E+000	5.18248E-003	3.59960E-001	-1.16503E+000	3.57660E+000	10	...........
	31	0.426667	8.70845E-001	5.99477E-003	0.00000E+000	5.22052E-003	3.59960E-001	-1.17189E+000	3.57660E+000	10	...........
	32	0.44	8.77244E-001	5.99235E-003	0.00000E+000	5.25675E-003	3.59960E-001	-1.16137E+000	3.57660E+000	10	...........
	33	0.453333	8.83630E-001	5.99618E-003	0.00000E+000	5.29840E-003	3.59960E-001	-1.16415E+000	3.57660E+000	10	...........
	34	0.466667	8.90022E-001	5.99060E-003	0.00000E+000	5.33177E-003	3.59960E-001	-1.17178E+000	3.57660E+000	10	...........
	35	0.48	8.96336E-001	5.99237E-003	0.00000E+000	5.37118E-003	3.59960E-001	-1.16170E+000	3.57660E+000	10	...........
	36	0.493333	9.02617E-001	5.99300E-003	0.00000E+000	5.40938E-003	3.59960E-001	-1.16382E+000	3.57660E+000	10	...........
	37	0.506667	9.08845E-001	5.99653E-003	0.00000E+000	5.44992E-003	3.59960E-001	-1.17150E+000	3.57660E+000	10	...........
	38	0.52	9.15056E-001	5.99544E-003	0.00000E+000	5.48616E-003	3.59960E-001	-1.16121E+000	3.57660E+000	10	...........
	39	0.533333	9.21267E-001	5.99404E-003	0.00000E+000	5.52212E-003	3.59960E-001	-1.16394E+000	3.57660E+000	10	...........
	40	0.546667	9.27421E-001	5.99515E-003	0.00000E+000	5.56002E-003	3.59960E-001	-1.17165E+000	3.57660E+000	10	...........
	41	0.56	9.33519E-001	5.99532E-003	0.00000E+000	5.59675E-003	3.59960E-001	-1.16101E+000	3.57660E+000	10	...........
	42	0.573333	9.39564E-001	5.99552E-003	0.00000E+000	5.63318E-003	3.59960E-001	-1.16375E+000	3.57660E+000	10	...........
	43	0.586667	9.45571E-001	5.98881E-003	0.00000E+000	5.66284E-003	3.59960E-001	-1.17172E+000	3.57660E+000	10	...........
	44	0.6	9.51539E-001	5.99507E-003	0.00000E+000	5.70454E-003	3.59960E-001	-1.16156E+000	3.57660E+000	10	...........
	45	0.613333	9.57423E-001	5.98761E-003	0.00000E+000	5.73267E-003	3.59960E-001	-1.16400E+000	3.57660E+000	10	...........
	46	0.626667	9.63273E-001	5.99340E-003	0.00000E+000	5.77327E-003	3.59960E-001	-1.17187E+000	3.57660E+000	10	...........
	47	0.64	9.69054E-001	5.99418E-003	0.00000E+000	5.80868E-003	3.59960E-001	-1.16153E+000	3.57660E+000	10	...........
	48	0.653333	9.74785E-001	5.99604E-003	0.00000E+000	5.84485E-003	3.59960E-001	-1.16392E+000	3.57660E+000	10	...........
	49	0.666667	9.80478E-001	5.99478E-003	0.00000E+000	5.87775E-003	3.59960E-001	-1.17243E+000	3.57660E+000	10	...........
	50	0.68	9.86094E-001	5.99290E-003	0.00000E+000	5.90957E-003	3.59960E-001	-1.16174E+000	3.57660E+000	10	...........
	51	0.693333	9.91701E-001	5.99045E-003	0.00000E+000	5.94074E-003	3.59960E-001	-1.16378E+000	3.57660E+000	10	...........
	52	0.706667	9.97278E-001	5.99861E-003	0.00000E+000	5.98228E-003	3.59960E-001	-1.17187E+000	3.57660E+000	10	...........
	53	0.708333	1.00035E+000	5.98203E-003	0.00000E+000	5.98414E-003	3.59960E-001	-1.16281E+000	3.57660E+000	10	...........
STARTTIMEOFFSET	QUANT	1420.723	Start Time Offset (s)