File: Data/CV_CRGO300517_1/PWRCCD_CRGO300517_1/CHARGE_DISCHARGE/CHARGE_#420.DTA
EXPLAIN
TAG	PWR800_CHARGE
TITLE	LABEL	PWR Cyclic Charge Discharge (Cell) - Charge Step	Test &Identifier
DATE	LABEL	22-6-2017	Date
TIME	LABEL	15:52:46	Time
NOTES	NOTES	3	&Notes...
	supercap test cell
	0.6mg
	6M KOH
PSTAT	PSTAT	IFC5000-01520	Potentiostat
CAPACITY	QUANT	1.00000E-003	Capacity (A-hr)
CELLTYPE	SELECTOR	1	&Cell Type
WORKINGCONNECTION	SELECTOR	0	&Working Lead
MAXCHARGETIME	VARIABLEANDUNITS	1.00000E+002	s	1.00000E+002	second(s)	Max &Charge Time
CHARGECURRENT	QUANT	6.00000E-003	&Charge Current (A)
VOLTAGEFINISH	TWOPARAM	F	1.00000E-003	3.60000E+003	&Voltage Finish	 I (A) < 	Max Time(s)
SAMPLETIME	QUANT	1.00000E-002	Sa&mple Period (s)
CHARGESTOPAT1	MULTIPARAM	4	1.00000E+000	Charge Stop At &1	Voltage > Limit	V
CHARGESTOPAT2	MULTIPARAM	0	0.00000E+000	Charge Stop At &2	None	N/A
AESBHCSELECTOR	TOGGLE	F	Save Both Half Cells
IRCOMP	TOGGLE	F	IR &Measure
EOC	QUANT	0	Open Circuit (V)
SEQUENCER	TOGGLE	TRUE	Run as Sequence
PSTATMODEL	IQUANT	53	Pstat Model
PSTATSECTION	LABEL	IFC5000-01520	Pstat Section
PSTATSERIALNO	LABEL	01520	Pstat Serial Number
CTRLMODE	IQUANT	0	Control Mode
ELECTROMETER	IQUANT	1	RE=0 or CS=1
IESTAB	IQUANT	0	I/E Stability
CASPEED	IQUANT	4	Control Amp Speed
CONVENTION	IQUANT	1	Current Convention
ICHRANGE	IQUANT	2	Ich Range
ICHRANGEMODE	TOGGLE	T	Ich Auto Range
ICHOFFSETENABLE	TOGGLE	F	Ich Offset Enable
ICHOFFSET	QUANT	0	Ich Offset (V)
ICHFILTER	IQUANT	1	Ich Filter
VCHRANGE	IQUANT	2	Vch Range
VCHRANGEMODE	TOGGLE	T	Vch Auto Range
VCHOFFSETENABLE	TOGGLE	F	Vch Offset Enable
VCHOFFSET	QUANT	0	Vch Offset (V)
VCHFILTER	IQUANT	1	Vch Filter
IERANGELOWERLIMIT	IQUANT	9	I/E Range Lower Limit
IERANGEMODE	TOGGLE	F	I/E AutoRange
IERANGE	IQUANT	10	I/E Range
ACHSELECT	IQUANT	1	Ach Select
ACHRANGE	IQUANT	2	Ach Range
ACHOFFSETENABLE	TOGGLE	F	Ach Offset Enable
ACHOFFSET	QUANT	0	Ach Offset (V)
ACHFILTER	IQUANT	1	Ach Filter
CABLEID	IQUANT	14	Cable ID
DCCALDATE	LABEL	20-10-2016	DC Calibration Date
ACCALDATE	LABEL	12/3/2015	AC Calibration Date
FRAMEWORKVERSION	QUANT	7.01	Framework Version
INSTRUMENTVERSION	LABEL	4.00	Instrument Version
CURVE	TABLE	60
	Pt	T	Vf	Im	Vu	Pwr	Sig	Ach	Temp	IERange	Over
	#	s	V	A	V	W	V	V	deg C	#	bits
	0	0.013333	6.26122E-001	5.99375E-003	0.00000E+000	3.75282E-003	3.59960E-001	-1.13897E+000	3.57660E+000	10	...........
	1	0.026667	6.34862E-001	5.99387E-003	0.00000E+000	3.80528E-003	3.59960E-001	-1.13008E+000	3.57660E+000	10	...........
	2	0.04	6.42969E-001	5.99811E-003	0.00000E+000	3.85660E-003	3.59960E-001	-1.13456E+000	3.57660E+000	10	...........
	3	0.053333	6.50627E-001	5.99483E-003	0.00000E+000	3.90040E-003	3.59960E-001	-1.13866E+000	3.57660E+000	10	...........
	4	0.066667	6.57991E-001	5.99159E-003	0.00000E+000	3.94241E-003	3.59960E-001	-1.12991E+000	3.57660E+000	10	...........
	5	0.08	6.65185E-001	5.99935E-003	0.00000E+000	3.99068E-003	3.59960E-001	-1.13422E+000	3.57660E+000	10	...........
	6	0.093333	6.72243E-001	5.99375E-003	0.00000E+000	4.02925E-003	3.59960E-001	-1.13808E+000	3.57660E+000	10	...........
	7	0.106667	6.79190E-001	5.99316E-003	0.00000E+000	4.07049E-003	3.59960E-001	-1.12912E+000	3.57660E+000	10	...........
	8	0.12	6.86015E-001	5.99550E-003	0.00000E+000	4.11301E-003	3.59960E-001	-1.13379E+000	3.57694E+000	10	...........
	9	0.133333	6.92812E-001	5.99530E-003	0.00000E+000	4.15362E-003	3.59960E-001	-1.13781E+000	3.57750E+000	10	...........
	10	0.146667	6.99544E-001	5.99905E-003	0.00000E+000	4.19660E-003	3.59960E-001	-1.12926E+000	3.57750E+000	10	...........
	11	0.16	7.06183E-001	5.99399E-003	0.00000E+000	4.23285E-003	3.59960E-001	-1.13384E+000	3.57750E+000	10	...........
	12	0.173333	7.12825E-001	5.99758E-003	0.00000E+000	4.27523E-003	3.59960E-001	-1.13771E+000	3.57750E+000	10	...........
	13	0.186667	7.19416E-001	5.99176E-003	0.00000E+000	4.31057E-003	3.59960E-001	-1.12907E+000	3.57750E+000	10	...........
	14	0.2	7.25991E-001	5.99704E-003	0.00000E+000	4.35380E-003	3.59960E-001	-1.13405E+000	3.57750E+000	10	...........
	15	0.213333	7.32533E-001	5.99667E-003	0.00000E+000	4.39276E-003	3.59960E-001	-1.13754E+000	3.57750E+000	10	...........
	16	0.226667	7.38972E-001	5.99659E-003	0.00000E+000	4.43131E-003	3.59960E-001	-1.12912E+000	3.57750E+000	10	...........
	17	0.24	7.45501E-001	5.99529E-003	0.00000E+000	4.46950E-003	3.59960E-001	-1.13391E+000	3.57750E+000	10	...........
	18	0.253333	7.51989E-001	5.99143E-003	0.00000E+000	4.50549E-003	3.59960E-001	-1.13732E+000	3.57750E+000	10	...........
	19	0.266667	7.58458E-001	5.99317E-003	0.00000E+000	4.54557E-003	3.59960E-001	-1.12896E+000	3.57750E+000	10	...........
	20	0.28	7.64927E-001	5.99094E-003	0.00000E+000	4.58264E-003	3.59960E-001	-1.13412E+000	3.57750E+000	10	...........
	21	0.293333	7.71344E-001	5.99272E-003	0.00000E+000	4.62245E-003	3.59960E-001	-1.13736E+000	3.57750E+000	10	...........
	22	0.306667	7.77756E-001	5.99419E-003	0.00000E+000	4.66201E-003	3.59960E-001	-1.12923E+000	3.57750E+000	10	...........
	23	0.32	7.84145E-001	5.99508E-003	0.00000E+000	4.70102E-003	3.59960E-001	-1.13433E+000	3.57750E+000	10	...........
	24	0.333333	7.90540E-001	5.99426E-003	0.00000E+000	4.73870E-003	3.59960E-001	-1.13751E+000	3.57750E+000	10	...........
	25	0.346667	7.96903E-001	5.99087E-003	0.00000E+000	4.77414E-003	3.59960E-001	-1.12918E+000	3.57750E+000	10	...........
	26	0.36	8.03262E-001	5.99202E-003	0.00000E+000	4.81316E-003	3.59960E-001	-1.13440E+000	3.57750E+000	10	...........
	27	0.373333	8.09581E-001	5.99383E-003	0.00000E+000	4.85249E-003	3.59960E-001	-1.13743E+000	3.57750E+000	10	...........
	28	0.386667	8.15887E-001	5.99342E-003	0.00000E+000	4.88995E-003	3.59960E-001	-1.12912E+000	3.57750E+000	10	...........
	29	0.4	8.22235E-001	5.99429E-003	0.00000E+000	4.92871E-003	3.59960E-001	-1.13414E+000	3.57750E+000	10	...........
	30	0.413333	8.28512E-001	5.99671E-003	0.00000E+000	4.96835E-003	3.59960E-001	-1.13694E+000	3.57750E+000	10	...........
	31	0.426667	8.34780E-001	5.99629E-003	0.00000E+000	5.00559E-003	3.59960E-001	-1.12880E+000	3.57750E+000	10	...........
	32	0.44	8.41066E-001	5.99706E-003	0.00000E+000	5.04392E-003	3.59960E-001	-1.13401E+000	3.57750E+000	10	...........
	33	0.453333	8.47348E-001	5.99422E-003	0.00000E+000	5.07919E-003	3.59960E-001	-1.13680E+000	3.57750E+000	10	...........
	34	0.466667	8.53605E-001	5.99077E-003	0.00000E+000	5.11375E-003	3.59960E-001	-1.12867E+000	3.57750E+000	10	...........
	35	0.48	8.59803E-001	5.99449E-003	0.00000E+000	5.15408E-003	3.59960E-001	-1.13424E+000	3.57750E+000	10	...........
	36	0.493333	8.66034E-001	6.00173E-003	0.00000E+000	5.19770E-003	3.59960E-001	-1.13689E+000	3.57750E+000	10	...........
	37	0.506667	8.72219E-001	5.99415E-003	0.00000E+000	5.22821E-003	3.59960E-001	-1.12871E+000	3.57750E+000	10	...........
	38	0.52	8.78369E-001	5.99215E-003	0.00000E+000	5.26332E-003	3.59960E-001	-1.13410E+000	3.57750E+000	10	...........
	39	0.533333	8.84536E-001	5.99272E-003	0.00000E+000	5.30078E-003	3.59960E-001	-1.13655E+000	3.57750E+000	10	...........
	40	0.546667	8.90649E-001	5.99478E-003	0.00000E+000	5.33924E-003	3.59960E-001	-1.12864E+000	3.57750E+000	10	...........
	41	0.56	8.96743E-001	5.99758E-003	0.00000E+000	5.37829E-003	3.59960E-001	-1.13441E+000	3.57750E+000	10	...........
	42	0.573333	9.02792E-001	5.99108E-003	0.00000E+000	5.40870E-003	3.59960E-001	-1.13643E+000	3.57750E+000	10	...........
	43	0.586667	9.08831E-001	5.99694E-003	0.00000E+000	5.45021E-003	3.59960E-001	-1.12839E+000	3.57750E+000	10	...........
	44	0.6	9.14840E-001	5.99468E-003	0.00000E+000	5.48417E-003	3.59960E-001	-1.13408E+000	3.57750E+000	10	...........
	45	0.613333	9.20887E-001	5.99652E-003	0.00000E+000	5.52212E-003	3.59960E-001	-1.13644E+000	3.57750E+000	10	...........
	46	0.626667	9.26852E-001	5.99217E-003	0.00000E+000	5.55386E-003	3.59960E-001	-1.12867E+000	3.57750E+000	10	...........
	47	0.64	9.32760E-001	5.99124E-003	0.00000E+000	5.58839E-003	3.59960E-001	-1.13436E+000	3.57750E+000	10	...........
	48	0.653333	9.38639E-001	5.99919E-003	0.00000E+000	5.63108E-003	3.59960E-001	-1.13649E+000	3.57750E+000	10	...........
	49	0.666667	9.44522E-001	5.99169E-003	0.00000E+000	5.65929E-003	3.59960E-001	-1.12841E+000	3.57750E+000	10	...........
	50	0.68	9.50371E-001	5.99052E-003	0.00000E+000	5.69321E-003	3.59960E-001	-1.13453E+000	3.57750E+000	10	...........
	51	0.693333	9.56114E-001	5.99205E-003	0.00000E+000	5.72908E-003	3.59960E-001	-1.13631E+000	3.57750E+000	10	...........
	52	0.706667	9.61864E-001	5.99302E-003	0.00000E+000	5.76447E-003	3.59960E-001	-1.12846E+000	3.57750E+000	10	...........
	53	0.72	9.67547E-001	5.99715E-003	0.00000E+000	5.80252E-003	3.59960E-001	-1.13413E+000	3.57750E+000	10	...........
	54	0.733333	9.73242E-001	5.99249E-003	0.00000E+000	5.83214E-003	3.59960E-001	-1.13571E+000	3.57750E+000	10	...........
	55	0.746667	9.78822E-001	5.99484E-003	0.00000E+000	5.86789E-003	3.59960E-001	-1.12783E+000	3.57750E+000	10	...........
	56	0.76	9.84401E-001	6.00070E-003	0.00000E+000	5.90709E-003	3.59960E-001	-1.13436E+000	3.57750E+000	10	...........
	57	0.773333	9.89928E-001	5.99054E-003	0.00000E+000	5.93020E-003	3.59960E-001	-1.13591E+000	3.57750E+000	10	...........
	58	0.786667	9.95435E-001	5.99302E-003	0.00000E+000	5.96566E-003	3.59960E-001	-1.12783E+000	3.57750E+000	10	...........
	59	0.793333	9.99521E-001	5.99556E-003	0.00000E+000	5.99269E-003	3.59960E-001	-1.14161E+000	3.57750E+000	10	...........
STARTTIMEOFFSET	QUANT	734.3251	Start Time Offset (s)