File: Data/CV_CRGO300517_1/PWRCCD_CRGO300517_1/CHARGE_DISCHARGE/CHARGE_#912.DTA
EXPLAIN
TAG	PWR800_CHARGE
TITLE	LABEL	PWR Cyclic Charge Discharge (Cell) - Charge Step	Test &Identifier
DATE	LABEL	22-6-2017	Date
TIME	LABEL	16:11:25	Time
NOTES	NOTES	3	&Notes...
	supercap test cell
	0.6mg
	6M KOH
PSTAT	PSTAT	IFC5000-01520	Potentiostat
CAPACITY	QUANT	1.00000E-003	Capacity (A-hr)
CELLTYPE	SELECTOR	1	&Cell Type
WORKINGCONNECTION	SELECTOR	0	&Working Lead
MAXCHARGETIME	VARIABLEANDUNITS	1.00000E+002	s	1.00000E+002	second(s)	Max &Charge Time
CHARGECURRENT	QUANT	6.00000E-003	&Charge Current (A)
VOLTAGEFINISH	TWOPARAM	F	1.00000E-003	3.60000E+003	&Voltage Finish	 I (A) < 	Max Time(s)
SAMPLETIME	QUANT	1.00000E-002	Sa&mple Period (s)
CHARGESTOPAT1	MULTIPARAM	4	1.00000E+000	Charge Stop At &1	Voltage > Limit	V
CHARGESTOPAT2	MULTIPARAM	0	0.00000E+000	Charge Stop At &2	None	N/A
AESBHCSELECTOR	TOGGLE	F	Save Both Half Cells
IRCOMP	TOGGLE	F	IR &Measure
EOC	QUANT	0	Open Circuit (V)
SEQUENCER	TOGGLE	TRUE	Run as Sequence
PSTATMODEL	IQUANT	53	Pstat Model
PSTATSECTION	LABEL	IFC5000-01520	Pstat Section
PSTATSERIALNO	LABEL	01520	Pstat Serial Number
CTRLMODE	IQUANT	0	Control Mode
ELECTROMETER	IQUANT	1	RE=0 or CS=1
IESTAB	IQUANT	0	I/E Stability
CASPEED	IQUANT	4	Control Amp Speed
CONVENTION	IQUANT	1	Current Convention
ICHRANGE	IQUANT	2	Ich Range
ICHRANGEMODE	TOGGLE	T	Ich Auto Range
ICHOFFSETENABLE	TOGGLE	F	Ich Offset Enable
ICHOFFSET	QUANT	0	Ich Offset (V)
ICHFILTER	IQUANT	1	Ich Filter
VCHRANGE	IQUANT	2	Vch Range
VCHRANGEMODE	TOGGLE	T	Vch Auto Range
VCHOFFSETENABLE	TOGGLE	F	Vch Offset Enable
VCHOFFSET	QUANT	0	Vch Offset (V)
VCHFILTER	IQUANT	1	Vch Filter
IERANGELOWERLIMIT	IQUANT	9	I/E Range Lower Limit
IERANGEMODE	TOGGLE	F	I/E AutoRange
IERANGE	IQUANT	10	I/E Range
ACHSELECT	IQUANT	1	Ach Select
ACHRANGE	IQUANT	2	Ach Range
ACHOFFSETENABLE	TOGGLE	F	Ach Offset Enable
ACHOFFSET	QUANT	0	Ach Offset (V)
ACHFILTER	IQUANT	1	Ach Filter
CABLEID	IQUANT	14	Cable ID
DCCALDATE	LABEL	20-10-2016	DC Calibration Date
ACCALDATE	LABEL	12/3/2015	AC Calibration Date
FRAMEWORKVERSION	QUANT	7.01	Framework Version
INSTRUMENTVERSION	LABEL	4.00	Instrument Version
CURVE	TABLE	53
	Pt	T	Vf	Im	Vu	Pwr	Sig	Ach	Temp	IERange	Over
	#	s	V	A	V	W	V	V	deg C	#	bits
	0	0.013333	6.53131E-001	5.99297E-003	0.00000E+000	3.91419E-003	3.59960E-001	-1.17300E+000	3.57650E+000	10	...........
	1	0.026667	6.62393E-001	5.99528E-003	0.00000E+000	3.97123E-003	3.59960E-001	-1.17897E+000	3.57650E+000	10	...........
	2	0.04	6.70974E-001	5.99166E-003	0.00000E+000	4.02025E-003	3.59960E-001	-1.16911E+000	3.57650E+000	10	...........
	3	0.053333	6.79077E-001	5.99660E-003	0.00000E+000	4.07215E-003	3.59960E-001	-1.17270E+000	3.57650E+000	10	...........
	4	0.066667	6.86876E-001	5.99259E-003	0.00000E+000	4.11617E-003	3.59960E-001	-1.17867E+000	3.57650E+000	10	...........
	5	0.08	6.94511E-001	5.99186E-003	0.00000E+000	4.16141E-003	3.59960E-001	-1.16868E+000	3.57650E+000	10	...........
	6	0.093333	7.01939E-001	5.99497E-003	0.00000E+000	4.20810E-003	3.59960E-001	-1.17225E+000	3.57650E+000	10	...........
	7	0.106667	7.09282E-001	5.99580E-003	0.00000E+000	4.25271E-003	3.59960E-001	-1.17844E+000	3.57650E+000	10	...........
	8	0.12	7.16570E-001	5.99418E-003	0.00000E+000	4.29525E-003	3.59960E-001	-1.16857E+000	3.57650E+000	10	...........
	9	0.133333	7.23772E-001	5.99834E-003	0.00000E+000	4.34143E-003	3.59960E-001	-1.17222E+000	3.57650E+000	10	...........
	10	0.146667	7.30836E-001	5.99353E-003	0.00000E+000	4.38029E-003	3.59960E-001	-1.17846E+000	3.57650E+000	10	...........
	11	0.16	7.37858E-001	5.98987E-003	0.00000E+000	4.41968E-003	3.59960E-001	-1.16836E+000	3.57650E+000	10	...........
	12	0.173333	7.44901E-001	5.99276E-003	0.00000E+000	4.46401E-003	3.59960E-001	-1.17183E+000	3.57650E+000	10	...........
	13	0.186667	7.51870E-001	5.99323E-003	0.00000E+000	4.50613E-003	3.59960E-001	-1.17852E+000	3.57650E+000	10	...........
	14	0.2	7.58799E-001	5.99354E-003	0.00000E+000	4.54789E-003	3.59960E-001	-1.16844E+000	3.57650E+000	10	...........
	15	0.213333	7.65662E-001	5.99883E-003	0.00000E+000	4.59308E-003	3.59960E-001	-1.17184E+000	3.57650E+000	10	...........
	16	0.226667	7.72527E-001	5.99420E-003	0.00000E+000	4.63068E-003	3.59960E-001	-1.17850E+000	3.57650E+000	10	...........
	17	0.24	7.79352E-001	5.98842E-003	0.00000E+000	4.66709E-003	3.59960E-001	-1.16832E+000	3.57650E+000	10	...........
	18	0.253333	7.86145E-001	5.99219E-003	0.00000E+000	4.71073E-003	3.59960E-001	-1.17169E+000	3.57650E+000	10	...........
	19	0.266667	7.92911E-001	5.99174E-003	0.00000E+000	4.75091E-003	3.59960E-001	-1.17859E+000	3.57650E+000	10	...........
	20	0.28	7.99691E-001	5.99067E-003	0.00000E+000	4.79069E-003	3.59960E-001	-1.16850E+000	3.57650E+000	10	...........
	21	0.293333	8.06360E-001	5.99208E-003	0.00000E+000	4.83177E-003	3.59960E-001	-1.17174E+000	3.57650E+000	10	...........
	22	0.306667	8.13084E-001	5.99261E-003	0.00000E+000	4.87250E-003	3.59960E-001	-1.17878E+000	3.57650E+000	10	...........
	23	0.32	8.19770E-001	5.99110E-003	0.00000E+000	4.91132E-003	3.59960E-001	-1.16841E+000	3.57650E+000	10	...........
	24	0.333333	8.26412E-001	5.99374E-003	0.00000E+000	4.95330E-003	3.59960E-001	-1.17159E+000	3.57650E+000	10	...........
	25	0.346667	8.33045E-001	5.98915E-003	0.00000E+000	4.98923E-003	3.59960E-001	-1.17865E+000	3.57650E+000	10	...........
	26	0.36	8.39637E-001	5.99081E-003	0.00000E+000	5.03011E-003	3.59960E-001	-1.16831E+000	3.57650E+000	10	...........
	27	0.373333	8.46233E-001	5.99469E-003	0.00000E+000	5.07291E-003	3.59960E-001	-1.17126E+000	3.57650E+000	10	...........
	28	0.386667	8.52767E-001	5.99186E-003	0.00000E+000	5.10966E-003	3.59960E-001	-1.17814E+000	3.57650E+000	10	...........
	29	0.4	8.59272E-001	5.99973E-003	0.00000E+000	5.15540E-003	3.59960E-001	-1.16798E+000	3.57650E+000	10	...........
	30	0.413333	8.65764E-001	5.98994E-003	0.00000E+000	5.18588E-003	3.59960E-001	-1.17103E+000	3.57650E+000	10	...........
	31	0.426667	8.72253E-001	5.99425E-003	0.00000E+000	5.22850E-003	3.59960E-001	-1.17826E+000	3.57675E+000	10	...........
	32	0.44	8.78639E-001	5.99255E-003	0.00000E+000	5.26529E-003	3.59960E-001	-1.16782E+000	3.57680E+000	10	...........
	33	0.453333	8.85010E-001	5.99211E-003	0.00000E+000	5.30308E-003	3.59960E-001	-1.17081E+000	3.57680E+000	10	...........
	34	0.466667	8.91374E-001	5.98817E-003	0.00000E+000	5.33770E-003	3.59960E-001	-1.17847E+000	3.57680E+000	10	...........
	35	0.48	8.97734E-001	5.99702E-003	0.00000E+000	5.38373E-003	3.59960E-001	-1.16802E+000	3.57680E+000	10	...........
	36	0.493333	9.04032E-001	5.99901E-003	0.00000E+000	5.42330E-003	3.59960E-001	-1.17076E+000	3.57680E+000	10	...........
	37	0.506667	9.10295E-001	5.99341E-003	0.00000E+000	5.45576E-003	3.59960E-001	-1.17810E+000	3.57680E+000	10	...........
	38	0.52	9.16473E-001	5.99344E-003	0.00000E+000	5.49282E-003	3.59960E-001	-1.16773E+000	3.57680E+000	10	...........
	39	0.533333	9.22683E-001	5.99252E-003	0.00000E+000	5.52920E-003	3.59960E-001	-1.17061E+000	3.57680E+000	10	...........
	40	0.546667	9.28851E-001	5.99290E-003	0.00000E+000	5.56652E-003	3.59960E-001	-1.17843E+000	3.57680E+000	10	...........
	41	0.56	9.34955E-001	5.99167E-003	0.00000E+000	5.60195E-003	3.59960E-001	-1.16774E+000	3.57680E+000	10	...........
	42	0.573333	9.40995E-001	5.99188E-003	0.00000E+000	5.63833E-003	3.59960E-001	-1.17045E+000	3.57680E+000	10	...........
	43	0.586667	9.46998E-001	5.99520E-003	0.00000E+000	5.67744E-003	3.59960E-001	-1.17847E+000	3.57680E+000	10	...........
	44	0.6	9.52945E-001	5.99357E-003	0.00000E+000	5.71155E-003	3.59960E-001	-1.16814E+000	3.57680E+000	10	...........
	45	0.613333	9.58824E-001	5.99346E-003	0.00000E+000	5.74667E-003	3.59960E-001	-1.17081E+000	3.57680E+000	10	...........
	46	0.626667	9.64660E-001	5.99239E-003	0.00000E+000	5.78062E-003	3.59960E-001	-1.17877E+000	3.57680E+000	10	...........
	47	0.64	9.70428E-001	5.98766E-003	0.00000E+000	5.81059E-003	3.59960E-001	-1.16790E+000	3.57680E+000	10	...........
	48	0.653333	9.76250E-001	5.99227E-003	0.00000E+000	5.84995E-003	3.59960E-001	-1.17039E+000	3.57680E+000	10	...........
	49	0.666667	9.81897E-001	5.99200E-003	0.00000E+000	5.88353E-003	3.59960E-001	-1.17888E+000	3.57680E+000	10	...........
	50	0.68	9.87556E-001	5.99103E-003	0.00000E+000	5.91647E-003	3.59960E-001	-1.16837E+000	3.57680E+000	10	...........
	51	0.693333	9.93116E-001	5.99692E-003	0.00000E+000	5.95564E-003	3.59960E-001	-1.17037E+000	3.57680E+000	10	...........
	52	0.705	9.98356E-001	5.99325E-003	0.00000E+000	5.98340E-003	3.59960E-001	-1.17814E+000	3.57680E+000	10	...........
STARTTIMEOFFSET	QUANT	1462.894	Start Time Offset (s)