File: Data/CV_CRGO300517_1/PWRCCD_CRGO300517_1/CHARGE_DISCHARGE/CHARGE_#363.DTA
EXPLAIN
TAG	PWR800_CHARGE
TITLE	LABEL	PWR Cyclic Charge Discharge (Cell) - Charge Step	Test &Identifier
DATE	LABEL	22-6-2017	Date
TIME	LABEL	15:50:30	Time
NOTES	NOTES	3	&Notes...
	supercap test cell
	0.6mg
	6M KOH
PSTAT	PSTAT	IFC5000-01520	Potentiostat
CAPACITY	QUANT	1.00000E-003	Capacity (A-hr)
CELLTYPE	SELECTOR	1	&Cell Type
WORKINGCONNECTION	SELECTOR	0	&Working Lead
MAXCHARGETIME	VARIABLEANDUNITS	1.00000E+002	s	1.00000E+002	second(s)	Max &Charge Time
CHARGECURRENT	QUANT	6.00000E-003	&Charge Current (A)
VOLTAGEFINISH	TWOPARAM	F	1.00000E-003	3.60000E+003	&Voltage Finish	 I (A) < 	Max Time(s)
SAMPLETIME	QUANT	1.00000E-002	Sa&mple Period (s)
CHARGESTOPAT1	MULTIPARAM	4	1.00000E+000	Charge Stop At &1	Voltage > Limit	V
CHARGESTOPAT2	MULTIPARAM	0	0.00000E+000	Charge Stop At &2	None	N/A
AESBHCSELECTOR	TOGGLE	F	Save Both Half Cells
IRCOMP	TOGGLE	F	IR &Measure
EOC	QUANT	0	Open Circuit (V)
SEQUENCER	TOGGLE	TRUE	Run as Sequence
PSTATMODEL	IQUANT	53	Pstat Model
PSTATSECTION	LABEL	IFC5000-01520	Pstat Section
PSTATSERIALNO	LABEL	01520	Pstat Serial Number
CTRLMODE	IQUANT	0	Control Mode
ELECTROMETER	IQUANT	1	RE=0 or CS=1
IESTAB	IQUANT	0	I/E Stability
CASPEED	IQUANT	4	Control Amp Speed
CONVENTION	IQUANT	1	Current Convention
ICHRANGE	IQUANT	2	Ich Range
ICHRANGEMODE	TOGGLE	T	Ich Auto Range
ICHOFFSETENABLE	TOGGLE	F	Ich Offset Enable
ICHOFFSET	QUANT	0	Ich Offset (V)
ICHFILTER	IQUANT	1	Ich Filter
VCHRANGE	IQUANT	2	Vch Range
VCHRANGEMODE	TOGGLE	T	Vch Auto Range
VCHOFFSETENABLE	TOGGLE	F	Vch Offset Enable
VCHOFFSET	QUANT	0	Vch Offset (V)
VCHFILTER	IQUANT	1	Vch Filter
IERANGELOWERLIMIT	IQUANT	9	I/E Range Lower Limit
IERANGEMODE	TOGGLE	F	I/E AutoRange
IERANGE	IQUANT	10	I/E Range
ACHSELECT	IQUANT	1	Ach Select
ACHRANGE	IQUANT	2	Ach Range
ACHOFFSETENABLE	TOGGLE	F	Ach Offset Enable
ACHOFFSET	QUANT	0	Ach Offset (V)
ACHFILTER	IQUANT	1	Ach Filter
CABLEID	IQUANT	14	Cable ID
DCCALDATE	LABEL	20-10-2016	DC Calibration Date
ACCALDATE	LABEL	12/3/2015	AC Calibration Date
FRAMEWORKVERSION	QUANT	7.01	Framework Version
INSTRUMENTVERSION	LABEL	4.00	Instrument Version
CURVE	TABLE	61
	Pt	T	Vf	Im	Vu	Pwr	Sig	Ach	Temp	IERange	Over
	#	s	V	A	V	W	V	V	deg C	#	bits
	0	0.013333	6.21748E-001	5.99376E-003	0.00000E+000	3.72661E-003	3.59960E-001	-1.13429E+000	3.57670E+000	10	...........
	1	0.026667	6.30432E-001	5.99518E-003	0.00000E+000	3.77955E-003	3.59960E-001	-1.12607E+000	3.57670E+000	10	...........
	2	0.04	6.38425E-001	5.99629E-003	0.00000E+000	3.82819E-003	3.59960E-001	-1.12353E+000	3.57740E+000	10	...........
	3	0.053333	6.46057E-001	5.99507E-003	0.00000E+000	3.87316E-003	3.59960E-001	-1.13400E+000	3.57740E+000	10	...........
	4	0.066667	6.53373E-001	5.99103E-003	0.00000E+000	3.91438E-003	3.59960E-001	-1.12559E+000	3.57740E+000	10	...........
	5	0.08	6.60455E-001	5.99524E-003	0.00000E+000	3.95959E-003	3.59960E-001	-1.12338E+000	3.57740E+000	10	...........
	6	0.093333	6.67465E-001	5.99431E-003	0.00000E+000	4.00099E-003	3.59960E-001	-1.13409E+000	3.57740E+000	10	...........
	7	0.106667	6.74311E-001	5.99418E-003	0.00000E+000	4.04194E-003	3.59960E-001	-1.12563E+000	3.57740E+000	10	...........
	8	0.12	6.81109E-001	5.99466E-003	0.00000E+000	4.08301E-003	3.59960E-001	-1.12255E+000	3.57740E+000	10	...........
	9	0.133333	6.87840E-001	5.99419E-003	0.00000E+000	4.12304E-003	3.59960E-001	-1.13296E+000	3.57740E+000	10	...........
	10	0.146667	6.94492E-001	5.99482E-003	0.00000E+000	4.16336E-003	3.59960E-001	-1.12498E+000	3.57740E+000	10	...........
	11	0.16	7.01098E-001	5.99291E-003	0.00000E+000	4.20162E-003	3.59960E-001	-1.12218E+000	3.57740E+000	10	...........
	12	0.173333	7.07633E-001	5.99395E-003	0.00000E+000	4.24152E-003	3.59960E-001	-1.13226E+000	3.57740E+000	10	...........
	13	0.186667	7.14146E-001	5.99117E-003	0.00000E+000	4.27857E-003	3.59960E-001	-1.12449E+000	3.57740E+000	10	...........
	14	0.2	7.20755E-001	5.99278E-003	0.00000E+000	4.31932E-003	3.59960E-001	-1.12172E+000	3.57740E+000	10	...........
	15	0.213333	7.27178E-001	5.99446E-003	0.00000E+000	4.35904E-003	3.59960E-001	-1.13236E+000	3.57740E+000	10	...........
	16	0.226667	7.33614E-001	5.99282E-003	0.00000E+000	4.39642E-003	3.59960E-001	-1.12464E+000	3.57740E+000	10	...........
	17	0.24	7.40014E-001	5.99669E-003	0.00000E+000	4.43764E-003	3.59960E-001	-1.12171E+000	3.57740E+000	10	...........
	18	0.253333	7.46460E-001	5.99297E-003	0.00000E+000	4.47351E-003	3.59960E-001	-1.13210E+000	3.57740E+000	10	...........
	19	0.266667	7.52821E-001	5.99534E-003	0.00000E+000	4.51342E-003	3.59960E-001	-1.12461E+000	3.57740E+000	10	...........
	20	0.28	7.59226E-001	5.99755E-003	0.00000E+000	4.55349E-003	3.59960E-001	-1.12150E+000	3.57740E+000	10	...........
	21	0.293333	7.65607E-001	5.99577E-003	0.00000E+000	4.59041E-003	3.59960E-001	-1.13205E+000	3.57740E+000	10	...........
	22	0.306667	7.71960E-001	5.99794E-003	0.00000E+000	4.63017E-003	3.59960E-001	-1.12447E+000	3.57740E+000	10	...........
	23	0.32	7.78298E-001	5.99764E-003	0.00000E+000	4.66795E-003	3.59960E-001	-1.12133E+000	3.57740E+000	10	...........
	24	0.333333	7.84648E-001	5.98970E-003	0.00000E+000	4.69981E-003	3.59960E-001	-1.13159E+000	3.57740E+000	10	...........
	25	0.346667	7.90980E-001	5.99238E-003	0.00000E+000	4.73986E-003	3.59960E-001	-1.12445E+000	3.57740E+000	10	...........
	26	0.36	7.97309E-001	5.99369E-003	0.00000E+000	4.77882E-003	3.59960E-001	-1.12113E+000	3.57740E+000	10	...........
	27	0.373333	8.03573E-001	5.99308E-003	0.00000E+000	4.81588E-003	3.59960E-001	-1.13122E+000	3.57740E+000	10	...........
	28	0.386667	8.09859E-001	5.99423E-003	0.00000E+000	4.85448E-003	3.59960E-001	-1.12405E+000	3.57740E+000	10	...........
	29	0.4	8.16184E-001	5.99538E-003	0.00000E+000	4.89333E-003	3.59960E-001	-1.12067E+000	3.57740E+000	10	...........
	30	0.413333	8.22435E-001	5.99199E-003	0.00000E+000	4.92802E-003	3.59960E-001	-1.13100E+000	3.57740E+000	10	...........
	31	0.426667	8.28658E-001	5.99163E-003	0.00000E+000	4.96501E-003	3.59960E-001	-1.12414E+000	3.57740E+000	10	...........
	32	0.44	8.34884E-001	5.99389E-003	0.00000E+000	5.00420E-003	3.59960E-001	-1.12065E+000	3.57740E+000	10	...........
	33	0.453333	8.41076E-001	5.99384E-003	0.00000E+000	5.04128E-003	3.59960E-001	-1.13070E+000	3.57740E+000	10	...........
	34	0.466667	8.47306E-001	5.99132E-003	0.00000E+000	5.07648E-003	3.59960E-001	-1.12394E+000	3.57740E+000	10	...........
	35	0.48	8.53501E-001	5.99397E-003	0.00000E+000	5.11586E-003	3.59960E-001	-1.12042E+000	3.57740E+000	10	...........
	36	0.493333	8.59686E-001	5.99430E-003	0.00000E+000	5.15322E-003	3.59960E-001	-1.13039E+000	3.57740E+000	10	...........
	37	0.506667	8.65784E-001	5.98736E-003	0.00000E+000	5.18376E-003	3.59960E-001	-1.12395E+000	3.57740E+000	10	...........
	38	0.52	8.71972E-001	5.99205E-003	0.00000E+000	5.22490E-003	3.59960E-001	-1.12018E+000	3.57740E+000	10	...........
	39	0.533333	8.78080E-001	5.99408E-003	0.00000E+000	5.26329E-003	3.59960E-001	-1.13010E+000	3.57740E+000	10	...........
	40	0.546667	8.84216E-001	5.99422E-003	0.00000E+000	5.30019E-003	3.59960E-001	-1.12363E+000	3.57740E+000	10	...........
	41	0.56	8.90286E-001	5.99323E-003	0.00000E+000	5.33569E-003	3.59960E-001	-1.11988E+000	3.57740E+000	10	...........
	42	0.573333	8.96361E-001	5.99490E-003	0.00000E+000	5.37359E-003	3.59960E-001	-1.13002E+000	3.57740E+000	10	...........
	43	0.586667	9.02417E-001	5.99204E-003	0.00000E+000	5.40732E-003	3.59960E-001	-1.12386E+000	3.57740E+000	10	...........
	44	0.6	9.08430E-001	5.99349E-003	0.00000E+000	5.44467E-003	3.59960E-001	-1.11992E+000	3.57740E+000	10	...........
	45	0.613333	9.14432E-001	5.99205E-003	0.00000E+000	5.47932E-003	3.59960E-001	-1.12982E+000	3.57740E+000	10	...........
	46	0.626667	9.20415E-001	5.99106E-003	0.00000E+000	5.51426E-003	3.59960E-001	-1.12388E+000	3.57740E+000	10	...........
	47	0.64	9.26327E-001	5.99262E-003	0.00000E+000	5.55113E-003	3.59960E-001	-1.11982E+000	3.57740E+000	10	...........
	48	0.653333	9.32210E-001	5.99777E-003	0.00000E+000	5.59118E-003	3.59960E-001	-1.12946E+000	3.57740E+000	10	...........
	49	0.666667	9.38091E-001	5.99814E-003	0.00000E+000	5.62680E-003	3.59960E-001	-1.12341E+000	3.57740E+000	10	...........
	50	0.68	9.43916E-001	5.99631E-003	0.00000E+000	5.66001E-003	3.59960E-001	-1.11918E+000	3.57740E+000	10	...........
	51	0.693333	9.49715E-001	5.99187E-003	0.00000E+000	5.69057E-003	3.59960E-001	-1.12884E+000	3.57740E+000	10	...........
	52	0.706667	9.55470E-001	5.99152E-003	0.00000E+000	5.72472E-003	3.59960E-001	-1.12311E+000	3.57740E+000	10	...........
	53	0.72	9.61186E-001	5.99178E-003	0.00000E+000	5.75921E-003	3.59960E-001	-1.11884E+000	3.57740E+000	10	...........
	54	0.733333	9.66852E-001	5.99889E-003	0.00000E+000	5.80004E-003	3.59960E-001	-1.12850E+000	3.57740E+000	10	...........
	55	0.746667	9.72503E-001	5.99133E-003	0.00000E+000	5.82658E-003	3.59960E-001	-1.12303E+000	3.57740E+000	10	...........
	56	0.76	9.78112E-001	5.99508E-003	0.00000E+000	5.86387E-003	3.59960E-001	-1.11861E+000	3.57740E+000	10	...........
	57	0.773333	9.83660E-001	5.99160E-003	0.00000E+000	5.89370E-003	3.59960E-001	-1.12822E+000	3.57740E+000	10	...........
	58	0.786667	9.89166E-001	5.99415E-003	0.00000E+000	5.92921E-003	3.59960E-001	-1.12282E+000	3.57740E+000	10	...........
	59	0.8	9.94636E-001	5.99200E-003	0.00000E+000	5.95985E-003	3.59960E-001	-1.11813E+000	3.57740E+000	10	...........
	60	0.808333	9.99080E-001	5.99104E-003	0.00000E+000	5.98552E-003	3.59960E-001	-1.13202E+000	3.57740E+000	10	...........
STARTTIMEOFFSET	QUANT	643.5965	Start Time Offset (s)