File: Data/CV_CRGO300517_1/PWRCCD_CRGO300517_1/CHARGE_DISCHARGE/CHARGE_#20.DTA
EXPLAIN
TAG	PWR800_CHARGE
TITLE	LABEL	PWR Cyclic Charge Discharge (Cell) - Charge Step	Test &Identifier
DATE	LABEL	22-6-2017	Date
TIME	LABEL	15:35:52	Time
NOTES	NOTES	3	&Notes...
	supercap test cell
	0.6mg
	6M KOH
PSTAT	PSTAT	IFC5000-01520	Potentiostat
CAPACITY	QUANT	1.00000E-003	Capacity (A-hr)
CELLTYPE	SELECTOR	1	&Cell Type
WORKINGCONNECTION	SELECTOR	0	&Working Lead
MAXCHARGETIME	VARIABLEANDUNITS	1.00000E+002	s	1.00000E+002	second(s)	Max &Charge Time
CHARGECURRENT	QUANT	6.00000E-003	&Charge Current (A)
VOLTAGEFINISH	TWOPARAM	F	1.00000E-003	3.60000E+003	&Voltage Finish	 I (A) < 	Max Time(s)
SAMPLETIME	QUANT	1.00000E-002	Sa&mple Period (s)
CHARGESTOPAT1	MULTIPARAM	4	1.00000E+000	Charge Stop At &1	Voltage > Limit	V
CHARGESTOPAT2	MULTIPARAM	0	0.00000E+000	Charge Stop At &2	None	N/A
AESBHCSELECTOR	TOGGLE	F	Save Both Half Cells
IRCOMP	TOGGLE	F	IR &Measure
EOC	QUANT	0	Open Circuit (V)
SEQUENCER	TOGGLE	TRUE	Run as Sequence
PSTATMODEL	IQUANT	53	Pstat Model
PSTATSECTION	LABEL	IFC5000-01520	Pstat Section
PSTATSERIALNO	LABEL	01520	Pstat Serial Number
CTRLMODE	IQUANT	0	Control Mode
ELECTROMETER	IQUANT	1	RE=0 or CS=1
IESTAB	IQUANT	0	I/E Stability
CASPEED	IQUANT	4	Control Amp Speed
CONVENTION	IQUANT	1	Current Convention
ICHRANGE	IQUANT	2	Ich Range
ICHRANGEMODE	TOGGLE	T	Ich Auto Range
ICHOFFSETENABLE	TOGGLE	F	Ich Offset Enable
ICHOFFSET	QUANT	0	Ich Offset (V)
ICHFILTER	IQUANT	1	Ich Filter
VCHRANGE	IQUANT	2	Vch Range
VCHRANGEMODE	TOGGLE	T	Vch Auto Range
VCHOFFSETENABLE	TOGGLE	F	Vch Offset Enable
VCHOFFSET	QUANT	0	Vch Offset (V)
VCHFILTER	IQUANT	1	Vch Filter
IERANGELOWERLIMIT	IQUANT	9	I/E Range Lower Limit
IERANGEMODE	TOGGLE	F	I/E AutoRange
IERANGE	IQUANT	10	I/E Range
ACHSELECT	IQUANT	1	Ach Select
ACHRANGE	IQUANT	2	Ach Range
ACHOFFSETENABLE	TOGGLE	F	Ach Offset Enable
ACHOFFSET	QUANT	0	Ach Offset (V)
ACHFILTER	IQUANT	1	Ach Filter
CABLEID	IQUANT	14	Cable ID
DCCALDATE	LABEL	20-10-2016	DC Calibration Date
ACCALDATE	LABEL	12/3/2015	AC Calibration Date
FRAMEWORKVERSION	QUANT	7.01	Framework Version
INSTRUMENTVERSION	LABEL	4.00	Instrument Version
CURVE	TABLE	78
	Pt	T	Vf	Im	Vu	Pwr	Sig	Ach	Temp	IERange	Over
	#	s	V	A	V	W	V	V	deg C	#	bits
	0	0.013333	5.60550E-001	5.99452E-003	0.00000E+000	3.36023E-003	3.59960E-001	-1.01543E+000	3.57860E+000	10	...........
	1	0.026667	5.68537E-001	5.98992E-003	0.00000E+000	3.40549E-003	3.59960E-001	-1.02640E+000	3.57860E+000	10	...........
	2	0.04	5.75865E-001	5.99153E-003	0.00000E+000	3.45031E-003	3.59960E-001	-1.01958E+000	3.57860E+000	10	...........
	3	0.053333	5.82735E-001	5.99311E-003	0.00000E+000	3.49240E-003	3.59960E-001	-1.01494E+000	3.57860E+000	10	...........
	4	0.066667	5.89390E-001	5.99126E-003	0.00000E+000	3.53118E-003	3.59960E-001	-1.02651E+000	3.57860E+000	10	...........
	5	0.08	5.95828E-001	5.99641E-003	0.00000E+000	3.57283E-003	3.59960E-001	-1.01977E+000	3.57860E+000	10	...........
	6	0.093333	6.02114E-001	5.99189E-003	0.00000E+000	3.60780E-003	3.59960E-001	-1.01517E+000	3.57860E+000	10	...........
	7	0.106667	6.08292E-001	5.99316E-003	0.00000E+000	3.64559E-003	3.59960E-001	-1.02631E+000	3.57860E+000	10	...........
	8	0.12	6.14430E-001	5.99534E-003	0.00000E+000	3.68371E-003	3.59960E-001	-1.01946E+000	3.57860E+000	10	...........
	9	0.133333	6.20490E-001	5.99434E-003	0.00000E+000	3.71943E-003	3.59960E-001	-1.01504E+000	3.57860E+000	10	...........
	10	0.146667	6.26418E-001	5.99657E-003	0.00000E+000	3.75636E-003	3.59960E-001	-1.02637E+000	3.57860E+000	10	...........
	11	0.16	6.32329E-001	5.99914E-003	0.00000E+000	3.79343E-003	3.59960E-001	-1.01968E+000	3.57860E+000	10	...........
	12	0.173333	6.38183E-001	5.99237E-003	0.00000E+000	3.82423E-003	3.59960E-001	-1.01507E+000	3.57860E+000	10	...........
	13	0.186667	6.44002E-001	5.99562E-003	0.00000E+000	3.86119E-003	3.59960E-001	-1.02624E+000	3.57860E+000	10	...........
	14	0.2	6.49787E-001	5.99575E-003	0.00000E+000	3.89596E-003	3.59960E-001	-1.01950E+000	3.57860E+000	10	...........
	15	0.213333	6.55560E-001	5.99303E-003	0.00000E+000	3.92879E-003	3.59960E-001	-1.01533E+000	3.57790E+000	10	...........
	16	0.226667	6.61311E-001	5.99722E-003	0.00000E+000	3.96603E-003	3.59960E-001	-1.02652E+000	3.57740E+000	10	...........
	17	0.24	6.66981E-001	5.99359E-003	0.00000E+000	3.99761E-003	3.59960E-001	-1.01944E+000	3.57740E+000	10	...........
	18	0.253333	6.72731E-001	5.99157E-003	0.00000E+000	4.03071E-003	3.59960E-001	-1.01480E+000	3.57740E+000	10	...........
	19	0.266667	6.78418E-001	5.99299E-003	0.00000E+000	4.06575E-003	3.59960E-001	-1.02623E+000	3.57740E+000	10	...........
	20	0.28	6.84058E-001	5.99447E-003	0.00000E+000	4.10057E-003	3.59960E-001	-1.01948E+000	3.57740E+000	10	...........
	21	0.293333	6.89709E-001	5.99600E-003	0.00000E+000	4.13550E-003	3.59960E-001	-1.01501E+000	3.57740E+000	10	...........
	22	0.306667	6.95323E-001	5.99062E-003	0.00000E+000	4.16541E-003	3.59960E-001	-1.02582E+000	3.57740E+000	10	...........
	23	0.32	7.00910E-001	5.99429E-003	0.00000E+000	4.20146E-003	3.59960E-001	-1.01896E+000	3.57740E+000	10	...........
	24	0.333333	7.06522E-001	5.99003E-003	0.00000E+000	4.23208E-003	3.59960E-001	-1.01437E+000	3.57740E+000	10	...........
	25	0.346667	7.12073E-001	5.99476E-003	0.00000E+000	4.26870E-003	3.59960E-001	-1.02595E+000	3.57740E+000	10	...........
	26	0.36	7.17728E-001	5.99079E-003	0.00000E+000	4.29976E-003	3.59960E-001	-1.01889E+000	3.57740E+000	10	...........
	27	0.373333	7.23322E-001	5.99206E-003	0.00000E+000	4.33419E-003	3.59960E-001	-1.01421E+000	3.57740E+000	10	...........
	28	0.386667	7.28931E-001	5.99171E-003	0.00000E+000	4.36754E-003	3.59960E-001	-1.02570E+000	3.57740E+000	10	...........
	29	0.4	7.34522E-001	5.99366E-003	0.00000E+000	4.40247E-003	3.59960E-001	-1.01881E+000	3.57740E+000	10	...........
	30	0.413333	7.40070E-001	5.99246E-003	0.00000E+000	4.43484E-003	3.59960E-001	-1.01436E+000	3.57740E+000	10	...........
	31	0.426667	7.45679E-001	5.99458E-003	0.00000E+000	4.47003E-003	3.59960E-001	-1.02566E+000	3.57740E+000	10	...........
	32	0.44	7.51270E-001	5.99554E-003	0.00000E+000	4.50427E-003	3.59960E-001	-1.01882E+000	3.57740E+000	10	...........
	33	0.453333	7.56884E-001	5.99380E-003	0.00000E+000	4.53661E-003	3.59960E-001	-1.01431E+000	3.57740E+000	10	...........
	34	0.466667	7.62437E-001	5.99135E-003	0.00000E+000	4.56803E-003	3.59960E-001	-1.02582E+000	3.57740E+000	10	...........
	35	0.48	7.67956E-001	5.99143E-003	0.00000E+000	4.60116E-003	3.59960E-001	-1.01905E+000	3.57740E+000	10	...........
	36	0.493333	7.73543E-001	5.99472E-003	0.00000E+000	4.63717E-003	3.59960E-001	-1.01423E+000	3.57740E+000	10	...........
	37	0.506667	7.79094E-001	5.99756E-003	0.00000E+000	4.67266E-003	3.59960E-001	-1.02557E+000	3.57740E+000	10	...........
	38	0.52	7.84664E-001	5.99110E-003	0.00000E+000	4.70100E-003	3.59960E-001	-1.01869E+000	3.57740E+000	10	...........
	39	0.533333	7.90263E-001	5.99188E-003	0.00000E+000	4.73516E-003	3.59960E-001	-1.01431E+000	3.57740E+000	10	...........
	40	0.546667	7.95885E-001	5.99497E-003	0.00000E+000	4.77131E-003	3.59960E-001	-1.02596E+000	3.57740E+000	10	...........
	41	0.56	8.01481E-001	5.99459E-003	0.00000E+000	4.80455E-003	3.59960E-001	-1.01905E+000	3.57740E+000	10	...........
	42	0.573333	8.07075E-001	5.99279E-003	0.00000E+000	4.83663E-003	3.59960E-001	-1.01430E+000	3.57740E+000	10	...........
	43	0.586667	8.12627E-001	5.99376E-003	0.00000E+000	4.87069E-003	3.59960E-001	-1.02550E+000	3.57740E+000	10	...........
	44	0.6	8.18222E-001	5.99495E-003	0.00000E+000	4.90520E-003	3.59960E-001	-1.01888E+000	3.57740E+000	10	...........
	45	0.613333	8.23828E-001	5.99341E-003	0.00000E+000	4.93753E-003	3.59960E-001	-1.01447E+000	3.57740E+000	10	...........
	46	0.626667	8.29375E-001	5.99347E-003	0.00000E+000	4.97083E-003	3.59960E-001	-1.02558E+000	3.57740E+000	10	...........
	47	0.64	8.34938E-001	5.99078E-003	0.00000E+000	5.00193E-003	3.59960E-001	-1.01842E+000	3.57740E+000	10	...........
	48	0.653333	8.40503E-001	5.99380E-003	0.00000E+000	5.03781E-003	3.59960E-001	-1.01410E+000	3.57740E+000	10	...........
	49	0.666667	8.46118E-001	5.98988E-003	0.00000E+000	5.06815E-003	3.59960E-001	-1.02538E+000	3.57740E+000	10	...........
	50	0.68	8.51699E-001	5.99047E-003	0.00000E+000	5.10208E-003	3.59960E-001	-1.01857E+000	3.57740E+000	10	...........
	51	0.693333	8.57277E-001	5.99139E-003	0.00000E+000	5.13629E-003	3.59960E-001	-1.01410E+000	3.57740E+000	10	...........
	52	0.706667	8.62832E-001	5.99314E-003	0.00000E+000	5.17108E-003	3.59960E-001	-1.02527E+000	3.57740E+000	10	...........
	53	0.72	8.68413E-001	5.99458E-003	0.00000E+000	5.20577E-003	3.59960E-001	-1.01829E+000	3.57740E+000	10	...........
	54	0.733333	8.73945E-001	5.99397E-003	0.00000E+000	5.23840E-003	3.59960E-001	-1.01408E+000	3.57740E+000	10	...........
	55	0.746667	8.79504E-001	5.99245E-003	0.00000E+000	5.27038E-003	3.59960E-001	-1.02551E+000	3.57740E+000	10	...........
	56	0.76	8.85111E-001	5.99716E-003	0.00000E+000	5.30816E-003	3.59960E-001	-1.01859E+000	3.57740E+000	10	...........
	57	0.773333	8.90636E-001	5.99410E-003	0.00000E+000	5.33857E-003	3.59960E-001	-1.01396E+000	3.57740E+000	10	...........
	58	0.786667	8.96139E-001	5.99141E-003	0.00000E+000	5.36914E-003	3.59960E-001	-1.02532E+000	3.57740E+000	10	...........
	59	0.8	9.01693E-001	5.99504E-003	0.00000E+000	5.40569E-003	3.59960E-001	-1.01844E+000	3.57740E+000	10	...........
	60	0.813333	9.07218E-001	5.99415E-003	0.00000E+000	5.43800E-003	3.59960E-001	-1.01417E+000	3.57740E+000	10	...........
	61	0.826667	9.12712E-001	5.99401E-003	0.00000E+000	5.47080E-003	3.59960E-001	-1.02538E+000	3.57740E+000	10	...........
	62	0.84	9.18226E-001	5.99573E-003	0.00000E+000	5.50544E-003	3.59960E-001	-1.01834E+000	3.57740E+000	10	...........
	63	0.853333	9.23812E-001	5.99777E-003	0.00000E+000	5.54081E-003	3.59960E-001	-1.01409E+000	3.57740E+000	10	...........
	64	0.866667	9.29288E-001	5.99506E-003	0.00000E+000	5.57114E-003	3.59960E-001	-1.02539E+000	3.57740E+000	10	...........
	65	0.88	9.34732E-001	5.99643E-003	0.00000E+000	5.60506E-003	3.59960E-001	-1.01879E+000	3.57740E+000	10	...........
	66	0.893333	9.40197E-001	5.99419E-003	0.00000E+000	5.63572E-003	3.59960E-001	-1.01416E+000	3.57740E+000	10	...........
	67	0.906667	9.45675E-001	5.99565E-003	0.00000E+000	5.66994E-003	3.59960E-001	-1.02539E+000	3.57740E+000	10	...........
	68	0.92	9.51107E-001	5.99539E-003	0.00000E+000	5.70226E-003	3.59960E-001	-1.01841E+000	3.57740E+000	10	...........
	69	0.933333	9.56500E-001	5.99422E-003	0.00000E+000	5.73347E-003	3.59960E-001	-1.01394E+000	3.57740E+000	10	...........
	70	0.946667	9.61917E-001	5.99579E-003	0.00000E+000	5.76746E-003	3.59960E-001	-1.02523E+000	3.57740E+000	10	...........
	71	0.96	9.67239E-001	5.99406E-003	0.00000E+000	5.79769E-003	3.59960E-001	-1.01816E+000	3.57740E+000	10	...........
	72	0.97333	9.72589E-001	5.99523E-003	0.00000E+000	5.83089E-003	3.59960E-001	-1.01372E+000	3.57740E+000	10	...........
	73	0.98667	9.77893E-001	5.99410E-003	0.00000E+000	5.86159E-003	3.59960E-001	-1.02488E+000	3.57740E+000	10	...........
	74	1	9.83194E-001	5.99472E-003	0.00000E+000	5.89397E-003	3.59960E-001	-1.01831E+000	3.57740E+000	10	...........
	75	1.01333	9.88426E-001	5.99089E-003	0.00000E+000	5.92155E-003	3.59960E-001	-1.01383E+000	3.57740E+000	10	...........
	76	1.02667	9.93683E-001	5.99412E-003	0.00000E+000	5.95625E-003	3.59960E-001	-1.02522E+000	3.57740E+000	10	...........
	77	1.03833	9.98556E-001	5.99398E-003	0.00000E+000	5.98533E-003	3.59960E-001	-1.01641E+000	3.57740E+000	10	...........
STARTTIMEOFFSET	QUANT	40.50667	Start Time Offset (s)