File: Data/CV_CRGO300517_1/PWRCCD_CRGO300517_1/CHARGE_DISCHARGE/CHARGE_#482.DTA
EXPLAIN
TAG	PWR800_CHARGE
TITLE	LABEL	PWR Cyclic Charge Discharge (Cell) - Charge Step	Test &Identifier
DATE	LABEL	22-6-2017	Date
TIME	LABEL	15:55:12	Time
NOTES	NOTES	3	&Notes...
	supercap test cell
	0.6mg
	6M KOH
PSTAT	PSTAT	IFC5000-01520	Potentiostat
CAPACITY	QUANT	1.00000E-003	Capacity (A-hr)
CELLTYPE	SELECTOR	1	&Cell Type
WORKINGCONNECTION	SELECTOR	0	&Working Lead
MAXCHARGETIME	VARIABLEANDUNITS	1.00000E+002	s	1.00000E+002	second(s)	Max &Charge Time
CHARGECURRENT	QUANT	6.00000E-003	&Charge Current (A)
VOLTAGEFINISH	TWOPARAM	F	1.00000E-003	3.60000E+003	&Voltage Finish	 I (A) < 	Max Time(s)
SAMPLETIME	QUANT	1.00000E-002	Sa&mple Period (s)
CHARGESTOPAT1	MULTIPARAM	4	1.00000E+000	Charge Stop At &1	Voltage > Limit	V
CHARGESTOPAT2	MULTIPARAM	0	0.00000E+000	Charge Stop At &2	None	N/A
AESBHCSELECTOR	TOGGLE	F	Save Both Half Cells
IRCOMP	TOGGLE	F	IR &Measure
EOC	QUANT	0	Open Circuit (V)
SEQUENCER	TOGGLE	TRUE	Run as Sequence
PSTATMODEL	IQUANT	53	Pstat Model
PSTATSECTION	LABEL	IFC5000-01520	Pstat Section
PSTATSERIALNO	LABEL	01520	Pstat Serial Number
CTRLMODE	IQUANT	0	Control Mode
ELECTROMETER	IQUANT	1	RE=0 or CS=1
IESTAB	IQUANT	0	I/E Stability
CASPEED	IQUANT	4	Control Amp Speed
CONVENTION	IQUANT	1	Current Convention
ICHRANGE	IQUANT	2	Ich Range
ICHRANGEMODE	TOGGLE	T	Ich Auto Range
ICHOFFSETENABLE	TOGGLE	F	Ich Offset Enable
ICHOFFSET	QUANT	0	Ich Offset (V)
ICHFILTER	IQUANT	1	Ich Filter
VCHRANGE	IQUANT	2	Vch Range
VCHRANGEMODE	TOGGLE	T	Vch Auto Range
VCHOFFSETENABLE	TOGGLE	F	Vch Offset Enable
VCHOFFSET	QUANT	0	Vch Offset (V)
VCHFILTER	IQUANT	1	Vch Filter
IERANGELOWERLIMIT	IQUANT	9	I/E Range Lower Limit
IERANGEMODE	TOGGLE	F	I/E AutoRange
IERANGE	IQUANT	10	I/E Range
ACHSELECT	IQUANT	1	Ach Select
ACHRANGE	IQUANT	2	Ach Range
ACHOFFSETENABLE	TOGGLE	F	Ach Offset Enable
ACHOFFSET	QUANT	0	Ach Offset (V)
ACHFILTER	IQUANT	1	Ach Filter
CABLEID	IQUANT	14	Cable ID
DCCALDATE	LABEL	20-10-2016	DC Calibration Date
ACCALDATE	LABEL	12/3/2015	AC Calibration Date
FRAMEWORKVERSION	QUANT	7.01	Framework Version
INSTRUMENTVERSION	LABEL	4.00	Instrument Version
CURVE	TABLE	59
	Pt	T	Vf	Im	Vu	Pwr	Sig	Ach	Temp	IERange	Over
	#	s	V	A	V	W	V	V	deg C	#	bits
	0	0.013333	6.30236E-001	5.99501E-003	0.00000E+000	3.77827E-003	3.59960E-001	-1.14265E+000	3.57640E+000	10	...........
	1	0.026667	6.39119E-001	5.99522E-003	0.00000E+000	3.83166E-003	3.59960E-001	-1.13810E+000	3.57640E+000	10	...........
	2	0.04	6.47227E-001	5.99773E-003	0.00000E+000	3.88190E-003	3.59960E-001	-1.14765E+000	3.57640E+000	10	...........
	3	0.053333	6.54954E-001	5.99313E-003	0.00000E+000	3.92523E-003	3.59960E-001	-1.14240E+000	3.57640E+000	10	...........
	4	0.066667	6.62385E-001	5.99649E-003	0.00000E+000	3.97199E-003	3.59960E-001	-1.13812E+000	3.57640E+000	10	...........
	5	0.08	6.69691E-001	6.00084E-003	0.00000E+000	4.01871E-003	3.59960E-001	-1.14780E+000	3.57640E+000	10	...........
	6	0.093333	6.76820E-001	5.99580E-003	0.00000E+000	4.05808E-003	3.59960E-001	-1.14224E+000	3.57640E+000	10	...........
	7	0.106667	6.83793E-001	5.98917E-003	0.00000E+000	4.09535E-003	3.59960E-001	-1.13758E+000	3.57640E+000	10	...........
	8	0.12	6.90716E-001	5.99601E-003	0.00000E+000	4.14154E-003	3.59960E-001	-1.14747E+000	3.57640E+000	10	...........
	9	0.133333	6.97531E-001	5.99289E-003	0.00000E+000	4.18023E-003	3.59960E-001	-1.14198E+000	3.57640E+000	10	...........
	10	0.146667	7.04342E-001	5.99252E-003	0.00000E+000	4.22078E-003	3.59960E-001	-1.13758E+000	3.57640E+000	10	...........
	11	0.16	7.11055E-001	5.98964E-003	0.00000E+000	4.25896E-003	3.59960E-001	-1.14765E+000	3.57640E+000	10	...........
	12	0.173333	7.17747E-001	5.99615E-003	0.00000E+000	4.30372E-003	3.59960E-001	-1.14174E+000	3.57640E+000	10	...........
	13	0.186667	7.24413E-001	5.99563E-003	0.00000E+000	4.34331E-003	3.59960E-001	-1.13768E+000	3.57640E+000	10	...........
	14	0.2	7.31010E-001	5.99441E-003	0.00000E+000	4.38197E-003	3.59960E-001	-1.14782E+000	3.57640E+000	10	...........
	15	0.213333	7.37611E-001	5.98847E-003	0.00000E+000	4.41716E-003	3.59960E-001	-1.14175E+000	3.57640E+000	10	...........
	16	0.226667	7.44172E-001	5.99083E-003	0.00000E+000	4.45821E-003	3.59960E-001	-1.13757E+000	3.57640E+000	10	...........
	17	0.24	7.50734E-001	5.99240E-003	0.00000E+000	4.49870E-003	3.59960E-001	-1.14769E+000	3.57640E+000	10	...........
	18	0.253333	7.57268E-001	5.99103E-003	0.00000E+000	4.53681E-003	3.59960E-001	-1.14157E+000	3.57640E+000	10	...........
	19	0.266667	7.63715E-001	5.99111E-003	0.00000E+000	4.57550E-003	3.59960E-001	-1.13777E+000	3.57640E+000	10	...........
	20	0.28	7.70235E-001	5.99431E-003	0.00000E+000	4.61703E-003	3.59960E-001	-1.14790E+000	3.57645E+000	10	...........
	21	0.293333	7.76730E-001	5.99769E-003	0.00000E+000	4.65859E-003	3.59960E-001	-1.14172E+000	3.57660E+000	10	...........
	22	0.306667	7.83186E-001	5.99318E-003	0.00000E+000	4.69377E-003	3.59960E-001	-1.13773E+000	3.57660E+000	10	...........
	23	0.32	7.89587E-001	5.98798E-003	0.00000E+000	4.72804E-003	3.59960E-001	-1.14811E+000	3.57660E+000	10	...........
	24	0.333333	7.96059E-001	5.99318E-003	0.00000E+000	4.77092E-003	3.59960E-001	-1.14187E+000	3.57660E+000	10	...........
	25	0.346667	8.02492E-001	5.99696E-003	0.00000E+000	4.81252E-003	3.59960E-001	-1.13821E+000	3.57660E+000	10	...........
	26	0.36	8.08881E-001	5.99496E-003	0.00000E+000	4.84921E-003	3.59960E-001	-1.14838E+000	3.57660E+000	10	...........
	27	0.373333	8.15264E-001	5.99230E-003	0.00000E+000	4.88531E-003	3.59960E-001	-1.14188E+000	3.57660E+000	10	...........
	28	0.386667	8.21642E-001	5.99520E-003	0.00000E+000	4.92591E-003	3.59960E-001	-1.13815E+000	3.57660E+000	10	...........
	29	0.4	8.27955E-001	5.99396E-003	0.00000E+000	4.96273E-003	3.59960E-001	-1.14853E+000	3.57660E+000	10	...........
	30	0.413333	8.34293E-001	6.00118E-003	0.00000E+000	5.00674E-003	3.59960E-001	-1.14179E+000	3.57660E+000	10	...........
	31	0.426667	8.40581E-001	5.99302E-003	0.00000E+000	5.03762E-003	3.59960E-001	-1.13789E+000	3.57660E+000	10	...........
	32	0.44	8.46909E-001	5.99471E-003	0.00000E+000	5.07697E-003	3.59960E-001	-1.14829E+000	3.57660E+000	10	...........
	33	0.453333	8.53217E-001	5.99591E-003	0.00000E+000	5.11581E-003	3.59960E-001	-1.14135E+000	3.57660E+000	10	...........
	34	0.466667	8.59456E-001	5.99121E-003	0.00000E+000	5.14918E-003	3.59960E-001	-1.13812E+000	3.57660E+000	10	...........
	35	0.48	8.65682E-001	5.99250E-003	0.00000E+000	5.18760E-003	3.59960E-001	-1.14854E+000	3.57660E+000	10	...........
	36	0.493333	8.71952E-001	5.99590E-003	0.00000E+000	5.22813E-003	3.59960E-001	-1.14139E+000	3.57660E+000	10	...........
	37	0.506667	8.78173E-001	5.99382E-003	0.00000E+000	5.26361E-003	3.59960E-001	-1.13811E+000	3.57660E+000	10	...........
	38	0.52	8.84355E-001	5.99329E-003	0.00000E+000	5.30020E-003	3.59960E-001	-1.14888E+000	3.57660E+000	10	...........
	39	0.533333	8.90514E-001	5.99257E-003	0.00000E+000	5.33647E-003	3.59960E-001	-1.14129E+000	3.57660E+000	10	...........
	40	0.546667	8.96621E-001	5.99795E-003	0.00000E+000	5.37789E-003	3.59960E-001	-1.13832E+000	3.57660E+000	10	...........
	41	0.56	9.02744E-001	5.99504E-003	0.00000E+000	5.41199E-003	3.59960E-001	-1.14904E+000	3.57660E+000	10	...........
	42	0.573333	9.08849E-001	5.99602E-003	0.00000E+000	5.44948E-003	3.59960E-001	-1.14172E+000	3.57660E+000	10	...........
	43	0.586667	9.14881E-001	5.98904E-003	0.00000E+000	5.47926E-003	3.59960E-001	-1.13842E+000	3.57660E+000	10	...........
	44	0.6	9.20935E-001	5.99359E-003	0.00000E+000	5.51971E-003	3.59960E-001	-1.14913E+000	3.57660E+000	10	...........
	45	0.613333	9.26954E-001	5.99518E-003	0.00000E+000	5.55726E-003	3.59960E-001	-1.14160E+000	3.57660E+000	10	...........
	46	0.626667	9.32858E-001	5.99289E-003	0.00000E+000	5.59052E-003	3.59960E-001	-1.13880E+000	3.57660E+000	10	...........
	47	0.64	9.38793E-001	5.99438E-003	0.00000E+000	5.62748E-003	3.59960E-001	-1.14938E+000	3.57660E+000	10	...........
	48	0.653333	9.44716E-001	5.99539E-003	0.00000E+000	5.66394E-003	3.59960E-001	-1.14183E+000	3.57660E+000	10	...........
	49	0.666667	9.50541E-001	5.99349E-003	0.00000E+000	5.69705E-003	3.59960E-001	-1.13926E+000	3.57660E+000	10	...........
	50	0.68	9.56312E-001	5.99659E-003	0.00000E+000	5.73461E-003	3.59960E-001	-1.14991E+000	3.57660E+000	10	...........
	51	0.693333	9.62035E-001	5.99626E-003	0.00000E+000	5.76861E-003	3.59960E-001	-1.14214E+000	3.57660E+000	10	...........
	52	0.706667	9.67746E-001	5.99322E-003	0.00000E+000	5.79991E-003	3.59960E-001	-1.13915E+000	3.57660E+000	10	...........
	53	0.72	9.73480E-001	5.99554E-003	0.00000E+000	5.83654E-003	3.59960E-001	-1.14980E+000	3.57660E+000	10	...........
	54	0.733333	9.79155E-001	5.99702E-003	0.00000E+000	5.87202E-003	3.59960E-001	-1.14191E+000	3.57660E+000	10	...........
	55	0.746667	9.84748E-001	5.99318E-003	0.00000E+000	5.90177E-003	3.59960E-001	-1.13889E+000	3.57660E+000	10	...........
	56	0.76	9.90245E-001	5.99303E-003	0.00000E+000	5.93457E-003	3.59960E-001	-1.14970E+000	3.57660E+000	10	...........
	57	0.773333	9.95772E-001	5.99701E-003	0.00000E+000	5.97166E-003	3.59960E-001	-1.14152E+000	3.57660E+000	10	...........
	58	0.778333	9.99547E-001	5.98803E-003	0.00000E+000	5.98532E-003	3.59960E-001	-1.15080E+000	3.57660E+000	10	...........
STARTTIMEOFFSET	QUANT	831.2402	Start Time Offset (s)