File: Data/CV_CRGO300517_1/PWRCCD_CRGO300517_1/CHARGE_DISCHARGE/CHARGE_#945.DTA
EXPLAIN
TAG	PWR800_CHARGE
TITLE	LABEL	PWR Cyclic Charge Discharge (Cell) - Charge Step	Test &Identifier
DATE	LABEL	22-6-2017	Date
TIME	LABEL	16:12:38	Time
NOTES	NOTES	3	&Notes...
	supercap test cell
	0.6mg
	6M KOH
PSTAT	PSTAT	IFC5000-01520	Potentiostat
CAPACITY	QUANT	1.00000E-003	Capacity (A-hr)
CELLTYPE	SELECTOR	1	&Cell Type
WORKINGCONNECTION	SELECTOR	0	&Working Lead
MAXCHARGETIME	VARIABLEANDUNITS	1.00000E+002	s	1.00000E+002	second(s)	Max &Charge Time
CHARGECURRENT	QUANT	6.00000E-003	&Charge Current (A)
VOLTAGEFINISH	TWOPARAM	F	1.00000E-003	3.60000E+003	&Voltage Finish	 I (A) < 	Max Time(s)
SAMPLETIME	QUANT	1.00000E-002	Sa&mple Period (s)
CHARGESTOPAT1	MULTIPARAM	4	1.00000E+000	Charge Stop At &1	Voltage > Limit	V
CHARGESTOPAT2	MULTIPARAM	0	0.00000E+000	Charge Stop At &2	None	N/A
AESBHCSELECTOR	TOGGLE	F	Save Both Half Cells
IRCOMP	TOGGLE	F	IR &Measure
EOC	QUANT	0	Open Circuit (V)
SEQUENCER	TOGGLE	TRUE	Run as Sequence
PSTATMODEL	IQUANT	53	Pstat Model
PSTATSECTION	LABEL	IFC5000-01520	Pstat Section
PSTATSERIALNO	LABEL	01520	Pstat Serial Number
CTRLMODE	IQUANT	0	Control Mode
ELECTROMETER	IQUANT	1	RE=0 or CS=1
IESTAB	IQUANT	0	I/E Stability
CASPEED	IQUANT	4	Control Amp Speed
CONVENTION	IQUANT	1	Current Convention
ICHRANGE	IQUANT	2	Ich Range
ICHRANGEMODE	TOGGLE	T	Ich Auto Range
ICHOFFSETENABLE	TOGGLE	F	Ich Offset Enable
ICHOFFSET	QUANT	0	Ich Offset (V)
ICHFILTER	IQUANT	1	Ich Filter
VCHRANGE	IQUANT	2	Vch Range
VCHRANGEMODE	TOGGLE	T	Vch Auto Range
VCHOFFSETENABLE	TOGGLE	F	Vch Offset Enable
VCHOFFSET	QUANT	0	Vch Offset (V)
VCHFILTER	IQUANT	1	Vch Filter
IERANGELOWERLIMIT	IQUANT	9	I/E Range Lower Limit
IERANGEMODE	TOGGLE	F	I/E AutoRange
IERANGE	IQUANT	10	I/E Range
ACHSELECT	IQUANT	1	Ach Select
ACHRANGE	IQUANT	2	Ach Range
ACHOFFSETENABLE	TOGGLE	F	Ach Offset Enable
ACHOFFSET	QUANT	0	Ach Offset (V)
ACHFILTER	IQUANT	1	Ach Filter
CABLEID	IQUANT	14	Cable ID
DCCALDATE	LABEL	20-10-2016	DC Calibration Date
ACCALDATE	LABEL	12/3/2015	AC Calibration Date
FRAMEWORKVERSION	QUANT	7.01	Framework Version
INSTRUMENTVERSION	LABEL	4.00	Instrument Version
CURVE	TABLE	53
	Pt	T	Vf	Im	Vu	Pwr	Sig	Ach	Temp	IERange	Over
	#	s	V	A	V	W	V	V	deg C	#	bits
	0	0.013333	6.54866E-001	5.99259E-003	0.00000E+000	3.92435E-003	3.59960E-001	-1.17106E+000	3.57780E+000	10	...........
	1	0.026667	6.64210E-001	5.99388E-003	0.00000E+000	3.98120E-003	3.59960E-001	-1.17678E+000	3.57780E+000	10	...........
	2	0.04	6.72823E-001	5.99282E-003	0.00000E+000	4.03211E-003	3.59960E-001	-1.17951E+000	3.57780E+000	10	...........
	3	0.053333	6.80962E-001	5.99305E-003	0.00000E+000	4.08104E-003	3.59960E-001	-1.17064E+000	3.57780E+000	10	...........
	4	0.066667	6.88749E-001	5.99206E-003	0.00000E+000	4.12702E-003	3.59960E-001	-1.17608E+000	3.57780E+000	10	...........
	5	0.08	6.96387E-001	5.99665E-003	0.00000E+000	4.17599E-003	3.59960E-001	-1.17931E+000	3.57780E+000	10	...........
	6	0.093333	7.03898E-001	5.99179E-003	0.00000E+000	4.21761E-003	3.59960E-001	-1.17059E+000	3.57780E+000	10	...........
	7	0.106667	7.11258E-001	5.99418E-003	0.00000E+000	4.26341E-003	3.59960E-001	-1.17597E+000	3.57780E+000	10	...........
	8	0.12	7.18535E-001	5.99221E-003	0.00000E+000	4.30561E-003	3.59960E-001	-1.17895E+000	3.57780E+000	10	...........
	9	0.133333	7.25734E-001	5.99108E-003	0.00000E+000	4.34793E-003	3.59960E-001	-1.17072E+000	3.57780E+000	10	...........
	10	0.146667	7.32841E-001	5.99937E-003	0.00000E+000	4.39659E-003	3.59960E-001	-1.17613E+000	3.57780E+000	10	...........
	11	0.16	7.39893E-001	5.99589E-003	0.00000E+000	4.43631E-003	3.59960E-001	-1.17925E+000	3.57780E+000	10	...........
	12	0.173333	7.46938E-001	5.98925E-003	0.00000E+000	4.47360E-003	3.59960E-001	-1.17074E+000	3.57780E+000	10	...........
	13	0.186667	7.53942E-001	5.99688E-003	0.00000E+000	4.52130E-003	3.59960E-001	-1.17601E+000	3.57780E+000	10	...........
	14	0.2	7.60854E-001	5.99567E-003	0.00000E+000	4.56183E-003	3.59960E-001	-1.17964E+000	3.57780E+000	10	...........
	15	0.213333	7.67763E-001	5.99104E-003	0.00000E+000	4.59970E-003	3.59960E-001	-1.17087E+000	3.57780E+000	10	...........
	16	0.226667	7.74662E-001	5.98849E-003	0.00000E+000	4.63906E-003	3.59960E-001	-1.17612E+000	3.57780E+000	10	...........
	17	0.24	7.81549E-001	5.99322E-003	0.00000E+000	4.68400E-003	3.59960E-001	-1.17949E+000	3.57780E+000	10	...........
	18	0.253333	7.88336E-001	5.99240E-003	0.00000E+000	4.72403E-003	3.59960E-001	-1.17091E+000	3.57780E+000	10	...........
	19	0.266667	7.95134E-001	5.98991E-003	0.00000E+000	4.76279E-003	3.59960E-001	-1.17629E+000	3.57780E+000	10	...........
	20	0.28	8.01901E-001	5.99418E-003	0.00000E+000	4.80674E-003	3.59960E-001	-1.17969E+000	3.57780E+000	10	...........
	21	0.293333	8.08632E-001	5.99571E-003	0.00000E+000	4.84832E-003	3.59960E-001	-1.17110E+000	3.57780E+000	10	...........
	22	0.306667	8.15368E-001	5.99062E-003	0.00000E+000	4.88456E-003	3.59960E-001	-1.17612E+000	3.57780E+000	10	...........
	23	0.32	8.22042E-001	5.99561E-003	0.00000E+000	4.92864E-003	3.59960E-001	-1.17970E+000	3.57780E+000	10	...........
	24	0.333333	8.28699E-001	5.99352E-003	0.00000E+000	4.96683E-003	3.59960E-001	-1.17085E+000	3.57780E+000	10	...........
	25	0.346667	8.35312E-001	5.99718E-003	0.00000E+000	5.00952E-003	3.59960E-001	-1.17607E+000	3.57780E+000	10	...........
	26	0.36	8.41912E-001	5.99079E-003	0.00000E+000	5.04371E-003	3.59960E-001	-1.17989E+000	3.57780E+000	10	...........
	27	0.373333	8.48542E-001	5.99340E-003	0.00000E+000	5.08565E-003	3.59960E-001	-1.17040E+000	3.57780E+000	10	...........
	28	0.386667	8.55088E-001	5.99686E-003	0.00000E+000	5.12784E-003	3.59960E-001	-1.17542E+000	3.57780E+000	10	...........
	29	0.4	8.61609E-001	5.99517E-003	0.00000E+000	5.16549E-003	3.59960E-001	-1.17940E+000	3.57780E+000	10	...........
	30	0.413333	8.68078E-001	5.99131E-003	0.00000E+000	5.20092E-003	3.59960E-001	-1.17070E+000	3.57780E+000	10	...........
	31	0.426667	8.74570E-001	5.99301E-003	0.00000E+000	5.24131E-003	3.59960E-001	-1.17558E+000	3.57780E+000	10	...........
	32	0.44	8.81041E-001	5.99302E-003	0.00000E+000	5.28010E-003	3.59960E-001	-1.17934E+000	3.57780E+000	10	...........
	33	0.453333	8.87437E-001	5.99358E-003	0.00000E+000	5.31893E-003	3.59960E-001	-1.17062E+000	3.57780E+000	10	...........
	34	0.466667	8.93778E-001	5.99224E-003	0.00000E+000	5.35573E-003	3.59960E-001	-1.17551E+000	3.57780E+000	10	...........
	35	0.48	9.00069E-001	5.99422E-003	0.00000E+000	5.39521E-003	3.59960E-001	-1.17948E+000	3.57780E+000	10	...........
	36	0.493333	9.06356E-001	5.99344E-003	0.00000E+000	5.43219E-003	3.59960E-001	-1.17049E+000	3.57780E+000	10	...........
	37	0.506667	9.12633E-001	5.99173E-003	0.00000E+000	5.46825E-003	3.59960E-001	-1.17536E+000	3.57780E+000	10	...........
	38	0.52	9.18870E-001	6.00144E-003	0.00000E+000	5.51454E-003	3.59960E-001	-1.17941E+000	3.57780E+000	10	...........
	39	0.533333	9.25029E-001	5.99399E-003	0.00000E+000	5.54461E-003	3.59960E-001	-1.17063E+000	3.57780E+000	10	...........
	40	0.546667	9.31166E-001	5.99168E-003	0.00000E+000	5.57925E-003	3.59960E-001	-1.17548E+000	3.57780E+000	10	...........
	41	0.56	9.37241E-001	5.99019E-003	0.00000E+000	5.61425E-003	3.59960E-001	-1.17969E+000	3.57780E+000	10	...........
	42	0.573333	9.43302E-001	5.99245E-003	0.00000E+000	5.65268E-003	3.59960E-001	-1.17063E+000	3.57780E+000	10	...........
	43	0.586667	9.49315E-001	5.99401E-003	0.00000E+000	5.69020E-003	3.59960E-001	-1.17549E+000	3.57780E+000	10	...........
	44	0.6	9.55274E-001	5.99213E-003	0.00000E+000	5.72413E-003	3.59960E-001	-1.17985E+000	3.57780E+000	10	...........
	45	0.613333	9.61140E-001	5.99470E-003	0.00000E+000	5.76174E-003	3.59960E-001	-1.17099E+000	3.57780E+000	10	...........
	46	0.626667	9.66990E-001	5.99495E-003	0.00000E+000	5.79706E-003	3.59960E-001	-1.17559E+000	3.57810E+000	10	...........
	47	0.64	9.72811E-001	5.99561E-003	0.00000E+000	5.83259E-003	3.59960E-001	-1.18002E+000	3.57840E+000	10	...........
	48	0.653333	9.78544E-001	5.99166E-003	0.00000E+000	5.86310E-003	3.59960E-001	-1.17102E+000	3.57840E+000	10	...........
	49	0.666667	9.84274E-001	5.99519E-003	0.00000E+000	5.90091E-003	3.59960E-001	-1.17523E+000	3.57840E+000	10	...........
	50	0.68	9.89868E-001	5.99512E-003	0.00000E+000	5.93437E-003	3.59960E-001	-1.18013E+000	3.57840E+000	10	...........
	51	0.693333	9.95385E-001	5.99582E-003	0.00000E+000	5.96814E-003	3.59960E-001	-1.17086E+000	3.57840E+000	10	...........
	52	0.7	9.99566E-001	5.99333E-003	0.00000E+000	5.99073E-003	3.59960E-001	-1.18433E+000	3.57840E+000	10	...........
STARTTIMEOFFSET	QUANT	1509.005	Start Time Offset (s)