File: Data/CV_CRGO300517_1/PWRCCD_CRGO300517_1/CHARGE_DISCHARGE/CHARGE_#952.DTA
EXPLAIN
TAG	PWR800_CHARGE
TITLE	LABEL	PWR Cyclic Charge Discharge (Cell) - Charge Step	Test &Identifier
DATE	LABEL	22-6-2017	Date
TIME	LABEL	16:12:53	Time
NOTES	NOTES	3	&Notes...
	supercap test cell
	0.6mg
	6M KOH
PSTAT	PSTAT	IFC5000-01520	Potentiostat
CAPACITY	QUANT	1.00000E-003	Capacity (A-hr)
CELLTYPE	SELECTOR	1	&Cell Type
WORKINGCONNECTION	SELECTOR	0	&Working Lead
MAXCHARGETIME	VARIABLEANDUNITS	1.00000E+002	s	1.00000E+002	second(s)	Max &Charge Time
CHARGECURRENT	QUANT	6.00000E-003	&Charge Current (A)
VOLTAGEFINISH	TWOPARAM	F	1.00000E-003	3.60000E+003	&Voltage Finish	 I (A) < 	Max Time(s)
SAMPLETIME	QUANT	1.00000E-002	Sa&mple Period (s)
CHARGESTOPAT1	MULTIPARAM	4	1.00000E+000	Charge Stop At &1	Voltage > Limit	V
CHARGESTOPAT2	MULTIPARAM	0	0.00000E+000	Charge Stop At &2	None	N/A
AESBHCSELECTOR	TOGGLE	F	Save Both Half Cells
IRCOMP	TOGGLE	F	IR &Measure
EOC	QUANT	0	Open Circuit (V)
SEQUENCER	TOGGLE	TRUE	Run as Sequence
PSTATMODEL	IQUANT	53	Pstat Model
PSTATSECTION	LABEL	IFC5000-01520	Pstat Section
PSTATSERIALNO	LABEL	01520	Pstat Serial Number
CTRLMODE	IQUANT	0	Control Mode
ELECTROMETER	IQUANT	1	RE=0 or CS=1
IESTAB	IQUANT	0	I/E Stability
CASPEED	IQUANT	4	Control Amp Speed
CONVENTION	IQUANT	1	Current Convention
ICHRANGE	IQUANT	2	Ich Range
ICHRANGEMODE	TOGGLE	T	Ich Auto Range
ICHOFFSETENABLE	TOGGLE	F	Ich Offset Enable
ICHOFFSET	QUANT	0	Ich Offset (V)
ICHFILTER	IQUANT	1	Ich Filter
VCHRANGE	IQUANT	2	Vch Range
VCHRANGEMODE	TOGGLE	T	Vch Auto Range
VCHOFFSETENABLE	TOGGLE	F	Vch Offset Enable
VCHOFFSET	QUANT	0	Vch Offset (V)
VCHFILTER	IQUANT	1	Vch Filter
IERANGELOWERLIMIT	IQUANT	9	I/E Range Lower Limit
IERANGEMODE	TOGGLE	F	I/E AutoRange
IERANGE	IQUANT	10	I/E Range
ACHSELECT	IQUANT	1	Ach Select
ACHRANGE	IQUANT	2	Ach Range
ACHOFFSETENABLE	TOGGLE	F	Ach Offset Enable
ACHOFFSET	QUANT	0	Ach Offset (V)
ACHFILTER	IQUANT	1	Ach Filter
CABLEID	IQUANT	14	Cable ID
DCCALDATE	LABEL	20-10-2016	DC Calibration Date
ACCALDATE	LABEL	12/3/2015	AC Calibration Date
FRAMEWORKVERSION	QUANT	7.01	Framework Version
INSTRUMENTVERSION	LABEL	4.00	Instrument Version
CURVE	TABLE	53
	Pt	T	Vf	Im	Vu	Pwr	Sig	Ach	Temp	IERange	Over
	#	s	V	A	V	W	V	V	deg C	#	bits
	0	0.013333	6.55645E-001	5.99287E-003	0.00000E+000	3.92920E-003	3.59960E-001	-1.17269E+000	3.57650E+000	10	...........
	1	0.026667	6.64951E-001	5.99692E-003	0.00000E+000	3.98766E-003	3.59960E-001	-1.18352E+000	3.57650E+000	10	...........
	2	0.04	6.73547E-001	5.99311E-003	0.00000E+000	4.03664E-003	3.59960E-001	-1.17518E+000	3.57650E+000	10	...........
	3	0.053333	6.81663E-001	5.99302E-003	0.00000E+000	4.08522E-003	3.59960E-001	-1.17236E+000	3.57650E+000	10	...........
	4	0.066667	6.89507E-001	5.99303E-003	0.00000E+000	4.13223E-003	3.59960E-001	-1.18330E+000	3.57650E+000	10	...........
	5	0.08	6.97122E-001	5.99571E-003	0.00000E+000	4.17974E-003	3.59960E-001	-1.17514E+000	3.57650E+000	10	...........
	6	0.093333	7.04604E-001	5.99391E-003	0.00000E+000	4.22333E-003	3.59960E-001	-1.17239E+000	3.57650E+000	10	...........
	7	0.106667	7.11946E-001	5.99046E-003	0.00000E+000	4.26489E-003	3.59960E-001	-1.18351E+000	3.57650E+000	10	...........
	8	0.12	7.19271E-001	5.99603E-003	0.00000E+000	4.31278E-003	3.59960E-001	-1.17496E+000	3.57650E+000	10	...........
	9	0.133333	7.26425E-001	5.99624E-003	0.00000E+000	4.35582E-003	3.59960E-001	-1.17239E+000	3.57650E+000	10	...........
	10	0.146667	7.33543E-001	5.99416E-003	0.00000E+000	4.39697E-003	3.59960E-001	-1.18343E+000	3.57650E+000	10	...........
	11	0.16	7.40677E-001	5.99187E-003	0.00000E+000	4.43804E-003	3.59960E-001	-1.17516E+000	3.57650E+000	10	...........
	12	0.173333	7.47667E-001	5.99134E-003	0.00000E+000	4.47953E-003	3.59960E-001	-1.17206E+000	3.57650E+000	10	...........
	13	0.186667	7.54643E-001	5.99160E-003	0.00000E+000	4.52152E-003	3.59960E-001	-1.18290E+000	3.57650E+000	10	...........
	14	0.2	7.61563E-001	5.99573E-003	0.00000E+000	4.56613E-003	3.59960E-001	-1.17467E+000	3.57650E+000	10	...........
	15	0.213333	7.68451E-001	5.99805E-003	0.00000E+000	4.60920E-003	3.59960E-001	-1.17196E+000	3.57650E+000	10	...........
	16	0.226667	7.75278E-001	5.98891E-003	0.00000E+000	4.64307E-003	3.59960E-001	-1.18291E+000	3.57650E+000	10	...........
	17	0.24	7.82138E-001	5.99553E-003	0.00000E+000	4.68934E-003	3.59960E-001	-1.17481E+000	3.57650E+000	10	...........
	18	0.253333	7.88907E-001	5.99303E-003	0.00000E+000	4.72794E-003	3.59960E-001	-1.17186E+000	3.57650E+000	10	...........
	19	0.266667	7.95756E-001	5.99761E-003	0.00000E+000	4.77263E-003	3.59960E-001	-1.18281E+000	3.57650E+000	10	...........
	20	0.28	8.02482E-001	5.99301E-003	0.00000E+000	4.80928E-003	3.59960E-001	-1.17466E+000	3.57650E+000	10	...........
	21	0.293333	8.09191E-001	5.99767E-003	0.00000E+000	4.85326E-003	3.59960E-001	-1.17186E+000	3.57650E+000	10	...........
	22	0.306667	8.15886E-001	5.99396E-003	0.00000E+000	4.89039E-003	3.59960E-001	-1.18280E+000	3.57650E+000	10	...........
	23	0.32	8.22567E-001	5.99294E-003	0.00000E+000	4.92959E-003	3.59960E-001	-1.17448E+000	3.57650E+000	10	...........
	24	0.333333	8.29237E-001	5.99152E-003	0.00000E+000	4.96839E-003	3.59960E-001	-1.17149E+000	3.57650E+000	10	...........
	25	0.346667	8.35858E-001	5.99464E-003	0.00000E+000	5.01067E-003	3.59960E-001	-1.18266E+000	3.57650E+000	10	...........
	26	0.36	8.42498E-001	5.99517E-003	0.00000E+000	5.05092E-003	3.59960E-001	-1.17451E+000	3.57660E+000	10	...........
	27	0.373333	8.49111E-001	5.99518E-003	0.00000E+000	5.09057E-003	3.59960E-001	-1.17164E+000	3.57670E+000	10	...........
	28	0.386667	8.55628E-001	5.99353E-003	0.00000E+000	5.12823E-003	3.59960E-001	-1.18254E+000	3.57670E+000	10	...........
	29	0.4	8.62161E-001	5.99444E-003	0.00000E+000	5.16817E-003	3.59960E-001	-1.17446E+000	3.57670E+000	10	...........
	30	0.413333	8.68674E-001	5.99532E-003	0.00000E+000	5.20798E-003	3.59960E-001	-1.17169E+000	3.57670E+000	10	...........
	31	0.426667	8.75132E-001	5.99089E-003	0.00000E+000	5.24282E-003	3.59960E-001	-1.18287E+000	3.57670E+000	10	...........
	32	0.44	8.81596E-001	5.99526E-003	0.00000E+000	5.28540E-003	3.59960E-001	-1.17464E+000	3.57670E+000	10	...........
	33	0.453333	8.87980E-001	5.99070E-003	0.00000E+000	5.31963E-003	3.59960E-001	-1.17150E+000	3.57670E+000	10	...........
	34	0.466667	8.94304E-001	5.99406E-003	0.00000E+000	5.36051E-003	3.59960E-001	-1.18263E+000	3.57670E+000	10	...........
	35	0.48	9.00642E-001	5.99625E-003	0.00000E+000	5.40048E-003	3.59960E-001	-1.17458E+000	3.57670E+000	10	...........
	36	0.493333	9.06896E-001	5.99575E-003	0.00000E+000	5.43752E-003	3.59960E-001	-1.17151E+000	3.57670E+000	10	...........
	37	0.506667	9.13133E-001	5.99517E-003	0.00000E+000	5.47439E-003	3.59960E-001	-1.18218E+000	3.57670E+000	10	...........
	38	0.52	9.19389E-001	5.99270E-003	0.00000E+000	5.50962E-003	3.59960E-001	-1.17389E+000	3.57670E+000	10	...........
	39	0.533333	9.25559E-001	5.99297E-003	0.00000E+000	5.54684E-003	3.59960E-001	-1.17107E+000	3.57670E+000	10	...........
	40	0.546667	9.31671E-001	5.99639E-003	0.00000E+000	5.58666E-003	3.59960E-001	-1.18222E+000	3.57670E+000	10	...........
	41	0.56	9.37716E-001	5.99444E-003	0.00000E+000	5.62108E-003	3.59960E-001	-1.17433E+000	3.57670E+000	10	...........
	42	0.573333	9.43773E-001	5.99599E-003	0.00000E+000	5.65886E-003	3.59960E-001	-1.17107E+000	3.57670E+000	10	...........
	43	0.586667	9.49800E-001	5.99252E-003	0.00000E+000	5.69170E-003	3.59960E-001	-1.18170E+000	3.57670E+000	10	...........
	44	0.6	9.55656E-001	5.98901E-003	0.00000E+000	5.72344E-003	3.59960E-001	-1.17403E+000	3.57670E+000	10	...........
	45	0.613333	9.61517E-001	5.99621E-003	0.00000E+000	5.76546E-003	3.59960E-001	-1.17116E+000	3.57670E+000	10	...........
	46	0.626667	9.67384E-001	5.99474E-003	0.00000E+000	5.79922E-003	3.59960E-001	-1.18188E+000	3.57670E+000	10	...........
	47	0.64	9.73187E-001	5.99385E-003	0.00000E+000	5.83314E-003	3.59960E-001	-1.17390E+000	3.57670E+000	10	...........
	48	0.653333	9.78895E-001	5.99250E-003	0.00000E+000	5.86603E-003	3.59960E-001	-1.17083E+000	3.57670E+000	10	...........
	49	0.666667	9.84573E-001	5.98946E-003	0.00000E+000	5.89706E-003	3.59960E-001	-1.18164E+000	3.57670E+000	10	...........
	50	0.68	9.90189E-001	5.98958E-003	0.00000E+000	5.93081E-003	3.59960E-001	-1.17387E+000	3.57670E+000	10	...........
	51	0.693333	9.95726E-001	5.99467E-003	0.00000E+000	5.96905E-003	3.59960E-001	-1.17086E+000	3.57670E+000	10	...........
	52	0.698333	9.99557E-001	5.99179E-003	0.00000E+000	5.98913E-003	3.59960E-001	-1.18479E+000	3.57670E+000	10	...........
STARTTIMEOFFSET	QUANT	1518.756	Start Time Offset (s)