File: Data/CV_CRGO300517_1/PWRCCD_CRGO300517_1/CHARGE_DISCHARGE/CHARGE_#821.DTA
EXPLAIN
TAG	PWR800_CHARGE
TITLE	LABEL	PWR Cyclic Charge Discharge (Cell) - Charge Step	Test &Identifier
DATE	LABEL	22-6-2017	Date
TIME	LABEL	16:08:04	Time
NOTES	NOTES	3	&Notes...
	supercap test cell
	0.6mg
	6M KOH
PSTAT	PSTAT	IFC5000-01520	Potentiostat
CAPACITY	QUANT	1.00000E-003	Capacity (A-hr)
CELLTYPE	SELECTOR	1	&Cell Type
WORKINGCONNECTION	SELECTOR	0	&Working Lead
MAXCHARGETIME	VARIABLEANDUNITS	1.00000E+002	s	1.00000E+002	second(s)	Max &Charge Time
CHARGECURRENT	QUANT	6.00000E-003	&Charge Current (A)
VOLTAGEFINISH	TWOPARAM	F	1.00000E-003	3.60000E+003	&Voltage Finish	 I (A) < 	Max Time(s)
SAMPLETIME	QUANT	1.00000E-002	Sa&mple Period (s)
CHARGESTOPAT1	MULTIPARAM	4	1.00000E+000	Charge Stop At &1	Voltage > Limit	V
CHARGESTOPAT2	MULTIPARAM	0	0.00000E+000	Charge Stop At &2	None	N/A
AESBHCSELECTOR	TOGGLE	F	Save Both Half Cells
IRCOMP	TOGGLE	F	IR &Measure
EOC	QUANT	0	Open Circuit (V)
SEQUENCER	TOGGLE	TRUE	Run as Sequence
PSTATMODEL	IQUANT	53	Pstat Model
PSTATSECTION	LABEL	IFC5000-01520	Pstat Section
PSTATSERIALNO	LABEL	01520	Pstat Serial Number
CTRLMODE	IQUANT	0	Control Mode
ELECTROMETER	IQUANT	1	RE=0 or CS=1
IESTAB	IQUANT	0	I/E Stability
CASPEED	IQUANT	4	Control Amp Speed
CONVENTION	IQUANT	1	Current Convention
ICHRANGE	IQUANT	2	Ich Range
ICHRANGEMODE	TOGGLE	T	Ich Auto Range
ICHOFFSETENABLE	TOGGLE	F	Ich Offset Enable
ICHOFFSET	QUANT	0	Ich Offset (V)
ICHFILTER	IQUANT	1	Ich Filter
VCHRANGE	IQUANT	2	Vch Range
VCHRANGEMODE	TOGGLE	T	Vch Auto Range
VCHOFFSETENABLE	TOGGLE	F	Vch Offset Enable
VCHOFFSET	QUANT	0	Vch Offset (V)
VCHFILTER	IQUANT	1	Vch Filter
IERANGELOWERLIMIT	IQUANT	9	I/E Range Lower Limit
IERANGEMODE	TOGGLE	F	I/E AutoRange
IERANGE	IQUANT	10	I/E Range
ACHSELECT	IQUANT	1	Ach Select
ACHRANGE	IQUANT	2	Ach Range
ACHOFFSETENABLE	TOGGLE	F	Ach Offset Enable
ACHOFFSET	QUANT	0	Ach Offset (V)
ACHFILTER	IQUANT	1	Ach Filter
CABLEID	IQUANT	14	Cable ID
DCCALDATE	LABEL	20-10-2016	DC Calibration Date
ACCALDATE	LABEL	12/3/2015	AC Calibration Date
FRAMEWORKVERSION	QUANT	7.01	Framework Version
INSTRUMENTVERSION	LABEL	4.00	Instrument Version
CURVE	TABLE	54
	Pt	T	Vf	Im	Vu	Pwr	Sig	Ach	Temp	IERange	Over
	#	s	V	A	V	W	V	V	deg C	#	bits
	0	0.013333	6.49671E-001	5.99292E-003	0.00000E+000	3.89342E-003	3.59960E-001	-1.16787E+000	3.57640E+000	10	...........
	1	0.026667	6.58883E-001	5.99124E-003	0.00000E+000	3.94752E-003	3.59960E-001	-1.16969E+000	3.57640E+000	10	...........
	2	0.04	6.67330E-001	5.99104E-003	0.00000E+000	3.99800E-003	3.59960E-001	-1.16165E+000	3.57640E+000	10	...........
	3	0.053333	6.75373E-001	5.99412E-003	0.00000E+000	4.04826E-003	3.59960E-001	-1.16754E+000	3.57640E+000	10	...........
	4	0.066667	6.83102E-001	5.99622E-003	0.00000E+000	4.09603E-003	3.59960E-001	-1.16980E+000	3.57640E+000	10	...........
	5	0.08	6.90618E-001	5.99529E-003	0.00000E+000	4.14046E-003	3.59960E-001	-1.16128E+000	3.57645E+000	10	...........
	6	0.093333	6.98047E-001	5.99578E-003	0.00000E+000	4.18534E-003	3.59960E-001	-1.16722E+000	3.57660E+000	10	...........
	7	0.106667	7.05313E-001	5.99309E-003	0.00000E+000	4.22700E-003	3.59960E-001	-1.16949E+000	3.57660E+000	10	...........
	8	0.12	7.12471E-001	5.99303E-003	0.00000E+000	4.26986E-003	3.59960E-001	-1.16134E+000	3.57660E+000	10	...........
	9	0.133333	7.19660E-001	5.99099E-003	0.00000E+000	4.31147E-003	3.59960E-001	-1.16744E+000	3.57660E+000	10	...........
	10	0.146667	7.26660E-001	5.99503E-003	0.00000E+000	4.35635E-003	3.59960E-001	-1.16941E+000	3.57660E+000	10	...........
	11	0.16	7.33629E-001	5.99306E-003	0.00000E+000	4.39668E-003	3.59960E-001	-1.16117E+000	3.57660E+000	10	...........
	12	0.173333	7.40553E-001	5.99300E-003	0.00000E+000	4.43813E-003	3.59960E-001	-1.16744E+000	3.57660E+000	10	...........
	13	0.186667	7.47499E-001	5.99342E-003	0.00000E+000	4.48007E-003	3.59960E-001	-1.16929E+000	3.57660E+000	10	...........
	14	0.2	7.54396E-001	5.99162E-003	0.00000E+000	4.52005E-003	3.59960E-001	-1.16114E+000	3.57660E+000	10	...........
	15	0.213333	7.61206E-001	5.99011E-003	0.00000E+000	4.55971E-003	3.59960E-001	-1.16725E+000	3.57660E+000	10	...........
	16	0.226667	7.68013E-001	5.98849E-003	0.00000E+000	4.59924E-003	3.59960E-001	-1.16911E+000	3.57660E+000	10	...........
	17	0.24	7.74808E-001	5.98945E-003	0.00000E+000	4.64068E-003	3.59960E-001	-1.16104E+000	3.57660E+000	10	...........
	18	0.253333	7.81595E-001	5.99157E-003	0.00000E+000	4.68298E-003	3.59960E-001	-1.16759E+000	3.57660E+000	10	...........
	19	0.266667	7.88308E-001	5.99180E-003	0.00000E+000	4.72338E-003	3.59960E-001	-1.16929E+000	3.57660E+000	10	...........
	20	0.28	7.95027E-001	5.99188E-003	0.00000E+000	4.76371E-003	3.59960E-001	-1.16116E+000	3.57660E+000	10	...........
	21	0.293333	8.01716E-001	5.99264E-003	0.00000E+000	4.80440E-003	3.59960E-001	-1.16767E+000	3.57660E+000	10	...........
	22	0.306667	8.08339E-001	5.99478E-003	0.00000E+000	4.84582E-003	3.59960E-001	-1.16928E+000	3.57660E+000	10	...........
	23	0.32	8.14966E-001	5.99416E-003	0.00000E+000	4.88503E-003	3.59960E-001	-1.16141E+000	3.57660E+000	10	...........
	24	0.333333	8.21566E-001	5.99260E-003	0.00000E+000	4.92332E-003	3.59960E-001	-1.16751E+000	3.57660E+000	10	...........
	25	0.346667	8.28162E-001	5.99304E-003	0.00000E+000	4.96321E-003	3.59960E-001	-1.16867E+000	3.57660E+000	10	...........
	26	0.36	8.34707E-001	5.99063E-003	0.00000E+000	5.00042E-003	3.59960E-001	-1.16050E+000	3.57660E+000	10	...........
	27	0.373333	8.41233E-001	5.99306E-003	0.00000E+000	5.04156E-003	3.59960E-001	-1.16710E+000	3.57660E+000	10	...........
	28	0.386667	8.47795E-001	5.99026E-003	0.00000E+000	5.07851E-003	3.59960E-001	-1.16852E+000	3.57660E+000	10	...........
	29	0.4	8.54264E-001	5.99454E-003	0.00000E+000	5.12092E-003	3.59960E-001	-1.16069E+000	3.57660E+000	10	...........
	30	0.413333	8.60715E-001	5.99517E-003	0.00000E+000	5.16013E-003	3.59960E-001	-1.16715E+000	3.57660E+000	10	...........
	31	0.426667	8.67130E-001	5.99415E-003	0.00000E+000	5.19770E-003	3.59960E-001	-1.16840E+000	3.57660E+000	10	...........
	32	0.44	8.73572E-001	5.99797E-003	0.00000E+000	5.23966E-003	3.59960E-001	-1.16058E+000	3.57660E+000	10	...........
	33	0.453333	8.79970E-001	5.99689E-003	0.00000E+000	5.27708E-003	3.59960E-001	-1.16723E+000	3.57660E+000	10	...........
	34	0.466667	8.86256E-001	5.98988E-003	0.00000E+000	5.30856E-003	3.59960E-001	-1.16844E+000	3.57660E+000	10	...........
	35	0.48	8.92523E-001	5.99944E-003	0.00000E+000	5.35464E-003	3.59960E-001	-1.16039E+000	3.57660E+000	10	...........
	36	0.493333	8.98845E-001	5.99610E-003	0.00000E+000	5.38956E-003	3.59960E-001	-1.16708E+000	3.57660E+000	10	...........
	37	0.506667	9.05054E-001	5.99472E-003	0.00000E+000	5.42554E-003	3.59960E-001	-1.16818E+000	3.57660E+000	10	...........
	38	0.52	9.11300E-001	5.99549E-003	0.00000E+000	5.46369E-003	3.59960E-001	-1.16031E+000	3.57660E+000	10	...........
	39	0.533333	9.17468E-001	5.98867E-003	0.00000E+000	5.49442E-003	3.59960E-001	-1.16720E+000	3.57660E+000	10	...........
	40	0.546667	9.23687E-001	5.99518E-003	0.00000E+000	5.53767E-003	3.59960E-001	-1.16817E+000	3.57660E+000	10	...........
	41	0.56	9.29775E-001	5.99477E-003	0.00000E+000	5.57379E-003	3.59960E-001	-1.16046E+000	3.57660E+000	10	...........
	42	0.573333	9.35839E-001	5.99534E-003	0.00000E+000	5.61067E-003	3.59960E-001	-1.16748E+000	3.57660E+000	10	...........
	43	0.586667	9.41839E-001	5.99071E-003	0.00000E+000	5.64229E-003	3.59960E-001	-1.16842E+000	3.57660E+000	10	...........
	44	0.6	9.47817E-001	5.99521E-003	0.00000E+000	5.68236E-003	3.59960E-001	-1.16095E+000	3.57660E+000	10	...........
	45	0.613333	9.53743E-001	5.99504E-003	0.00000E+000	5.71773E-003	3.59960E-001	-1.16743E+000	3.57660E+000	10	...........
	46	0.626667	9.59619E-001	5.99375E-003	0.00000E+000	5.75172E-003	3.59960E-001	-1.16817E+000	3.57660E+000	10	...........
	47	0.64	9.65457E-001	5.99458E-003	0.00000E+000	5.78752E-003	3.59960E-001	-1.16053E+000	3.57660E+000	10	...........
	48	0.653333	9.71202E-001	5.99746E-003	0.00000E+000	5.82475E-003	3.59960E-001	-1.16743E+000	3.57660E+000	10	...........
	49	0.666667	9.76935E-001	5.99008E-003	0.00000E+000	5.85192E-003	3.59960E-001	-1.16801E+000	3.57660E+000	10	...........
	50	0.68	9.82596E-001	5.99429E-003	0.00000E+000	5.88997E-003	3.59960E-001	-1.16009E+000	3.57660E+000	10	...........
	51	0.693333	9.88258E-001	5.99575E-003	0.00000E+000	5.92535E-003	3.59960E-001	-1.16698E+000	3.57660E+000	10	...........
	52	0.706667	9.93792E-001	5.99237E-003	0.00000E+000	5.95517E-003	3.59960E-001	-1.16760E+000	3.57660E+000	10	...........
	53	0.716667	9.98653E-001	5.99004E-003	0.00000E+000	5.98197E-003	3.59960E-001	-1.15655E+000	3.57660E+000	10	...........
STARTTIMEOFFSET	QUANT	1334.164	Start Time Offset (s)