File: Data/CV_CRGO300517_1/PWRCCD_CRGO300517_1/CHARGE_DISCHARGE/CHARGE_#272.DTA
EXPLAIN
TAG	PWR800_CHARGE
TITLE	LABEL	PWR Cyclic Charge Discharge (Cell) - Charge Step	Test &Identifier
DATE	LABEL	22-6-2017	Date
TIME	LABEL	15:46:47	Time
NOTES	NOTES	3	&Notes...
	supercap test cell
	0.6mg
	6M KOH
PSTAT	PSTAT	IFC5000-01520	Potentiostat
CAPACITY	QUANT	1.00000E-003	Capacity (A-hr)
CELLTYPE	SELECTOR	1	&Cell Type
WORKINGCONNECTION	SELECTOR	0	&Working Lead
MAXCHARGETIME	VARIABLEANDUNITS	1.00000E+002	s	1.00000E+002	second(s)	Max &Charge Time
CHARGECURRENT	QUANT	6.00000E-003	&Charge Current (A)
VOLTAGEFINISH	TWOPARAM	F	1.00000E-003	3.60000E+003	&Voltage Finish	 I (A) < 	Max Time(s)
SAMPLETIME	QUANT	1.00000E-002	Sa&mple Period (s)
CHARGESTOPAT1	MULTIPARAM	4	1.00000E+000	Charge Stop At &1	Voltage > Limit	V
CHARGESTOPAT2	MULTIPARAM	0	0.00000E+000	Charge Stop At &2	None	N/A
AESBHCSELECTOR	TOGGLE	F	Save Both Half Cells
IRCOMP	TOGGLE	F	IR &Measure
EOC	QUANT	0	Open Circuit (V)
SEQUENCER	TOGGLE	TRUE	Run as Sequence
PSTATMODEL	IQUANT	53	Pstat Model
PSTATSECTION	LABEL	IFC5000-01520	Pstat Section
PSTATSERIALNO	LABEL	01520	Pstat Serial Number
CTRLMODE	IQUANT	0	Control Mode
ELECTROMETER	IQUANT	1	RE=0 or CS=1
IESTAB	IQUANT	0	I/E Stability
CASPEED	IQUANT	4	Control Amp Speed
CONVENTION	IQUANT	1	Current Convention
ICHRANGE	IQUANT	2	Ich Range
ICHRANGEMODE	TOGGLE	T	Ich Auto Range
ICHOFFSETENABLE	TOGGLE	F	Ich Offset Enable
ICHOFFSET	QUANT	0	Ich Offset (V)
ICHFILTER	IQUANT	1	Ich Filter
VCHRANGE	IQUANT	2	Vch Range
VCHRANGEMODE	TOGGLE	T	Vch Auto Range
VCHOFFSETENABLE	TOGGLE	F	Vch Offset Enable
VCHOFFSET	QUANT	0	Vch Offset (V)
VCHFILTER	IQUANT	1	Vch Filter
IERANGELOWERLIMIT	IQUANT	9	I/E Range Lower Limit
IERANGEMODE	TOGGLE	F	I/E AutoRange
IERANGE	IQUANT	10	I/E Range
ACHSELECT	IQUANT	1	Ach Select
ACHRANGE	IQUANT	2	Ach Range
ACHOFFSETENABLE	TOGGLE	F	Ach Offset Enable
ACHOFFSET	QUANT	0	Ach Offset (V)
ACHFILTER	IQUANT	1	Ach Filter
CABLEID	IQUANT	14	Cable ID
DCCALDATE	LABEL	20-10-2016	DC Calibration Date
ACCALDATE	LABEL	12/3/2015	AC Calibration Date
FRAMEWORKVERSION	QUANT	7.01	Framework Version
INSTRUMENTVERSION	LABEL	4.00	Instrument Version
CURVE	TABLE	63
	Pt	T	Vf	Im	Vu	Pwr	Sig	Ach	Temp	IERange	Over
	#	s	V	A	V	W	V	V	deg C	#	bits
	0	0.013333	6.13855E-001	5.99164E-003	0.00000E+000	3.67800E-003	3.59960E-001	-1.10233E+000	3.57750E+000	10	...........
	1	0.026667	6.22438E-001	5.99687E-003	0.00000E+000	3.73268E-003	3.59960E-001	-1.11253E+000	3.57750E+000	10	...........
	2	0.04	6.30359E-001	5.99033E-003	0.00000E+000	3.77605E-003	3.59960E-001	-1.10488E+000	3.57750E+000	10	...........
	3	0.053333	6.37806E-001	5.99330E-003	0.00000E+000	3.82257E-003	3.59960E-001	-1.10222E+000	3.57750E+000	10	...........
	4	0.066667	6.45003E-001	5.99542E-003	0.00000E+000	3.86706E-003	3.59960E-001	-1.11223E+000	3.57750E+000	10	...........
	5	0.08	6.52014E-001	5.99377E-003	0.00000E+000	3.90802E-003	3.59960E-001	-1.10515E+000	3.57750E+000	10	...........
	6	0.093333	6.58869E-001	5.99508E-003	0.00000E+000	3.94998E-003	3.59960E-001	-1.10222E+000	3.57750E+000	10	...........
	7	0.106667	6.65610E-001	5.99467E-003	0.00000E+000	3.99011E-003	3.59960E-001	-1.11222E+000	3.57750E+000	10	...........
	8	0.12	6.72259E-001	5.99323E-003	0.00000E+000	4.02900E-003	3.59960E-001	-1.10506E+000	3.57750E+000	10	...........
	9	0.133333	6.78849E-001	5.99406E-003	0.00000E+000	4.06906E-003	3.59960E-001	-1.10213E+000	3.57750E+000	10	...........
	10	0.146667	6.85376E-001	5.99445E-003	0.00000E+000	4.10845E-003	3.59960E-001	-1.11229E+000	3.57750E+000	10	...........
	11	0.16	6.91890E-001	5.99387E-003	0.00000E+000	4.14710E-003	3.59960E-001	-1.10494E+000	3.57750E+000	10	...........
	12	0.173333	6.98340E-001	5.99620E-003	0.00000E+000	4.18739E-003	3.59960E-001	-1.10211E+000	3.57750E+000	10	...........
	13	0.186667	7.04712E-001	5.99532E-003	0.00000E+000	4.22498E-003	3.59960E-001	-1.11208E+000	3.57750E+000	10	...........
	14	0.2	7.11097E-001	5.99661E-003	0.00000E+000	4.26417E-003	3.59960E-001	-1.10496E+000	3.57750E+000	10	...........
	15	0.213333	7.17482E-001	5.99549E-003	0.00000E+000	4.30166E-003	3.59960E-001	-1.10217E+000	3.57750E+000	10	...........
	16	0.226667	7.23844E-001	5.99234E-003	0.00000E+000	4.33752E-003	3.59960E-001	-1.11244E+000	3.57750E+000	10	...........
	17	0.24	7.30169E-001	5.99342E-003	0.00000E+000	4.37621E-003	3.59960E-001	-1.10510E+000	3.57750E+000	10	...........
	18	0.253333	7.36465E-001	5.99114E-003	0.00000E+000	4.41227E-003	3.59960E-001	-1.10207E+000	3.57750E+000	10	...........
	19	0.266667	7.42783E-001	5.99258E-003	0.00000E+000	4.45119E-003	3.59960E-001	-1.11215E+000	3.57750E+000	10	...........
	20	0.28	7.49079E-001	5.99120E-003	0.00000E+000	4.48788E-003	3.59960E-001	-1.10506E+000	3.57750E+000	10	...........
	21	0.293333	7.55331E-001	5.99522E-003	0.00000E+000	4.52838E-003	3.59960E-001	-1.10228E+000	3.57750E+000	10	...........
	22	0.306667	7.61577E-001	5.99190E-003	0.00000E+000	4.56330E-003	3.59960E-001	-1.11180E+000	3.57750E+000	10	...........
	23	0.32	7.67831E-001	5.99720E-003	0.00000E+000	4.60484E-003	3.59960E-001	-1.10465E+000	3.57750E+000	10	...........
	24	0.333333	7.74043E-001	5.99259E-003	0.00000E+000	4.63852E-003	3.59960E-001	-1.10174E+000	3.57750E+000	10	...........
	25	0.346667	7.80274E-001	5.99362E-003	0.00000E+000	4.67667E-003	3.59960E-001	-1.11183E+000	3.57750E+000	10	...........
	26	0.36	7.86468E-001	5.99407E-003	0.00000E+000	4.71414E-003	3.59960E-001	-1.10484E+000	3.57750E+000	10	...........
	27	0.373333	7.92667E-001	5.99489E-003	0.00000E+000	4.75195E-003	3.59960E-001	-1.10165E+000	3.57750E+000	10	...........
	28	0.386667	7.98862E-001	5.98980E-003	0.00000E+000	4.78502E-003	3.59960E-001	-1.11157E+000	3.57750E+000	10	...........
	29	0.4	8.05067E-001	5.99497E-003	0.00000E+000	4.82635E-003	3.59960E-001	-1.10469E+000	3.57750E+000	10	...........
	30	0.413333	8.11210E-001	5.99258E-003	0.00000E+000	4.86124E-003	3.59960E-001	-1.10171E+000	3.57750E+000	10	...........
	31	0.426667	8.17416E-001	5.99476E-003	0.00000E+000	4.90022E-003	3.59960E-001	-1.11160E+000	3.57750E+000	10	...........
	32	0.44	8.23574E-001	5.99585E-003	0.00000E+000	4.93802E-003	3.59960E-001	-1.10461E+000	3.57750E+000	10	...........
	33	0.453333	8.29666E-001	5.99316E-003	0.00000E+000	4.97232E-003	3.59960E-001	-1.10138E+000	3.57750E+000	10	...........
	34	0.466667	8.35798E-001	5.99137E-003	0.00000E+000	5.00758E-003	3.59960E-001	-1.11123E+000	3.57750E+000	10	...........
	35	0.48	8.41918E-001	5.99148E-003	0.00000E+000	5.04433E-003	3.59960E-001	-1.10463E+000	3.57750E+000	10	...........
	36	0.493333	8.48047E-001	5.99572E-003	0.00000E+000	5.08465E-003	3.59960E-001	-1.10157E+000	3.57750E+000	10	...........
	37	0.506667	8.54133E-001	5.99395E-003	0.00000E+000	5.11963E-003	3.59960E-001	-1.11135E+000	3.57750E+000	10	...........
	38	0.52	8.60191E-001	5.99105E-003	0.00000E+000	5.15345E-003	3.59960E-001	-1.10479E+000	3.57750E+000	10	...........
	39	0.533333	8.66267E-001	5.99404E-003	0.00000E+000	5.19244E-003	3.59960E-001	-1.10174E+000	3.57750E+000	10	...........
	40	0.546667	8.72354E-001	5.99034E-003	0.00000E+000	5.22570E-003	3.59960E-001	-1.11231E+000	3.57750E+000	10	...........
	41	0.56	8.78372E-001	5.99432E-003	0.00000E+000	5.26524E-003	3.59960E-001	-1.10622E+000	3.57750E+000	10	...........
	42	0.573333	8.84371E-001	5.99405E-003	0.00000E+000	5.30097E-003	3.59960E-001	-1.10353E+000	3.57750E+000	10	...........
	43	0.586667	8.90337E-001	5.99074E-003	0.00000E+000	5.33377E-003	3.59960E-001	-1.11422E+000	3.57750E+000	10	...........
	44	0.6	8.96313E-001	5.98573E-003	0.00000E+000	5.36509E-003	3.59960E-001	-1.10846E+000	3.57750E+000	10	...........
	45	0.613333	9.02287E-001	5.99091E-003	0.00000E+000	5.40552E-003	3.59960E-001	-1.10634E+000	3.57750E+000	10	...........
	46	0.626667	9.08265E-001	5.99862E-003	0.00000E+000	5.44834E-003	3.59960E-001	-1.11707E+000	3.57750E+000	10	...........
	47	0.64	9.14196E-001	5.99124E-003	0.00000E+000	5.47716E-003	3.59960E-001	-1.11138E+000	3.57750E+000	10	...........
	48	0.653333	9.20113E-001	5.99432E-003	0.00000E+000	5.51546E-003	3.59960E-001	-1.10938E+000	3.57750E+000	10	...........
	49	0.666667	9.26004E-001	5.99668E-003	0.00000E+000	5.55295E-003	3.59960E-001	-1.12049E+000	3.57750E+000	10	...........
	50	0.68	9.31824E-001	5.98891E-003	0.00000E+000	5.58061E-003	3.59960E-001	-1.11479E+000	3.57750E+000	10	...........
	51	0.693333	9.37593E-001	5.99042E-003	0.00000E+000	5.61658E-003	3.59960E-001	-1.11241E+000	3.57750E+000	10	...........
	52	0.706667	9.43367E-001	5.99636E-003	0.00000E+000	5.65676E-003	3.59960E-001	-1.12270E+000	3.57750E+000	10	...........
	53	0.72	9.49131E-001	5.99381E-003	0.00000E+000	5.68892E-003	3.59960E-001	-1.11626E+000	3.57750E+000	10	...........
	54	0.733333	9.54867E-001	5.99251E-003	0.00000E+000	5.72205E-003	3.59960E-001	-1.11336E+000	3.57750E+000	10	...........
	55	0.746667	9.60514E-001	5.99269E-003	0.00000E+000	5.75606E-003	3.59960E-001	-1.12335E+000	3.57750E+000	10	...........
	56	0.76	9.66178E-001	5.99054E-003	0.00000E+000	5.78792E-003	3.59960E-001	-1.11667E+000	3.57750E+000	10	...........
	57	0.773333	9.71810E-001	5.99292E-003	0.00000E+000	5.82397E-003	3.59960E-001	-1.11304E+000	3.57750E+000	10	...........
	58	0.786667	9.77407E-001	5.99468E-003	0.00000E+000	5.85924E-003	3.59960E-001	-1.12251E+000	3.57750E+000	10	...........
	59	0.8	9.82908E-001	5.99319E-003	0.00000E+000	5.89075E-003	3.59960E-001	-1.11585E+000	3.57750E+000	10	...........
	60	0.813333	9.88371E-001	5.99312E-003	0.00000E+000	5.92343E-003	3.59960E-001	-1.11254E+000	3.57776E+000	10	...........
	61	0.826667	9.93814E-001	5.99573E-003	0.00000E+000	5.95864E-003	3.59960E-001	-1.12183E+000	3.57820E+000	10	...........
	62	0.836667	9.98555E-001	5.99802E-003	0.00000E+000	5.98935E-003	3.59960E-001	-1.11188E+000	3.57820E+000	10	...........
STARTTIMEOFFSET	QUANT	494.7717	Start Time Offset (s)