File: Data/CV_CRGO300517_1/PWRCCD_CRGO300517_1/CHARGE_DISCHARGE/CHARGE_#12.DTA
EXPLAIN
TAG	PWR800_CHARGE
TITLE	LABEL	PWR Cyclic Charge Discharge (Cell) - Charge Step	Test &Identifier
DATE	LABEL	22-6-2017	Date
TIME	LABEL	15:35:29	Time
NOTES	NOTES	3	&Notes...
	supercap test cell
	0.6mg
	6M KOH
PSTAT	PSTAT	IFC5000-01520	Potentiostat
CAPACITY	QUANT	1.00000E-003	Capacity (A-hr)
CELLTYPE	SELECTOR	1	&Cell Type
WORKINGCONNECTION	SELECTOR	0	&Working Lead
MAXCHARGETIME	VARIABLEANDUNITS	1.00000E+002	s	1.00000E+002	second(s)	Max &Charge Time
CHARGECURRENT	QUANT	6.00000E-003	&Charge Current (A)
VOLTAGEFINISH	TWOPARAM	F	1.00000E-003	3.60000E+003	&Voltage Finish	 I (A) < 	Max Time(s)
SAMPLETIME	QUANT	1.00000E-002	Sa&mple Period (s)
CHARGESTOPAT1	MULTIPARAM	4	1.00000E+000	Charge Stop At &1	Voltage > Limit	V
CHARGESTOPAT2	MULTIPARAM	0	0.00000E+000	Charge Stop At &2	None	N/A
AESBHCSELECTOR	TOGGLE	F	Save Both Half Cells
IRCOMP	TOGGLE	F	IR &Measure
EOC	QUANT	0	Open Circuit (V)
SEQUENCER	TOGGLE	TRUE	Run as Sequence
PSTATMODEL	IQUANT	53	Pstat Model
PSTATSECTION	LABEL	IFC5000-01520	Pstat Section
PSTATSERIALNO	LABEL	01520	Pstat Serial Number
CTRLMODE	IQUANT	0	Control Mode
ELECTROMETER	IQUANT	1	RE=0 or CS=1
IESTAB	IQUANT	0	I/E Stability
CASPEED	IQUANT	4	Control Amp Speed
CONVENTION	IQUANT	1	Current Convention
ICHRANGE	IQUANT	2	Ich Range
ICHRANGEMODE	TOGGLE	T	Ich Auto Range
ICHOFFSETENABLE	TOGGLE	F	Ich Offset Enable
ICHOFFSET	QUANT	0	Ich Offset (V)
ICHFILTER	IQUANT	1	Ich Filter
VCHRANGE	IQUANT	2	Vch Range
VCHRANGEMODE	TOGGLE	T	Vch Auto Range
VCHOFFSETENABLE	TOGGLE	F	Vch Offset Enable
VCHOFFSET	QUANT	0	Vch Offset (V)
VCHFILTER	IQUANT	1	Vch Filter
IERANGELOWERLIMIT	IQUANT	9	I/E Range Lower Limit
IERANGEMODE	TOGGLE	F	I/E AutoRange
IERANGE	IQUANT	10	I/E Range
ACHSELECT	IQUANT	1	Ach Select
ACHRANGE	IQUANT	2	Ach Range
ACHOFFSETENABLE	TOGGLE	F	Ach Offset Enable
ACHOFFSET	QUANT	0	Ach Offset (V)
ACHFILTER	IQUANT	1	Ach Filter
CABLEID	IQUANT	14	Cable ID
DCCALDATE	LABEL	20-10-2016	DC Calibration Date
ACCALDATE	LABEL	12/3/2015	AC Calibration Date
FRAMEWORKVERSION	QUANT	7.01	Framework Version
INSTRUMENTVERSION	LABEL	4.00	Instrument Version
CURVE	TABLE	80
	Pt	T	Vf	Im	Vu	Pwr	Sig	Ach	Temp	IERange	Over
	#	s	V	A	V	W	V	V	deg C	#	bits
	0	0.013333	5.56130E-001	5.99269E-003	0.00000E+000	3.33271E-003	3.59960E-001	-9.97471E-001	3.57860E+000	10	...........
	1	0.026667	5.64070E-001	5.99365E-003	0.00000E+000	3.38084E-003	3.59960E-001	-9.92298E-001	3.57860E+000	10	...........
	2	0.04	5.71335E-001	5.99474E-003	0.00000E+000	3.42501E-003	3.59960E-001	-1.00033E+000	3.57860E+000	10	...........
	3	0.053333	5.78187E-001	5.99296E-003	0.00000E+000	3.46505E-003	3.59960E-001	-9.95122E-001	3.57860E+000	10	...........
	4	0.066667	5.84793E-001	5.99529E-003	0.00000E+000	3.50601E-003	3.59960E-001	-9.90318E-001	3.57860E+000	10	...........
	5	0.08	5.91209E-001	5.99464E-003	0.00000E+000	3.54408E-003	3.59960E-001	-9.98477E-001	3.57860E+000	10	...........
	6	0.093333	5.97459E-001	5.99013E-003	0.00000E+000	3.57886E-003	3.59960E-001	-9.93106E-001	3.57860E+000	10	...........
	7	0.106667	6.03571E-001	5.99071E-003	0.00000E+000	3.61582E-003	3.59960E-001	-9.88527E-001	3.57860E+000	10	...........
	8	0.12	6.09586E-001	5.99095E-003	0.00000E+000	3.65200E-003	3.59960E-001	-9.96874E-001	3.57860E+000	10	...........
	9	0.133333	6.15607E-001	5.99180E-003	0.00000E+000	3.68859E-003	3.59960E-001	-9.91622E-001	3.57860E+000	10	...........
	10	0.146667	6.21507E-001	5.99477E-003	0.00000E+000	3.72579E-003	3.59960E-001	-9.87026E-001	3.57860E+000	10	...........
	11	0.16	6.27385E-001	5.99258E-003	0.00000E+000	3.75966E-003	3.59960E-001	-9.95468E-001	3.57860E+000	10	...........
	12	0.173333	6.33141E-001	5.99413E-003	0.00000E+000	3.79513E-003	3.59960E-001	-9.90302E-001	3.57860E+000	10	...........
	13	0.186667	6.38896E-001	5.99713E-003	0.00000E+000	3.83154E-003	3.59960E-001	-9.84943E-001	3.57860E+000	10	...........
	14	0.2	6.44636E-001	5.99467E-003	0.00000E+000	3.86438E-003	3.59960E-001	-9.93143E-001	3.57815E+000	10	...........
	15	0.213333	6.50308E-001	5.99151E-003	0.00000E+000	3.89633E-003	3.59960E-001	-9.88807E-001	3.57740E+000	10	...........
	16	0.226667	6.55992E-001	5.99285E-003	0.00000E+000	3.93126E-003	3.59960E-001	-9.84093E-001	3.57740E+000	10	...........
	17	0.24	6.61603E-001	5.99417E-003	0.00000E+000	3.96576E-003	3.59960E-001	-9.91427E-001	3.57740E+000	10	...........
	18	0.253333	6.67252E-001	5.99159E-003	0.00000E+000	3.99790E-003	3.59960E-001	-9.86866E-001	3.57740E+000	10	...........
	19	0.266667	6.72869E-001	5.99652E-003	0.00000E+000	4.03488E-003	3.59960E-001	-9.82661E-001	3.57740E+000	10	...........
	20	0.28	6.78451E-001	5.99390E-003	0.00000E+000	4.06657E-003	3.59960E-001	-9.91153E-001	3.57740E+000	10	...........
	21	0.293333	6.84043E-001	5.99413E-003	0.00000E+000	4.10024E-003	3.59960E-001	-9.86416E-001	3.57740E+000	10	...........
	22	0.306667	6.89600E-001	5.99298E-003	0.00000E+000	4.13276E-003	3.59960E-001	-9.81502E-001	3.57740E+000	10	...........
	23	0.32	6.95160E-001	5.99491E-003	0.00000E+000	4.16742E-003	3.59960E-001	-9.89937E-001	3.57740E+000	10	...........
	24	0.333333	7.00697E-001	5.99537E-003	0.00000E+000	4.20094E-003	3.59960E-001	-9.86193E-001	3.57740E+000	10	...........
	25	0.346667	7.06250E-001	5.99504E-003	0.00000E+000	4.23400E-003	3.59960E-001	-9.81963E-001	3.57740E+000	10	...........
	26	0.36	7.11752E-001	5.99235E-003	0.00000E+000	4.26507E-003	3.59960E-001	-9.89429E-001	3.57740E+000	10	...........
	27	0.373333	7.17304E-001	5.99687E-003	0.00000E+000	4.30158E-003	3.59960E-001	-9.84681E-001	3.57740E+000	10	...........
	28	0.386667	7.22838E-001	5.99434E-003	0.00000E+000	4.33294E-003	3.59960E-001	-9.80294E-001	3.57740E+000	10	...........
	29	0.4	7.28370E-001	5.99435E-003	0.00000E+000	4.36611E-003	3.59960E-001	-9.89296E-001	3.57740E+000	10	...........
	30	0.413333	7.33906E-001	5.99585E-003	0.00000E+000	4.40039E-003	3.59960E-001	-9.85309E-001	3.57740E+000	10	...........
	31	0.426667	7.39381E-001	5.99228E-003	0.00000E+000	4.43058E-003	3.59960E-001	-9.80949E-001	3.57740E+000	10	...........
	32	0.44	7.44930E-001	5.99196E-003	0.00000E+000	4.46359E-003	3.59960E-001	-9.89269E-001	3.57740E+000	10	...........
	33	0.453333	7.50445E-001	5.99256E-003	0.00000E+000	4.49709E-003	3.59960E-001	-9.84664E-001	3.57740E+000	10	...........
	34	0.466667	7.55960E-001	5.99295E-003	0.00000E+000	4.53043E-003	3.59960E-001	-9.80661E-001	3.57740E+000	10	...........
	35	0.48	7.61455E-001	5.99324E-003	0.00000E+000	4.56358E-003	3.59960E-001	-9.89086E-001	3.57740E+000	10	...........
	36	0.493333	7.66947E-001	5.99455E-003	0.00000E+000	4.59750E-003	3.59960E-001	-9.85152E-001	3.57740E+000	10	...........
	37	0.506667	7.72469E-001	5.99451E-003	0.00000E+000	4.63057E-003	3.59960E-001	-9.80263E-001	3.57740E+000	10	...........
	38	0.52	7.77982E-001	5.99449E-003	0.00000E+000	4.66360E-003	3.59960E-001	-9.88608E-001	3.57740E+000	10	...........
	39	0.533333	7.83505E-001	5.99688E-003	0.00000E+000	4.69859E-003	3.59960E-001	-9.84608E-001	3.57740E+000	10	...........
	40	0.546667	7.88976E-001	5.99481E-003	0.00000E+000	4.72976E-003	3.59960E-001	-9.80808E-001	3.57740E+000	10	...........
	41	0.56	7.94529E-001	5.99615E-003	0.00000E+000	4.76412E-003	3.59960E-001	-9.89518E-001	3.57740E+000	10	...........
	42	0.573333	8.00058E-001	5.99570E-003	0.00000E+000	4.79690E-003	3.59960E-001	-9.85371E-001	3.57740E+000	10	...........
	43	0.586667	8.05526E-001	5.99541E-003	0.00000E+000	4.82946E-003	3.59960E-001	-9.81189E-001	3.57740E+000	10	...........
	44	0.6	8.11018E-001	5.99400E-003	0.00000E+000	4.86124E-003	3.59960E-001	-9.90842E-001	3.57740E+000	10	...........
	45	0.613333	8.16520E-001	5.99332E-003	0.00000E+000	4.89367E-003	3.59960E-001	-9.87997E-001	3.57740E+000	10	...........
	46	0.626667	8.22077E-001	5.99758E-003	0.00000E+000	4.93047E-003	3.59960E-001	-9.83998E-001	3.57740E+000	10	...........
	47	0.64	8.27573E-001	5.98934E-003	0.00000E+000	4.95661E-003	3.59960E-001	-9.93313E-001	3.57740E+000	10	...........
	48	0.653333	8.33067E-001	5.99368E-003	0.00000E+000	4.99314E-003	3.59960E-001	-9.90597E-001	3.57740E+000	10	...........
	49	0.666667	8.38546E-001	5.99423E-003	0.00000E+000	5.02643E-003	3.59960E-001	-9.86891E-001	3.57740E+000	10	...........
	50	0.68	8.44063E-001	5.99059E-003	0.00000E+000	5.05643E-003	3.59960E-001	-9.95949E-001	3.57740E+000	10	...........
	51	0.693333	8.49590E-001	5.99531E-003	0.00000E+000	5.09356E-003	3.59960E-001	-9.91989E-001	3.57740E+000	10	...........
	52	0.706667	8.55114E-001	5.99545E-003	0.00000E+000	5.12679E-003	3.59960E-001	-9.86227E-001	3.57740E+000	10	...........
	53	0.72	8.60629E-001	5.99699E-003	0.00000E+000	5.16119E-003	3.59960E-001	-9.93841E-001	3.57740E+000	10	...........
	54	0.733333	8.66087E-001	5.99229E-003	0.00000E+000	5.18984E-003	3.59960E-001	-9.89752E-001	3.57740E+000	10	...........
	55	0.746667	8.71588E-001	5.99331E-003	0.00000E+000	5.22370E-003	3.59960E-001	-9.84526E-001	3.57740E+000	10	...........
	56	0.76	8.77104E-001	5.99291E-003	0.00000E+000	5.25640E-003	3.59960E-001	-9.91411E-001	3.57740E+000	10	...........
	57	0.773333	8.82637E-001	5.99238E-003	0.00000E+000	5.28910E-003	3.59960E-001	-9.85683E-001	3.57740E+000	10	...........
	58	0.786667	8.88116E-001	5.99508E-003	0.00000E+000	5.32433E-003	3.59960E-001	-9.80261E-001	3.57740E+000	10	...........
	59	0.8	8.93577E-001	5.99359E-003	0.00000E+000	5.35574E-003	3.59960E-001	-9.89074E-001	3.57740E+000	10	...........
	60	0.813333	8.99058E-001	5.99186E-003	0.00000E+000	5.38703E-003	3.59960E-001	-9.85452E-001	3.57740E+000	10	...........
	61	0.826667	9.04559E-001	5.99573E-003	0.00000E+000	5.42349E-003	3.59960E-001	-9.80267E-001	3.57740E+000	10	...........
	62	0.84	9.10014E-001	5.99504E-003	0.00000E+000	5.45558E-003	3.59960E-001	-9.87549E-001	3.57740E+000	10	...........
	63	0.853333	9.15441E-001	5.99498E-003	0.00000E+000	5.48805E-003	3.59960E-001	-9.84141E-001	3.57740E+000	10	...........
	64	0.866667	9.20938E-001	5.99488E-003	0.00000E+000	5.52091E-003	3.59960E-001	-9.80009E-001	3.57740E+000	10	...........
	65	0.88	9.26384E-001	5.99595E-003	0.00000E+000	5.55455E-003	3.59960E-001	-9.87786E-001	3.57740E+000	10	...........
	66	0.893333	9.31834E-001	5.99063E-003	0.00000E+000	5.58227E-003	3.59960E-001	-9.83927E-001	3.57740E+000	10	...........
	67	0.906667	9.37225E-001	5.99375E-003	0.00000E+000	5.61749E-003	3.59960E-001	-9.78798E-001	3.57740E+000	10	...........
	68	0.92	9.42594E-001	5.99076E-003	0.00000E+000	5.64685E-003	3.59960E-001	-9.87024E-001	3.57740E+000	10	...........
	69	0.933333	9.48016E-001	5.99504E-003	0.00000E+000	5.68340E-003	3.59960E-001	-9.84012E-001	3.57740E+000	10	...........
	70	0.946667	9.53367E-001	5.99522E-003	0.00000E+000	5.71564E-003	3.59960E-001	-9.79389E-001	3.57740E+000	10	...........
	71	0.96	9.58689E-001	5.99640E-003	0.00000E+000	5.74868E-003	3.59960E-001	-9.87487E-001	3.57740E+000	10	...........
	72	0.97333	9.63982E-001	5.99198E-003	0.00000E+000	5.77616E-003	3.59960E-001	-9.83553E-001	3.57740E+000	10	...........
	73	0.98667	9.69304E-001	5.98999E-003	0.00000E+000	5.80613E-003	3.59960E-001	-9.79069E-001	3.57740E+000	10	...........
	74	1	9.74671E-001	5.99375E-003	0.00000E+000	5.84193E-003	3.59960E-001	-9.87799E-001	3.57740E+000	10	...........
	75	1.01333	9.79929E-001	5.99494E-003	0.00000E+000	5.87461E-003	3.59960E-001	-9.84619E-001	3.57740E+000	10	...........
	76	1.02667	9.85170E-001	5.99755E-003	0.00000E+000	5.90860E-003	3.59960E-001	-9.79317E-001	3.57740E+000	10	...........
	77	1.04	9.90368E-001	5.99496E-003	0.00000E+000	5.93722E-003	3.59960E-001	-9.86854E-001	3.57740E+000	10	...........
	78	1.05333	9.95527E-001	5.99537E-003	0.00000E+000	5.96855E-003	3.59960E-001	-9.83922E-001	3.57740E+000	10	...........
	79	1.06	9.99401E-001	5.99102E-003	0.00000E+000	5.98743E-003	3.59960E-001	-9.83158E-001	3.57740E+000	10	...........
STARTTIMEOFFSET	QUANT	23.85834	Start Time Offset (s)