File: Data/CV_CRGO300517_1/PWRCCD_CRGO300517_1/CHARGE_DISCHARGE/CHARGE_#615.DTA
EXPLAIN
TAG	PWR800_CHARGE
TITLE	LABEL	PWR Cyclic Charge Discharge (Cell) - Charge Step	Test &Identifier
DATE	LABEL	22-6-2017	Date
TIME	LABEL	16:00:20	Time
NOTES	NOTES	3	&Notes...
	supercap test cell
	0.6mg
	6M KOH
PSTAT	PSTAT	IFC5000-01520	Potentiostat
CAPACITY	QUANT	1.00000E-003	Capacity (A-hr)
CELLTYPE	SELECTOR	1	&Cell Type
WORKINGCONNECTION	SELECTOR	0	&Working Lead
MAXCHARGETIME	VARIABLEANDUNITS	1.00000E+002	s	1.00000E+002	second(s)	Max &Charge Time
CHARGECURRENT	QUANT	6.00000E-003	&Charge Current (A)
VOLTAGEFINISH	TWOPARAM	F	1.00000E-003	3.60000E+003	&Voltage Finish	 I (A) < 	Max Time(s)
SAMPLETIME	QUANT	1.00000E-002	Sa&mple Period (s)
CHARGESTOPAT1	MULTIPARAM	4	1.00000E+000	Charge Stop At &1	Voltage > Limit	V
CHARGESTOPAT2	MULTIPARAM	0	0.00000E+000	Charge Stop At &2	None	N/A
AESBHCSELECTOR	TOGGLE	F	Save Both Half Cells
IRCOMP	TOGGLE	F	IR &Measure
EOC	QUANT	0	Open Circuit (V)
SEQUENCER	TOGGLE	TRUE	Run as Sequence
PSTATMODEL	IQUANT	53	Pstat Model
PSTATSECTION	LABEL	IFC5000-01520	Pstat Section
PSTATSERIALNO	LABEL	01520	Pstat Serial Number
CTRLMODE	IQUANT	0	Control Mode
ELECTROMETER	IQUANT	1	RE=0 or CS=1
IESTAB	IQUANT	0	I/E Stability
CASPEED	IQUANT	4	Control Amp Speed
CONVENTION	IQUANT	1	Current Convention
ICHRANGE	IQUANT	2	Ich Range
ICHRANGEMODE	TOGGLE	T	Ich Auto Range
ICHOFFSETENABLE	TOGGLE	F	Ich Offset Enable
ICHOFFSET	QUANT	0	Ich Offset (V)
ICHFILTER	IQUANT	1	Ich Filter
VCHRANGE	IQUANT	2	Vch Range
VCHRANGEMODE	TOGGLE	T	Vch Auto Range
VCHOFFSETENABLE	TOGGLE	F	Vch Offset Enable
VCHOFFSET	QUANT	0	Vch Offset (V)
VCHFILTER	IQUANT	1	Vch Filter
IERANGELOWERLIMIT	IQUANT	9	I/E Range Lower Limit
IERANGEMODE	TOGGLE	F	I/E AutoRange
IERANGE	IQUANT	10	I/E Range
ACHSELECT	IQUANT	1	Ach Select
ACHRANGE	IQUANT	2	Ach Range
ACHOFFSETENABLE	TOGGLE	F	Ach Offset Enable
ACHOFFSET	QUANT	0	Ach Offset (V)
ACHFILTER	IQUANT	1	Ach Filter
CABLEID	IQUANT	14	Cable ID
DCCALDATE	LABEL	20-10-2016	DC Calibration Date
ACCALDATE	LABEL	12/3/2015	AC Calibration Date
FRAMEWORKVERSION	QUANT	7.01	Framework Version
INSTRUMENTVERSION	LABEL	4.00	Instrument Version
CURVE	TABLE	57
	Pt	T	Vf	Im	Vu	Pwr	Sig	Ach	Temp	IERange	Over
	#	s	V	A	V	W	V	V	deg C	#	bits
	0	0.013333	6.40238E-001	5.99322E-003	0.00000E+000	3.83709E-003	3.59960E-001	-1.14705E+000	3.57780E+000	10	...........
	1	0.026667	6.49186E-001	5.99031E-003	0.00000E+000	3.88882E-003	3.59960E-001	-1.15629E+000	3.57780E+000	10	...........
	2	0.04	6.57361E-001	5.99171E-003	0.00000E+000	3.93871E-003	3.59960E-001	-1.15157E+000	3.57780E+000	10	...........
	3	0.053333	6.65121E-001	5.98837E-003	0.00000E+000	3.98299E-003	3.59960E-001	-1.14661E+000	3.57780E+000	10	...........
	4	0.066667	6.72696E-001	5.99124E-003	0.00000E+000	4.03028E-003	3.59960E-001	-1.15633E+000	3.57780E+000	10	...........
	5	0.08	6.80022E-001	5.99476E-003	0.00000E+000	4.07657E-003	3.59960E-001	-1.15153E+000	3.57780E+000	10	...........
	6	0.093333	6.87227E-001	5.99124E-003	0.00000E+000	4.11734E-003	3.59960E-001	-1.14652E+000	3.57780E+000	10	...........
	7	0.106667	6.94365E-001	5.99321E-003	0.00000E+000	4.16147E-003	3.59960E-001	-1.15616E+000	3.57780E+000	10	...........
	8	0.12	7.01355E-001	5.99392E-003	0.00000E+000	4.20386E-003	3.59960E-001	-1.15135E+000	3.57780E+000	10	...........
	9	0.133333	7.08284E-001	5.99309E-003	0.00000E+000	4.24481E-003	3.59960E-001	-1.14666E+000	3.57780E+000	10	...........
	10	0.146667	7.15180E-001	5.99700E-003	0.00000E+000	4.28894E-003	3.59960E-001	-1.15638E+000	3.57780E+000	10	...........
	11	0.16	7.22016E-001	5.99159E-003	0.00000E+000	4.32603E-003	3.59960E-001	-1.15131E+000	3.57780E+000	10	...........
	12	0.173333	7.28784E-001	5.99645E-003	0.00000E+000	4.37012E-003	3.59960E-001	-1.14632E+000	3.57780E+000	10	...........
	13	0.186667	7.35525E-001	5.99259E-003	0.00000E+000	4.40770E-003	3.59960E-001	-1.15620E+000	3.57780E+000	10	...........
	14	0.2	7.42225E-001	5.99352E-003	0.00000E+000	4.44854E-003	3.59960E-001	-1.15147E+000	3.57780E+000	10	...........
	15	0.213333	7.48960E-001	5.99508E-003	0.00000E+000	4.49008E-003	3.59960E-001	-1.14636E+000	3.57780E+000	10	...........
	16	0.226667	7.55616E-001	5.99283E-003	0.00000E+000	4.52828E-003	3.59960E-001	-1.15558E+000	3.57780E+000	10	...........
	17	0.24	7.62210E-001	5.99416E-003	0.00000E+000	4.56880E-003	3.59960E-001	-1.15054E+000	3.57780E+000	10	...........
	18	0.253333	7.68865E-001	5.99395E-003	0.00000E+000	4.60854E-003	3.59960E-001	-1.14584E+000	3.57780E+000	10	...........
	19	0.266667	7.75476E-001	5.99386E-003	0.00000E+000	4.64810E-003	3.59960E-001	-1.15595E+000	3.57780E+000	10	...........
	20	0.28	7.82052E-001	5.99740E-003	0.00000E+000	4.69028E-003	3.59960E-001	-1.15075E+000	3.57780E+000	10	...........
	21	0.293333	7.88621E-001	5.99143E-003	0.00000E+000	4.72497E-003	3.59960E-001	-1.14583E+000	3.57780E+000	10	...........
	22	0.306667	7.95179E-001	5.99701E-003	0.00000E+000	4.76870E-003	3.59960E-001	-1.15569E+000	3.57780E+000	10	...........
	23	0.32	8.01678E-001	5.98947E-003	0.00000E+000	4.80163E-003	3.59960E-001	-1.15065E+000	3.57780E+000	10	...........
	24	0.333333	8.08163E-001	5.99518E-003	0.00000E+000	4.84508E-003	3.59960E-001	-1.14618E+000	3.57780E+000	10	...........
	25	0.346667	8.14669E-001	5.99318E-003	0.00000E+000	4.88246E-003	3.59960E-001	-1.15600E+000	3.57780E+000	10	...........
	26	0.36	8.21143E-001	5.99658E-003	0.00000E+000	4.92405E-003	3.59960E-001	-1.15073E+000	3.57780E+000	10	...........
	27	0.373333	8.27575E-001	5.99078E-003	0.00000E+000	4.95782E-003	3.59960E-001	-1.14587E+000	3.57780E+000	10	...........
	28	0.386667	8.34008E-001	5.99315E-003	0.00000E+000	4.99833E-003	3.59960E-001	-1.15579E+000	3.57780E+000	10	...........
	29	0.4	8.40430E-001	5.99730E-003	0.00000E+000	5.04031E-003	3.59960E-001	-1.15043E+000	3.57780E+000	10	...........
	30	0.413333	8.46862E-001	5.99432E-003	0.00000E+000	5.07637E-003	3.59960E-001	-1.14581E+000	3.57780E+000	10	...........
	31	0.426667	8.53240E-001	5.99627E-003	0.00000E+000	5.11626E-003	3.59960E-001	-1.15576E+000	3.57780E+000	10	...........
	32	0.44	8.59622E-001	5.99566E-003	0.00000E+000	5.15400E-003	3.59960E-001	-1.15044E+000	3.57780E+000	10	...........
	33	0.453333	8.65932E-001	5.99288E-003	0.00000E+000	5.18943E-003	3.59960E-001	-1.14627E+000	3.57780E+000	10	...........
	34	0.466667	8.72250E-001	5.99300E-003	0.00000E+000	5.22740E-003	3.59960E-001	-1.15602E+000	3.57780E+000	10	...........
	35	0.48	8.78533E-001	5.99425E-003	0.00000E+000	5.26615E-003	3.59960E-001	-1.15047E+000	3.57780E+000	10	...........
	36	0.493333	8.84769E-001	5.99233E-003	0.00000E+000	5.30183E-003	3.59960E-001	-1.14619E+000	3.57780E+000	10	...........
	37	0.506667	8.91056E-001	5.99051E-003	0.00000E+000	5.33788E-003	3.59960E-001	-1.15612E+000	3.57780E+000	10	...........
	38	0.52	8.97235E-001	5.99316E-003	0.00000E+000	5.37727E-003	3.59960E-001	-1.15054E+000	3.57780E+000	10	...........
	39	0.533333	9.03397E-001	5.99895E-003	0.00000E+000	5.41944E-003	3.59960E-001	-1.14592E+000	3.57780E+000	10	...........
	40	0.546667	9.09494E-001	5.99555E-003	0.00000E+000	5.45292E-003	3.59960E-001	-1.15571E+000	3.57780E+000	10	...........
	41	0.56	9.15627E-001	5.99309E-003	0.00000E+000	5.48743E-003	3.59960E-001	-1.14991E+000	3.57780E+000	10	...........
	42	0.573333	9.21736E-001	5.99211E-003	0.00000E+000	5.52315E-003	3.59960E-001	-1.14564E+000	3.57780E+000	10	...........
	43	0.586667	9.27772E-001	5.99712E-003	0.00000E+000	5.56396E-003	3.59960E-001	-1.15564E+000	3.57780E+000	10	...........
	44	0.6	9.33789E-001	5.99707E-003	0.00000E+000	5.60000E-003	3.59960E-001	-1.15010E+000	3.57780E+000	10	...........
	45	0.613333	9.39720E-001	5.99705E-003	0.00000E+000	5.63555E-003	3.59960E-001	-1.14551E+000	3.57944E+000	10	...........
	46	0.626667	9.45628E-001	5.99174E-003	0.00000E+000	5.66595E-003	3.59960E-001	-1.15556E+000	3.57980E+000	10	...........
	47	0.64	9.51549E-001	5.99445E-003	0.00000E+000	5.70401E-003	3.59960E-001	-1.14984E+000	3.57980E+000	10	...........
	48	0.653333	9.57348E-001	5.99534E-003	0.00000E+000	5.73962E-003	3.59960E-001	-1.14565E+000	3.57980E+000	10	...........
	49	0.666667	9.63130E-001	5.99549E-003	0.00000E+000	5.77444E-003	3.59960E-001	-1.15590E+000	3.57980E+000	10	...........
	50	0.68	9.68855E-001	5.99628E-003	0.00000E+000	5.80953E-003	3.59960E-001	-1.15008E+000	3.57980E+000	10	...........
	51	0.693333	9.74637E-001	5.99376E-003	0.00000E+000	5.84174E-003	3.59960E-001	-1.14566E+000	3.57980E+000	10	...........
	52	0.706667	9.80298E-001	5.99272E-003	0.00000E+000	5.87465E-003	3.59960E-001	-1.15586E+000	3.57980E+000	10	...........
	53	0.72	9.85874E-001	5.98959E-003	0.00000E+000	5.90498E-003	3.59960E-001	-1.14965E+000	3.57980E+000	10	...........
	54	0.733333	9.91428E-001	5.99582E-003	0.00000E+000	5.94442E-003	3.59960E-001	-1.14576E+000	3.57980E+000	10	...........
	55	0.746667	9.96944E-001	5.99416E-003	0.00000E+000	5.97584E-003	3.59960E-001	-1.15605E+000	3.57980E+000	10	...........
	56	0.75	1.00036E+000	5.99292E-003	0.00000E+000	5.99507E-003	3.59960E-001	-1.13362E+000	3.57980E+000	10	...........
STARTTIMEOFFSET	QUANT	1033.385	Start Time Offset (s)