File: Data/CV_CRGO300517_1/PWRCCD_CRGO300517_1/CHARGE_DISCHARGE/CHARGE_#937.DTA
EXPLAIN
TAG	PWR800_CHARGE
TITLE	LABEL	PWR Cyclic Charge Discharge (Cell) - Charge Step	Test &Identifier
DATE	LABEL	22-6-2017	Date
TIME	LABEL	16:12:21	Time
NOTES	NOTES	3	&Notes...
	supercap test cell
	0.6mg
	6M KOH
PSTAT	PSTAT	IFC5000-01520	Potentiostat
CAPACITY	QUANT	1.00000E-003	Capacity (A-hr)
CELLTYPE	SELECTOR	1	&Cell Type
WORKINGCONNECTION	SELECTOR	0	&Working Lead
MAXCHARGETIME	VARIABLEANDUNITS	1.00000E+002	s	1.00000E+002	second(s)	Max &Charge Time
CHARGECURRENT	QUANT	6.00000E-003	&Charge Current (A)
VOLTAGEFINISH	TWOPARAM	F	1.00000E-003	3.60000E+003	&Voltage Finish	 I (A) < 	Max Time(s)
SAMPLETIME	QUANT	1.00000E-002	Sa&mple Period (s)
CHARGESTOPAT1	MULTIPARAM	4	1.00000E+000	Charge Stop At &1	Voltage > Limit	V
CHARGESTOPAT2	MULTIPARAM	0	0.00000E+000	Charge Stop At &2	None	N/A
AESBHCSELECTOR	TOGGLE	F	Save Both Half Cells
IRCOMP	TOGGLE	F	IR &Measure
EOC	QUANT	0	Open Circuit (V)
SEQUENCER	TOGGLE	TRUE	Run as Sequence
PSTATMODEL	IQUANT	53	Pstat Model
PSTATSECTION	LABEL	IFC5000-01520	Pstat Section
PSTATSERIALNO	LABEL	01520	Pstat Serial Number
CTRLMODE	IQUANT	0	Control Mode
ELECTROMETER	IQUANT	1	RE=0 or CS=1
IESTAB	IQUANT	0	I/E Stability
CASPEED	IQUANT	4	Control Amp Speed
CONVENTION	IQUANT	1	Current Convention
ICHRANGE	IQUANT	2	Ich Range
ICHRANGEMODE	TOGGLE	T	Ich Auto Range
ICHOFFSETENABLE	TOGGLE	F	Ich Offset Enable
ICHOFFSET	QUANT	0	Ich Offset (V)
ICHFILTER	IQUANT	1	Ich Filter
VCHRANGE	IQUANT	2	Vch Range
VCHRANGEMODE	TOGGLE	T	Vch Auto Range
VCHOFFSETENABLE	TOGGLE	F	Vch Offset Enable
VCHOFFSET	QUANT	0	Vch Offset (V)
VCHFILTER	IQUANT	1	Vch Filter
IERANGELOWERLIMIT	IQUANT	9	I/E Range Lower Limit
IERANGEMODE	TOGGLE	F	I/E AutoRange
IERANGE	IQUANT	10	I/E Range
ACHSELECT	IQUANT	1	Ach Select
ACHRANGE	IQUANT	2	Ach Range
ACHOFFSETENABLE	TOGGLE	F	Ach Offset Enable
ACHOFFSET	QUANT	0	Ach Offset (V)
ACHFILTER	IQUANT	1	Ach Filter
CABLEID	IQUANT	14	Cable ID
DCCALDATE	LABEL	20-10-2016	DC Calibration Date
ACCALDATE	LABEL	12/3/2015	AC Calibration Date
FRAMEWORKVERSION	QUANT	7.01	Framework Version
INSTRUMENTVERSION	LABEL	4.00	Instrument Version
CURVE	TABLE	53
	Pt	T	Vf	Im	Vu	Pwr	Sig	Ach	Temp	IERange	Over
	#	s	V	A	V	W	V	V	deg C	#	bits
	0	0.013333	6.55883E-001	5.98747E-003	0.00000E+000	3.92708E-003	3.59960E-001	-1.17307E+000	3.57659E+000	10	...........
	1	0.026667	6.65111E-001	5.99303E-003	0.00000E+000	3.98603E-003	3.59960E-001	-1.17291E+000	3.57720E+000	10	...........
	2	0.04	6.73641E-001	5.99157E-003	0.00000E+000	4.03617E-003	3.59960E-001	-1.18359E+000	3.57720E+000	10	...........
	3	0.053333	6.81749E-001	5.99701E-003	0.00000E+000	4.08846E-003	3.59960E-001	-1.17332E+000	3.57720E+000	10	...........
	4	0.066667	6.89509E-001	5.99322E-003	0.00000E+000	4.13238E-003	3.59960E-001	-1.17291E+000	3.57720E+000	10	...........
	5	0.08	6.97112E-001	5.99359E-003	0.00000E+000	4.17821E-003	3.59960E-001	-1.18348E+000	3.57720E+000	10	...........
	6	0.093333	7.04530E-001	5.99372E-003	0.00000E+000	4.22275E-003	3.59960E-001	-1.17314E+000	3.57720E+000	10	...........
	7	0.106667	7.11830E-001	5.99154E-003	0.00000E+000	4.26496E-003	3.59960E-001	-1.17296E+000	3.57720E+000	10	...........
	8	0.12	7.19136E-001	5.99815E-003	0.00000E+000	4.31349E-003	3.59960E-001	-1.18359E+000	3.57720E+000	10	...........
	9	0.133333	7.26305E-001	5.99233E-003	0.00000E+000	4.35226E-003	3.59960E-001	-1.17252E+000	3.57720E+000	10	...........
	10	0.146667	7.33412E-001	5.99458E-003	0.00000E+000	4.39650E-003	3.59960E-001	-1.17228E+000	3.57720E+000	10	...........
	11	0.16	7.40428E-001	5.99586E-003	0.00000E+000	4.43950E-003	3.59960E-001	-1.18314E+000	3.57720E+000	10	...........
	12	0.173333	7.47448E-001	5.99455E-003	0.00000E+000	4.48062E-003	3.59960E-001	-1.17281E+000	3.57720E+000	10	...........
	13	0.186667	7.54384E-001	5.99149E-003	0.00000E+000	4.51988E-003	3.59960E-001	-1.17249E+000	3.57720E+000	10	...........
	14	0.2	7.61286E-001	5.99646E-003	0.00000E+000	4.56502E-003	3.59960E-001	-1.18318E+000	3.57720E+000	10	...........
	15	0.213333	7.68185E-001	5.99417E-003	0.00000E+000	4.60463E-003	3.59960E-001	-1.17236E+000	3.57720E+000	10	...........
	16	0.226667	7.75018E-001	5.99015E-003	0.00000E+000	4.64248E-003	3.59960E-001	-1.17238E+000	3.57720E+000	10	...........
	17	0.24	7.81828E-001	5.99907E-003	0.00000E+000	4.69024E-003	3.59960E-001	-1.18333E+000	3.57720E+000	10	...........
	18	0.253333	7.88595E-001	5.98882E-003	0.00000E+000	4.72275E-003	3.59960E-001	-1.17278E+000	3.57720E+000	10	...........
	19	0.266667	7.95398E-001	5.99328E-003	0.00000E+000	4.76705E-003	3.59960E-001	-1.17244E+000	3.57720E+000	10	...........
	20	0.28	8.02098E-001	5.99619E-003	0.00000E+000	4.80953E-003	3.59960E-001	-1.18302E+000	3.57720E+000	10	...........
	21	0.293333	8.08783E-001	5.99247E-003	0.00000E+000	4.84661E-003	3.59960E-001	-1.17257E+000	3.57720E+000	10	...........
	22	0.306667	8.15511E-001	5.99793E-003	0.00000E+000	4.89138E-003	3.59960E-001	-1.17245E+000	3.57720E+000	10	...........
	23	0.32	8.22156E-001	5.99349E-003	0.00000E+000	4.92758E-003	3.59960E-001	-1.18304E+000	3.57720E+000	10	...........
	24	0.333333	8.28793E-001	5.99502E-003	0.00000E+000	4.96863E-003	3.59960E-001	-1.17245E+000	3.57720E+000	10	...........
	25	0.346667	8.35416E-001	5.99235E-003	0.00000E+000	5.00610E-003	3.59960E-001	-1.17214E+000	3.57720E+000	10	...........
	26	0.36	8.42031E-001	5.99400E-003	0.00000E+000	5.04713E-003	3.59960E-001	-1.18307E+000	3.57720E+000	10	...........
	27	0.373333	8.48603E-001	5.99217E-003	0.00000E+000	5.08498E-003	3.59960E-001	-1.17255E+000	3.57720E+000	10	...........
	28	0.386667	8.55095E-001	5.99232E-003	0.00000E+000	5.12401E-003	3.59960E-001	-1.17232E+000	3.57720E+000	10	...........
	29	0.4	8.61589E-001	5.99099E-003	0.00000E+000	5.16177E-003	3.59960E-001	-1.18300E+000	3.57720E+000	10	...........
	30	0.413333	8.68043E-001	5.99433E-003	0.00000E+000	5.20334E-003	3.59960E-001	-1.17241E+000	3.57720E+000	10	...........
	31	0.426667	8.74548E-001	5.99692E-003	0.00000E+000	5.24459E-003	3.59960E-001	-1.17224E+000	3.57720E+000	10	...........
	32	0.44	8.80950E-001	5.99086E-003	0.00000E+000	5.27765E-003	3.59960E-001	-1.18304E+000	3.57720E+000	10	...........
	33	0.453333	8.87362E-001	5.99303E-003	0.00000E+000	5.31799E-003	3.59960E-001	-1.17208E+000	3.57720E+000	10	...........
	34	0.466667	8.93655E-001	5.99608E-003	0.00000E+000	5.35842E-003	3.59960E-001	-1.17186E+000	3.57720E+000	10	...........
	35	0.48	9.00025E-001	5.99305E-003	0.00000E+000	5.39389E-003	3.59960E-001	-1.18245E+000	3.57720E+000	10	...........
	36	0.493333	9.06288E-001	5.99270E-003	0.00000E+000	5.43111E-003	3.59960E-001	-1.17205E+000	3.57720E+000	10	...........
	37	0.506667	9.12524E-001	5.99607E-003	0.00000E+000	5.47155E-003	3.59960E-001	-1.17191E+000	3.57720E+000	10	...........
	38	0.52	9.18721E-001	5.99206E-003	0.00000E+000	5.50503E-003	3.59960E-001	-1.18225E+000	3.57720E+000	10	...........
	39	0.533333	9.24926E-001	5.99129E-003	0.00000E+000	5.54150E-003	3.59960E-001	-1.17184E+000	3.57720E+000	10	...........
	40	0.546667	9.31008E-001	5.99275E-003	0.00000E+000	5.57930E-003	3.59960E-001	-1.17154E+000	3.57720E+000	10	...........
	41	0.56	9.37063E-001	5.99657E-003	0.00000E+000	5.61916E-003	3.59960E-001	-1.18225E+000	3.57720E+000	10	...........
	42	0.573333	9.43070E-001	5.99352E-003	0.00000E+000	5.65231E-003	3.59960E-001	-1.17200E+000	3.57720E+000	10	...........
	43	0.586667	9.49104E-001	5.99126E-003	0.00000E+000	5.68633E-003	3.59960E-001	-1.17167E+000	3.57720E+000	10	...........
	44	0.6	9.54979E-001	5.99427E-003	0.00000E+000	5.72440E-003	3.59960E-001	-1.18210E+000	3.57720E+000	10	...........
	45	0.613333	9.60850E-001	5.99482E-003	0.00000E+000	5.76012E-003	3.59960E-001	-1.17173E+000	3.57720E+000	10	...........
	46	0.626667	9.66687E-001	5.99355E-003	0.00000E+000	5.79389E-003	3.59960E-001	-1.17150E+000	3.57720E+000	10	...........
	47	0.64	9.72494E-001	5.99166E-003	0.00000E+000	5.82686E-003	3.59960E-001	-1.18220E+000	3.57720E+000	10	...........
	48	0.653333	9.78185E-001	5.99056E-003	0.00000E+000	5.85987E-003	3.59960E-001	-1.17185E+000	3.57720E+000	10	...........
	49	0.666667	9.83877E-001	6.00028E-003	0.00000E+000	5.90354E-003	3.59960E-001	-1.17150E+000	3.57720E+000	10	...........
	50	0.68	9.89505E-001	5.99268E-003	0.00000E+000	5.92978E-003	3.59960E-001	-1.18221E+000	3.57720E+000	10	...........
	51	0.693333	9.95066E-001	5.99516E-003	0.00000E+000	5.96558E-003	3.59960E-001	-1.17195E+000	3.57720E+000	10	...........
	52	0.7	9.99224E-001	5.99244E-003	0.00000E+000	5.98778E-003	3.59960E-001	-1.18216E+000	3.57720E+000	10	...........
STARTTIMEOFFSET	QUANT	1497.847	Start Time Offset (s)