File: Data/CV_CRGO300517_1/PWRCCD_CRGO300517_1/CHARGE_DISCHARGE/CHARGE_#325.DTA
EXPLAIN
TAG	PWR800_CHARGE
TITLE	LABEL	PWR Cyclic Charge Discharge (Cell) - Charge Step	Test &Identifier
DATE	LABEL	22-6-2017	Date
TIME	LABEL	15:48:57	Time
NOTES	NOTES	3	&Notes...
	supercap test cell
	0.6mg
	6M KOH
PSTAT	PSTAT	IFC5000-01520	Potentiostat
CAPACITY	QUANT	1.00000E-003	Capacity (A-hr)
CELLTYPE	SELECTOR	1	&Cell Type
WORKINGCONNECTION	SELECTOR	0	&Working Lead
MAXCHARGETIME	VARIABLEANDUNITS	1.00000E+002	s	1.00000E+002	second(s)	Max &Charge Time
CHARGECURRENT	QUANT	6.00000E-003	&Charge Current (A)
VOLTAGEFINISH	TWOPARAM	F	1.00000E-003	3.60000E+003	&Voltage Finish	 I (A) < 	Max Time(s)
SAMPLETIME	QUANT	1.00000E-002	Sa&mple Period (s)
CHARGESTOPAT1	MULTIPARAM	4	1.00000E+000	Charge Stop At &1	Voltage > Limit	V
CHARGESTOPAT2	MULTIPARAM	0	0.00000E+000	Charge Stop At &2	None	N/A
AESBHCSELECTOR	TOGGLE	F	Save Both Half Cells
IRCOMP	TOGGLE	F	IR &Measure
EOC	QUANT	0	Open Circuit (V)
SEQUENCER	TOGGLE	TRUE	Run as Sequence
PSTATMODEL	IQUANT	53	Pstat Model
PSTATSECTION	LABEL	IFC5000-01520	Pstat Section
PSTATSERIALNO	LABEL	01520	Pstat Serial Number
CTRLMODE	IQUANT	0	Control Mode
ELECTROMETER	IQUANT	1	RE=0 or CS=1
IESTAB	IQUANT	0	I/E Stability
CASPEED	IQUANT	4	Control Amp Speed
CONVENTION	IQUANT	1	Current Convention
ICHRANGE	IQUANT	2	Ich Range
ICHRANGEMODE	TOGGLE	T	Ich Auto Range
ICHOFFSETENABLE	TOGGLE	F	Ich Offset Enable
ICHOFFSET	QUANT	0	Ich Offset (V)
ICHFILTER	IQUANT	1	Ich Filter
VCHRANGE	IQUANT	2	Vch Range
VCHRANGEMODE	TOGGLE	T	Vch Auto Range
VCHOFFSETENABLE	TOGGLE	F	Vch Offset Enable
VCHOFFSET	QUANT	0	Vch Offset (V)
VCHFILTER	IQUANT	1	Vch Filter
IERANGELOWERLIMIT	IQUANT	9	I/E Range Lower Limit
IERANGEMODE	TOGGLE	F	I/E AutoRange
IERANGE	IQUANT	10	I/E Range
ACHSELECT	IQUANT	1	Ach Select
ACHRANGE	IQUANT	2	Ach Range
ACHOFFSETENABLE	TOGGLE	F	Ach Offset Enable
ACHOFFSET	QUANT	0	Ach Offset (V)
ACHFILTER	IQUANT	1	Ach Filter
CABLEID	IQUANT	14	Cable ID
DCCALDATE	LABEL	20-10-2016	DC Calibration Date
ACCALDATE	LABEL	12/3/2015	AC Calibration Date
FRAMEWORKVERSION	QUANT	7.01	Framework Version
INSTRUMENTVERSION	LABEL	4.00	Instrument Version
CURVE	TABLE	62
	Pt	T	Vf	Im	Vu	Pwr	Sig	Ach	Temp	IERange	Over
	#	s	V	A	V	W	V	V	deg C	#	bits
	0	0.013333	6.18534E-001	5.99590E-003	0.00000E+000	3.70867E-003	3.59960E-001	-1.12079E+000	3.57740E+000	10	...........
	1	0.026667	6.27177E-001	5.99370E-003	0.00000E+000	3.75911E-003	3.59960E-001	-1.11723E+000	3.57740E+000	10	...........
	2	0.04	6.35092E-001	5.99583E-003	0.00000E+000	3.80790E-003	3.59960E-001	-1.11216E+000	3.57740E+000	10	...........
	3	0.053333	6.42637E-001	5.99401E-003	0.00000E+000	3.85197E-003	3.59960E-001	-1.12069E+000	3.57740E+000	10	...........
	4	0.066667	6.49847E-001	5.99700E-003	0.00000E+000	3.89714E-003	3.59960E-001	-1.11741E+000	3.57740E+000	10	...........
	5	0.08	6.56916E-001	5.99705E-003	0.00000E+000	3.93956E-003	3.59960E-001	-1.11187E+000	3.57740E+000	10	...........
	6	0.093333	6.63861E-001	5.99430E-003	0.00000E+000	3.97938E-003	3.59960E-001	-1.12044E+000	3.57740E+000	10	...........
	7	0.106667	6.70707E-001	5.99601E-003	0.00000E+000	4.02157E-003	3.59960E-001	-1.11741E+000	3.57740E+000	10	...........
	8	0.12	6.77450E-001	5.99178E-003	0.00000E+000	4.05913E-003	3.59960E-001	-1.11214E+000	3.57740E+000	10	...........
	9	0.133333	6.84055E-001	5.99689E-003	0.00000E+000	4.10220E-003	3.59960E-001	-1.12058E+000	3.57740E+000	10	...........
	10	0.146667	6.90686E-001	5.99412E-003	0.00000E+000	4.14005E-003	3.59960E-001	-1.11751E+000	3.57740E+000	10	...........
	11	0.16	6.97268E-001	5.99325E-003	0.00000E+000	4.17890E-003	3.59960E-001	-1.11170E+000	3.57740E+000	10	...........
	12	0.173333	7.03753E-001	5.99634E-003	0.00000E+000	4.21994E-003	3.59960E-001	-1.11997E+000	3.57740E+000	10	...........
	13	0.186667	7.10184E-001	5.99415E-003	0.00000E+000	4.25695E-003	3.59960E-001	-1.11740E+000	3.57740E+000	10	...........
	14	0.2	7.16685E-001	5.99981E-003	0.00000E+000	4.29998E-003	3.59960E-001	-1.11180E+000	3.57695E+000	10	...........
	15	0.213333	7.23148E-001	5.99827E-003	0.00000E+000	4.33763E-003	3.59960E-001	-1.11984E+000	3.57680E+000	10	...........
	16	0.226667	7.29510E-001	5.99239E-003	0.00000E+000	4.37151E-003	3.59960E-001	-1.11686E+000	3.57680E+000	10	...........
	17	0.24	7.35921E-001	5.99369E-003	0.00000E+000	4.41088E-003	3.59960E-001	-1.11136E+000	3.57680E+000	10	...........
	18	0.253333	7.42254E-001	5.99551E-003	0.00000E+000	4.45019E-003	3.59960E-001	-1.11958E+000	3.57680E+000	10	...........
	19	0.266667	7.48617E-001	5.99682E-003	0.00000E+000	4.48932E-003	3.59960E-001	-1.11701E+000	3.57680E+000	10	...........
	20	0.28	7.54971E-001	5.99093E-003	0.00000E+000	4.52298E-003	3.59960E-001	-1.11119E+000	3.57680E+000	10	...........
	21	0.293333	7.61277E-001	5.99381E-003	0.00000E+000	4.56295E-003	3.59960E-001	-1.11909E+000	3.57680E+000	10	...........
	22	0.306667	7.67616E-001	5.99355E-003	0.00000E+000	4.60074E-003	3.59960E-001	-1.11678E+000	3.57680E+000	10	...........
	23	0.32	7.73879E-001	5.99286E-003	0.00000E+000	4.63775E-003	3.59960E-001	-1.11131E+000	3.57680E+000	10	...........
	24	0.333333	7.80169E-001	5.99554E-003	0.00000E+000	4.67754E-003	3.59960E-001	-1.11918E+000	3.57680E+000	10	...........
	25	0.346667	7.86458E-001	5.99960E-003	0.00000E+000	4.71843E-003	3.59960E-001	-1.11701E+000	3.57680E+000	10	...........
	26	0.36	7.92757E-001	5.99233E-003	0.00000E+000	4.75047E-003	3.59960E-001	-1.11087E+000	3.57680E+000	10	...........
	27	0.373333	7.99048E-001	5.99406E-003	0.00000E+000	4.78955E-003	3.59960E-001	-1.11888E+000	3.57680E+000	10	...........
	28	0.386667	8.05308E-001	5.99757E-003	0.00000E+000	4.82989E-003	3.59960E-001	-1.11702E+000	3.57680E+000	10	...........
	29	0.4	8.11512E-001	5.98704E-003	0.00000E+000	4.85856E-003	3.59960E-001	-1.11091E+000	3.57680E+000	10	...........
	30	0.413333	8.17738E-001	5.99366E-003	0.00000E+000	4.90124E-003	3.59960E-001	-1.11887E+000	3.57680E+000	10	...........
	31	0.426667	8.23983E-001	5.99129E-003	0.00000E+000	4.93672E-003	3.59960E-001	-1.11681E+000	3.57680E+000	10	...........
	32	0.44	8.30195E-001	5.99096E-003	0.00000E+000	4.97367E-003	3.59960E-001	-1.11084E+000	3.57680E+000	10	...........
	33	0.453333	8.36401E-001	5.99154E-003	0.00000E+000	5.01133E-003	3.59960E-001	-1.11893E+000	3.57680E+000	10	...........
	34	0.466667	8.42541E-001	5.99268E-003	0.00000E+000	5.04907E-003	3.59960E-001	-1.11725E+000	3.57680E+000	10	...........
	35	0.48	8.48741E-001	5.99201E-003	0.00000E+000	5.08566E-003	3.59960E-001	-1.11102E+000	3.57680E+000	10	...........
	36	0.493333	8.54878E-001	5.99213E-003	0.00000E+000	5.12254E-003	3.59960E-001	-1.11861E+000	3.57680E+000	10	...........
	37	0.506667	8.61060E-001	5.99691E-003	0.00000E+000	5.16370E-003	3.59960E-001	-1.11722E+000	3.57680E+000	10	...........
	38	0.52	8.67219E-001	5.99299E-003	0.00000E+000	5.19723E-003	3.59960E-001	-1.11109E+000	3.57680E+000	10	...........
	39	0.533333	8.73317E-001	5.99018E-003	0.00000E+000	5.23133E-003	3.59960E-001	-1.11864E+000	3.57680E+000	10	...........
	40	0.546667	8.79407E-001	5.99205E-003	0.00000E+000	5.26945E-003	3.59960E-001	-1.11682E+000	3.57680E+000	10	...........
	41	0.56	8.85472E-001	5.99475E-003	0.00000E+000	5.30818E-003	3.59960E-001	-1.11044E+000	3.57680E+000	10	...........
	42	0.573333	8.91470E-001	5.99492E-003	0.00000E+000	5.34429E-003	3.59960E-001	-1.11803E+000	3.57680E+000	10	...........
	43	0.586667	8.97476E-001	5.99458E-003	0.00000E+000	5.38000E-003	3.59960E-001	-1.11716E+000	3.57680E+000	10	...........
	44	0.6	9.03503E-001	5.99469E-003	0.00000E+000	5.41622E-003	3.59960E-001	-1.11072E+000	3.57680E+000	10	...........
	45	0.613333	9.09470E-001	5.99132E-003	0.00000E+000	5.44893E-003	3.59960E-001	-1.11806E+000	3.57680E+000	10	...........
	46	0.626667	9.15406E-001	5.99420E-003	0.00000E+000	5.48713E-003	3.59960E-001	-1.11694E+000	3.57680E+000	10	...........
	47	0.64	9.21365E-001	5.99384E-003	0.00000E+000	5.52252E-003	3.59960E-001	-1.11074E+000	3.57680E+000	10	...........
	48	0.653333	9.27328E-001	5.99552E-003	0.00000E+000	5.55982E-003	3.59960E-001	-1.11797E+000	3.57680E+000	10	...........
	49	0.666667	9.33172E-001	5.98817E-003	0.00000E+000	5.58799E-003	3.59960E-001	-1.11721E+000	3.57680E+000	10	...........
	50	0.68	9.38994E-001	5.99756E-003	0.00000E+000	5.63167E-003	3.59960E-001	-1.11037E+000	3.57680E+000	10	...........
	51	0.693333	9.44789E-001	5.99654E-003	0.00000E+000	5.66547E-003	3.59960E-001	-1.11759E+000	3.57680E+000	10	...........
	52	0.706667	9.50602E-001	5.99359E-003	0.00000E+000	5.69752E-003	3.59960E-001	-1.11698E+000	3.57680E+000	10	...........
	53	0.72	9.56344E-001	5.99312E-003	0.00000E+000	5.73149E-003	3.59960E-001	-1.11042E+000	3.57680E+000	10	...........
	54	0.733333	9.62061E-001	5.99228E-003	0.00000E+000	5.76494E-003	3.59960E-001	-1.11782E+000	3.57680E+000	10	...........
	55	0.746667	9.67716E-001	5.99659E-003	0.00000E+000	5.80299E-003	3.59960E-001	-1.11704E+000	3.57680E+000	10	...........
	56	0.76	9.73338E-001	5.99109E-003	0.00000E+000	5.83135E-003	3.59960E-001	-1.11028E+000	3.57680E+000	10	...........
	57	0.773333	9.78912E-001	5.98892E-003	0.00000E+000	5.86263E-003	3.59960E-001	-1.11775E+000	3.57680E+000	10	...........
	58	0.786667	9.84402E-001	5.99083E-003	0.00000E+000	5.89738E-003	3.59960E-001	-1.11736E+000	3.57680E+000	10	...........
	59	0.8	9.89922E-001	5.99006E-003	0.00000E+000	5.92969E-003	3.59960E-001	-1.11047E+000	3.57680E+000	10	...........
	60	0.813333	9.95345E-001	5.99324E-003	0.00000E+000	5.96534E-003	3.59960E-001	-1.11752E+000	3.57680E+000	10	...........
	61	0.82	9.99481E-001	5.99511E-003	0.00000E+000	5.99200E-003	3.59960E-001	-1.11036E+000	3.57680E+000	10	...........
STARTTIMEOFFSET	QUANT	582.0981	Start Time Offset (s)