File: Data/CV_CRGO300517_1/PWRCCD_CRGO300517_1/CHARGE_DISCHARGE/CHARGE_#233.DTA
EXPLAIN
TAG	PWR800_CHARGE
TITLE	LABEL	PWR Cyclic Charge Discharge (Cell) - Charge Step	Test &Identifier
DATE	LABEL	22-6-2017	Date
TIME	LABEL	15:45:10	Time
NOTES	NOTES	3	&Notes...
	supercap test cell
	0.6mg
	6M KOH
PSTAT	PSTAT	IFC5000-01520	Potentiostat
CAPACITY	QUANT	1.00000E-003	Capacity (A-hr)
CELLTYPE	SELECTOR	1	&Cell Type
WORKINGCONNECTION	SELECTOR	0	&Working Lead
MAXCHARGETIME	VARIABLEANDUNITS	1.00000E+002	s	1.00000E+002	second(s)	Max &Charge Time
CHARGECURRENT	QUANT	6.00000E-003	&Charge Current (A)
VOLTAGEFINISH	TWOPARAM	F	1.00000E-003	3.60000E+003	&Voltage Finish	 I (A) < 	Max Time(s)
SAMPLETIME	QUANT	1.00000E-002	Sa&mple Period (s)
CHARGESTOPAT1	MULTIPARAM	4	1.00000E+000	Charge Stop At &1	Voltage > Limit	V
CHARGESTOPAT2	MULTIPARAM	0	0.00000E+000	Charge Stop At &2	None	N/A
AESBHCSELECTOR	TOGGLE	F	Save Both Half Cells
IRCOMP	TOGGLE	F	IR &Measure
EOC	QUANT	0	Open Circuit (V)
SEQUENCER	TOGGLE	TRUE	Run as Sequence
PSTATMODEL	IQUANT	53	Pstat Model
PSTATSECTION	LABEL	IFC5000-01520	Pstat Section
PSTATSERIALNO	LABEL	01520	Pstat Serial Number
CTRLMODE	IQUANT	0	Control Mode
ELECTROMETER	IQUANT	1	RE=0 or CS=1
IESTAB	IQUANT	0	I/E Stability
CASPEED	IQUANT	4	Control Amp Speed
CONVENTION	IQUANT	1	Current Convention
ICHRANGE	IQUANT	2	Ich Range
ICHRANGEMODE	TOGGLE	T	Ich Auto Range
ICHOFFSETENABLE	TOGGLE	F	Ich Offset Enable
ICHOFFSET	QUANT	0	Ich Offset (V)
ICHFILTER	IQUANT	1	Ich Filter
VCHRANGE	IQUANT	2	Vch Range
VCHRANGEMODE	TOGGLE	T	Vch Auto Range
VCHOFFSETENABLE	TOGGLE	F	Vch Offset Enable
VCHOFFSET	QUANT	0	Vch Offset (V)
VCHFILTER	IQUANT	1	Vch Filter
IERANGELOWERLIMIT	IQUANT	9	I/E Range Lower Limit
IERANGEMODE	TOGGLE	F	I/E AutoRange
IERANGE	IQUANT	10	I/E Range
ACHSELECT	IQUANT	1	Ach Select
ACHRANGE	IQUANT	2	Ach Range
ACHOFFSETENABLE	TOGGLE	F	Ach Offset Enable
ACHOFFSET	QUANT	0	Ach Offset (V)
ACHFILTER	IQUANT	1	Ach Filter
CABLEID	IQUANT	14	Cable ID
DCCALDATE	LABEL	20-10-2016	DC Calibration Date
ACCALDATE	LABEL	12/3/2015	AC Calibration Date
FRAMEWORKVERSION	QUANT	7.01	Framework Version
INSTRUMENTVERSION	LABEL	4.00	Instrument Version
CURVE	TABLE	64
	Pt	T	Vf	Im	Vu	Pwr	Sig	Ach	Temp	IERange	Over
	#	s	V	A	V	W	V	V	deg C	#	bits
	0	0.013333	6.09677E-001	5.99185E-003	0.00000E+000	3.65310E-003	3.59960E-001	-1.09412E+000	3.57760E+000	10	...........
	1	0.026667	6.18284E-001	5.99466E-003	0.00000E+000	3.70640E-003	3.59960E-001	-1.09876E+000	3.57760E+000	10	...........
	2	0.04	6.26063E-001	5.99550E-003	0.00000E+000	3.75356E-003	3.59960E-001	-1.09030E+000	3.57760E+000	10	...........
	3	0.053333	6.33502E-001	5.99302E-003	0.00000E+000	3.79659E-003	3.59960E-001	-1.09396E+000	3.57760E+000	10	...........
	4	0.066667	6.40662E-001	5.99261E-003	0.00000E+000	3.83924E-003	3.59960E-001	-1.09848E+000	3.57760E+000	10	...........
	5	0.08	6.47637E-001	5.99166E-003	0.00000E+000	3.88043E-003	3.59960E-001	-1.09017E+000	3.57760E+000	10	...........
	6	0.093333	6.54449E-001	5.99467E-003	0.00000E+000	3.92320E-003	3.59960E-001	-1.09383E+000	3.57760E+000	10	...........
	7	0.106667	6.61099E-001	5.99214E-003	0.00000E+000	3.96140E-003	3.59960E-001	-1.09841E+000	3.57760E+000	10	...........
	8	0.12	6.67754E-001	5.99603E-003	0.00000E+000	4.00387E-003	3.59960E-001	-1.09002E+000	3.57760E+000	10	...........
	9	0.133333	6.74305E-001	5.99110E-003	0.00000E+000	4.03983E-003	3.59960E-001	-1.09376E+000	3.57760E+000	10	...........
	10	0.146667	6.80802E-001	5.99292E-003	0.00000E+000	4.07999E-003	3.59960E-001	-1.09865E+000	3.57760E+000	10	...........
	11	0.16	6.87251E-001	5.99634E-003	0.00000E+000	4.12099E-003	3.59960E-001	-1.09021E+000	3.57760E+000	10	...........
	12	0.173333	6.93669E-001	5.99249E-003	0.00000E+000	4.15681E-003	3.59960E-001	-1.09390E+000	3.57760E+000	10	...........
	13	0.186667	7.00029E-001	5.99617E-003	0.00000E+000	4.19749E-003	3.59960E-001	-1.09853E+000	3.57760E+000	10	...........
	14	0.2	7.06354E-001	5.99669E-003	0.00000E+000	4.23579E-003	3.59960E-001	-1.09019E+000	3.57760E+000	10	...........
	15	0.213333	7.12618E-001	5.99354E-003	0.00000E+000	4.27110E-003	3.59960E-001	-1.09388E+000	3.57760E+000	10	...........
	16	0.226667	7.18960E-001	5.99303E-003	0.00000E+000	4.30875E-003	3.59960E-001	-1.09863E+000	3.57760E+000	10	...........
	17	0.24	7.25204E-001	5.99566E-003	0.00000E+000	4.34807E-003	3.59960E-001	-1.09031E+000	3.57760E+000	10	...........
	18	0.253333	7.31447E-001	5.99296E-003	0.00000E+000	4.38353E-003	3.59960E-001	-1.09367E+000	3.57760E+000	10	...........
	19	0.266667	7.37673E-001	5.99448E-003	0.00000E+000	4.42197E-003	3.59960E-001	-1.09825E+000	3.57751E+000	10	...........
	20	0.28	7.43928E-001	5.99184E-003	0.00000E+000	4.45750E-003	3.59960E-001	-1.08967E+000	3.57690E+000	10	...........
	21	0.293333	7.50103E-001	5.99463E-003	0.00000E+000	4.49659E-003	3.59960E-001	-1.09346E+000	3.57690E+000	10	...........
	22	0.306667	7.56326E-001	5.99372E-003	0.00000E+000	4.53321E-003	3.59960E-001	-1.09828E+000	3.57690E+000	10	...........
	23	0.32	7.62514E-001	5.99265E-003	0.00000E+000	4.56948E-003	3.59960E-001	-1.08973E+000	3.57690E+000	10	...........
	24	0.333333	7.68713E-001	5.99299E-003	0.00000E+000	4.60689E-003	3.59960E-001	-1.09334E+000	3.57690E+000	10	...........
	25	0.346667	7.74909E-001	5.99204E-003	0.00000E+000	4.64329E-003	3.59960E-001	-1.09808E+000	3.57690E+000	10	...........
	26	0.36	7.81066E-001	5.99655E-003	0.00000E+000	4.68369E-003	3.59960E-001	-1.08977E+000	3.57690E+000	10	...........
	27	0.373333	7.87213E-001	5.99041E-003	0.00000E+000	4.71573E-003	3.59960E-001	-1.09340E+000	3.57690E+000	10	...........
	28	0.386667	7.93373E-001	5.99627E-003	0.00000E+000	4.75728E-003	3.59960E-001	-1.09833E+000	3.57690E+000	10	...........
	29	0.4	7.99509E-001	5.99330E-003	0.00000E+000	4.79170E-003	3.59960E-001	-1.08986E+000	3.57690E+000	10	...........
	30	0.413333	8.05622E-001	5.99128E-003	0.00000E+000	4.82671E-003	3.59960E-001	-1.09333E+000	3.57690E+000	10	...........
	31	0.426667	8.11769E-001	5.99253E-003	0.00000E+000	4.86455E-003	3.59960E-001	-1.09815E+000	3.57690E+000	10	...........
	32	0.44	8.17920E-001	5.99698E-003	0.00000E+000	4.90505E-003	3.59960E-001	-1.08979E+000	3.57690E+000	10	...........
	33	0.453333	8.24001E-001	5.99721E-003	0.00000E+000	4.94171E-003	3.59960E-001	-1.09341E+000	3.57690E+000	10	...........
	34	0.466667	8.30100E-001	5.98908E-003	0.00000E+000	4.97153E-003	3.59960E-001	-1.09818E+000	3.57690E+000	10	...........
	35	0.48	8.36203E-001	5.99540E-003	0.00000E+000	5.01337E-003	3.59960E-001	-1.08985E+000	3.57690E+000	10	...........
	36	0.493333	8.42243E-001	5.98839E-003	0.00000E+000	5.04368E-003	3.59960E-001	-1.09336E+000	3.57690E+000	10	...........
	37	0.506667	8.48352E-001	5.99833E-003	0.00000E+000	5.08869E-003	3.59960E-001	-1.09833E+000	3.57690E+000	10	...........
	38	0.52	8.54389E-001	5.99344E-003	0.00000E+000	5.12073E-003	3.59960E-001	-1.08990E+000	3.57690E+000	10	...........
	39	0.533333	8.60436E-001	5.99447E-003	0.00000E+000	5.15786E-003	3.59960E-001	-1.09339E+000	3.57690E+000	10	...........
	40	0.546667	8.66430E-001	5.99442E-003	0.00000E+000	5.19374E-003	3.59960E-001	-1.09830E+000	3.57690E+000	10	...........
	41	0.56	8.72482E-001	5.99382E-003	0.00000E+000	5.22950E-003	3.59960E-001	-1.08994E+000	3.57690E+000	10	...........
	42	0.573333	8.78472E-001	5.99873E-003	0.00000E+000	5.26971E-003	3.59960E-001	-1.09351E+000	3.57690E+000	10	...........
	43	0.586667	8.84462E-001	5.99531E-003	0.00000E+000	5.30263E-003	3.59960E-001	-1.09824E+000	3.57690E+000	10	...........
	44	0.6	8.90425E-001	5.99824E-003	0.00000E+000	5.34098E-003	3.59960E-001	-1.08966E+000	3.57690E+000	10	...........
	45	0.613333	8.96351E-001	5.99615E-003	0.00000E+000	5.37465E-003	3.59960E-001	-1.09327E+000	3.57690E+000	10	...........
	46	0.626667	9.02303E-001	6.00152E-003	0.00000E+000	5.41519E-003	3.59960E-001	-1.09820E+000	3.57690E+000	10	...........
	47	0.64	9.08230E-001	5.99752E-003	0.00000E+000	5.44712E-003	3.59960E-001	-1.08960E+000	3.57690E+000	10	...........
	48	0.653333	9.14087E-001	5.99759E-003	0.00000E+000	5.48232E-003	3.59960E-001	-1.09320E+000	3.57690E+000	10	...........
	49	0.666667	9.19958E-001	5.99279E-003	0.00000E+000	5.51312E-003	3.59960E-001	-1.09807E+000	3.57690E+000	10	...........
	50	0.68	9.25805E-001	5.99561E-003	0.00000E+000	5.55076E-003	3.59960E-001	-1.08936E+000	3.57690E+000	10	...........
	51	0.693333	9.31607E-001	5.99598E-003	0.00000E+000	5.58590E-003	3.59960E-001	-1.09303E+000	3.57690E+000	10	...........
	52	0.706667	9.37350E-001	5.99210E-003	0.00000E+000	5.61669E-003	3.59960E-001	-1.09800E+000	3.57690E+000	10	...........
	53	0.72	9.43120E-001	5.99125E-003	0.00000E+000	5.65047E-003	3.59960E-001	-1.08942E+000	3.57690E+000	10	...........
	54	0.733333	9.48868E-001	5.99521E-003	0.00000E+000	5.68866E-003	3.59960E-001	-1.09294E+000	3.57690E+000	10	...........
	55	0.746667	9.54527E-001	5.98994E-003	0.00000E+000	5.71756E-003	3.59960E-001	-1.09783E+000	3.57690E+000	10	...........
	56	0.76	9.60179E-001	5.99487E-003	0.00000E+000	5.75615E-003	3.59960E-001	-1.08927E+000	3.57690E+000	10	...........
	57	0.773333	9.65795E-001	5.99634E-003	0.00000E+000	5.79123E-003	3.59960E-001	-1.09297E+000	3.57690E+000	10	...........
	58	0.786667	9.71386E-001	5.99276E-003	0.00000E+000	5.82128E-003	3.59960E-001	-1.09809E+000	3.57690E+000	10	...........
	59	0.8	9.76959E-001	5.99329E-003	0.00000E+000	5.85520E-003	3.59960E-001	-1.08958E+000	3.57690E+000	10	...........
	60	0.813333	9.82464E-001	5.99368E-003	0.00000E+000	5.88857E-003	3.59960E-001	-1.09310E+000	3.57690E+000	10	...........
	61	0.826667	9.87920E-001	5.99344E-003	0.00000E+000	5.92103E-003	3.59960E-001	-1.09816E+000	3.57690E+000	10	...........
	62	0.84	9.93319E-001	5.99309E-003	0.00000E+000	5.95305E-003	3.59960E-001	-1.08962E+000	3.57690E+000	10	...........
	63	0.851667	9.98418E-001	5.99976E-003	0.00000E+000	5.99027E-003	3.59960E-001	-1.09534E+000	3.57690E+000	10	...........
STARTTIMEOFFSET	QUANT	429.2883	Start Time Offset (s)