File: Data/CV_CRGO300517_1/PWRCCD_CRGO300517_1/CHARGE_DISCHARGE/CHARGE_#418.DTA
EXPLAIN
TAG	PWR800_CHARGE
TITLE	LABEL	PWR Cyclic Charge Discharge (Cell) - Charge Step	Test &Identifier
DATE	LABEL	22-6-2017	Date
TIME	LABEL	15:52:41	Time
NOTES	NOTES	3	&Notes...
	supercap test cell
	0.6mg
	6M KOH
PSTAT	PSTAT	IFC5000-01520	Potentiostat
CAPACITY	QUANT	1.00000E-003	Capacity (A-hr)
CELLTYPE	SELECTOR	1	&Cell Type
WORKINGCONNECTION	SELECTOR	0	&Working Lead
MAXCHARGETIME	VARIABLEANDUNITS	1.00000E+002	s	1.00000E+002	second(s)	Max &Charge Time
CHARGECURRENT	QUANT	6.00000E-003	&Charge Current (A)
VOLTAGEFINISH	TWOPARAM	F	1.00000E-003	3.60000E+003	&Voltage Finish	 I (A) < 	Max Time(s)
SAMPLETIME	QUANT	1.00000E-002	Sa&mple Period (s)
CHARGESTOPAT1	MULTIPARAM	4	1.00000E+000	Charge Stop At &1	Voltage > Limit	V
CHARGESTOPAT2	MULTIPARAM	0	0.00000E+000	Charge Stop At &2	None	N/A
AESBHCSELECTOR	TOGGLE	F	Save Both Half Cells
IRCOMP	TOGGLE	F	IR &Measure
EOC	QUANT	0	Open Circuit (V)
SEQUENCER	TOGGLE	TRUE	Run as Sequence
PSTATMODEL	IQUANT	53	Pstat Model
PSTATSECTION	LABEL	IFC5000-01520	Pstat Section
PSTATSERIALNO	LABEL	01520	Pstat Serial Number
CTRLMODE	IQUANT	0	Control Mode
ELECTROMETER	IQUANT	1	RE=0 or CS=1
IESTAB	IQUANT	0	I/E Stability
CASPEED	IQUANT	4	Control Amp Speed
CONVENTION	IQUANT	1	Current Convention
ICHRANGE	IQUANT	2	Ich Range
ICHRANGEMODE	TOGGLE	T	Ich Auto Range
ICHOFFSETENABLE	TOGGLE	F	Ich Offset Enable
ICHOFFSET	QUANT	0	Ich Offset (V)
ICHFILTER	IQUANT	1	Ich Filter
VCHRANGE	IQUANT	2	Vch Range
VCHRANGEMODE	TOGGLE	T	Vch Auto Range
VCHOFFSETENABLE	TOGGLE	F	Vch Offset Enable
VCHOFFSET	QUANT	0	Vch Offset (V)
VCHFILTER	IQUANT	1	Vch Filter
IERANGELOWERLIMIT	IQUANT	9	I/E Range Lower Limit
IERANGEMODE	TOGGLE	F	I/E AutoRange
IERANGE	IQUANT	10	I/E Range
ACHSELECT	IQUANT	1	Ach Select
ACHRANGE	IQUANT	2	Ach Range
ACHOFFSETENABLE	TOGGLE	F	Ach Offset Enable
ACHOFFSET	QUANT	0	Ach Offset (V)
ACHFILTER	IQUANT	1	Ach Filter
CABLEID	IQUANT	14	Cable ID
DCCALDATE	LABEL	20-10-2016	DC Calibration Date
ACCALDATE	LABEL	12/3/2015	AC Calibration Date
FRAMEWORKVERSION	QUANT	7.01	Framework Version
INSTRUMENTVERSION	LABEL	4.00	Instrument Version
CURVE	TABLE	60
	Pt	T	Vf	Im	Vu	Pwr	Sig	Ach	Temp	IERange	Over
	#	s	V	A	V	W	V	V	deg C	#	bits
	0	0.013333	6.25847E-001	5.99181E-003	0.00000E+000	3.74996E-003	3.59960E-001	-1.13181E+000	3.57780E+000	10	...........
	1	0.026667	6.34624E-001	5.99096E-003	0.00000E+000	3.80201E-003	3.59960E-001	-1.12894E+000	3.57780E+000	10	...........
	2	0.04	6.42736E-001	5.99594E-003	0.00000E+000	3.85380E-003	3.59960E-001	-1.13942E+000	3.57780E+000	10	...........
	3	0.053333	6.50341E-001	5.99500E-003	0.00000E+000	3.89880E-003	3.59960E-001	-1.13138E+000	3.57780E+000	10	...........
	4	0.066667	6.57736E-001	5.99468E-003	0.00000E+000	3.94292E-003	3.59960E-001	-1.12880E+000	3.57780E+000	10	...........
	5	0.08	6.64905E-001	5.99550E-003	0.00000E+000	3.98644E-003	3.59960E-001	-1.13955E+000	3.57780E+000	10	...........
	6	0.093333	6.71968E-001	5.99169E-003	0.00000E+000	4.02623E-003	3.59960E-001	-1.13158E+000	3.57780E+000	10	...........
	7	0.106667	6.78945E-001	5.99590E-003	0.00000E+000	4.07089E-003	3.59960E-001	-1.12865E+000	3.57780E+000	10	...........
	8	0.12	6.85782E-001	5.99334E-003	0.00000E+000	4.11012E-003	3.59960E-001	-1.13948E+000	3.57780E+000	10	...........
	9	0.133333	6.92552E-001	5.99420E-003	0.00000E+000	4.15129E-003	3.59960E-001	-1.13138E+000	3.57780E+000	10	...........
	10	0.146667	6.99270E-001	5.99031E-003	0.00000E+000	4.18884E-003	3.59960E-001	-1.12867E+000	3.57780E+000	10	...........
	11	0.16	7.05968E-001	5.99540E-003	0.00000E+000	4.23256E-003	3.59960E-001	-1.13940E+000	3.57780E+000	10	...........
	12	0.173333	7.12564E-001	5.99911E-003	0.00000E+000	4.27475E-003	3.59960E-001	-1.13129E+000	3.57780E+000	10	...........
	13	0.186667	7.19198E-001	5.99361E-003	0.00000E+000	4.31059E-003	3.59960E-001	-1.12840E+000	3.57780E+000	10	...........
	14	0.2	7.25738E-001	5.99210E-003	0.00000E+000	4.34869E-003	3.59960E-001	-1.13930E+000	3.57780E+000	10	...........
	15	0.213333	7.32220E-001	5.99398E-003	0.00000E+000	4.38891E-003	3.59960E-001	-1.13131E+000	3.57780E+000	10	...........
	16	0.226667	7.38724E-001	5.99404E-003	0.00000E+000	4.42794E-003	3.59960E-001	-1.12848E+000	3.57780E+000	10	...........
	17	0.24	7.45236E-001	5.99175E-003	0.00000E+000	4.46527E-003	3.59960E-001	-1.13942E+000	3.57780E+000	10	...........
	18	0.253333	7.51693E-001	5.99527E-003	0.00000E+000	4.50661E-003	3.59960E-001	-1.13091E+000	3.57780E+000	10	...........
	19	0.266667	7.58168E-001	5.99620E-003	0.00000E+000	4.54613E-003	3.59960E-001	-1.12862E+000	3.57780E+000	10	...........
	20	0.28	7.64601E-001	5.99210E-003	0.00000E+000	4.58157E-003	3.59960E-001	-1.13967E+000	3.57780E+000	10	...........
	21	0.293333	7.71041E-001	5.99094E-003	0.00000E+000	4.61926E-003	3.59960E-001	-1.13088E+000	3.57780E+000	10	...........
	22	0.306667	7.77468E-001	5.99299E-003	0.00000E+000	4.65936E-003	3.59960E-001	-1.12835E+000	3.57780E+000	10	...........
	23	0.32	7.83853E-001	5.99100E-003	0.00000E+000	4.69606E-003	3.59960E-001	-1.13912E+000	3.57780E+000	10	...........
	24	0.333333	7.90210E-001	5.99548E-003	0.00000E+000	4.73769E-003	3.59960E-001	-1.13034E+000	3.57780E+000	10	...........
	25	0.346667	7.96603E-001	5.99562E-003	0.00000E+000	4.77612E-003	3.59960E-001	-1.12836E+000	3.57780E+000	10	...........
	26	0.36	8.02931E-001	5.99622E-003	0.00000E+000	4.81455E-003	3.59960E-001	-1.13907E+000	3.57780E+000	10	...........
	27	0.373333	8.09280E-001	5.99368E-003	0.00000E+000	4.85056E-003	3.59960E-001	-1.13044E+000	3.57780E+000	10	...........
	28	0.386667	8.15591E-001	5.99635E-003	0.00000E+000	4.89057E-003	3.59960E-001	-1.12813E+000	3.57780E+000	10	...........
	29	0.4	8.21884E-001	5.99605E-003	0.00000E+000	4.92806E-003	3.59960E-001	-1.13919E+000	3.57780E+000	10	...........
	30	0.413333	8.28173E-001	5.99539E-003	0.00000E+000	4.96522E-003	3.59960E-001	-1.13033E+000	3.57780E+000	10	...........
	31	0.426667	8.34422E-001	5.99485E-003	0.00000E+000	5.00223E-003	3.59960E-001	-1.12816E+000	3.57780E+000	10	...........
	32	0.44	8.40721E-001	5.99144E-003	0.00000E+000	5.03713E-003	3.59960E-001	-1.13895E+000	3.57780E+000	10	...........
	33	0.453333	8.46969E-001	5.99100E-003	0.00000E+000	5.07419E-003	3.59960E-001	-1.13004E+000	3.57780E+000	10	...........
	34	0.466667	8.53222E-001	5.99043E-003	0.00000E+000	5.11117E-003	3.59960E-001	-1.12825E+000	3.57780E+000	10	...........
	35	0.48	8.59480E-001	5.99373E-003	0.00000E+000	5.15149E-003	3.59960E-001	-1.13925E+000	3.57780E+000	10	...........
	36	0.493333	8.65674E-001	5.99439E-003	0.00000E+000	5.18919E-003	3.59960E-001	-1.13020E+000	3.57780E+000	10	...........
	37	0.506667	8.71903E-001	5.99352E-003	0.00000E+000	5.22577E-003	3.59960E-001	-1.12810E+000	3.57780E+000	10	...........
	38	0.52	8.78094E-001	5.99478E-003	0.00000E+000	5.26398E-003	3.59960E-001	-1.13902E+000	3.57780E+000	10	...........
	39	0.533333	8.84196E-001	5.99341E-003	0.00000E+000	5.29935E-003	3.59960E-001	-1.12994E+000	3.57780E+000	10	...........
	40	0.546667	8.90266E-001	5.99266E-003	0.00000E+000	5.33507E-003	3.59960E-001	-1.12829E+000	3.57780E+000	10	...........
	41	0.56	8.96376E-001	5.99661E-003	0.00000E+000	5.37521E-003	3.59960E-001	-1.13935E+000	3.57780E+000	10	...........
	42	0.573333	9.02457E-001	5.99411E-003	0.00000E+000	5.40943E-003	3.59960E-001	-1.12965E+000	3.57780E+000	10	...........
	43	0.586667	9.08515E-001	5.99271E-003	0.00000E+000	5.44447E-003	3.59960E-001	-1.12814E+000	3.57780E+000	10	...........
	44	0.6	9.14534E-001	5.99376E-003	0.00000E+000	5.48150E-003	3.59960E-001	-1.13912E+000	3.57780E+000	10	...........
	45	0.613333	9.20535E-001	5.99028E-003	0.00000E+000	5.51426E-003	3.59960E-001	-1.12961E+000	3.57780E+000	10	...........
	46	0.626667	9.26528E-001	5.99039E-003	0.00000E+000	5.55027E-003	3.59960E-001	-1.12823E+000	3.57780E+000	10	...........
	47	0.64	9.32410E-001	5.99988E-003	0.00000E+000	5.59435E-003	3.59960E-001	-1.13879E+000	3.57780E+000	10	...........
	48	0.653333	9.38325E-001	5.99767E-003	0.00000E+000	5.62776E-003	3.59960E-001	-1.12882E+000	3.57780E+000	10	...........
	49	0.666667	9.44167E-001	5.99179E-003	0.00000E+000	5.65725E-003	3.59960E-001	-1.12774E+000	3.57780E+000	10	...........
	50	0.68	9.49968E-001	5.99476E-003	0.00000E+000	5.69483E-003	3.59960E-001	-1.13885E+000	3.57780E+000	10	...........
	51	0.693333	9.55778E-001	5.99561E-003	0.00000E+000	5.73047E-003	3.59960E-001	-1.12910E+000	3.57780E+000	10	...........
	52	0.706667	9.61450E-001	5.99376E-003	0.00000E+000	5.76270E-003	3.59960E-001	-1.12763E+000	3.57780E+000	10	...........
	53	0.72	9.67142E-001	6.00136E-003	0.00000E+000	5.80417E-003	3.59960E-001	-1.13866E+000	3.57780E+000	10	...........
	54	0.733333	9.72863E-001	6.00080E-003	0.00000E+000	5.83796E-003	3.59960E-001	-1.12919E+000	3.57780E+000	10	...........
	55	0.746667	9.78496E-001	5.99325E-003	0.00000E+000	5.86437E-003	3.59960E-001	-1.12798E+000	3.57780E+000	10	...........
	56	0.76	9.84054E-001	5.99405E-003	0.00000E+000	5.89847E-003	3.59960E-001	-1.13882E+000	3.57780E+000	10	...........
	57	0.773333	9.89584E-001	5.99836E-003	0.00000E+000	5.93588E-003	3.59960E-001	-1.12906E+000	3.57780E+000	10	...........
	58	0.786667	9.95042E-001	5.99222E-003	0.00000E+000	5.96251E-003	3.59960E-001	-1.12781E+000	3.57780E+000	10	...........
	59	0.793333	9.99129E-001	5.99675E-003	0.00000E+000	5.99153E-003	3.59960E-001	-1.13940E+000	3.57780E+000	10	...........
STARTTIMEOFFSET	QUANT	731.1685	Start Time Offset (s)