File: Data/CV_CRGO300517_1/PWRCCD_CRGO300517_1/CHARGE_DISCHARGE/CHARGE_#664.DTA
EXPLAIN
TAG	PWR800_CHARGE
TITLE	LABEL	PWR Cyclic Charge Discharge (Cell) - Charge Step	Test &Identifier
DATE	LABEL	22-6-2017	Date
TIME	LABEL	16:02:12	Time
NOTES	NOTES	3	&Notes...
	supercap test cell
	0.6mg
	6M KOH
PSTAT	PSTAT	IFC5000-01520	Potentiostat
CAPACITY	QUANT	1.00000E-003	Capacity (A-hr)
CELLTYPE	SELECTOR	1	&Cell Type
WORKINGCONNECTION	SELECTOR	0	&Working Lead
MAXCHARGETIME	VARIABLEANDUNITS	1.00000E+002	s	1.00000E+002	second(s)	Max &Charge Time
CHARGECURRENT	QUANT	6.00000E-003	&Charge Current (A)
VOLTAGEFINISH	TWOPARAM	F	1.00000E-003	3.60000E+003	&Voltage Finish	 I (A) < 	Max Time(s)
SAMPLETIME	QUANT	1.00000E-002	Sa&mple Period (s)
CHARGESTOPAT1	MULTIPARAM	4	1.00000E+000	Charge Stop At &1	Voltage > Limit	V
CHARGESTOPAT2	MULTIPARAM	0	0.00000E+000	Charge Stop At &2	None	N/A
AESBHCSELECTOR	TOGGLE	F	Save Both Half Cells
IRCOMP	TOGGLE	F	IR &Measure
EOC	QUANT	0	Open Circuit (V)
SEQUENCER	TOGGLE	TRUE	Run as Sequence
PSTATMODEL	IQUANT	53	Pstat Model
PSTATSECTION	LABEL	IFC5000-01520	Pstat Section
PSTATSERIALNO	LABEL	01520	Pstat Serial Number
CTRLMODE	IQUANT	0	Control Mode
ELECTROMETER	IQUANT	1	RE=0 or CS=1
IESTAB	IQUANT	0	I/E Stability
CASPEED	IQUANT	4	Control Amp Speed
CONVENTION	IQUANT	1	Current Convention
ICHRANGE	IQUANT	2	Ich Range
ICHRANGEMODE	TOGGLE	T	Ich Auto Range
ICHOFFSETENABLE	TOGGLE	F	Ich Offset Enable
ICHOFFSET	QUANT	0	Ich Offset (V)
ICHFILTER	IQUANT	1	Ich Filter
VCHRANGE	IQUANT	2	Vch Range
VCHRANGEMODE	TOGGLE	T	Vch Auto Range
VCHOFFSETENABLE	TOGGLE	F	Vch Offset Enable
VCHOFFSET	QUANT	0	Vch Offset (V)
VCHFILTER	IQUANT	1	Vch Filter
IERANGELOWERLIMIT	IQUANT	9	I/E Range Lower Limit
IERANGEMODE	TOGGLE	F	I/E AutoRange
IERANGE	IQUANT	10	I/E Range
ACHSELECT	IQUANT	1	Ach Select
ACHRANGE	IQUANT	2	Ach Range
ACHOFFSETENABLE	TOGGLE	F	Ach Offset Enable
ACHOFFSET	QUANT	0	Ach Offset (V)
ACHFILTER	IQUANT	1	Ach Filter
CABLEID	IQUANT	14	Cable ID
DCCALDATE	LABEL	20-10-2016	DC Calibration Date
ACCALDATE	LABEL	12/3/2015	AC Calibration Date
FRAMEWORKVERSION	QUANT	7.01	Framework Version
INSTRUMENTVERSION	LABEL	4.00	Instrument Version
CURVE	TABLE	56
	Pt	T	Vf	Im	Vu	Pwr	Sig	Ach	Temp	IERange	Over
	#	s	V	A	V	W	V	V	deg C	#	bits
	0	0.013333	6.41654E-001	5.99318E-003	0.00000E+000	3.84555E-003	3.59960E-001	-1.14684E+000	3.57670E+000	10	...........
	1	0.026667	6.50679E-001	5.98887E-003	0.00000E+000	3.89683E-003	3.59960E-001	-1.15689E+000	3.57670E+000	10	...........
	2	0.04	6.59053E-001	5.99955E-003	0.00000E+000	3.95402E-003	3.59960E-001	-1.15150E+000	3.57670E+000	10	...........
	3	0.053333	6.66961E-001	5.99378E-003	0.00000E+000	3.99762E-003	3.59960E-001	-1.14645E+000	3.57670E+000	10	...........
	4	0.066667	6.74552E-001	5.98904E-003	0.00000E+000	4.03992E-003	3.59960E-001	-1.15638E+000	3.57670E+000	10	...........
	5	0.08	6.81939E-001	5.99024E-003	0.00000E+000	4.08498E-003	3.59960E-001	-1.15086E+000	3.57670E+000	10	...........
	6	0.093333	6.89254E-001	5.99228E-003	0.00000E+000	4.13020E-003	3.59960E-001	-1.14622E+000	3.57670E+000	10	...........
	7	0.106667	6.96412E-001	5.99508E-003	0.00000E+000	4.17505E-003	3.59960E-001	-1.15650E+000	3.57670E+000	10	...........
	8	0.12	7.03458E-001	5.99195E-003	0.00000E+000	4.21508E-003	3.59960E-001	-1.15052E+000	3.57670E+000	10	...........
	9	0.133333	7.10449E-001	5.99515E-003	0.00000E+000	4.25925E-003	3.59960E-001	-1.14622E+000	3.57670E+000	10	...........
	10	0.146667	7.17398E-001	5.99308E-003	0.00000E+000	4.29943E-003	3.59960E-001	-1.15652E+000	3.57670E+000	10	...........
	11	0.16	7.24263E-001	5.99143E-003	0.00000E+000	4.33938E-003	3.59960E-001	-1.15074E+000	3.57670E+000	10	...........
	12	0.173333	7.31090E-001	5.99629E-003	0.00000E+000	4.38383E-003	3.59960E-001	-1.14632E+000	3.57670E+000	10	...........
	13	0.186667	7.37867E-001	5.99894E-003	0.00000E+000	4.42642E-003	3.59960E-001	-1.15639E+000	3.57670E+000	10	...........
	14	0.2	7.44662E-001	5.99308E-003	0.00000E+000	4.46282E-003	3.59960E-001	-1.15031E+000	3.57670E+000	10	...........
	15	0.213333	7.51387E-001	5.99719E-003	0.00000E+000	4.50621E-003	3.59960E-001	-1.14614E+000	3.57670E+000	10	...........
	16	0.226667	7.58111E-001	5.99438E-003	0.00000E+000	4.54440E-003	3.59960E-001	-1.15665E+000	3.57670E+000	10	...........
	17	0.24	7.64786E-001	5.99417E-003	0.00000E+000	4.58425E-003	3.59960E-001	-1.15022E+000	3.57670E+000	10	...........
	18	0.253333	7.71450E-001	5.99795E-003	0.00000E+000	4.62712E-003	3.59960E-001	-1.14604E+000	3.57670E+000	10	...........
	19	0.266667	7.78082E-001	5.99273E-003	0.00000E+000	4.66283E-003	3.59960E-001	-1.15649E+000	3.57670E+000	10	...........
	20	0.28	7.84704E-001	5.99717E-003	0.00000E+000	4.70601E-003	3.59960E-001	-1.15044E+000	3.57670E+000	10	...........
	21	0.293333	7.91253E-001	5.99421E-003	0.00000E+000	4.74294E-003	3.59960E-001	-1.14623E+000	3.57670E+000	10	...........
	22	0.306667	7.97893E-001	5.99439E-003	0.00000E+000	4.78288E-003	3.59960E-001	-1.15660E+000	3.57670E+000	10	...........
	23	0.32	8.04423E-001	5.99408E-003	0.00000E+000	4.82178E-003	3.59960E-001	-1.15030E+000	3.57670E+000	10	...........
	24	0.333333	8.10950E-001	5.99308E-003	0.00000E+000	4.86009E-003	3.59960E-001	-1.14608E+000	3.57670E+000	10	...........
	25	0.346667	8.17470E-001	5.99138E-003	0.00000E+000	4.89778E-003	3.59960E-001	-1.15672E+000	3.57670E+000	10	...........
	26	0.36	8.23970E-001	5.99527E-003	0.00000E+000	4.93993E-003	3.59960E-001	-1.15017E+000	3.57670E+000	10	...........
	27	0.373333	8.30486E-001	5.99613E-003	0.00000E+000	4.97970E-003	3.59960E-001	-1.14618E+000	3.57670E+000	10	...........
	28	0.386667	8.36945E-001	5.99797E-003	0.00000E+000	5.01997E-003	3.59960E-001	-1.15640E+000	3.57670E+000	10	...........
	29	0.4	8.43367E-001	5.99142E-003	0.00000E+000	5.05297E-003	3.59960E-001	-1.14952E+000	3.57670E+000	10	...........
	30	0.413333	8.49795E-001	5.99038E-003	0.00000E+000	5.09059E-003	3.59960E-001	-1.14569E+000	3.57670E+000	10	...........
	31	0.426667	8.56132E-001	5.99478E-003	0.00000E+000	5.13232E-003	3.59960E-001	-1.15683E+000	3.57670E+000	10	...........
	32	0.44	8.62482E-001	5.99057E-003	0.00000E+000	5.16676E-003	3.59960E-001	-1.14953E+000	3.57670E+000	10	...........
	33	0.453333	8.68862E-001	5.99733E-003	0.00000E+000	5.21085E-003	3.59960E-001	-1.14556E+000	3.57670E+000	10	...........
	34	0.466667	8.75200E-001	5.99900E-003	0.00000E+000	5.25032E-003	3.59960E-001	-1.15667E+000	3.57670E+000	10	...........
	35	0.48	8.81475E-001	5.99394E-003	0.00000E+000	5.28351E-003	3.59960E-001	-1.14954E+000	3.57670E+000	10	...........
	36	0.493333	8.87776E-001	5.99568E-003	0.00000E+000	5.32282E-003	3.59960E-001	-1.14589E+000	3.57670E+000	10	...........
	37	0.506667	8.94012E-001	5.99227E-003	0.00000E+000	5.35716E-003	3.59960E-001	-1.15660E+000	3.57670E+000	10	...........
	38	0.52	9.00213E-001	5.99296E-003	0.00000E+000	5.39494E-003	3.59960E-001	-1.14944E+000	3.57670E+000	10	...........
	39	0.533333	9.06377E-001	5.99495E-003	0.00000E+000	5.43368E-003	3.59960E-001	-1.14586E+000	3.57670E+000	10	...........
	40	0.546667	9.12572E-001	5.99715E-003	0.00000E+000	5.47283E-003	3.59960E-001	-1.15692E+000	3.57670E+000	10	...........
	41	0.56	9.18655E-001	5.99239E-003	0.00000E+000	5.50494E-003	3.59960E-001	-1.14924E+000	3.57670E+000	10	...........
	42	0.573333	9.24796E-001	5.99342E-003	0.00000E+000	5.54269E-003	3.59960E-001	-1.14592E+000	3.57670E+000	10	...........
	43	0.586667	9.30830E-001	5.99181E-003	0.00000E+000	5.57735E-003	3.59960E-001	-1.15692E+000	3.57670E+000	10	...........
	44	0.6	9.36841E-001	5.99823E-003	0.00000E+000	5.61939E-003	3.59960E-001	-1.14928E+000	3.57670E+000	10	...........
	45	0.613333	9.42763E-001	5.99239E-003	0.00000E+000	5.64941E-003	3.59960E-001	-1.14606E+000	3.57670E+000	10	...........
	46	0.626667	9.48715E-001	5.99059E-003	0.00000E+000	5.68336E-003	3.59960E-001	-1.15711E+000	3.57670E+000	10	...........
	47	0.64	9.54572E-001	5.99371E-003	0.00000E+000	5.72143E-003	3.59960E-001	-1.14952E+000	3.57670E+000	10	...........
	48	0.653333	9.60361E-001	5.99478E-003	0.00000E+000	5.75715E-003	3.59960E-001	-1.14604E+000	3.57670E+000	10	...........
	49	0.666667	9.66150E-001	5.99353E-003	0.00000E+000	5.79065E-003	3.59960E-001	-1.15720E+000	3.57670E+000	10	...........
	50	0.68	9.71905E-001	5.99454E-003	0.00000E+000	5.82612E-003	3.59960E-001	-1.14952E+000	3.57670E+000	10	...........
	51	0.693333	9.77632E-001	5.99301E-003	0.00000E+000	5.85896E-003	3.59960E-001	-1.14651E+000	3.57670E+000	10	...........
	52	0.706667	9.83280E-001	5.99596E-003	0.00000E+000	5.89571E-003	3.59960E-001	-1.15715E+000	3.57670E+000	10	...........
	53	0.72	9.88882E-001	5.99503E-003	0.00000E+000	5.92838E-003	3.59960E-001	-1.14904E+000	3.57670E+000	10	...........
	54	0.733333	9.94456E-001	5.99523E-003	0.00000E+000	5.96199E-003	3.59960E-001	-1.14582E+000	3.57670E+000	10	...........
	55	0.741667	9.98944E-001	6.00083E-003	0.00000E+000	5.99449E-003	3.59960E-001	-1.15996E+000	3.57670E+000	10	...........
STARTTIMEOFFSET	QUANT	1106.201	Start Time Offset (s)