File: Data/CV_CRGO300517_1/PWRCCD_CRGO300517_1/CHARGE_DISCHARGE/CHARGE_#45.DTA
EXPLAIN
TAG	PWR800_CHARGE
TITLE	LABEL	PWR Cyclic Charge Discharge (Cell) - Charge Step	Test &Identifier
DATE	LABEL	22-6-2017	Date
TIME	LABEL	15:37:02	Time
NOTES	NOTES	3	&Notes...
	supercap test cell
	0.6mg
	6M KOH
PSTAT	PSTAT	IFC5000-01520	Potentiostat
CAPACITY	QUANT	1.00000E-003	Capacity (A-hr)
CELLTYPE	SELECTOR	1	&Cell Type
WORKINGCONNECTION	SELECTOR	0	&Working Lead
MAXCHARGETIME	VARIABLEANDUNITS	1.00000E+002	s	1.00000E+002	second(s)	Max &Charge Time
CHARGECURRENT	QUANT	6.00000E-003	&Charge Current (A)
VOLTAGEFINISH	TWOPARAM	F	1.00000E-003	3.60000E+003	&Voltage Finish	 I (A) < 	Max Time(s)
SAMPLETIME	QUANT	1.00000E-002	Sa&mple Period (s)
CHARGESTOPAT1	MULTIPARAM	4	1.00000E+000	Charge Stop At &1	Voltage > Limit	V
CHARGESTOPAT2	MULTIPARAM	0	0.00000E+000	Charge Stop At &2	None	N/A
AESBHCSELECTOR	TOGGLE	F	Save Both Half Cells
IRCOMP	TOGGLE	F	IR &Measure
EOC	QUANT	0	Open Circuit (V)
SEQUENCER	TOGGLE	TRUE	Run as Sequence
PSTATMODEL	IQUANT	53	Pstat Model
PSTATSECTION	LABEL	IFC5000-01520	Pstat Section
PSTATSERIALNO	LABEL	01520	Pstat Serial Number
CTRLMODE	IQUANT	0	Control Mode
ELECTROMETER	IQUANT	1	RE=0 or CS=1
IESTAB	IQUANT	0	I/E Stability
CASPEED	IQUANT	4	Control Amp Speed
CONVENTION	IQUANT	1	Current Convention
ICHRANGE	IQUANT	2	Ich Range
ICHRANGEMODE	TOGGLE	T	Ich Auto Range
ICHOFFSETENABLE	TOGGLE	F	Ich Offset Enable
ICHOFFSET	QUANT	0	Ich Offset (V)
ICHFILTER	IQUANT	1	Ich Filter
VCHRANGE	IQUANT	2	Vch Range
VCHRANGEMODE	TOGGLE	T	Vch Auto Range
VCHOFFSETENABLE	TOGGLE	F	Vch Offset Enable
VCHOFFSET	QUANT	0	Vch Offset (V)
VCHFILTER	IQUANT	1	Vch Filter
IERANGELOWERLIMIT	IQUANT	9	I/E Range Lower Limit
IERANGEMODE	TOGGLE	F	I/E AutoRange
IERANGE	IQUANT	10	I/E Range
ACHSELECT	IQUANT	1	Ach Select
ACHRANGE	IQUANT	2	Ach Range
ACHOFFSETENABLE	TOGGLE	F	Ach Offset Enable
ACHOFFSET	QUANT	0	Ach Offset (V)
ACHFILTER	IQUANT	1	Ach Filter
CABLEID	IQUANT	14	Cable ID
DCCALDATE	LABEL	20-10-2016	DC Calibration Date
ACCALDATE	LABEL	12/3/2015	AC Calibration Date
FRAMEWORKVERSION	QUANT	7.01	Framework Version
INSTRUMENTVERSION	LABEL	4.00	Instrument Version
CURVE	TABLE	75
	Pt	T	Vf	Im	Vu	Pwr	Sig	Ach	Temp	IERange	Over
	#	s	V	A	V	W	V	V	deg C	#	bits
	0	0.013333	5.72032E-001	5.99241E-003	0.00000E+000	3.42785E-003	3.59960E-001	-1.03419E+000	3.57860E+000	10	...........
	1	0.026667	5.80078E-001	5.99532E-003	0.00000E+000	3.47775E-003	3.59960E-001	-1.03258E+000	3.57860E+000	10	...........
	2	0.04	5.87513E-001	5.99725E-003	0.00000E+000	3.52346E-003	3.59960E-001	-1.04508E+000	3.57860E+000	10	...........
	3	0.053333	5.94543E-001	5.99555E-003	0.00000E+000	3.56461E-003	3.59960E-001	-1.03422E+000	3.57860E+000	10	...........
	4	0.066667	6.01272E-001	5.99431E-003	0.00000E+000	3.60421E-003	3.59960E-001	-1.03276E+000	3.57860E+000	10	...........
	5	0.08	6.07785E-001	5.99327E-003	0.00000E+000	3.64262E-003	3.59960E-001	-1.04514E+000	3.57860E+000	10	...........
	6	0.093333	6.14276E-001	5.99403E-003	0.00000E+000	3.68199E-003	3.59960E-001	-1.03400E+000	3.57860E+000	10	...........
	7	0.106667	6.20597E-001	5.99177E-003	0.00000E+000	3.71848E-003	3.59960E-001	-1.03249E+000	3.57860E+000	10	...........
	8	0.12	6.26799E-001	5.99383E-003	0.00000E+000	3.75693E-003	3.59960E-001	-1.04508E+000	3.57860E+000	10	...........
	9	0.133333	6.32903E-001	5.99250E-003	0.00000E+000	3.79267E-003	3.59960E-001	-1.03381E+000	3.57860E+000	10	...........
	10	0.146667	6.39001E-001	5.99640E-003	0.00000E+000	3.83170E-003	3.59960E-001	-1.03198E+000	3.57860E+000	10	...........
	11	0.16	6.45039E-001	5.99547E-003	0.00000E+000	3.86731E-003	3.59960E-001	-1.04438E+000	3.57860E+000	10	...........
	12	0.173333	6.51055E-001	5.99667E-003	0.00000E+000	3.90416E-003	3.59960E-001	-1.03346E+000	3.57860E+000	10	...........
	13	0.186667	6.56945E-001	5.99317E-003	0.00000E+000	3.93718E-003	3.59960E-001	-1.03209E+000	3.57860E+000	10	...........
	14	0.2	6.62883E-001	5.99382E-003	0.00000E+000	3.97320E-003	3.59960E-001	-1.04451E+000	3.57860E+000	10	...........
	15	0.213333	6.68782E-001	5.99295E-003	0.00000E+000	4.00797E-003	3.59960E-001	-1.03352E+000	3.57860E+000	10	...........
	16	0.226667	6.74581E-001	5.99712E-003	0.00000E+000	4.04554E-003	3.59960E-001	-1.03199E+000	3.57860E+000	10	...........
	17	0.24	6.80411E-001	5.99648E-003	0.00000E+000	4.08007E-003	3.59960E-001	-1.04449E+000	3.57860E+000	10	...........
	18	0.253333	6.86197E-001	5.99398E-003	0.00000E+000	4.11305E-003	3.59960E-001	-1.03349E+000	3.57860E+000	10	...........
	19	0.266667	6.92013E-001	5.99208E-003	0.00000E+000	4.14660E-003	3.59960E-001	-1.03219E+000	3.57860E+000	10	...........
	20	0.28	6.97842E-001	5.99521E-003	0.00000E+000	4.18371E-003	3.59960E-001	-1.04452E+000	3.57860E+000	10	...........
	21	0.293333	7.03622E-001	5.99374E-003	0.00000E+000	4.21733E-003	3.59960E-001	-1.03332E+000	3.57860E+000	10	...........
	22	0.306667	7.09388E-001	5.99501E-003	0.00000E+000	4.25279E-003	3.59960E-001	-1.03180E+000	3.57860E+000	10	...........
	23	0.32	7.15137E-001	5.99307E-003	0.00000E+000	4.28587E-003	3.59960E-001	-1.04440E+000	3.57860E+000	10	...........
	24	0.333333	7.20892E-001	5.99206E-003	0.00000E+000	4.31963E-003	3.59960E-001	-1.03353E+000	3.57860E+000	10	...........
	25	0.346667	7.26648E-001	5.99349E-003	0.00000E+000	4.35516E-003	3.59960E-001	-1.03194E+000	3.57860E+000	10	...........
	26	0.36	7.32408E-001	5.99028E-003	0.00000E+000	4.38732E-003	3.59960E-001	-1.04444E+000	3.57860E+000	10	...........
	27	0.373333	7.38092E-001	5.99160E-003	0.00000E+000	4.42235E-003	3.59960E-001	-1.03345E+000	3.57860E+000	10	...........
	28	0.386667	7.43853E-001	5.99624E-003	0.00000E+000	4.46032E-003	3.59960E-001	-1.03205E+000	3.57860E+000	10	...........
	29	0.4	7.49565E-001	5.99224E-003	0.00000E+000	4.49157E-003	3.59960E-001	-1.04464E+000	3.57860E+000	10	...........
	30	0.413333	7.55317E-001	5.99237E-003	0.00000E+000	4.52614E-003	3.59960E-001	-1.03333E+000	3.57860E+000	10	...........
	31	0.426667	7.61028E-001	5.99140E-003	0.00000E+000	4.55963E-003	3.59960E-001	-1.03175E+000	3.57860E+000	10	...........
	32	0.44	7.66729E-001	5.99159E-003	0.00000E+000	4.59393E-003	3.59960E-001	-1.04424E+000	3.57860E+000	10	...........
	33	0.453333	7.72445E-001	5.99277E-003	0.00000E+000	4.62908E-003	3.59960E-001	-1.03322E+000	3.57860E+000	10	...........
	34	0.466667	7.78179E-001	5.98876E-003	0.00000E+000	4.66033E-003	3.59960E-001	-1.03149E+000	3.57860E+000	10	...........
	35	0.48	7.83922E-001	5.99409E-003	0.00000E+000	4.69890E-003	3.59960E-001	-1.04385E+000	3.57860E+000	10	...........
	36	0.493333	7.89630E-001	5.99110E-003	0.00000E+000	4.73075E-003	3.59960E-001	-1.03292E+000	3.57815E+000	10	...........
	37	0.506667	7.95318E-001	5.99274E-003	0.00000E+000	4.76613E-003	3.59960E-001	-1.03123E+000	3.57800E+000	10	...........
	38	0.52	8.01054E-001	5.99358E-003	0.00000E+000	4.80118E-003	3.59960E-001	-1.04382E+000	3.57800E+000	10	...........
	39	0.533333	8.06745E-001	5.99489E-003	0.00000E+000	4.83635E-003	3.59960E-001	-1.03298E+000	3.57800E+000	10	...........
	40	0.546667	8.12455E-001	5.99392E-003	0.00000E+000	4.86979E-003	3.59960E-001	-1.03123E+000	3.57800E+000	10	...........
	41	0.56	8.18188E-001	5.99348E-003	0.00000E+000	4.90379E-003	3.59960E-001	-1.04367E+000	3.57800E+000	10	...........
	42	0.573333	8.23885E-001	5.99238E-003	0.00000E+000	4.93704E-003	3.59960E-001	-1.03275E+000	3.57800E+000	10	...........
	43	0.586667	8.29617E-001	5.99835E-003	0.00000E+000	4.97633E-003	3.59960E-001	-1.03143E+000	3.57800E+000	10	...........
	44	0.6	8.35327E-001	5.99518E-003	0.00000E+000	5.00793E-003	3.59960E-001	-1.04393E+000	3.57800E+000	10	...........
	45	0.613333	8.40996E-001	5.99311E-003	0.00000E+000	5.04019E-003	3.59960E-001	-1.03291E+000	3.57800E+000	10	...........
	46	0.626667	8.46740E-001	5.99648E-003	0.00000E+000	5.07746E-003	3.59960E-001	-1.03126E+000	3.57800E+000	10	...........
	47	0.64	8.52428E-001	5.99186E-003	0.00000E+000	5.10763E-003	3.59960E-001	-1.04371E+000	3.57800E+000	10	...........
	48	0.653333	8.58133E-001	5.99557E-003	0.00000E+000	5.14500E-003	3.59960E-001	-1.03289E+000	3.57800E+000	10	...........
	49	0.666667	8.63795E-001	5.99511E-003	0.00000E+000	5.17854E-003	3.59960E-001	-1.03151E+000	3.57800E+000	10	...........
	50	0.68	8.69497E-001	5.99589E-003	0.00000E+000	5.21341E-003	3.59960E-001	-1.04388E+000	3.57800E+000	10	...........
	51	0.693333	8.75139E-001	5.99546E-003	0.00000E+000	5.24686E-003	3.59960E-001	-1.03279E+000	3.57800E+000	10	...........
	52	0.706667	8.80811E-001	5.99380E-003	0.00000E+000	5.27941E-003	3.59960E-001	-1.03142E+000	3.57800E+000	10	...........
	53	0.72	8.86497E-001	5.99535E-003	0.00000E+000	5.31486E-003	3.59960E-001	-1.04404E+000	3.57800E+000	10	...........
	54	0.733333	8.92132E-001	5.99982E-003	0.00000E+000	5.35263E-003	3.59960E-001	-1.03289E+000	3.57800E+000	10	...........
	55	0.746667	8.97832E-001	5.99585E-003	0.00000E+000	5.38327E-003	3.59960E-001	-1.03137E+000	3.57800E+000	10	...........
	56	0.76	9.03423E-001	5.99387E-003	0.00000E+000	5.41501E-003	3.59960E-001	-1.04369E+000	3.57800E+000	10	...........
	57	0.773333	9.09068E-001	5.99518E-003	0.00000E+000	5.45002E-003	3.59960E-001	-1.03252E+000	3.57800E+000	10	...........
	58	0.786667	9.14644E-001	5.99425E-003	0.00000E+000	5.48260E-003	3.59960E-001	-1.03091E+000	3.57800E+000	10	...........
	59	0.8	9.20259E-001	5.99285E-003	0.00000E+000	5.51498E-003	3.59960E-001	-1.04342E+000	3.57800E+000	10	...........
	60	0.813333	9.25857E-001	5.99316E-003	0.00000E+000	5.54880E-003	3.59960E-001	-1.03241E+000	3.57800E+000	10	...........
	61	0.826667	9.31426E-001	5.99118E-003	0.00000E+000	5.58034E-003	3.59960E-001	-1.03091E+000	3.57800E+000	10	...........
	62	0.84	9.36936E-001	5.99336E-003	0.00000E+000	5.61540E-003	3.59960E-001	-1.04352E+000	3.57800E+000	10	...........
	63	0.853333	9.42480E-001	5.99188E-003	0.00000E+000	5.64723E-003	3.59960E-001	-1.03275E+000	3.57800E+000	10	...........
	64	0.866667	9.48041E-001	5.99285E-003	0.00000E+000	5.68147E-003	3.59960E-001	-1.03102E+000	3.57800E+000	10	...........
	65	0.88	9.53524E-001	5.99504E-003	0.00000E+000	5.71642E-003	3.59960E-001	-1.04343E+000	3.57800E+000	10	...........
	66	0.893333	9.58985E-001	5.99439E-003	0.00000E+000	5.74853E-003	3.59960E-001	-1.03228E+000	3.57800E+000	10	...........
	67	0.906667	9.64405E-001	5.99414E-003	0.00000E+000	5.78077E-003	3.59960E-001	-1.03106E+000	3.57800E+000	10	...........
	68	0.92	9.69818E-001	5.99063E-003	0.00000E+000	5.80982E-003	3.59960E-001	-1.04351E+000	3.57800E+000	10	...........
	69	0.933333	9.75255E-001	5.99479E-003	0.00000E+000	5.84645E-003	3.59960E-001	-1.03242E+000	3.57800E+000	10	...........
	70	0.946667	9.80612E-001	5.99335E-003	0.00000E+000	5.87715E-003	3.59960E-001	-1.03092E+000	3.57800E+000	10	...........
	71	0.96	9.85930E-001	5.99505E-003	0.00000E+000	5.91070E-003	3.59960E-001	-1.04322E+000	3.57800E+000	10	...........
	72	0.97333	9.91201E-001	5.99512E-003	0.00000E+000	5.94236E-003	3.59960E-001	-1.03229E+000	3.57800E+000	10	...........
	73	0.98667	9.96506E-001	5.99457E-003	0.00000E+000	5.97363E-003	3.59960E-001	-1.03109E+000	3.57800E+000	10	...........
	74	0.99	9.99789E-001	5.99625E-003	0.00000E+000	5.99499E-003	3.59960E-001	-1.04282E+000	3.57800E+000	10	...........
STARTTIMEOFFSET	QUANT	90.75	Start Time Offset (s)