File: Data/CV_CRGO300517_1/PWRCCD_CRGO300517_1/CHARGE_DISCHARGE/CHARGE_#153.DTA
EXPLAIN
TAG	PWR800_CHARGE
TITLE	LABEL	PWR Cyclic Charge Discharge (Cell) - Charge Step	Test &Identifier
DATE	LABEL	22-6-2017	Date
TIME	LABEL	15:41:49	Time
NOTES	NOTES	3	&Notes...
	supercap test cell
	0.6mg
	6M KOH
PSTAT	PSTAT	IFC5000-01520	Potentiostat
CAPACITY	QUANT	1.00000E-003	Capacity (A-hr)
CELLTYPE	SELECTOR	1	&Cell Type
WORKINGCONNECTION	SELECTOR	0	&Working Lead
MAXCHARGETIME	VARIABLEANDUNITS	1.00000E+002	s	1.00000E+002	second(s)	Max &Charge Time
CHARGECURRENT	QUANT	6.00000E-003	&Charge Current (A)
VOLTAGEFINISH	TWOPARAM	F	1.00000E-003	3.60000E+003	&Voltage Finish	 I (A) < 	Max Time(s)
SAMPLETIME	QUANT	1.00000E-002	Sa&mple Period (s)
CHARGESTOPAT1	MULTIPARAM	4	1.00000E+000	Charge Stop At &1	Voltage > Limit	V
CHARGESTOPAT2	MULTIPARAM	0	0.00000E+000	Charge Stop At &2	None	N/A
AESBHCSELECTOR	TOGGLE	F	Save Both Half Cells
IRCOMP	TOGGLE	F	IR &Measure
EOC	QUANT	0	Open Circuit (V)
SEQUENCER	TOGGLE	TRUE	Run as Sequence
PSTATMODEL	IQUANT	53	Pstat Model
PSTATSECTION	LABEL	IFC5000-01520	Pstat Section
PSTATSERIALNO	LABEL	01520	Pstat Serial Number
CTRLMODE	IQUANT	0	Control Mode
ELECTROMETER	IQUANT	1	RE=0 or CS=1
IESTAB	IQUANT	0	I/E Stability
CASPEED	IQUANT	4	Control Amp Speed
CONVENTION	IQUANT	1	Current Convention
ICHRANGE	IQUANT	2	Ich Range
ICHRANGEMODE	TOGGLE	T	Ich Auto Range
ICHOFFSETENABLE	TOGGLE	F	Ich Offset Enable
ICHOFFSET	QUANT	0	Ich Offset (V)
ICHFILTER	IQUANT	1	Ich Filter
VCHRANGE	IQUANT	2	Vch Range
VCHRANGEMODE	TOGGLE	T	Vch Auto Range
VCHOFFSETENABLE	TOGGLE	F	Vch Offset Enable
VCHOFFSET	QUANT	0	Vch Offset (V)
VCHFILTER	IQUANT	1	Vch Filter
IERANGELOWERLIMIT	IQUANT	9	I/E Range Lower Limit
IERANGEMODE	TOGGLE	F	I/E AutoRange
IERANGE	IQUANT	10	I/E Range
ACHSELECT	IQUANT	1	Ach Select
ACHRANGE	IQUANT	2	Ach Range
ACHOFFSETENABLE	TOGGLE	F	Ach Offset Enable
ACHOFFSET	QUANT	0	Ach Offset (V)
ACHFILTER	IQUANT	1	Ach Filter
CABLEID	IQUANT	14	Cable ID
DCCALDATE	LABEL	20-10-2016	DC Calibration Date
ACCALDATE	LABEL	12/3/2015	AC Calibration Date
FRAMEWORKVERSION	QUANT	7.01	Framework Version
INSTRUMENTVERSION	LABEL	4.00	Instrument Version
CURVE	TABLE	67
	Pt	T	Vf	Im	Vu	Pwr	Sig	Ach	Temp	IERange	Over
	#	s	V	A	V	W	V	V	deg C	#	bits
	0	0.013333	5.98938E-001	5.99495E-003	0.00000E+000	3.59060E-003	3.59960E-001	-1.07082E+000	3.57690E+000	10	...........
	1	0.026667	6.07294E-001	5.99487E-003	0.00000E+000	3.64064E-003	3.59960E-001	-1.07347E+000	3.57690E+000	10	...........
	2	0.04	6.15014E-001	5.99419E-003	0.00000E+000	3.68651E-003	3.59960E-001	-1.08110E+000	3.57690E+000	10	...........
	3	0.053333	6.22272E-001	5.99290E-003	0.00000E+000	3.72922E-003	3.59960E-001	-1.07057E+000	3.57690E+000	10	...........
	4	0.066667	6.29246E-001	5.99346E-003	0.00000E+000	3.77136E-003	3.59960E-001	-1.07354E+000	3.57690E+000	10	...........
	5	0.08	6.36082E-001	5.99279E-003	0.00000E+000	3.81191E-003	3.59960E-001	-1.08108E+000	3.57690E+000	10	...........
	6	0.093333	6.42753E-001	5.98919E-003	0.00000E+000	3.84957E-003	3.59960E-001	-1.06996E+000	3.57708E+000	10	...........
	7	0.106667	6.49303E-001	5.99514E-003	0.00000E+000	3.89266E-003	3.59960E-001	-1.07287E+000	3.57710E+000	10	...........
	8	0.12	6.55779E-001	5.99166E-003	0.00000E+000	3.92921E-003	3.59960E-001	-1.08095E+000	3.57710E+000	10	...........
	9	0.133333	6.62197E-001	5.99584E-003	0.00000E+000	3.97042E-003	3.59960E-001	-1.07015E+000	3.57710E+000	10	...........
	10	0.146667	6.68566E-001	5.99179E-003	0.00000E+000	4.00591E-003	3.59960E-001	-1.07297E+000	3.57710E+000	10	...........
	11	0.16	6.74833E-001	5.99516E-003	0.00000E+000	4.04573E-003	3.59960E-001	-1.08097E+000	3.57710E+000	10	...........
	12	0.173333	6.81085E-001	5.99455E-003	0.00000E+000	4.08280E-003	3.59960E-001	-1.07020E+000	3.57710E+000	10	...........
	13	0.186667	6.87318E-001	5.99649E-003	0.00000E+000	4.12150E-003	3.59960E-001	-1.07284E+000	3.57710E+000	10	...........
	14	0.2	6.93544E-001	5.99413E-003	0.00000E+000	4.15719E-003	3.59960E-001	-1.08132E+000	3.57710E+000	10	...........
	15	0.213333	6.99687E-001	5.99109E-003	0.00000E+000	4.19189E-003	3.59960E-001	-1.07019E+000	3.57710E+000	10	...........
	16	0.226667	7.05830E-001	5.99442E-003	0.00000E+000	4.23104E-003	3.59960E-001	-1.07245E+000	3.57710E+000	10	...........
	17	0.24	7.11901E-001	5.99442E-003	0.00000E+000	4.26743E-003	3.59960E-001	-1.08085E+000	3.57710E+000	10	...........
	18	0.253333	7.18046E-001	5.99408E-003	0.00000E+000	4.30403E-003	3.59960E-001	-1.07026E+000	3.57710E+000	10	...........
	19	0.266667	7.24168E-001	5.99447E-003	0.00000E+000	4.34100E-003	3.59960E-001	-1.07269E+000	3.57710E+000	10	...........
	20	0.28	7.30262E-001	5.99288E-003	0.00000E+000	4.37637E-003	3.59960E-001	-1.08114E+000	3.57710E+000	10	...........
	21	0.293333	7.36334E-001	5.99272E-003	0.00000E+000	4.41264E-003	3.59960E-001	-1.07023E+000	3.57710E+000	10	...........
	22	0.306667	7.42451E-001	5.99327E-003	0.00000E+000	4.44971E-003	3.59960E-001	-1.07234E+000	3.57710E+000	10	...........
	23	0.32	7.48480E-001	5.99286E-003	0.00000E+000	4.48554E-003	3.59960E-001	-1.08135E+000	3.57710E+000	10	...........
	24	0.333333	7.54537E-001	5.99203E-003	0.00000E+000	4.52121E-003	3.59960E-001	-1.07038E+000	3.57710E+000	10	...........
	25	0.346667	7.60619E-001	5.99318E-003	0.00000E+000	4.55853E-003	3.59960E-001	-1.07254E+000	3.57710E+000	10	...........
	26	0.36	7.66630E-001	5.99190E-003	0.00000E+000	4.59357E-003	3.59960E-001	-1.08115E+000	3.57710E+000	10	...........
	27	0.373333	7.72667E-001	5.99275E-003	0.00000E+000	4.63040E-003	3.59960E-001	-1.07021E+000	3.57710E+000	10	...........
	28	0.386667	7.78683E-001	5.99505E-003	0.00000E+000	4.66825E-003	3.59960E-001	-1.07252E+000	3.57710E+000	10	...........
	29	0.4	7.84698E-001	5.99036E-003	0.00000E+000	4.70062E-003	3.59960E-001	-1.08136E+000	3.57710E+000	10	...........
	30	0.413333	7.90725E-001	5.99140E-003	0.00000E+000	4.73755E-003	3.59960E-001	-1.07010E+000	3.57710E+000	10	...........
	31	0.426667	7.96775E-001	5.99408E-003	0.00000E+000	4.77594E-003	3.59960E-001	-1.07184E+000	3.57710E+000	10	...........
	32	0.44	8.02740E-001	5.99181E-003	0.00000E+000	4.80986E-003	3.59960E-001	-1.08090E+000	3.57710E+000	10	...........
	33	0.453333	8.08737E-001	5.99506E-003	0.00000E+000	4.84843E-003	3.59960E-001	-1.07022E+000	3.57710E+000	10	...........
	34	0.466667	8.14728E-001	5.99613E-003	0.00000E+000	4.88521E-003	3.59960E-001	-1.07207E+000	3.57710E+000	10	...........
	35	0.48	8.20779E-001	5.99661E-003	0.00000E+000	4.92189E-003	3.59960E-001	-1.08115E+000	3.57710E+000	10	...........
	36	0.493333	8.26712E-001	5.99396E-003	0.00000E+000	4.95528E-003	3.59960E-001	-1.07018E+000	3.57710E+000	10	...........
	37	0.506667	8.32687E-001	5.99208E-003	0.00000E+000	4.98953E-003	3.59960E-001	-1.07176E+000	3.57710E+000	10	...........
	38	0.52	8.38591E-001	5.99321E-003	0.00000E+000	5.02585E-003	3.59960E-001	-1.08119E+000	3.57710E+000	10	...........
	39	0.533333	8.44560E-001	5.99270E-003	0.00000E+000	5.06119E-003	3.59960E-001	-1.07027E+000	3.57710E+000	10	...........
	40	0.546667	8.50492E-001	5.99521E-003	0.00000E+000	5.09888E-003	3.59960E-001	-1.07190E+000	3.57710E+000	10	...........
	41	0.56	8.56408E-001	5.99451E-003	0.00000E+000	5.13375E-003	3.59960E-001	-1.08115E+000	3.57710E+000	10	...........
	42	0.573333	8.62378E-001	5.99463E-003	0.00000E+000	5.16963E-003	3.59960E-001	-1.06998E+000	3.57710E+000	10	...........
	43	0.586667	8.68313E-001	5.99676E-003	0.00000E+000	5.20707E-003	3.59960E-001	-1.07171E+000	3.57710E+000	10	...........
	44	0.6	8.74219E-001	5.98984E-003	0.00000E+000	5.23643E-003	3.59960E-001	-1.08125E+000	3.57710E+000	10	...........
	45	0.613333	8.80086E-001	5.99512E-003	0.00000E+000	5.27622E-003	3.59960E-001	-1.07040E+000	3.57710E+000	10	...........
	46	0.626667	8.86022E-001	5.99309E-003	0.00000E+000	5.31001E-003	3.59960E-001	-1.07178E+000	3.57710E+000	10	...........
	47	0.64	8.91868E-001	5.99605E-003	0.00000E+000	5.34769E-003	3.59960E-001	-1.08154E+000	3.57710E+000	10	...........
	48	0.653333	8.97720E-001	5.99390E-003	0.00000E+000	5.38084E-003	3.59960E-001	-1.07056E+000	3.57710E+000	10	...........
	49	0.666667	9.03511E-001	5.99443E-003	0.00000E+000	5.41603E-003	3.59960E-001	-1.07176E+000	3.57710E+000	10	...........
	50	0.68	9.09308E-001	5.99156E-003	0.00000E+000	5.44817E-003	3.59960E-001	-1.08172E+000	3.57710E+000	10	...........
	51	0.693333	9.15141E-001	5.99814E-003	0.00000E+000	5.48915E-003	3.59960E-001	-1.07059E+000	3.57710E+000	10	...........
	52	0.706667	9.20910E-001	5.99269E-003	0.00000E+000	5.51872E-003	3.59960E-001	-1.07197E+000	3.57710E+000	10	...........
	53	0.72	9.26699E-001	5.99463E-003	0.00000E+000	5.55522E-003	3.59960E-001	-1.08182E+000	3.57710E+000	10	...........
	54	0.733333	9.32378E-001	5.98981E-003	0.00000E+000	5.58476E-003	3.59960E-001	-1.07057E+000	3.57710E+000	10	...........
	55	0.746667	9.38071E-001	5.99163E-003	0.00000E+000	5.62058E-003	3.59960E-001	-1.07196E+000	3.57710E+000	10	...........
	56	0.76	9.43784E-001	5.99887E-003	0.00000E+000	5.66164E-003	3.59960E-001	-1.08208E+000	3.57710E+000	10	...........
	57	0.773333	9.49488E-001	5.99270E-003	0.00000E+000	5.68999E-003	3.59960E-001	-1.07105E+000	3.57710E+000	10	...........
	58	0.786667	9.55112E-001	5.99423E-003	0.00000E+000	5.72516E-003	3.59960E-001	-1.07227E+000	3.57710E+000	10	...........
	59	0.8	9.60717E-001	5.99711E-003	0.00000E+000	5.76152E-003	3.59960E-001	-1.08239E+000	3.57710E+000	10	...........
	60	0.813333	9.66270E-001	5.99215E-003	0.00000E+000	5.79004E-003	3.59960E-001	-1.07152E+000	3.57710E+000	10	...........
	61	0.826667	9.71819E-001	5.99462E-003	0.00000E+000	5.82568E-003	3.59960E-001	-1.07226E+000	3.57710E+000	10	...........
	62	0.84	9.77366E-001	5.99739E-003	0.00000E+000	5.86164E-003	3.59960E-001	-1.08260E+000	3.57710E+000	10	...........
	63	0.853333	9.82805E-001	5.99770E-003	0.00000E+000	5.89457E-003	3.59960E-001	-1.07164E+000	3.57710E+000	10	...........
	64	0.866667	9.88208E-001	5.99235E-003	0.00000E+000	5.92169E-003	3.59960E-001	-1.07229E+000	3.57710E+000	10	...........
	65	0.88	9.93575E-001	5.99292E-003	0.00000E+000	5.95441E-003	3.59960E-001	-1.08272E+000	3.57710E+000	10	...........
	66	0.891667	9.98593E-001	5.99360E-003	0.00000E+000	5.98517E-003	3.59960E-001	-1.06970E+000	3.57710E+000	10	...........
STARTTIMEOFFSET	QUANT	290.93	Start Time Offset (s)