File: Data/CV_CRGO300517_1/PWRCCD_CRGO300517_1/CHARGE_DISCHARGE/CHARGE_#441.DTA
EXPLAIN
TAG	PWR800_CHARGE
TITLE	LABEL	PWR Cyclic Charge Discharge (Cell) - Charge Step	Test &Identifier
DATE	LABEL	22-6-2017	Date
TIME	LABEL	15:53:35	Time
NOTES	NOTES	3	&Notes...
	supercap test cell
	0.6mg
	6M KOH
PSTAT	PSTAT	IFC5000-01520	Potentiostat
CAPACITY	QUANT	1.00000E-003	Capacity (A-hr)
CELLTYPE	SELECTOR	1	&Cell Type
WORKINGCONNECTION	SELECTOR	0	&Working Lead
MAXCHARGETIME	VARIABLEANDUNITS	1.00000E+002	s	1.00000E+002	second(s)	Max &Charge Time
CHARGECURRENT	QUANT	6.00000E-003	&Charge Current (A)
VOLTAGEFINISH	TWOPARAM	F	1.00000E-003	3.60000E+003	&Voltage Finish	 I (A) < 	Max Time(s)
SAMPLETIME	QUANT	1.00000E-002	Sa&mple Period (s)
CHARGESTOPAT1	MULTIPARAM	4	1.00000E+000	Charge Stop At &1	Voltage > Limit	V
CHARGESTOPAT2	MULTIPARAM	0	0.00000E+000	Charge Stop At &2	None	N/A
AESBHCSELECTOR	TOGGLE	F	Save Both Half Cells
IRCOMP	TOGGLE	F	IR &Measure
EOC	QUANT	0	Open Circuit (V)
SEQUENCER	TOGGLE	TRUE	Run as Sequence
PSTATMODEL	IQUANT	53	Pstat Model
PSTATSECTION	LABEL	IFC5000-01520	Pstat Section
PSTATSERIALNO	LABEL	01520	Pstat Serial Number
CTRLMODE	IQUANT	0	Control Mode
ELECTROMETER	IQUANT	1	RE=0 or CS=1
IESTAB	IQUANT	0	I/E Stability
CASPEED	IQUANT	4	Control Amp Speed
CONVENTION	IQUANT	1	Current Convention
ICHRANGE	IQUANT	2	Ich Range
ICHRANGEMODE	TOGGLE	T	Ich Auto Range
ICHOFFSETENABLE	TOGGLE	F	Ich Offset Enable
ICHOFFSET	QUANT	0	Ich Offset (V)
ICHFILTER	IQUANT	1	Ich Filter
VCHRANGE	IQUANT	2	Vch Range
VCHRANGEMODE	TOGGLE	T	Vch Auto Range
VCHOFFSETENABLE	TOGGLE	F	Vch Offset Enable
VCHOFFSET	QUANT	0	Vch Offset (V)
VCHFILTER	IQUANT	1	Vch Filter
IERANGELOWERLIMIT	IQUANT	9	I/E Range Lower Limit
IERANGEMODE	TOGGLE	F	I/E AutoRange
IERANGE	IQUANT	10	I/E Range
ACHSELECT	IQUANT	1	Ach Select
ACHRANGE	IQUANT	2	Ach Range
ACHOFFSETENABLE	TOGGLE	F	Ach Offset Enable
ACHOFFSET	QUANT	0	Ach Offset (V)
ACHFILTER	IQUANT	1	Ach Filter
CABLEID	IQUANT	14	Cable ID
DCCALDATE	LABEL	20-10-2016	DC Calibration Date
ACCALDATE	LABEL	12/3/2015	AC Calibration Date
FRAMEWORKVERSION	QUANT	7.01	Framework Version
INSTRUMENTVERSION	LABEL	4.00	Instrument Version
CURVE	TABLE	60
	Pt	T	Vf	Im	Vu	Pwr	Sig	Ach	Temp	IERange	Over
	#	s	V	A	V	W	V	V	deg C	#	bits
	0	0.013333	6.27523E-001	5.99281E-003	0.00000E+000	3.76062E-003	3.59960E-001	-1.14499E+000	3.57690E+000	10	...........
	1	0.026667	6.36337E-001	5.99450E-003	0.00000E+000	3.81452E-003	3.59960E-001	-1.13447E+000	3.57690E+000	10	...........
	2	0.04	6.44463E-001	5.99373E-003	0.00000E+000	3.86273E-003	3.59960E-001	-1.13440E+000	3.57690E+000	10	...........
	3	0.053333	6.52127E-001	5.99328E-003	0.00000E+000	3.90838E-003	3.59960E-001	-1.14433E+000	3.57690E+000	10	...........
	4	0.066667	6.59511E-001	5.99602E-003	0.00000E+000	3.95444E-003	3.59960E-001	-1.13379E+000	3.57690E+000	10	...........
	5	0.08	6.66732E-001	5.99109E-003	0.00000E+000	3.99445E-003	3.59960E-001	-1.13422E+000	3.57690E+000	10	...........
	6	0.093333	6.73798E-001	5.99196E-003	0.00000E+000	4.03737E-003	3.59960E-001	-1.14460E+000	3.57690E+000	10	...........
	7	0.106667	6.80791E-001	5.99535E-003	0.00000E+000	4.08158E-003	3.59960E-001	-1.13393E+000	3.57690E+000	10	...........
	8	0.12	6.87649E-001	5.98812E-003	0.00000E+000	4.11772E-003	3.59960E-001	-1.13413E+000	3.57690E+000	10	...........
	9	0.133333	6.94434E-001	5.99394E-003	0.00000E+000	4.16239E-003	3.59960E-001	-1.14429E+000	3.57690E+000	10	...........
	10	0.146667	7.01183E-001	5.99769E-003	0.00000E+000	4.20548E-003	3.59960E-001	-1.13391E+000	3.57690E+000	10	...........
	11	0.16	7.07870E-001	5.99774E-003	0.00000E+000	4.24562E-003	3.59960E-001	-1.13450E+000	3.57690E+000	10	...........
	12	0.173333	7.14483E-001	5.99477E-003	0.00000E+000	4.28317E-003	3.59960E-001	-1.14444E+000	3.57690E+000	10	...........
	13	0.186667	7.21148E-001	5.99128E-003	0.00000E+000	4.32060E-003	3.59960E-001	-1.13362E+000	3.57690E+000	10	...........
	14	0.2	7.27712E-001	5.99644E-003	0.00000E+000	4.36368E-003	3.59960E-001	-1.13442E+000	3.57690E+000	10	...........
	15	0.213333	7.34228E-001	5.99265E-003	0.00000E+000	4.39998E-003	3.59960E-001	-1.14431E+000	3.57690E+000	10	...........
	16	0.226667	7.40773E-001	5.99501E-003	0.00000E+000	4.44094E-003	3.59960E-001	-1.13349E+000	3.57690E+000	10	...........
	17	0.24	7.47286E-001	5.98964E-003	0.00000E+000	4.47597E-003	3.59960E-001	-1.13466E+000	3.57690E+000	10	...........
	18	0.253333	7.53714E-001	5.99137E-003	0.00000E+000	4.51578E-003	3.59960E-001	-1.14439E+000	3.57690E+000	10	...........
	19	0.266667	7.60210E-001	5.99782E-003	0.00000E+000	4.55960E-003	3.59960E-001	-1.13361E+000	3.57690E+000	10	...........
	20	0.28	7.66673E-001	5.99546E-003	0.00000E+000	4.59656E-003	3.59960E-001	-1.13489E+000	3.57690E+000	10	...........
	21	0.293333	7.73113E-001	5.99600E-003	0.00000E+000	4.63559E-003	3.59960E-001	-1.14429E+000	3.57690E+000	10	...........
	22	0.306667	7.79562E-001	5.99802E-003	0.00000E+000	4.67583E-003	3.59960E-001	-1.13359E+000	3.57690E+000	10	...........
	23	0.32	7.85960E-001	5.99084E-003	0.00000E+000	4.70856E-003	3.59960E-001	-1.13496E+000	3.57690E+000	10	...........
	24	0.333333	7.92386E-001	5.99466E-003	0.00000E+000	4.75008E-003	3.59960E-001	-1.14410E+000	3.57690E+000	10	...........
	25	0.346667	7.98798E-001	5.99735E-003	0.00000E+000	4.79067E-003	3.59960E-001	-1.13333E+000	3.57690E+000	10	...........
	26	0.36	8.05164E-001	5.99139E-003	0.00000E+000	4.82406E-003	3.59960E-001	-1.13476E+000	3.57690E+000	10	...........
	27	0.373333	8.11523E-001	5.99303E-003	0.00000E+000	4.86348E-003	3.59960E-001	-1.14371E+000	3.57690E+000	10	...........
	28	0.386667	8.17883E-001	5.99370E-003	0.00000E+000	4.90214E-003	3.59960E-001	-1.13294E+000	3.57740E+000	10	...........
	29	0.4	8.24244E-001	5.99456E-003	0.00000E+000	4.94098E-003	3.59960E-001	-1.13457E+000	3.57740E+000	10	...........
	30	0.413333	8.30504E-001	5.99505E-003	0.00000E+000	4.97891E-003	3.59960E-001	-1.14364E+000	3.57740E+000	10	...........
	31	0.426667	8.36812E-001	5.99255E-003	0.00000E+000	5.01464E-003	3.59960E-001	-1.13293E+000	3.57740E+000	10	...........
	32	0.44	8.43115E-001	6.00147E-003	0.00000E+000	5.05993E-003	3.59960E-001	-1.13464E+000	3.57740E+000	10	...........
	33	0.453333	8.49387E-001	5.99416E-003	0.00000E+000	5.09136E-003	3.59960E-001	-1.14349E+000	3.57740E+000	10	...........
	34	0.466667	8.55621E-001	5.99603E-003	0.00000E+000	5.13033E-003	3.59960E-001	-1.13294E+000	3.57740E+000	10	...........
	35	0.48	8.61840E-001	5.99687E-003	0.00000E+000	5.16834E-003	3.59960E-001	-1.13487E+000	3.57740E+000	10	...........
	36	0.493333	8.68034E-001	5.99328E-003	0.00000E+000	5.20237E-003	3.59960E-001	-1.14320E+000	3.57740E+000	10	...........
	37	0.506667	8.74227E-001	5.99216E-003	0.00000E+000	5.23851E-003	3.59960E-001	-1.13270E+000	3.57740E+000	10	...........
	38	0.52	8.80390E-001	5.99671E-003	0.00000E+000	5.27944E-003	3.59960E-001	-1.13488E+000	3.57740E+000	10	...........
	39	0.533333	8.86560E-001	5.99272E-003	0.00000E+000	5.31290E-003	3.59960E-001	-1.14326E+000	3.57740E+000	10	...........
	40	0.546667	8.92658E-001	5.99095E-003	0.00000E+000	5.34787E-003	3.59960E-001	-1.13256E+000	3.57740E+000	10	...........
	41	0.56	8.98739E-001	5.99346E-003	0.00000E+000	5.38655E-003	3.59960E-001	-1.13513E+000	3.57740E+000	10	...........
	42	0.573333	9.04794E-001	5.99338E-003	0.00000E+000	5.42278E-003	3.59960E-001	-1.14311E+000	3.57740E+000	10	...........
	43	0.586667	9.10872E-001	5.99569E-003	0.00000E+000	5.46131E-003	3.59960E-001	-1.13254E+000	3.57740E+000	10	...........
	44	0.6	9.16897E-001	5.99682E-003	0.00000E+000	5.49846E-003	3.59960E-001	-1.13531E+000	3.57740E+000	10	...........
	45	0.613333	9.22903E-001	5.99139E-003	0.00000E+000	5.52947E-003	3.59960E-001	-1.14328E+000	3.57740E+000	10	...........
	46	0.626667	9.28851E-001	5.99354E-003	0.00000E+000	5.56711E-003	3.59960E-001	-1.13290E+000	3.57740E+000	10	...........
	47	0.64	9.34801E-001	5.98845E-003	0.00000E+000	5.59801E-003	3.59960E-001	-1.13543E+000	3.57740E+000	10	...........
	48	0.653333	9.40655E-001	5.99587E-003	0.00000E+000	5.64004E-003	3.59960E-001	-1.14309E+000	3.57740E+000	10	...........
	49	0.666667	9.46479E-001	5.99317E-003	0.00000E+000	5.67241E-003	3.59960E-001	-1.13256E+000	3.57740E+000	10	...........
	50	0.68	9.52313E-001	5.99803E-003	0.00000E+000	5.71200E-003	3.59960E-001	-1.13520E+000	3.57740E+000	10	...........
	51	0.693333	9.58058E-001	5.99625E-003	0.00000E+000	5.74476E-003	3.59960E-001	-1.14257E+000	3.57740E+000	10	...........
	52	0.706667	9.63786E-001	5.99354E-003	0.00000E+000	5.77649E-003	3.59960E-001	-1.13221E+000	3.57740E+000	10	...........
	53	0.72	9.69461E-001	5.99040E-003	0.00000E+000	5.80746E-003	3.59960E-001	-1.13530E+000	3.57740E+000	10	...........
	54	0.733333	9.75214E-001	5.99782E-003	0.00000E+000	5.84915E-003	3.59960E-001	-1.14241E+000	3.57740E+000	10	...........
	55	0.746667	9.80788E-001	5.98859E-003	0.00000E+000	5.87353E-003	3.59960E-001	-1.13241E+000	3.57740E+000	10	...........
	56	0.76	9.86363E-001	5.99923E-003	0.00000E+000	5.91741E-003	3.59960E-001	-1.13568E+000	3.57740E+000	10	...........
	57	0.773333	9.91876E-001	5.99526E-003	0.00000E+000	5.94656E-003	3.59960E-001	-1.14247E+000	3.57740E+000	10	...........
	58	0.786667	9.97320E-001	5.99640E-003	0.00000E+000	5.98033E-003	3.59960E-001	-1.13241E+000	3.57740E+000	10	...........
	59	0.788333	1.00038E+000	5.98203E-003	0.00000E+000	5.98432E-003	3.59960E-001	-1.14718E+000	3.57740E+000	10	...........
STARTTIMEOFFSET	QUANT	767.3585	Start Time Offset (s)