File: Data/CV_CRGO300517_1/PWRCCD_CRGO300517_1/CHARGE_DISCHARGE/CHARGE_#569.DTA
EXPLAIN
TAG	PWR800_CHARGE
TITLE	LABEL	PWR Cyclic Charge Discharge (Cell) - Charge Step	Test &Identifier
DATE	LABEL	22-6-2017	Date
TIME	LABEL	15:58:35	Time
NOTES	NOTES	3	&Notes...
	supercap test cell
	0.6mg
	6M KOH
PSTAT	PSTAT	IFC5000-01520	Potentiostat
CAPACITY	QUANT	1.00000E-003	Capacity (A-hr)
CELLTYPE	SELECTOR	1	&Cell Type
WORKINGCONNECTION	SELECTOR	0	&Working Lead
MAXCHARGETIME	VARIABLEANDUNITS	1.00000E+002	s	1.00000E+002	second(s)	Max &Charge Time
CHARGECURRENT	QUANT	6.00000E-003	&Charge Current (A)
VOLTAGEFINISH	TWOPARAM	F	1.00000E-003	3.60000E+003	&Voltage Finish	 I (A) < 	Max Time(s)
SAMPLETIME	QUANT	1.00000E-002	Sa&mple Period (s)
CHARGESTOPAT1	MULTIPARAM	4	1.00000E+000	Charge Stop At &1	Voltage > Limit	V
CHARGESTOPAT2	MULTIPARAM	0	0.00000E+000	Charge Stop At &2	None	N/A
AESBHCSELECTOR	TOGGLE	F	Save Both Half Cells
IRCOMP	TOGGLE	F	IR &Measure
EOC	QUANT	0	Open Circuit (V)
SEQUENCER	TOGGLE	TRUE	Run as Sequence
PSTATMODEL	IQUANT	53	Pstat Model
PSTATSECTION	LABEL	IFC5000-01520	Pstat Section
PSTATSERIALNO	LABEL	01520	Pstat Serial Number
CTRLMODE	IQUANT	0	Control Mode
ELECTROMETER	IQUANT	1	RE=0 or CS=1
IESTAB	IQUANT	0	I/E Stability
CASPEED	IQUANT	4	Control Amp Speed
CONVENTION	IQUANT	1	Current Convention
ICHRANGE	IQUANT	2	Ich Range
ICHRANGEMODE	TOGGLE	T	Ich Auto Range
ICHOFFSETENABLE	TOGGLE	F	Ich Offset Enable
ICHOFFSET	QUANT	0	Ich Offset (V)
ICHFILTER	IQUANT	1	Ich Filter
VCHRANGE	IQUANT	2	Vch Range
VCHRANGEMODE	TOGGLE	T	Vch Auto Range
VCHOFFSETENABLE	TOGGLE	F	Vch Offset Enable
VCHOFFSET	QUANT	0	Vch Offset (V)
VCHFILTER	IQUANT	1	Vch Filter
IERANGELOWERLIMIT	IQUANT	9	I/E Range Lower Limit
IERANGEMODE	TOGGLE	F	I/E AutoRange
IERANGE	IQUANT	10	I/E Range
ACHSELECT	IQUANT	1	Ach Select
ACHRANGE	IQUANT	2	Ach Range
ACHOFFSETENABLE	TOGGLE	F	Ach Offset Enable
ACHOFFSET	QUANT	0	Ach Offset (V)
ACHFILTER	IQUANT	1	Ach Filter
CABLEID	IQUANT	14	Cable ID
DCCALDATE	LABEL	20-10-2016	DC Calibration Date
ACCALDATE	LABEL	12/3/2015	AC Calibration Date
FRAMEWORKVERSION	QUANT	7.01	Framework Version
INSTRUMENTVERSION	LABEL	4.00	Instrument Version
CURVE	TABLE	57
	Pt	T	Vf	Im	Vu	Pwr	Sig	Ach	Temp	IERange	Over
	#	s	V	A	V	W	V	V	deg C	#	bits
	0	0.013333	6.36204E-001	5.99276E-003	0.00000E+000	3.81262E-003	3.59960E-001	-1.14260E+000	3.57650E+000	10	...........
	1	0.026667	6.45189E-001	5.98972E-003	0.00000E+000	3.86450E-003	3.59960E-001	-1.15357E+000	3.57650E+000	10	...........
	2	0.04	6.53477E-001	5.99456E-003	0.00000E+000	3.91731E-003	3.59960E-001	-1.14503E+000	3.57650E+000	10	...........
	3	0.053333	6.61285E-001	5.99395E-003	0.00000E+000	3.96371E-003	3.59960E-001	-1.14229E+000	3.57650E+000	10	...........
	4	0.066667	6.68809E-001	5.99294E-003	0.00000E+000	4.00813E-003	3.59960E-001	-1.15342E+000	3.57650E+000	10	...........
	5	0.08	6.76099E-001	5.99029E-003	0.00000E+000	4.05003E-003	3.59960E-001	-1.14492E+000	3.57650E+000	10	...........
	6	0.093333	6.83272E-001	5.99672E-003	0.00000E+000	4.09739E-003	3.59960E-001	-1.14251E+000	3.57650E+000	10	...........
	7	0.106667	6.90342E-001	5.99237E-003	0.00000E+000	4.13679E-003	3.59960E-001	-1.15366E+000	3.57650E+000	10	...........
	8	0.12	6.97333E-001	5.99320E-003	0.00000E+000	4.17926E-003	3.59960E-001	-1.14502E+000	3.57650E+000	10	...........
	9	0.133333	7.04258E-001	5.99567E-003	0.00000E+000	4.22250E-003	3.59960E-001	-1.14229E+000	3.57650E+000	10	...........
	10	0.146667	7.11106E-001	5.99403E-003	0.00000E+000	4.26239E-003	3.59960E-001	-1.15335E+000	3.57650E+000	10	...........
	11	0.16	7.17973E-001	5.99397E-003	0.00000E+000	4.30351E-003	3.59960E-001	-1.14481E+000	3.57663E+000	10	...........
	12	0.173333	7.24743E-001	5.99609E-003	0.00000E+000	4.34562E-003	3.59960E-001	-1.14235E+000	3.57670E+000	10	...........
	13	0.186667	7.31423E-001	5.99117E-003	0.00000E+000	4.38208E-003	3.59960E-001	-1.15325E+000	3.57670E+000	10	...........
	14	0.2	7.38063E-001	5.99439E-003	0.00000E+000	4.42424E-003	3.59960E-001	-1.14441E+000	3.57670E+000	10	...........
	15	0.213333	7.44771E-001	5.99417E-003	0.00000E+000	4.46428E-003	3.59960E-001	-1.14228E+000	3.57670E+000	10	...........
	16	0.226667	7.51411E-001	5.99524E-003	0.00000E+000	4.50489E-003	3.59960E-001	-1.15338E+000	3.57670E+000	10	...........
	17	0.24	7.58045E-001	5.99323E-003	0.00000E+000	4.54313E-003	3.59960E-001	-1.14475E+000	3.57670E+000	10	...........
	18	0.253333	7.64641E-001	5.99230E-003	0.00000E+000	4.58196E-003	3.59960E-001	-1.14203E+000	3.57670E+000	10	...........
	19	0.266667	7.71251E-001	5.99489E-003	0.00000E+000	4.62356E-003	3.59960E-001	-1.15298E+000	3.57670E+000	10	...........
	20	0.28	7.77771E-001	5.99272E-003	0.00000E+000	4.66096E-003	3.59960E-001	-1.14412E+000	3.57670E+000	10	...........
	21	0.293333	7.84320E-001	5.99767E-003	0.00000E+000	4.70410E-003	3.59960E-001	-1.14173E+000	3.57670E+000	10	...........
	22	0.306667	7.90844E-001	5.99057E-003	0.00000E+000	4.73761E-003	3.59960E-001	-1.15275E+000	3.57670E+000	10	...........
	23	0.32	7.97368E-001	5.99485E-003	0.00000E+000	4.78010E-003	3.59960E-001	-1.14414E+000	3.57670E+000	10	...........
	24	0.333333	8.03840E-001	5.99489E-003	0.00000E+000	4.81893E-003	3.59960E-001	-1.14166E+000	3.57670E+000	10	...........
	25	0.346667	8.10274E-001	5.99530E-003	0.00000E+000	4.85784E-003	3.59960E-001	-1.15286E+000	3.57670E+000	10	...........
	26	0.36	8.16745E-001	5.99640E-003	0.00000E+000	4.89753E-003	3.59960E-001	-1.14410E+000	3.57670E+000	10	...........
	27	0.373333	8.23140E-001	5.99276E-003	0.00000E+000	4.93288E-003	3.59960E-001	-1.14169E+000	3.57670E+000	10	...........
	28	0.386667	8.29570E-001	5.99260E-003	0.00000E+000	4.97128E-003	3.59960E-001	-1.15269E+000	3.57670E+000	10	...........
	29	0.4	8.35933E-001	5.99136E-003	0.00000E+000	5.00838E-003	3.59960E-001	-1.14376E+000	3.57670E+000	10	...........
	30	0.413333	8.42324E-001	5.99142E-003	0.00000E+000	5.04672E-003	3.59960E-001	-1.14171E+000	3.57670E+000	10	...........
	31	0.426667	8.48718E-001	5.99080E-003	0.00000E+000	5.08450E-003	3.59960E-001	-1.15284E+000	3.57670E+000	10	...........
	32	0.44	8.55063E-001	5.99308E-003	0.00000E+000	5.12446E-003	3.59960E-001	-1.14400E+000	3.57670E+000	10	...........
	33	0.453333	8.61398E-001	5.99971E-003	0.00000E+000	5.16813E-003	3.59960E-001	-1.14162E+000	3.57670E+000	10	...........
	34	0.466667	8.67709E-001	5.99460E-003	0.00000E+000	5.20157E-003	3.59960E-001	-1.15256E+000	3.57670E+000	10	...........
	35	0.48	8.73971E-001	5.99654E-003	0.00000E+000	5.24081E-003	3.59960E-001	-1.14388E+000	3.57670E+000	10	...........
	36	0.493333	8.80262E-001	5.99406E-003	0.00000E+000	5.27635E-003	3.59960E-001	-1.14162E+000	3.57670E+000	10	...........
	37	0.506667	8.86490E-001	5.99702E-003	0.00000E+000	5.31630E-003	3.59960E-001	-1.15283E+000	3.57670E+000	10	...........
	38	0.52	8.92716E-001	5.99748E-003	0.00000E+000	5.35405E-003	3.59960E-001	-1.14390E+000	3.57670E+000	10	...........
	39	0.533333	8.98885E-001	5.99781E-003	0.00000E+000	5.39134E-003	3.59960E-001	-1.14154E+000	3.57670E+000	10	...........
	40	0.546667	9.05010E-001	5.98916E-003	0.00000E+000	5.42025E-003	3.59960E-001	-1.15282E+000	3.57670E+000	10	...........
	41	0.56	9.11152E-001	5.99274E-003	0.00000E+000	5.46030E-003	3.59960E-001	-1.14403E+000	3.57670E+000	10	...........
	42	0.573333	9.17178E-001	5.99190E-003	0.00000E+000	5.49564E-003	3.59960E-001	-1.14181E+000	3.57670E+000	10	...........
	43	0.586667	9.23324E-001	5.99263E-003	0.00000E+000	5.53314E-003	3.59960E-001	-1.15273E+000	3.57670E+000	10	...........
	44	0.6	9.29338E-001	5.99228E-003	0.00000E+000	5.56885E-003	3.59960E-001	-1.14350E+000	3.57670E+000	10	...........
	45	0.613333	9.35295E-001	5.99254E-003	0.00000E+000	5.60479E-003	3.59960E-001	-1.14115E+000	3.57670E+000	10	...........
	46	0.626667	9.41171E-001	5.99581E-003	0.00000E+000	5.64309E-003	3.59960E-001	-1.15253E+000	3.57670E+000	10	...........
	47	0.64	9.47046E-001	5.99834E-003	0.00000E+000	5.68070E-003	3.59960E-001	-1.14362E+000	3.57670E+000	10	...........
	48	0.653333	9.52888E-001	5.98991E-003	0.00000E+000	5.70771E-003	3.59960E-001	-1.14135E+000	3.57670E+000	10	...........
	49	0.666667	9.58740E-001	5.99357E-003	0.00000E+000	5.74628E-003	3.59960E-001	-1.15242E+000	3.57670E+000	10	...........
	50	0.68	9.64496E-001	5.99318E-003	0.00000E+000	5.78039E-003	3.59960E-001	-1.14349E+000	3.57670E+000	10	...........
	51	0.693333	9.70234E-001	5.99269E-003	0.00000E+000	5.81431E-003	3.59960E-001	-1.14161E+000	3.57670E+000	10	...........
	52	0.706667	9.75946E-001	5.99459E-003	0.00000E+000	5.85040E-003	3.59960E-001	-1.15263E+000	3.57670E+000	10	...........
	53	0.72	9.81582E-001	5.99396E-003	0.00000E+000	5.88356E-003	3.59960E-001	-1.14340E+000	3.57670E+000	10	...........
	54	0.733333	9.87150E-001	5.99730E-003	0.00000E+000	5.92023E-003	3.59960E-001	-1.14145E+000	3.57670E+000	10	...........
	55	0.746667	9.92665E-001	5.99574E-003	0.00000E+000	5.95176E-003	3.59960E-001	-1.15242E+000	3.57670E+000	10	...........
	56	0.76	9.98180E-001	5.99327E-003	0.00000E+000	5.98236E-003	3.59960E-001	-1.14347E+000	3.57670E+000	10	...........
STARTTIMEOFFSET	QUANT	964.275	Start Time Offset (s)