File: Data/CV_CRGO300517_1/PWRCCD_CRGO300517_1/CHARGE_DISCHARGE/CHARGE_#790.DTA
EXPLAIN
TAG	PWR800_CHARGE
TITLE	LABEL	PWR Cyclic Charge Discharge (Cell) - Charge Step	Test &Identifier
DATE	LABEL	22-6-2017	Date
TIME	LABEL	16:06:54	Time
NOTES	NOTES	3	&Notes...
	supercap test cell
	0.6mg
	6M KOH
PSTAT	PSTAT	IFC5000-01520	Potentiostat
CAPACITY	QUANT	1.00000E-003	Capacity (A-hr)
CELLTYPE	SELECTOR	1	&Cell Type
WORKINGCONNECTION	SELECTOR	0	&Working Lead
MAXCHARGETIME	VARIABLEANDUNITS	1.00000E+002	s	1.00000E+002	second(s)	Max &Charge Time
CHARGECURRENT	QUANT	6.00000E-003	&Charge Current (A)
VOLTAGEFINISH	TWOPARAM	F	1.00000E-003	3.60000E+003	&Voltage Finish	 I (A) < 	Max Time(s)
SAMPLETIME	QUANT	1.00000E-002	Sa&mple Period (s)
CHARGESTOPAT1	MULTIPARAM	4	1.00000E+000	Charge Stop At &1	Voltage > Limit	V
CHARGESTOPAT2	MULTIPARAM	0	0.00000E+000	Charge Stop At &2	None	N/A
AESBHCSELECTOR	TOGGLE	F	Save Both Half Cells
IRCOMP	TOGGLE	F	IR &Measure
EOC	QUANT	0	Open Circuit (V)
SEQUENCER	TOGGLE	TRUE	Run as Sequence
PSTATMODEL	IQUANT	53	Pstat Model
PSTATSECTION	LABEL	IFC5000-01520	Pstat Section
PSTATSERIALNO	LABEL	01520	Pstat Serial Number
CTRLMODE	IQUANT	0	Control Mode
ELECTROMETER	IQUANT	1	RE=0 or CS=1
IESTAB	IQUANT	0	I/E Stability
CASPEED	IQUANT	4	Control Amp Speed
CONVENTION	IQUANT	1	Current Convention
ICHRANGE	IQUANT	2	Ich Range
ICHRANGEMODE	TOGGLE	T	Ich Auto Range
ICHOFFSETENABLE	TOGGLE	F	Ich Offset Enable
ICHOFFSET	QUANT	0	Ich Offset (V)
ICHFILTER	IQUANT	1	Ich Filter
VCHRANGE	IQUANT	2	Vch Range
VCHRANGEMODE	TOGGLE	T	Vch Auto Range
VCHOFFSETENABLE	TOGGLE	F	Vch Offset Enable
VCHOFFSET	QUANT	0	Vch Offset (V)
VCHFILTER	IQUANT	1	Vch Filter
IERANGELOWERLIMIT	IQUANT	9	I/E Range Lower Limit
IERANGEMODE	TOGGLE	F	I/E AutoRange
IERANGE	IQUANT	10	I/E Range
ACHSELECT	IQUANT	1	Ach Select
ACHRANGE	IQUANT	2	Ach Range
ACHOFFSETENABLE	TOGGLE	F	Ach Offset Enable
ACHOFFSET	QUANT	0	Ach Offset (V)
ACHFILTER	IQUANT	1	Ach Filter
CABLEID	IQUANT	14	Cable ID
DCCALDATE	LABEL	20-10-2016	DC Calibration Date
ACCALDATE	LABEL	12/3/2015	AC Calibration Date
FRAMEWORKVERSION	QUANT	7.01	Framework Version
INSTRUMENTVERSION	LABEL	4.00	Instrument Version
CURVE	TABLE	55
	Pt	T	Vf	Im	Vu	Pwr	Sig	Ach	Temp	IERange	Over
	#	s	V	A	V	W	V	V	deg C	#	bits
	0	0.013333	6.48049E-001	5.99365E-003	0.00000E+000	3.88418E-003	3.59960E-001	-1.17168E+000	3.57780E+000	10	...........
	1	0.026667	6.57203E-001	5.99220E-003	0.00000E+000	3.93809E-003	3.59960E-001	-1.16209E+000	3.57780E+000	10	...........
	2	0.04	6.65664E-001	5.99467E-003	0.00000E+000	3.99044E-003	3.59960E-001	-1.16609E+000	3.57780E+000	10	...........
	3	0.053333	6.73656E-001	5.99765E-003	0.00000E+000	4.04035E-003	3.59960E-001	-1.17135E+000	3.57780E+000	10	...........
	4	0.066667	6.81381E-001	5.99569E-003	0.00000E+000	4.08535E-003	3.59960E-001	-1.16204E+000	3.57780E+000	10	...........
	5	0.08	6.88881E-001	5.99878E-003	0.00000E+000	4.13245E-003	3.59960E-001	-1.16613E+000	3.57780E+000	10	...........
	6	0.093333	6.96293E-001	5.99236E-003	0.00000E+000	4.17244E-003	3.59960E-001	-1.17141E+000	3.57780E+000	10	...........
	7	0.106667	7.03533E-001	5.99395E-003	0.00000E+000	4.21694E-003	3.59960E-001	-1.16202E+000	3.57780E+000	10	...........
	8	0.12	7.10691E-001	5.99373E-003	0.00000E+000	4.25969E-003	3.59960E-001	-1.16655E+000	3.57780E+000	10	...........
	9	0.133333	7.17848E-001	5.99582E-003	0.00000E+000	4.30409E-003	3.59960E-001	-1.17118E+000	3.57780E+000	10	...........
	10	0.146667	7.24877E-001	5.99290E-003	0.00000E+000	4.34412E-003	3.59960E-001	-1.16184E+000	3.57780E+000	10	...........
	11	0.16	7.31839E-001	5.99980E-003	0.00000E+000	4.39088E-003	3.59960E-001	-1.16652E+000	3.57780E+000	10	...........
	12	0.173333	7.38796E-001	5.99466E-003	0.00000E+000	4.42883E-003	3.59960E-001	-1.17121E+000	3.57780E+000	10	...........
	13	0.186667	7.45726E-001	5.99251E-003	0.00000E+000	4.46877E-003	3.59960E-001	-1.16199E+000	3.57780E+000	10	...........
	14	0.2	7.52531E-001	5.99226E-003	0.00000E+000	4.50936E-003	3.59960E-001	-1.16657E+000	3.57780E+000	10	...........
	15	0.213333	7.59323E-001	5.99617E-003	0.00000E+000	4.55303E-003	3.59960E-001	-1.17052E+000	3.57780E+000	10	...........
	16	0.226667	7.66115E-001	5.99938E-003	0.00000E+000	4.59622E-003	3.59960E-001	-1.16165E+000	3.57780E+000	10	...........
	17	0.24	7.72905E-001	5.99302E-003	0.00000E+000	4.63203E-003	3.59960E-001	-1.16672E+000	3.57780E+000	10	...........
	18	0.253333	7.79621E-001	5.99381E-003	0.00000E+000	4.67290E-003	3.59960E-001	-1.17057E+000	3.57780E+000	10	...........
	19	0.266667	7.86324E-001	5.99212E-003	0.00000E+000	4.71175E-003	3.59960E-001	-1.16164E+000	3.57780E+000	10	...........
	20	0.28	7.93011E-001	5.98967E-003	0.00000E+000	4.74988E-003	3.59960E-001	-1.16664E+000	3.57780E+000	10	...........
	21	0.293333	7.99702E-001	5.99403E-003	0.00000E+000	4.79344E-003	3.59960E-001	-1.17039E+000	3.57780E+000	10	...........
	22	0.306667	8.06309E-001	5.99394E-003	0.00000E+000	4.83296E-003	3.59960E-001	-1.16166E+000	3.57780E+000	10	...........
	23	0.32	8.12924E-001	5.99013E-003	0.00000E+000	4.86952E-003	3.59960E-001	-1.16675E+000	3.57780E+000	10	...........
	24	0.333333	8.19529E-001	5.99629E-003	0.00000E+000	4.91413E-003	3.59960E-001	-1.17013E+000	3.57780E+000	10	...........
	25	0.346667	8.26102E-001	5.99399E-003	0.00000E+000	4.95165E-003	3.59960E-001	-1.16158E+000	3.57780E+000	10	...........
	26	0.36	8.32675E-001	5.99209E-003	0.00000E+000	4.98946E-003	3.59960E-001	-1.16699E+000	3.57780E+000	10	...........
	27	0.373333	8.39190E-001	5.99608E-003	0.00000E+000	5.03184E-003	3.59960E-001	-1.17027E+000	3.57780E+000	10	...........
	28	0.386667	8.45738E-001	6.00199E-003	0.00000E+000	5.07611E-003	3.59960E-001	-1.16140E+000	3.57780E+000	10	...........
	29	0.4	8.52221E-001	5.99251E-003	0.00000E+000	5.10694E-003	3.59960E-001	-1.16682E+000	3.57780E+000	10	...........
	30	0.413333	8.58632E-001	5.99224E-003	0.00000E+000	5.14513E-003	3.59960E-001	-1.16984E+000	3.57780E+000	10	...........
	31	0.426667	8.65095E-001	5.99878E-003	0.00000E+000	5.18951E-003	3.59960E-001	-1.16145E+000	3.57780E+000	10	...........
	32	0.44	8.71491E-001	5.99639E-003	0.00000E+000	5.22580E-003	3.59960E-001	-1.16709E+000	3.57780E+000	10	...........
	33	0.453333	8.77876E-001	5.99664E-003	0.00000E+000	5.26431E-003	3.59960E-001	-1.16987E+000	3.57780E+000	10	...........
	34	0.466667	8.84251E-001	5.99675E-003	0.00000E+000	5.30264E-003	3.59960E-001	-1.16144E+000	3.57780E+000	10	...........
	35	0.48	8.90534E-001	5.98860E-003	0.00000E+000	5.33305E-003	3.59960E-001	-1.16724E+000	3.57780E+000	10	...........
	36	0.493333	8.96877E-001	5.99650E-003	0.00000E+000	5.37813E-003	3.59960E-001	-1.16968E+000	3.57780E+000	10	...........
	37	0.506667	9.03086E-001	5.99493E-003	0.00000E+000	5.41393E-003	3.59960E-001	-1.16156E+000	3.57780E+000	10	...........
	38	0.52	9.09309E-001	5.99600E-003	0.00000E+000	5.45222E-003	3.59960E-001	-1.16739E+000	3.57725E+000	10	...........
	39	0.533333	9.15464E-001	5.99679E-003	0.00000E+000	5.48984E-003	3.59960E-001	-1.16937E+000	3.57670E+000	10	...........
	40	0.546667	9.21659E-001	5.99996E-003	0.00000E+000	5.52991E-003	3.59960E-001	-1.16092E+000	3.57670E+000	10	...........
	41	0.56	9.27755E-001	5.99044E-003	0.00000E+000	5.55766E-003	3.59960E-001	-1.16716E+000	3.57670E+000	10	...........
	42	0.573333	9.33787E-001	5.99327E-003	0.00000E+000	5.59644E-003	3.59960E-001	-1.16911E+000	3.57670E+000	10	...........
	43	0.586667	9.39823E-001	5.99385E-003	0.00000E+000	5.63316E-003	3.59960E-001	-1.16097E+000	3.57670E+000	10	...........
	44	0.6	9.45780E-001	5.99525E-003	0.00000E+000	5.67019E-003	3.59960E-001	-1.16731E+000	3.57670E+000	10	...........
	45	0.613333	9.51735E-001	5.98918E-003	0.00000E+000	5.70011E-003	3.59960E-001	-1.16880E+000	3.57670E+000	10	...........
	46	0.626667	9.57597E-001	5.98931E-003	0.00000E+000	5.73534E-003	3.59960E-001	-1.16065E+000	3.57670E+000	10	...........
	47	0.64	9.63422E-001	5.99534E-003	0.00000E+000	5.77604E-003	3.59960E-001	-1.16752E+000	3.57670E+000	10	...........
	48	0.653333	9.69211E-001	5.99359E-003	0.00000E+000	5.80906E-003	3.59960E-001	-1.16869E+000	3.57670E+000	10	...........
	49	0.666667	9.74993E-001	5.99484E-003	0.00000E+000	5.84493E-003	3.59960E-001	-1.16048E+000	3.57670E+000	10	...........
	50	0.68	9.80691E-001	5.99538E-003	0.00000E+000	5.87961E-003	3.59960E-001	-1.16742E+000	3.57670E+000	10	...........
	51	0.693333	9.86335E-001	5.99264E-003	0.00000E+000	5.91076E-003	3.59960E-001	-1.16824E+000	3.57670E+000	10	...........
	52	0.706667	9.91946E-001	5.99965E-003	0.00000E+000	5.95133E-003	3.59960E-001	-1.16070E+000	3.57670E+000	10	...........
	53	0.72	9.97476E-001	5.99100E-003	0.00000E+000	5.97587E-003	3.59960E-001	-1.16743E+000	3.57670E+000	10	...........
	54	0.721667	1.00057E+000	6.00239E-003	0.00000E+000	6.00583E-003	3.59960E-001	-1.14809E+000	3.57670E+000	10	...........
STARTTIMEOFFSET	QUANT	1289.768	Start Time Offset (s)