File: Data/CV_CRGO300517_1/PWRCCD_CRGO300517_1/CHARGE_DISCHARGE/CHARGE_#93.DTA
EXPLAIN
TAG	PWR800_CHARGE
TITLE	LABEL	PWR Cyclic Charge Discharge (Cell) - Charge Step	Test &Identifier
DATE	LABEL	22-6-2017	Date
TIME	LABEL	15:39:12	Time
NOTES	NOTES	3	&Notes...
	supercap test cell
	0.6mg
	6M KOH
PSTAT	PSTAT	IFC5000-01520	Potentiostat
CAPACITY	QUANT	1.00000E-003	Capacity (A-hr)
CELLTYPE	SELECTOR	1	&Cell Type
WORKINGCONNECTION	SELECTOR	0	&Working Lead
MAXCHARGETIME	VARIABLEANDUNITS	1.00000E+002	s	1.00000E+002	second(s)	Max &Charge Time
CHARGECURRENT	QUANT	6.00000E-003	&Charge Current (A)
VOLTAGEFINISH	TWOPARAM	F	1.00000E-003	3.60000E+003	&Voltage Finish	 I (A) < 	Max Time(s)
SAMPLETIME	QUANT	1.00000E-002	Sa&mple Period (s)
CHARGESTOPAT1	MULTIPARAM	4	1.00000E+000	Charge Stop At &1	Voltage > Limit	V
CHARGESTOPAT2	MULTIPARAM	0	0.00000E+000	Charge Stop At &2	None	N/A
AESBHCSELECTOR	TOGGLE	F	Save Both Half Cells
IRCOMP	TOGGLE	F	IR &Measure
EOC	QUANT	0	Open Circuit (V)
SEQUENCER	TOGGLE	TRUE	Run as Sequence
PSTATMODEL	IQUANT	53	Pstat Model
PSTATSECTION	LABEL	IFC5000-01520	Pstat Section
PSTATSERIALNO	LABEL	01520	Pstat Serial Number
CTRLMODE	IQUANT	0	Control Mode
ELECTROMETER	IQUANT	1	RE=0 or CS=1
IESTAB	IQUANT	0	I/E Stability
CASPEED	IQUANT	4	Control Amp Speed
CONVENTION	IQUANT	1	Current Convention
ICHRANGE	IQUANT	2	Ich Range
ICHRANGEMODE	TOGGLE	T	Ich Auto Range
ICHOFFSETENABLE	TOGGLE	F	Ich Offset Enable
ICHOFFSET	QUANT	0	Ich Offset (V)
ICHFILTER	IQUANT	1	Ich Filter
VCHRANGE	IQUANT	2	Vch Range
VCHRANGEMODE	TOGGLE	T	Vch Auto Range
VCHOFFSETENABLE	TOGGLE	F	Vch Offset Enable
VCHOFFSET	QUANT	0	Vch Offset (V)
VCHFILTER	IQUANT	1	Vch Filter
IERANGELOWERLIMIT	IQUANT	9	I/E Range Lower Limit
IERANGEMODE	TOGGLE	F	I/E AutoRange
IERANGE	IQUANT	10	I/E Range
ACHSELECT	IQUANT	1	Ach Select
ACHRANGE	IQUANT	2	Ach Range
ACHOFFSETENABLE	TOGGLE	F	Ach Offset Enable
ACHOFFSET	QUANT	0	Ach Offset (V)
ACHFILTER	IQUANT	1	Ach Filter
CABLEID	IQUANT	14	Cable ID
DCCALDATE	LABEL	20-10-2016	DC Calibration Date
ACCALDATE	LABEL	12/3/2015	AC Calibration Date
FRAMEWORKVERSION	QUANT	7.01	Framework Version
INSTRUMENTVERSION	LABEL	4.00	Instrument Version
CURVE	TABLE	70
	Pt	T	Vf	Im	Vu	Pwr	Sig	Ach	Temp	IERange	Over
	#	s	V	A	V	W	V	V	deg C	#	bits
	0	0.013333	5.87200E-001	5.99405E-003	0.00000E+000	3.51971E-003	3.59960E-001	-1.05662E+000	3.57700E+000	10	...........
	1	0.026667	5.95433E-001	5.99152E-003	0.00000E+000	3.56755E-003	3.59960E-001	-1.06289E+000	3.57700E+000	10	...........
	2	0.04	6.02995E-001	5.99677E-003	0.00000E+000	3.61602E-003	3.59960E-001	-1.06570E+000	3.57700E+000	10	...........
	3	0.053333	6.10101E-001	5.99081E-003	0.00000E+000	3.65500E-003	3.59960E-001	-1.05632E+000	3.57700E+000	10	...........
	4	0.066667	6.17032E-001	5.99409E-003	0.00000E+000	3.69855E-003	3.59960E-001	-1.06262E+000	3.57700E+000	10	...........
	5	0.08	6.23729E-001	5.99303E-003	0.00000E+000	3.73802E-003	3.59960E-001	-1.06583E+000	3.57700E+000	10	...........
	6	0.093333	6.30237E-001	5.99223E-003	0.00000E+000	3.77652E-003	3.59960E-001	-1.05647E+000	3.57700E+000	10	...........
	7	0.106667	6.36696E-001	5.99284E-003	0.00000E+000	3.81562E-003	3.59960E-001	-1.06237E+000	3.57700E+000	10	...........
	8	0.12	6.43065E-001	5.99452E-003	0.00000E+000	3.85486E-003	3.59960E-001	-1.06573E+000	3.57700E+000	10	...........
	9	0.133333	6.49347E-001	5.99534E-003	0.00000E+000	3.89305E-003	3.59960E-001	-1.05619E+000	3.57707E+000	10	...........
	10	0.146667	6.55554E-001	5.99578E-003	0.00000E+000	3.93056E-003	3.59960E-001	-1.06235E+000	3.57730E+000	10	...........
	11	0.16	6.61753E-001	5.99772E-003	0.00000E+000	3.96901E-003	3.59960E-001	-1.06602E+000	3.57730E+000	10	...........
	12	0.173333	6.67917E-001	5.99239E-003	0.00000E+000	4.00242E-003	3.59960E-001	-1.05631E+000	3.57730E+000	10	...........
	13	0.186667	6.73980E-001	5.99343E-003	0.00000E+000	4.03945E-003	3.59960E-001	-1.06200E+000	3.57730E+000	10	...........
	14	0.2	6.80021E-001	5.99335E-003	0.00000E+000	4.07560E-003	3.59960E-001	-1.06567E+000	3.57730E+000	10	...........
	15	0.213333	6.86049E-001	5.99281E-003	0.00000E+000	4.11136E-003	3.59960E-001	-1.05641E+000	3.57730E+000	10	...........
	16	0.226667	6.92070E-001	5.99149E-003	0.00000E+000	4.14653E-003	3.59960E-001	-1.06213E+000	3.57730E+000	10	...........
	17	0.24	6.98075E-001	5.99408E-003	0.00000E+000	4.18432E-003	3.59960E-001	-1.06616E+000	3.57730E+000	10	...........
	18	0.253333	7.04075E-001	5.99327E-003	0.00000E+000	4.21971E-003	3.59960E-001	-1.05634E+000	3.57730E+000	10	...........
	19	0.266667	7.10039E-001	5.99181E-003	0.00000E+000	4.25442E-003	3.59960E-001	-1.06196E+000	3.57730E+000	10	...........
	20	0.28	7.15988E-001	5.99568E-003	0.00000E+000	4.29283E-003	3.59960E-001	-1.06634E+000	3.57730E+000	10	...........
	21	0.293333	7.21959E-001	5.98960E-003	0.00000E+000	4.32424E-003	3.59960E-001	-1.05661E+000	3.57730E+000	10	...........
	22	0.306667	7.27877E-001	5.98816E-003	0.00000E+000	4.35864E-003	3.59960E-001	-1.06173E+000	3.57730E+000	10	...........
	23	0.32	7.33806E-001	5.99411E-003	0.00000E+000	4.39851E-003	3.59960E-001	-1.06626E+000	3.57730E+000	10	...........
	24	0.333333	7.39704E-001	5.99075E-003	0.00000E+000	4.43138E-003	3.59960E-001	-1.05602E+000	3.57730E+000	10	...........
	25	0.346667	7.45614E-001	5.99226E-003	0.00000E+000	4.46791E-003	3.59960E-001	-1.06125E+000	3.57730E+000	10	...........
	26	0.36	7.51527E-001	5.99090E-003	0.00000E+000	4.50233E-003	3.59960E-001	-1.06610E+000	3.57730E+000	10	...........
	27	0.373333	7.57432E-001	5.99167E-003	0.00000E+000	4.53828E-003	3.59960E-001	-1.05591E+000	3.57730E+000	10	...........
	28	0.386667	7.63303E-001	5.99425E-003	0.00000E+000	4.57543E-003	3.59960E-001	-1.06089E+000	3.57730E+000	10	...........
	29	0.4	7.69181E-001	5.99307E-003	0.00000E+000	4.60976E-003	3.59960E-001	-1.06581E+000	3.57730E+000	10	...........
	30	0.413333	7.75032E-001	5.99371E-003	0.00000E+000	4.64532E-003	3.59960E-001	-1.05601E+000	3.57730E+000	10	...........
	31	0.426667	7.80989E-001	5.99768E-003	0.00000E+000	4.68413E-003	3.59960E-001	-1.06104E+000	3.57730E+000	10	...........
	32	0.44	7.86883E-001	5.99417E-003	0.00000E+000	4.71671E-003	3.59960E-001	-1.06594E+000	3.57730E+000	10	...........
	33	0.453333	7.92759E-001	5.99079E-003	0.00000E+000	4.74925E-003	3.59960E-001	-1.05573E+000	3.57730E+000	10	...........
	34	0.466667	7.98670E-001	5.99082E-003	0.00000E+000	4.78468E-003	3.59960E-001	-1.06036E+000	3.57730E+000	10	...........
	35	0.48	8.04528E-001	5.99338E-003	0.00000E+000	4.82185E-003	3.59960E-001	-1.06609E+000	3.57730E+000	10	...........
	36	0.493333	8.10376E-001	5.99659E-003	0.00000E+000	4.85949E-003	3.59960E-001	-1.05572E+000	3.57730E+000	10	...........
	37	0.506667	8.16236E-001	5.99320E-003	0.00000E+000	4.89186E-003	3.59960E-001	-1.06038E+000	3.57730E+000	10	...........
	38	0.52	8.22119E-001	5.99717E-003	0.00000E+000	4.93039E-003	3.59960E-001	-1.06597E+000	3.57730E+000	10	...........
	39	0.533333	8.27979E-001	5.99210E-003	0.00000E+000	4.96133E-003	3.59960E-001	-1.05544E+000	3.57730E+000	10	...........
	40	0.546667	8.33815E-001	5.98982E-003	0.00000E+000	4.99440E-003	3.59960E-001	-1.06037E+000	3.57730E+000	10	...........
	41	0.56	8.39633E-001	5.99251E-003	0.00000E+000	5.03151E-003	3.59960E-001	-1.06630E+000	3.57730E+000	10	...........
	42	0.573333	8.45496E-001	5.99342E-003	0.00000E+000	5.06741E-003	3.59960E-001	-1.05571E+000	3.57730E+000	10	...........
	43	0.586667	8.51312E-001	5.98986E-003	0.00000E+000	5.09924E-003	3.59960E-001	-1.05999E+000	3.57730E+000	10	...........
	44	0.6	8.57152E-001	5.99327E-003	0.00000E+000	5.13715E-003	3.59960E-001	-1.06614E+000	3.57730E+000	10	...........
	45	0.613333	8.62995E-001	5.99082E-003	0.00000E+000	5.17004E-003	3.59960E-001	-1.05564E+000	3.57730E+000	10	...........
	46	0.626667	8.68827E-001	5.99271E-003	0.00000E+000	5.20662E-003	3.59960E-001	-1.06017E+000	3.57730E+000	10	...........
	47	0.64	8.74589E-001	5.99251E-003	0.00000E+000	5.24098E-003	3.59960E-001	-1.06632E+000	3.57730E+000	10	...........
	48	0.653333	8.80401E-001	5.99115E-003	0.00000E+000	5.27462E-003	3.59960E-001	-1.05516E+000	3.57730E+000	10	...........
	49	0.666667	8.86204E-001	5.99603E-003	0.00000E+000	5.31371E-003	3.59960E-001	-1.05922E+000	3.57730E+000	10	...........
	50	0.68	8.91944E-001	5.99453E-003	0.00000E+000	5.34679E-003	3.59960E-001	-1.06590E+000	3.57730E+000	10	...........
	51	0.693333	8.97716E-001	5.99365E-003	0.00000E+000	5.38059E-003	3.59960E-001	-1.05510E+000	3.57730E+000	10	...........
	52	0.706667	9.03476E-001	5.99566E-003	0.00000E+000	5.41693E-003	3.59960E-001	-1.05921E+000	3.57730E+000	10	...........
	53	0.72	9.09187E-001	5.99173E-003	0.00000E+000	5.44760E-003	3.59960E-001	-1.06593E+000	3.57730E+000	10	...........
	54	0.733333	9.14906E-001	5.99649E-003	0.00000E+000	5.48623E-003	3.59960E-001	-1.05505E+000	3.57730E+000	10	...........
	55	0.746667	9.20618E-001	5.99634E-003	0.00000E+000	5.52034E-003	3.59960E-001	-1.05907E+000	3.57730E+000	10	...........
	56	0.76	9.26289E-001	5.99160E-003	0.00000E+000	5.54996E-003	3.59960E-001	-1.06619E+000	3.57730E+000	10	...........
	57	0.773333	9.31956E-001	5.99285E-003	0.00000E+000	5.58508E-003	3.59960E-001	-1.05496E+000	3.57730E+000	10	...........
	58	0.786667	9.37601E-001	5.99212E-003	0.00000E+000	5.61822E-003	3.59960E-001	-1.05883E+000	3.57730E+000	10	...........
	59	0.8	9.43224E-001	5.99689E-003	0.00000E+000	5.65641E-003	3.59960E-001	-1.06592E+000	3.57730E+000	10	...........
	60	0.813333	9.48823E-001	5.99458E-003	0.00000E+000	5.68780E-003	3.59960E-001	-1.05512E+000	3.57730E+000	10	...........
	61	0.826667	9.54360E-001	5.99563E-003	0.00000E+000	5.72198E-003	3.59960E-001	-1.05904E+000	3.57730E+000	10	...........
	62	0.84	9.59917E-001	5.99365E-003	0.00000E+000	5.75340E-003	3.59960E-001	-1.06627E+000	3.57730E+000	10	...........
	63	0.853333	9.65421E-001	5.99664E-003	0.00000E+000	5.78928E-003	3.59960E-001	-1.05498E+000	3.57730E+000	10	...........
	64	0.866667	9.70888E-001	5.99293E-003	0.00000E+000	5.81846E-003	3.59960E-001	-1.05873E+000	3.57730E+000	10	...........
	65	0.88	9.76390E-001	5.99229E-003	0.00000E+000	5.85081E-003	3.59960E-001	-1.06645E+000	3.57730E+000	10	...........
	66	0.893333	9.81768E-001	5.99882E-003	0.00000E+000	5.88945E-003	3.59960E-001	-1.05532E+000	3.57730E+000	10	...........
	67	0.906667	9.87137E-001	5.99587E-003	0.00000E+000	5.91874E-003	3.59960E-001	-1.05879E+000	3.57730E+000	10	...........
	68	0.92	9.92505E-001	5.99312E-003	0.00000E+000	5.94821E-003	3.59960E-001	-1.06635E+000	3.57730E+000	10	...........
	69	0.933333	9.97793E-001	5.99300E-003	0.00000E+000	5.97977E-003	3.59960E-001	-1.05509E+000	3.57730E+000	10	...........
STARTTIMEOFFSET	QUANT	182.2533	Start Time Offset (s)