File: Data/CV_CRGO300517_1/PWRCCD_CRGO300517_1/CHARGE_DISCHARGE/CHARGE_#129.DTA
EXPLAIN
TAG	PWR800_CHARGE
TITLE	LABEL	PWR Cyclic Charge Discharge (Cell) - Charge Step	Test &Identifier
DATE	LABEL	22-6-2017	Date
TIME	LABEL	15:40:47	Time
NOTES	NOTES	3	&Notes...
	supercap test cell
	0.6mg
	6M KOH
PSTAT	PSTAT	IFC5000-01520	Potentiostat
CAPACITY	QUANT	1.00000E-003	Capacity (A-hr)
CELLTYPE	SELECTOR	1	&Cell Type
WORKINGCONNECTION	SELECTOR	0	&Working Lead
MAXCHARGETIME	VARIABLEANDUNITS	1.00000E+002	s	1.00000E+002	second(s)	Max &Charge Time
CHARGECURRENT	QUANT	6.00000E-003	&Charge Current (A)
VOLTAGEFINISH	TWOPARAM	F	1.00000E-003	3.60000E+003	&Voltage Finish	 I (A) < 	Max Time(s)
SAMPLETIME	QUANT	1.00000E-002	Sa&mple Period (s)
CHARGESTOPAT1	MULTIPARAM	4	1.00000E+000	Charge Stop At &1	Voltage > Limit	V
CHARGESTOPAT2	MULTIPARAM	0	0.00000E+000	Charge Stop At &2	None	N/A
AESBHCSELECTOR	TOGGLE	F	Save Both Half Cells
IRCOMP	TOGGLE	F	IR &Measure
EOC	QUANT	0	Open Circuit (V)
SEQUENCER	TOGGLE	TRUE	Run as Sequence
PSTATMODEL	IQUANT	53	Pstat Model
PSTATSECTION	LABEL	IFC5000-01520	Pstat Section
PSTATSERIALNO	LABEL	01520	Pstat Serial Number
CTRLMODE	IQUANT	0	Control Mode
ELECTROMETER	IQUANT	1	RE=0 or CS=1
IESTAB	IQUANT	0	I/E Stability
CASPEED	IQUANT	4	Control Amp Speed
CONVENTION	IQUANT	1	Current Convention
ICHRANGE	IQUANT	2	Ich Range
ICHRANGEMODE	TOGGLE	T	Ich Auto Range
ICHOFFSETENABLE	TOGGLE	F	Ich Offset Enable
ICHOFFSET	QUANT	0	Ich Offset (V)
ICHFILTER	IQUANT	1	Ich Filter
VCHRANGE	IQUANT	2	Vch Range
VCHRANGEMODE	TOGGLE	T	Vch Auto Range
VCHOFFSETENABLE	TOGGLE	F	Vch Offset Enable
VCHOFFSET	QUANT	0	Vch Offset (V)
VCHFILTER	IQUANT	1	Vch Filter
IERANGELOWERLIMIT	IQUANT	9	I/E Range Lower Limit
IERANGEMODE	TOGGLE	F	I/E AutoRange
IERANGE	IQUANT	10	I/E Range
ACHSELECT	IQUANT	1	Ach Select
ACHRANGE	IQUANT	2	Ach Range
ACHOFFSETENABLE	TOGGLE	F	Ach Offset Enable
ACHOFFSET	QUANT	0	Ach Offset (V)
ACHFILTER	IQUANT	1	Ach Filter
CABLEID	IQUANT	14	Cable ID
DCCALDATE	LABEL	20-10-2016	DC Calibration Date
ACCALDATE	LABEL	12/3/2015	AC Calibration Date
FRAMEWORKVERSION	QUANT	7.01	Framework Version
INSTRUMENTVERSION	LABEL	4.00	Instrument Version
CURVE	TABLE	68
	Pt	T	Vf	Im	Vu	Pwr	Sig	Ach	Temp	IERange	Over
	#	s	V	A	V	W	V	V	deg C	#	bits
	0	0.013333	5.94744E-001	5.98925E-003	0.00000E+000	3.56207E-003	3.59960E-001	-1.08292E+000	3.57790E+000	10	...........
	1	0.026667	6.03065E-001	5.99716E-003	0.00000E+000	3.61668E-003	3.59960E-001	-1.07331E+000	3.57790E+000	10	...........
	2	0.04	6.10670E-001	5.99472E-003	0.00000E+000	3.66080E-003	3.59960E-001	-1.07203E+000	3.57790E+000	10	...........
	3	0.053333	6.17960E-001	5.99222E-003	0.00000E+000	3.70295E-003	3.59960E-001	-1.08286E+000	3.57790E+000	10	...........
	4	0.066667	6.24852E-001	5.99259E-003	0.00000E+000	3.74448E-003	3.59960E-001	-1.07333E+000	3.57790E+000	10	...........
	5	0.08	6.31647E-001	5.99456E-003	0.00000E+000	3.78645E-003	3.59960E-001	-1.07185E+000	3.57790E+000	10	...........
	6	0.093333	6.38317E-001	5.99440E-003	0.00000E+000	3.82632E-003	3.59960E-001	-1.08259E+000	3.57790E+000	10	...........
	7	0.106667	6.44846E-001	5.99279E-003	0.00000E+000	3.86443E-003	3.59960E-001	-1.07311E+000	3.57790E+000	10	...........
	8	0.12	6.51279E-001	5.99409E-003	0.00000E+000	3.90383E-003	3.59960E-001	-1.07219E+000	3.57790E+000	10	...........
	9	0.133333	6.57680E-001	5.99511E-003	0.00000E+000	3.94286E-003	3.59960E-001	-1.08279E+000	3.57790E+000	10	...........
	10	0.146667	6.63984E-001	5.99013E-003	0.00000E+000	3.97735E-003	3.59960E-001	-1.07315E+000	3.57790E+000	10	...........
	11	0.16	6.70262E-001	5.99069E-003	0.00000E+000	4.01533E-003	3.59960E-001	-1.07194E+000	3.57790E+000	10	...........
	12	0.173333	6.76523E-001	5.98971E-003	0.00000E+000	4.05218E-003	3.59960E-001	-1.08268E+000	3.57790E+000	10	...........
	13	0.186667	6.82683E-001	5.99511E-003	0.00000E+000	4.09276E-003	3.59960E-001	-1.07332E+000	3.57790E+000	10	...........
	14	0.2	6.88815E-001	5.99018E-003	0.00000E+000	4.12613E-003	3.59960E-001	-1.07191E+000	3.57790E+000	10	...........
	15	0.213333	6.94912E-001	5.99350E-003	0.00000E+000	4.16496E-003	3.59960E-001	-1.08271E+000	3.57790E+000	10	...........
	16	0.226667	7.01023E-001	5.99555E-003	0.00000E+000	4.20302E-003	3.59960E-001	-1.07283E+000	3.57790E+000	10	...........
	17	0.24	7.07103E-001	5.99628E-003	0.00000E+000	4.23999E-003	3.59960E-001	-1.07145E+000	3.57790E+000	10	...........
	18	0.253333	7.13173E-001	5.99489E-003	0.00000E+000	4.27539E-003	3.59960E-001	-1.08217E+000	3.57790E+000	10	...........
	19	0.266667	7.19243E-001	5.99518E-003	0.00000E+000	4.31199E-003	3.59960E-001	-1.07283E+000	3.57790E+000	10	...........
	20	0.28	7.25285E-001	5.99188E-003	0.00000E+000	4.34582E-003	3.59960E-001	-1.07123E+000	3.57790E+000	10	...........
	21	0.293333	7.31341E-001	5.99550E-003	0.00000E+000	4.38476E-003	3.59960E-001	-1.08202E+000	3.57790E+000	10	...........
	22	0.306667	7.37378E-001	5.99319E-003	0.00000E+000	4.41924E-003	3.59960E-001	-1.07254E+000	3.57790E+000	10	...........
	23	0.32	7.43345E-001	5.98976E-003	0.00000E+000	4.45246E-003	3.59960E-001	-1.07148E+000	3.57790E+000	10	...........
	24	0.333333	7.49360E-001	5.99265E-003	0.00000E+000	4.49066E-003	3.59960E-001	-1.08206E+000	3.57790E+000	10	...........
	25	0.346667	7.55361E-001	5.99795E-003	0.00000E+000	4.53062E-003	3.59960E-001	-1.07270E+000	3.57790E+000	10	...........
	26	0.36	7.61304E-001	5.99033E-003	0.00000E+000	4.56046E-003	3.59960E-001	-1.07123E+000	3.57790E+000	10	...........
	27	0.373333	7.67270E-001	5.99521E-003	0.00000E+000	4.59995E-003	3.59960E-001	-1.08212E+000	3.57790E+000	10	...........
	28	0.386667	7.73254E-001	5.99209E-003	0.00000E+000	4.63341E-003	3.59960E-001	-1.07271E+000	3.57790E+000	10	...........
	29	0.4	7.79264E-001	5.99401E-003	0.00000E+000	4.67091E-003	3.59960E-001	-1.07128E+000	3.57790E+000	10	...........
	30	0.413333	7.85261E-001	5.99359E-003	0.00000E+000	4.70653E-003	3.59960E-001	-1.08198E+000	3.57790E+000	10	...........
	31	0.426667	7.91218E-001	5.99078E-003	0.00000E+000	4.74001E-003	3.59960E-001	-1.07258E+000	3.57790E+000	10	...........
	32	0.44	7.97222E-001	5.99153E-003	0.00000E+000	4.77658E-003	3.59960E-001	-1.07122E+000	3.57790E+000	10	...........
	33	0.453333	8.03180E-001	5.99753E-003	0.00000E+000	4.81709E-003	3.59960E-001	-1.08221E+000	3.57790E+000	10	...........
	34	0.466667	8.09088E-001	5.99318E-003	0.00000E+000	4.84901E-003	3.59960E-001	-1.07286E+000	3.57790E+000	10	...........
	35	0.48	8.15031E-001	5.99176E-003	0.00000E+000	4.88347E-003	3.59960E-001	-1.07112E+000	3.57790E+000	10	...........
	36	0.493333	8.21013E-001	5.98993E-003	0.00000E+000	4.91781E-003	3.59960E-001	-1.08198E+000	3.57790E+000	10	...........
	37	0.506667	8.26919E-001	5.99448E-003	0.00000E+000	4.95695E-003	3.59960E-001	-1.07277E+000	3.57790E+000	10	...........
	38	0.52	8.32828E-001	5.99497E-003	0.00000E+000	4.99278E-003	3.59960E-001	-1.07132E+000	3.57790E+000	10	...........
	39	0.533333	8.38746E-001	5.99601E-003	0.00000E+000	5.02913E-003	3.59960E-001	-1.08201E+000	3.57790E+000	10	...........
	40	0.546667	8.44669E-001	5.99956E-003	0.00000E+000	5.06764E-003	3.59960E-001	-1.07264E+000	3.57790E+000	10	...........
	41	0.56	8.50594E-001	5.99553E-003	0.00000E+000	5.09976E-003	3.59960E-001	-1.07051E+000	3.57790E+000	10	...........
	42	0.573333	8.56493E-001	5.99837E-003	0.00000E+000	5.13757E-003	3.59960E-001	-1.08143E+000	3.57790E+000	10	...........
	43	0.586667	8.62381E-001	5.99550E-003	0.00000E+000	5.17040E-003	3.59960E-001	-1.07246E+000	3.57790E+000	10	...........
	44	0.6	8.68268E-001	5.99101E-003	0.00000E+000	5.20180E-003	3.59960E-001	-1.07083E+000	3.57790E+000	10	...........
	45	0.613333	8.74182E-001	5.99653E-003	0.00000E+000	5.24207E-003	3.59960E-001	-1.08142E+000	3.57790E+000	10	...........
	46	0.626667	8.80018E-001	5.99027E-003	0.00000E+000	5.27154E-003	3.59960E-001	-1.07229E+000	3.57790E+000	10	...........
	47	0.64	8.85899E-001	5.99554E-003	0.00000E+000	5.31145E-003	3.59960E-001	-1.07054E+000	3.57790E+000	10	...........
	48	0.653333	8.91714E-001	5.99732E-003	0.00000E+000	5.34789E-003	3.59960E-001	-1.08159E+000	3.57790E+000	10	...........
	49	0.666667	8.97555E-001	5.99690E-003	0.00000E+000	5.38255E-003	3.59960E-001	-1.07246E+000	3.57790E+000	10	...........
	50	0.68	9.03347E-001	5.99715E-003	0.00000E+000	5.41751E-003	3.59960E-001	-1.07070E+000	3.57790E+000	10	...........
	51	0.693333	9.09130E-001	5.99554E-003	0.00000E+000	5.45073E-003	3.59960E-001	-1.08120E+000	3.57790E+000	10	...........
	52	0.706667	9.14908E-001	5.99261E-003	0.00000E+000	5.48269E-003	3.59960E-001	-1.07219E+000	3.57790E+000	10	...........
	53	0.72	9.20676E-001	5.99303E-003	0.00000E+000	5.51764E-003	3.59960E-001	-1.07058E+000	3.57790E+000	10	...........
	54	0.733333	9.26423E-001	5.99579E-003	0.00000E+000	5.55464E-003	3.59960E-001	-1.08128E+000	3.57790E+000	10	...........
	55	0.746667	9.32113E-001	5.99483E-003	0.00000E+000	5.58786E-003	3.59960E-001	-1.07219E+000	3.57790E+000	10	...........
	56	0.76	9.37728E-001	5.99240E-003	0.00000E+000	5.61925E-003	3.59960E-001	-1.07029E+000	3.57790E+000	10	...........
	57	0.773333	9.43424E-001	5.99399E-003	0.00000E+000	5.65488E-003	3.59960E-001	-1.08134E+000	3.57790E+000	10	...........
	58	0.786667	9.49065E-001	5.99246E-003	0.00000E+000	5.68723E-003	3.59960E-001	-1.07236E+000	3.57790E+000	10	...........
	59	0.8	9.54693E-001	5.99530E-003	0.00000E+000	5.72368E-003	3.59960E-001	-1.07063E+000	3.57827E+000	10	...........
	60	0.813333	9.60271E-001	5.99366E-003	0.00000E+000	5.75553E-003	3.59960E-001	-1.08145E+000	3.57840E+000	10	...........
	61	0.826667	9.65816E-001	5.99868E-003	0.00000E+000	5.79363E-003	3.59960E-001	-1.07225E+000	3.57840E+000	10	...........
	62	0.84	9.71348E-001	5.99250E-003	0.00000E+000	5.82080E-003	3.59960E-001	-1.07052E+000	3.57840E+000	10	...........
	63	0.853333	9.76849E-001	5.99278E-003	0.00000E+000	5.85404E-003	3.59960E-001	-1.08138E+000	3.57840E+000	10	...........
	64	0.866667	9.82294E-001	5.99543E-003	0.00000E+000	5.88927E-003	3.59960E-001	-1.07241E+000	3.57840E+000	10	...........
	65	0.88	9.87732E-001	5.99126E-003	0.00000E+000	5.91776E-003	3.59960E-001	-1.07023E+000	3.57840E+000	10	...........
	66	0.893333	9.93116E-001	5.99722E-003	0.00000E+000	5.95594E-003	3.59960E-001	-1.08077E+000	3.57840E+000	10	...........
	67	0.905	9.98113E-001	5.99365E-003	0.00000E+000	5.98234E-003	3.59960E-001	-1.07009E+000	3.57840E+000	10	...........
STARTTIMEOFFSET	QUANT	248.0483	Start Time Offset (s)