File: Data/CV_CRGO300517_1/PWRCCD_CRGO300517_1/CHARGE_DISCHARGE/CHARGE_#701.DTA
EXPLAIN
TAG	PWR800_CHARGE
TITLE	LABEL	PWR Cyclic Charge Discharge (Cell) - Charge Step	Test &Identifier
DATE	LABEL	22-6-2017	Date
TIME	LABEL	16:03:35	Time
NOTES	NOTES	3	&Notes...
	supercap test cell
	0.6mg
	6M KOH
PSTAT	PSTAT	IFC5000-01520	Potentiostat
CAPACITY	QUANT	1.00000E-003	Capacity (A-hr)
CELLTYPE	SELECTOR	1	&Cell Type
WORKINGCONNECTION	SELECTOR	0	&Working Lead
MAXCHARGETIME	VARIABLEANDUNITS	1.00000E+002	s	1.00000E+002	second(s)	Max &Charge Time
CHARGECURRENT	QUANT	6.00000E-003	&Charge Current (A)
VOLTAGEFINISH	TWOPARAM	F	1.00000E-003	3.60000E+003	&Voltage Finish	 I (A) < 	Max Time(s)
SAMPLETIME	QUANT	1.00000E-002	Sa&mple Period (s)
CHARGESTOPAT1	MULTIPARAM	4	1.00000E+000	Charge Stop At &1	Voltage > Limit	V
CHARGESTOPAT2	MULTIPARAM	0	0.00000E+000	Charge Stop At &2	None	N/A
AESBHCSELECTOR	TOGGLE	F	Save Both Half Cells
IRCOMP	TOGGLE	F	IR &Measure
EOC	QUANT	0	Open Circuit (V)
SEQUENCER	TOGGLE	TRUE	Run as Sequence
PSTATMODEL	IQUANT	53	Pstat Model
PSTATSECTION	LABEL	IFC5000-01520	Pstat Section
PSTATSERIALNO	LABEL	01520	Pstat Serial Number
CTRLMODE	IQUANT	0	Control Mode
ELECTROMETER	IQUANT	1	RE=0 or CS=1
IESTAB	IQUANT	0	I/E Stability
CASPEED	IQUANT	4	Control Amp Speed
CONVENTION	IQUANT	1	Current Convention
ICHRANGE	IQUANT	2	Ich Range
ICHRANGEMODE	TOGGLE	T	Ich Auto Range
ICHOFFSETENABLE	TOGGLE	F	Ich Offset Enable
ICHOFFSET	QUANT	0	Ich Offset (V)
ICHFILTER	IQUANT	1	Ich Filter
VCHRANGE	IQUANT	2	Vch Range
VCHRANGEMODE	TOGGLE	T	Vch Auto Range
VCHOFFSETENABLE	TOGGLE	F	Vch Offset Enable
VCHOFFSET	QUANT	0	Vch Offset (V)
VCHFILTER	IQUANT	1	Vch Filter
IERANGELOWERLIMIT	IQUANT	9	I/E Range Lower Limit
IERANGEMODE	TOGGLE	F	I/E AutoRange
IERANGE	IQUANT	10	I/E Range
ACHSELECT	IQUANT	1	Ach Select
ACHRANGE	IQUANT	2	Ach Range
ACHOFFSETENABLE	TOGGLE	F	Ach Offset Enable
ACHOFFSET	QUANT	0	Ach Offset (V)
ACHFILTER	IQUANT	1	Ach Filter
CABLEID	IQUANT	14	Cable ID
DCCALDATE	LABEL	20-10-2016	DC Calibration Date
ACCALDATE	LABEL	12/3/2015	AC Calibration Date
FRAMEWORKVERSION	QUANT	7.01	Framework Version
INSTRUMENTVERSION	LABEL	4.00	Instrument Version
CURVE	TABLE	56
	Pt	T	Vf	Im	Vu	Pwr	Sig	Ach	Temp	IERange	Over
	#	s	V	A	V	W	V	V	deg C	#	bits
	0	0.013333	6.43201E-001	5.99116E-003	0.00000E+000	3.85352E-003	3.59960E-001	-1.15378E+000	3.57640E+000	10	...........
	1	0.026667	6.52257E-001	5.99221E-003	0.00000E+000	3.90846E-003	3.59960E-001	-1.15330E+000	3.57640E+000	10	...........
	2	0.04	6.60620E-001	5.99208E-003	0.00000E+000	3.95849E-003	3.59960E-001	-1.16387E+000	3.57640E+000	10	...........
	3	0.053333	6.68568E-001	5.99835E-003	0.00000E+000	4.01030E-003	3.59960E-001	-1.15347E+000	3.57640E+000	10	...........
	4	0.066667	6.76172E-001	5.99570E-003	0.00000E+000	4.05412E-003	3.59960E-001	-1.15342E+000	3.57640E+000	10	...........
	5	0.08	6.83606E-001	6.00212E-003	0.00000E+000	4.10308E-003	3.59960E-001	-1.16396E+000	3.57640E+000	10	...........
	6	0.093333	6.90907E-001	5.99886E-003	0.00000E+000	4.14466E-003	3.59960E-001	-1.15344E+000	3.57640E+000	10	...........
	7	0.106667	6.98120E-001	5.99240E-003	0.00000E+000	4.18342E-003	3.59960E-001	-1.15334E+000	3.57640E+000	10	...........
	8	0.12	7.05201E-001	5.99747E-003	0.00000E+000	4.22943E-003	3.59960E-001	-1.16406E+000	3.57640E+000	10	...........
	9	0.133333	7.12219E-001	5.99597E-003	0.00000E+000	4.27044E-003	3.59960E-001	-1.15355E+000	3.57640E+000	10	...........
	10	0.146667	7.19211E-001	5.99214E-003	0.00000E+000	4.30962E-003	3.59960E-001	-1.15370E+000	3.57640E+000	10	...........
	11	0.16	7.26158E-001	5.99562E-003	0.00000E+000	4.35376E-003	3.59960E-001	-1.16413E+000	3.57640E+000	10	...........
	12	0.173333	7.33003E-001	5.99408E-003	0.00000E+000	4.39368E-003	3.59960E-001	-1.15327E+000	3.57640E+000	10	...........
	13	0.186667	7.39814E-001	5.99649E-003	0.00000E+000	4.43629E-003	3.59960E-001	-1.15334E+000	3.57640E+000	10	...........
	14	0.2	7.46610E-001	5.99376E-003	0.00000E+000	4.47500E-003	3.59960E-001	-1.16407E+000	3.57640E+000	10	...........
	15	0.213333	7.53360E-001	5.99182E-003	0.00000E+000	4.51400E-003	3.59960E-001	-1.15307E+000	3.57640E+000	10	...........
	16	0.226667	7.60035E-001	5.99264E-003	0.00000E+000	4.55462E-003	3.59960E-001	-1.15317E+000	3.57640E+000	10	...........
	17	0.24	7.66745E-001	5.99302E-003	0.00000E+000	4.59512E-003	3.59960E-001	-1.16329E+000	3.57640E+000	10	...........
	18	0.253333	7.73445E-001	5.99637E-003	0.00000E+000	4.63786E-003	3.59960E-001	-1.15276E+000	3.57640E+000	10	...........
	19	0.266667	7.80095E-001	5.99238E-003	0.00000E+000	4.67463E-003	3.59960E-001	-1.15326E+000	3.57640E+000	10	...........
	20	0.28	7.86725E-001	5.99904E-003	0.00000E+000	4.71959E-003	3.59960E-001	-1.16357E+000	3.57640E+000	10	...........
	21	0.293333	7.93368E-001	5.99117E-003	0.00000E+000	4.75320E-003	3.59960E-001	-1.15273E+000	3.57640E+000	10	...........
	22	0.306667	7.99968E-001	5.99560E-003	0.00000E+000	4.79628E-003	3.59960E-001	-1.15305E+000	3.57640E+000	10	...........
	23	0.32	8.06535E-001	5.99685E-003	0.00000E+000	4.83667E-003	3.59960E-001	-1.16318E+000	3.57640E+000	10	...........
	24	0.333333	8.13125E-001	5.99467E-003	0.00000E+000	4.87441E-003	3.59960E-001	-1.15245E+000	3.57654E+000	10	...........
	25	0.346667	8.19649E-001	5.98837E-003	0.00000E+000	4.90836E-003	3.59960E-001	-1.15327E+000	3.57660E+000	10	...........
	26	0.36	8.26171E-001	5.99109E-003	0.00000E+000	4.94966E-003	3.59960E-001	-1.16325E+000	3.57660E+000	10	...........
	27	0.373333	8.32682E-001	5.99690E-003	0.00000E+000	4.99351E-003	3.59960E-001	-1.15257E+000	3.57660E+000	10	...........
	28	0.386667	8.39152E-001	5.99349E-003	0.00000E+000	5.02945E-003	3.59960E-001	-1.15310E+000	3.57660E+000	10	...........
	29	0.4	8.45609E-001	5.99107E-003	0.00000E+000	5.06610E-003	3.59960E-001	-1.16309E+000	3.57660E+000	10	...........
	30	0.413333	8.52077E-001	5.99697E-003	0.00000E+000	5.10988E-003	3.59960E-001	-1.15236E+000	3.57660E+000	10	...........
	31	0.426667	8.58495E-001	5.99184E-003	0.00000E+000	5.14397E-003	3.59960E-001	-1.15355E+000	3.57660E+000	10	...........
	32	0.44	8.64825E-001	5.99247E-003	0.00000E+000	5.18244E-003	3.59960E-001	-1.16320E+000	3.57660E+000	10	...........
	33	0.453333	8.71178E-001	5.99597E-003	0.00000E+000	5.22356E-003	3.59960E-001	-1.15229E+000	3.57660E+000	10	...........
	34	0.466667	8.77520E-001	5.99183E-003	0.00000E+000	5.25795E-003	3.59960E-001	-1.15350E+000	3.57660E+000	10	...........
	35	0.48	8.83830E-001	5.98682E-003	0.00000E+000	5.29133E-003	3.59960E-001	-1.16332E+000	3.57660E+000	10	...........
	36	0.493333	8.90120E-001	5.99266E-003	0.00000E+000	5.33419E-003	3.59960E-001	-1.15258E+000	3.57660E+000	10	...........
	37	0.506667	8.96372E-001	5.99394E-003	0.00000E+000	5.37280E-003	3.59960E-001	-1.15358E+000	3.57660E+000	10	...........
	38	0.52	9.02567E-001	5.99822E-003	0.00000E+000	5.41380E-003	3.59960E-001	-1.16286E+000	3.57660E+000	10	...........
	39	0.533333	9.08775E-001	5.99602E-003	0.00000E+000	5.44904E-003	3.59960E-001	-1.15219E+000	3.57660E+000	10	...........
	40	0.546667	9.14877E-001	5.99484E-003	0.00000E+000	5.48455E-003	3.59960E-001	-1.15334E+000	3.57660E+000	10	...........
	41	0.56	9.21061E-001	5.99597E-003	0.00000E+000	5.52266E-003	3.59960E-001	-1.16307E+000	3.57660E+000	10	...........
	42	0.573333	9.27137E-001	5.99485E-003	0.00000E+000	5.55804E-003	3.59960E-001	-1.15184E+000	3.57660E+000	10	...........
	43	0.586667	9.33196E-001	5.99350E-003	0.00000E+000	5.59311E-003	3.59960E-001	-1.15306E+000	3.57660E+000	10	...........
	44	0.6	9.39161E-001	5.99120E-003	0.00000E+000	5.62671E-003	3.59960E-001	-1.16267E+000	3.57660E+000	10	...........
	45	0.613333	9.45129E-001	5.99077E-003	0.00000E+000	5.66204E-003	3.59960E-001	-1.15191E+000	3.57660E+000	10	...........
	46	0.626667	9.51062E-001	5.99891E-003	0.00000E+000	5.70534E-003	3.59960E-001	-1.15352E+000	3.57660E+000	10	...........
	47	0.64	9.56896E-001	5.99113E-003	0.00000E+000	5.73289E-003	3.59960E-001	-1.16240E+000	3.57660E+000	10	...........
	48	0.653333	9.62689E-001	5.99348E-003	0.00000E+000	5.76986E-003	3.59960E-001	-1.15155E+000	3.57660E+000	10	...........
	49	0.666667	9.68474E-001	5.99188E-003	0.00000E+000	5.80298E-003	3.59960E-001	-1.15337E+000	3.57660E+000	10	...........
	50	0.68	9.74283E-001	5.99383E-003	0.00000E+000	5.83969E-003	3.59960E-001	-1.16251E+000	3.57660E+000	10	...........
	51	0.693333	9.79928E-001	5.98998E-003	0.00000E+000	5.86975E-003	3.59960E-001	-1.15178E+000	3.57660E+000	10	...........
	52	0.706667	9.85519E-001	5.99485E-003	0.00000E+000	5.90803E-003	3.59960E-001	-1.15316E+000	3.57660E+000	10	...........
	53	0.72	9.91116E-001	5.99648E-003	0.00000E+000	5.94321E-003	3.59960E-001	-1.16218E+000	3.57660E+000	10	...........
	54	0.733333	9.96656E-001	5.99867E-003	0.00000E+000	5.97862E-003	3.59960E-001	-1.15169E+000	3.57660E+000	10	...........
	55	0.736667	1.00006E+000	5.99179E-003	0.00000E+000	5.99214E-003	3.59960E-001	-1.16556E+000	3.57660E+000	10	...........
STARTTIMEOFFSET	QUANT	1160.689	Start Time Offset (s)