File: Data/CV_CRGO300517_1/PWRCCD_CRGO300517_1/CHARGE_DISCHARGE/CHARGE_#798.DTA
EXPLAIN
TAG	PWR800_CHARGE
TITLE	LABEL	PWR Cyclic Charge Discharge (Cell) - Charge Step	Test &Identifier
DATE	LABEL	22-6-2017	Date
TIME	LABEL	16:07:13	Time
NOTES	NOTES	3	&Notes...
	supercap test cell
	0.6mg
	6M KOH
PSTAT	PSTAT	IFC5000-01520	Potentiostat
CAPACITY	QUANT	1.00000E-003	Capacity (A-hr)
CELLTYPE	SELECTOR	1	&Cell Type
WORKINGCONNECTION	SELECTOR	0	&Working Lead
MAXCHARGETIME	VARIABLEANDUNITS	1.00000E+002	s	1.00000E+002	second(s)	Max &Charge Time
CHARGECURRENT	QUANT	6.00000E-003	&Charge Current (A)
VOLTAGEFINISH	TWOPARAM	F	1.00000E-003	3.60000E+003	&Voltage Finish	 I (A) < 	Max Time(s)
SAMPLETIME	QUANT	1.00000E-002	Sa&mple Period (s)
CHARGESTOPAT1	MULTIPARAM	4	1.00000E+000	Charge Stop At &1	Voltage > Limit	V
CHARGESTOPAT2	MULTIPARAM	0	0.00000E+000	Charge Stop At &2	None	N/A
AESBHCSELECTOR	TOGGLE	F	Save Both Half Cells
IRCOMP	TOGGLE	F	IR &Measure
EOC	QUANT	0	Open Circuit (V)
SEQUENCER	TOGGLE	TRUE	Run as Sequence
PSTATMODEL	IQUANT	53	Pstat Model
PSTATSECTION	LABEL	IFC5000-01520	Pstat Section
PSTATSERIALNO	LABEL	01520	Pstat Serial Number
CTRLMODE	IQUANT	0	Control Mode
ELECTROMETER	IQUANT	1	RE=0 or CS=1
IESTAB	IQUANT	0	I/E Stability
CASPEED	IQUANT	4	Control Amp Speed
CONVENTION	IQUANT	1	Current Convention
ICHRANGE	IQUANT	2	Ich Range
ICHRANGEMODE	TOGGLE	T	Ich Auto Range
ICHOFFSETENABLE	TOGGLE	F	Ich Offset Enable
ICHOFFSET	QUANT	0	Ich Offset (V)
ICHFILTER	IQUANT	1	Ich Filter
VCHRANGE	IQUANT	2	Vch Range
VCHRANGEMODE	TOGGLE	T	Vch Auto Range
VCHOFFSETENABLE	TOGGLE	F	Vch Offset Enable
VCHOFFSET	QUANT	0	Vch Offset (V)
VCHFILTER	IQUANT	1	Vch Filter
IERANGELOWERLIMIT	IQUANT	9	I/E Range Lower Limit
IERANGEMODE	TOGGLE	F	I/E AutoRange
IERANGE	IQUANT	10	I/E Range
ACHSELECT	IQUANT	1	Ach Select
ACHRANGE	IQUANT	2	Ach Range
ACHOFFSETENABLE	TOGGLE	F	Ach Offset Enable
ACHOFFSET	QUANT	0	Ach Offset (V)
ACHFILTER	IQUANT	1	Ach Filter
CABLEID	IQUANT	14	Cable ID
DCCALDATE	LABEL	20-10-2016	DC Calibration Date
ACCALDATE	LABEL	12/3/2015	AC Calibration Date
FRAMEWORKVERSION	QUANT	7.01	Framework Version
INSTRUMENTVERSION	LABEL	4.00	Instrument Version
CURVE	TABLE	54
	Pt	T	Vf	Im	Vu	Pwr	Sig	Ach	Temp	IERange	Over
	#	s	V	A	V	W	V	V	deg C	#	bits
	0	0.013333	6.55279E-001	5.99361E-003	0.00000E+000	3.92749E-003	3.59960E-001	-1.17236E+000	3.57780E+000	10	...........
	1	0.026667	6.64317E-001	5.98789E-003	0.00000E+000	3.97786E-003	3.59960E-001	-1.16907E+000	3.57780E+000	10	...........
	2	0.04	6.72594E-001	5.99286E-003	0.00000E+000	4.03076E-003	3.59960E-001	-1.16348E+000	3.57780E+000	10	...........
	3	0.053333	6.80407E-001	5.98754E-003	0.00000E+000	4.07397E-003	3.59960E-001	-1.17236E+000	3.57780E+000	10	...........
	4	0.066667	6.88015E-001	5.99634E-003	0.00000E+000	4.12557E-003	3.59960E-001	-1.16868E+000	3.57780E+000	10	...........
	5	0.08	6.95431E-001	5.99485E-003	0.00000E+000	4.16900E-003	3.59960E-001	-1.16281E+000	3.57780E+000	10	...........
	6	0.093333	7.02668E-001	5.99108E-003	0.00000E+000	4.20974E-003	3.59960E-001	-1.17155E+000	3.57780E+000	10	...........
	7	0.106667	7.09764E-001	5.99433E-003	0.00000E+000	4.25456E-003	3.59960E-001	-1.16849E+000	3.57917E+000	10	...........
	8	0.12	7.16826E-001	5.99293E-003	0.00000E+000	4.29588E-003	3.59960E-001	-1.16296E+000	3.58000E+000	10	...........
	9	0.133333	7.23804E-001	5.98844E-003	0.00000E+000	4.33446E-003	3.59960E-001	-1.17185E+000	3.58000E+000	10	...........
	10	0.146667	7.30708E-001	5.99507E-003	0.00000E+000	4.38065E-003	3.59960E-001	-1.16849E+000	3.58000E+000	10	...........
	11	0.16	7.37546E-001	5.99345E-003	0.00000E+000	4.42044E-003	3.59960E-001	-1.16286E+000	3.58000E+000	10	...........
	12	0.173333	7.44387E-001	5.99191E-003	0.00000E+000	4.46030E-003	3.59960E-001	-1.17171E+000	3.58000E+000	10	...........
	13	0.186667	7.51156E-001	5.99396E-003	0.00000E+000	4.50240E-003	3.59960E-001	-1.16843E+000	3.58000E+000	10	...........
	14	0.2	7.57843E-001	5.99373E-003	0.00000E+000	4.54231E-003	3.59960E-001	-1.16297E+000	3.58000E+000	10	...........
	15	0.213333	7.64562E-001	5.99142E-003	0.00000E+000	4.58081E-003	3.59960E-001	-1.17165E+000	3.58000E+000	10	...........
	16	0.226667	7.71263E-001	5.99340E-003	0.00000E+000	4.62249E-003	3.59960E-001	-1.16811E+000	3.58000E+000	10	...........
	17	0.24	7.77923E-001	5.99538E-003	0.00000E+000	4.66394E-003	3.59960E-001	-1.16284E+000	3.58000E+000	10	...........
	18	0.253333	7.84549E-001	5.99541E-003	0.00000E+000	4.70369E-003	3.59960E-001	-1.17164E+000	3.58000E+000	10	...........
	19	0.266667	7.91176E-001	5.99618E-003	0.00000E+000	4.74403E-003	3.59960E-001	-1.16820E+000	3.58000E+000	10	...........
	20	0.28	7.97727E-001	5.99351E-003	0.00000E+000	4.78118E-003	3.59960E-001	-1.16287E+000	3.58000E+000	10	...........
	21	0.293333	8.04288E-001	5.99283E-003	0.00000E+000	4.81996E-003	3.59960E-001	-1.17180E+000	3.58000E+000	10	...........
	22	0.306667	8.10803E-001	5.99740E-003	0.00000E+000	4.86271E-003	3.59960E-001	-1.16801E+000	3.58000E+000	10	...........
	23	0.32	8.17358E-001	5.99594E-003	0.00000E+000	4.90083E-003	3.59960E-001	-1.16289E+000	3.58000E+000	10	...........
	24	0.333333	8.23846E-001	5.99137E-003	0.00000E+000	4.93597E-003	3.59960E-001	-1.17184E+000	3.58000E+000	10	...........
	25	0.346667	8.30349E-001	5.99214E-003	0.00000E+000	4.97557E-003	3.59960E-001	-1.16815E+000	3.58000E+000	10	...........
	26	0.36	8.36785E-001	5.99188E-003	0.00000E+000	5.01392E-003	3.59960E-001	-1.16261E+000	3.58000E+000	10	...........
	27	0.373333	8.43215E-001	5.99781E-003	0.00000E+000	5.05744E-003	3.59960E-001	-1.17165E+000	3.58000E+000	10	...........
	28	0.386667	8.49648E-001	5.99137E-003	0.00000E+000	5.09056E-003	3.59960E-001	-1.16803E+000	3.58000E+000	10	...........
	29	0.4	8.56027E-001	5.99713E-003	0.00000E+000	5.13370E-003	3.59960E-001	-1.16239E+000	3.58000E+000	10	...........
	30	0.413333	8.62384E-001	5.99482E-003	0.00000E+000	5.16984E-003	3.59960E-001	-1.17145E+000	3.58000E+000	10	...........
	31	0.426667	8.68758E-001	5.99365E-003	0.00000E+000	5.20703E-003	3.59960E-001	-1.16787E+000	3.58000E+000	10	...........
	32	0.44	8.75072E-001	5.99109E-003	0.00000E+000	5.24263E-003	3.59960E-001	-1.16240E+000	3.58000E+000	10	...........
	33	0.453333	8.81366E-001	5.99485E-003	0.00000E+000	5.28366E-003	3.59960E-001	-1.17155E+000	3.58000E+000	10	...........
	34	0.466667	8.87657E-001	5.99508E-003	0.00000E+000	5.32158E-003	3.59960E-001	-1.16802E+000	3.58000E+000	10	...........
	35	0.48	8.93870E-001	5.99080E-003	0.00000E+000	5.35499E-003	3.59960E-001	-1.16249E+000	3.58000E+000	10	...........
	36	0.493333	9.00063E-001	5.99397E-003	0.00000E+000	5.39495E-003	3.59960E-001	-1.17130E+000	3.58000E+000	10	...........
	37	0.506667	9.06204E-001	5.99229E-003	0.00000E+000	5.43024E-003	3.59960E-001	-1.16780E+000	3.58000E+000	10	...........
	38	0.52	9.12313E-001	5.99310E-003	0.00000E+000	5.46758E-003	3.59960E-001	-1.16263E+000	3.58000E+000	10	...........
	39	0.533333	9.18381E-001	5.98962E-003	0.00000E+000	5.50075E-003	3.59960E-001	-1.17158E+000	3.58000E+000	10	...........
	40	0.546667	9.24549E-001	5.98946E-003	0.00000E+000	5.53755E-003	3.59960E-001	-1.16784E+000	3.58000E+000	10	...........
	41	0.56	9.30555E-001	5.99162E-003	0.00000E+000	5.57553E-003	3.59960E-001	-1.16228E+000	3.58000E+000	10	...........
	42	0.573333	9.36512E-001	5.99467E-003	0.00000E+000	5.61408E-003	3.59960E-001	-1.17147E+000	3.58000E+000	10	...........
	43	0.586667	9.42420E-001	5.99689E-003	0.00000E+000	5.65159E-003	3.59960E-001	-1.16808E+000	3.58000E+000	10	...........
	44	0.6	9.48326E-001	5.99589E-003	0.00000E+000	5.68606E-003	3.59960E-001	-1.16278E+000	3.58000E+000	10	...........
	45	0.613333	9.54171E-001	5.99650E-003	0.00000E+000	5.72169E-003	3.59960E-001	-1.17178E+000	3.58000E+000	10	...........
	46	0.626667	9.59969E-001	5.99573E-003	0.00000E+000	5.75572E-003	3.59960E-001	-1.16805E+000	3.58000E+000	10	...........
	47	0.64	9.65728E-001	5.99477E-003	0.00000E+000	5.78932E-003	3.59960E-001	-1.16257E+000	3.58000E+000	10	...........
	48	0.653333	9.71427E-001	5.99304E-003	0.00000E+000	5.82180E-003	3.59960E-001	-1.17160E+000	3.58000E+000	10	...........
	49	0.666667	9.77139E-001	5.99344E-003	0.00000E+000	5.85642E-003	3.59960E-001	-1.16800E+000	3.58000E+000	10	...........
	50	0.68	9.82738E-001	5.99199E-003	0.00000E+000	5.88855E-003	3.59960E-001	-1.16259E+000	3.58000E+000	10	...........
	51	0.693333	9.88297E-001	5.99755E-003	0.00000E+000	5.92736E-003	3.59960E-001	-1.17140E+000	3.58000E+000	10	...........
	52	0.706667	9.93805E-001	5.99492E-003	0.00000E+000	5.95778E-003	3.59960E-001	-1.16764E+000	3.58000E+000	10	...........
	53	0.716667	9.98642E-001	5.99433E-003	0.00000E+000	5.98619E-003	3.59960E-001	-1.16049E+000	3.58000E+000	10	...........
STARTTIMEOFFSET	QUANT	1301.253	Start Time Offset (s)