File: Data/CV_CRGO300517_1/PWRCCD_CRGO300517_1/CHARGE_DISCHARGE/CHARGE_#727.DTA
EXPLAIN
TAG	PWR800_CHARGE
TITLE	LABEL	PWR Cyclic Charge Discharge (Cell) - Charge Step	Test &Identifier
DATE	LABEL	22-6-2017	Date
TIME	LABEL	16:04:34	Time
NOTES	NOTES	3	&Notes...
	supercap test cell
	0.6mg
	6M KOH
PSTAT	PSTAT	IFC5000-01520	Potentiostat
CAPACITY	QUANT	1.00000E-003	Capacity (A-hr)
CELLTYPE	SELECTOR	1	&Cell Type
WORKINGCONNECTION	SELECTOR	0	&Working Lead
MAXCHARGETIME	VARIABLEANDUNITS	1.00000E+002	s	1.00000E+002	second(s)	Max &Charge Time
CHARGECURRENT	QUANT	6.00000E-003	&Charge Current (A)
VOLTAGEFINISH	TWOPARAM	F	1.00000E-003	3.60000E+003	&Voltage Finish	 I (A) < 	Max Time(s)
SAMPLETIME	QUANT	1.00000E-002	Sa&mple Period (s)
CHARGESTOPAT1	MULTIPARAM	4	1.00000E+000	Charge Stop At &1	Voltage > Limit	V
CHARGESTOPAT2	MULTIPARAM	0	0.00000E+000	Charge Stop At &2	None	N/A
AESBHCSELECTOR	TOGGLE	F	Save Both Half Cells
IRCOMP	TOGGLE	F	IR &Measure
EOC	QUANT	0	Open Circuit (V)
SEQUENCER	TOGGLE	TRUE	Run as Sequence
PSTATMODEL	IQUANT	53	Pstat Model
PSTATSECTION	LABEL	IFC5000-01520	Pstat Section
PSTATSERIALNO	LABEL	01520	Pstat Serial Number
CTRLMODE	IQUANT	0	Control Mode
ELECTROMETER	IQUANT	1	RE=0 or CS=1
IESTAB	IQUANT	0	I/E Stability
CASPEED	IQUANT	4	Control Amp Speed
CONVENTION	IQUANT	1	Current Convention
ICHRANGE	IQUANT	2	Ich Range
ICHRANGEMODE	TOGGLE	T	Ich Auto Range
ICHOFFSETENABLE	TOGGLE	F	Ich Offset Enable
ICHOFFSET	QUANT	0	Ich Offset (V)
ICHFILTER	IQUANT	1	Ich Filter
VCHRANGE	IQUANT	2	Vch Range
VCHRANGEMODE	TOGGLE	T	Vch Auto Range
VCHOFFSETENABLE	TOGGLE	F	Vch Offset Enable
VCHOFFSET	QUANT	0	Vch Offset (V)
VCHFILTER	IQUANT	1	Vch Filter
IERANGELOWERLIMIT	IQUANT	9	I/E Range Lower Limit
IERANGEMODE	TOGGLE	F	I/E AutoRange
IERANGE	IQUANT	10	I/E Range
ACHSELECT	IQUANT	1	Ach Select
ACHRANGE	IQUANT	2	Ach Range
ACHOFFSETENABLE	TOGGLE	F	Ach Offset Enable
ACHOFFSET	QUANT	0	Ach Offset (V)
ACHFILTER	IQUANT	1	Ach Filter
CABLEID	IQUANT	14	Cable ID
DCCALDATE	LABEL	20-10-2016	DC Calibration Date
ACCALDATE	LABEL	12/3/2015	AC Calibration Date
FRAMEWORKVERSION	QUANT	7.01	Framework Version
INSTRUMENTVERSION	LABEL	4.00	Instrument Version
CURVE	TABLE	55
	Pt	T	Vf	Im	Vu	Pwr	Sig	Ach	Temp	IERange	Over
	#	s	V	A	V	W	V	V	deg C	#	bits
	0	0.013333	6.45006E-001	5.99538E-003	0.00000E+000	3.86706E-003	3.59960E-001	-1.16394E+000	3.57670E+000	10	...........
	1	0.026667	6.54126E-001	5.99541E-003	0.00000E+000	3.92175E-003	3.59960E-001	-1.15445E+000	3.57670E+000	10	...........
	2	0.04	6.62518E-001	5.99522E-003	0.00000E+000	3.97194E-003	3.59960E-001	-1.15909E+000	3.57670E+000	10	...........
	3	0.053333	6.70441E-001	5.99284E-003	0.00000E+000	4.01785E-003	3.59960E-001	-1.16412E+000	3.57670E+000	10	...........
	4	0.066667	6.78149E-001	5.99642E-003	0.00000E+000	4.06646E-003	3.59960E-001	-1.15496E+000	3.57670E+000	10	...........
	5	0.08	6.85563E-001	5.99021E-003	0.00000E+000	4.10667E-003	3.59960E-001	-1.15916E+000	3.57670E+000	10	...........
	6	0.093333	6.92895E-001	5.99192E-003	0.00000E+000	4.15178E-003	3.59960E-001	-1.16366E+000	3.57670E+000	10	...........
	7	0.106667	7.00086E-001	5.99520E-003	0.00000E+000	4.19715E-003	3.59960E-001	-1.15470E+000	3.57670E+000	10	...........
	8	0.12	7.07143E-001	5.99483E-003	0.00000E+000	4.23921E-003	3.59960E-001	-1.15928E+000	3.57670E+000	10	...........
	9	0.133333	7.14176E-001	5.99522E-003	0.00000E+000	4.28164E-003	3.59960E-001	-1.16365E+000	3.57670E+000	10	...........
	10	0.146667	7.21203E-001	5.99288E-003	0.00000E+000	4.32209E-003	3.59960E-001	-1.15382E+000	3.57670E+000	10	...........
	11	0.16	7.28130E-001	5.99197E-003	0.00000E+000	4.36293E-003	3.59960E-001	-1.15849E+000	3.57670E+000	10	...........
	12	0.173333	7.34985E-001	5.99196E-003	0.00000E+000	4.40400E-003	3.59960E-001	-1.16295E+000	3.57670E+000	10	...........
	13	0.186667	7.41864E-001	5.99873E-003	0.00000E+000	4.45024E-003	3.59960E-001	-1.15400E+000	3.57670E+000	10	...........
	14	0.2	7.48667E-001	5.99553E-003	0.00000E+000	4.48866E-003	3.59960E-001	-1.15867E+000	3.57670E+000	10	...........
	15	0.213333	7.55441E-001	5.99670E-003	0.00000E+000	4.53015E-003	3.59960E-001	-1.16255E+000	3.57670E+000	10	...........
	16	0.226667	7.62219E-001	5.98944E-003	0.00000E+000	4.56526E-003	3.59960E-001	-1.15342E+000	3.57670E+000	10	...........
	17	0.24	7.68902E-001	5.99277E-003	0.00000E+000	4.60785E-003	3.59960E-001	-1.15855E+000	3.57670E+000	10	...........
	18	0.253333	7.75586E-001	5.99093E-003	0.00000E+000	4.64648E-003	3.59960E-001	-1.16266E+000	3.57670E+000	10	...........
	19	0.266667	7.82304E-001	5.99612E-003	0.00000E+000	4.69078E-003	3.59960E-001	-1.15385E+000	3.57670E+000	10	...........
	20	0.28	7.88922E-001	5.99403E-003	0.00000E+000	4.72882E-003	3.59960E-001	-1.15848E+000	3.57670E+000	10	...........
	21	0.293333	7.95591E-001	5.98933E-003	0.00000E+000	4.76505E-003	3.59960E-001	-1.16246E+000	3.57670E+000	10	...........
	22	0.306667	8.02183E-001	5.99230E-003	0.00000E+000	4.80692E-003	3.59960E-001	-1.15361E+000	3.57670E+000	10	...........
	23	0.32	8.08748E-001	5.99546E-003	0.00000E+000	4.84882E-003	3.59960E-001	-1.15870E+000	3.57670E+000	10	...........
	24	0.333333	8.15299E-001	5.99285E-003	0.00000E+000	4.88597E-003	3.59960E-001	-1.16262E+000	3.57670E+000	10	...........
	25	0.346667	8.21896E-001	5.99716E-003	0.00000E+000	4.92904E-003	3.59960E-001	-1.15354E+000	3.57670E+000	10	...........
	26	0.36	8.28354E-001	5.99556E-003	0.00000E+000	4.96645E-003	3.59960E-001	-1.15834E+000	3.57670E+000	10	...........
	27	0.373333	8.34860E-001	5.99352E-003	0.00000E+000	5.00375E-003	3.59960E-001	-1.16218E+000	3.57670E+000	10	...........
	28	0.386667	8.41367E-001	5.99505E-003	0.00000E+000	5.04404E-003	3.59960E-001	-1.15366E+000	3.57670E+000	10	...........
	29	0.4	8.47842E-001	5.99611E-003	0.00000E+000	5.08375E-003	3.59960E-001	-1.15857E+000	3.57670E+000	10	...........
	30	0.413333	8.54281E-001	5.99336E-003	0.00000E+000	5.12002E-003	3.59960E-001	-1.16197E+000	3.57670E+000	10	...........
	31	0.426667	8.60640E-001	5.99057E-003	0.00000E+000	5.15572E-003	3.59960E-001	-1.15321E+000	3.57670E+000	10	...........
	32	0.44	8.67016E-001	5.99839E-003	0.00000E+000	5.20070E-003	3.59960E-001	-1.15860E+000	3.57670E+000	10	...........
	33	0.453333	8.73455E-001	5.99064E-003	0.00000E+000	5.23255E-003	3.59960E-001	-1.16202E+000	3.57670E+000	10	...........
	34	0.466667	8.79773E-001	5.99425E-003	0.00000E+000	5.27358E-003	3.59960E-001	-1.15286E+000	3.57670E+000	10	...........
	35	0.48	8.86094E-001	5.99923E-003	0.00000E+000	5.31588E-003	3.59960E-001	-1.15800E+000	3.57670E+000	10	...........
	36	0.493333	8.92383E-001	5.99239E-003	0.00000E+000	5.34751E-003	3.59960E-001	-1.16142E+000	3.57670E+000	10	...........
	37	0.506667	8.98628E-001	5.99102E-003	0.00000E+000	5.38369E-003	3.59960E-001	-1.15282E+000	3.57670E+000	10	...........
	38	0.52	9.04835E-001	5.99478E-003	0.00000E+000	5.42429E-003	3.59960E-001	-1.15828E+000	3.57670E+000	10	...........
	39	0.533333	9.11022E-001	5.99059E-003	0.00000E+000	5.45756E-003	3.59960E-001	-1.16158E+000	3.57670E+000	10	...........
	40	0.546667	9.17147E-001	5.99390E-003	0.00000E+000	5.49728E-003	3.59960E-001	-1.15270E+000	3.57670E+000	10	...........
	41	0.56	9.23339E-001	5.99189E-003	0.00000E+000	5.53255E-003	3.59960E-001	-1.15794E+000	3.57670E+000	10	...........
	42	0.573333	9.29425E-001	5.99547E-003	0.00000E+000	5.57234E-003	3.59960E-001	-1.16139E+000	3.57670E+000	10	...........
	43	0.586667	9.35406E-001	5.99264E-003	0.00000E+000	5.60556E-003	3.59960E-001	-1.15274E+000	3.57670E+000	10	...........
	44	0.6	9.41396E-001	5.99438E-003	0.00000E+000	5.64308E-003	3.59960E-001	-1.15823E+000	3.57670E+000	10	...........
	45	0.613333	9.47371E-001	5.99323E-003	0.00000E+000	5.67781E-003	3.59960E-001	-1.16106E+000	3.57670E+000	10	...........
	46	0.626667	9.53275E-001	5.99835E-003	0.00000E+000	5.71808E-003	3.59960E-001	-1.15250E+000	3.57670E+000	10	...........
	47	0.64	9.59068E-001	5.99482E-003	0.00000E+000	5.74944E-003	3.59960E-001	-1.15808E+000	3.57670E+000	10	...........
	48	0.653333	9.64823E-001	5.99345E-003	0.00000E+000	5.78262E-003	3.59960E-001	-1.16135E+000	3.57670E+000	10	...........
	49	0.666667	9.70559E-001	5.99186E-003	0.00000E+000	5.81546E-003	3.59960E-001	-1.15271E+000	3.57670E+000	10	...........
	50	0.68	9.76335E-001	5.99227E-003	0.00000E+000	5.85046E-003	3.59960E-001	-1.15821E+000	3.57670E+000	10	...........
	51	0.693333	9.81976E-001	5.99373E-003	0.00000E+000	5.88570E-003	3.59960E-001	-1.16119E+000	3.57670E+000	10	...........
	52	0.706667	9.87613E-001	5.99723E-003	0.00000E+000	5.92295E-003	3.59960E-001	-1.15297E+000	3.57670E+000	10	...........
	53	0.72	9.93168E-001	5.99372E-003	0.00000E+000	5.95277E-003	3.59960E-001	-1.15848E+000	3.57670E+000	10	...........
	54	0.731667	9.98332E-001	5.99132E-003	0.00000E+000	5.98133E-003	3.59960E-001	-1.16097E+000	3.57670E+000	10	...........
STARTTIMEOFFSET	QUANT	1198.672	Start Time Offset (s)