File: Data/CV_CRGO300517_1/PWRCCD_CRGO300517_1/CHARGE_DISCHARGE/CHARGE_#309.DTA
EXPLAIN
TAG	PWR800_CHARGE
TITLE	LABEL	PWR Cyclic Charge Discharge (Cell) - Charge Step	Test &Identifier
DATE	LABEL	22-6-2017	Date
TIME	LABEL	15:48:18	Time
NOTES	NOTES	3	&Notes...
	supercap test cell
	0.6mg
	6M KOH
PSTAT	PSTAT	IFC5000-01520	Potentiostat
CAPACITY	QUANT	1.00000E-003	Capacity (A-hr)
CELLTYPE	SELECTOR	1	&Cell Type
WORKINGCONNECTION	SELECTOR	0	&Working Lead
MAXCHARGETIME	VARIABLEANDUNITS	1.00000E+002	s	1.00000E+002	second(s)	Max &Charge Time
CHARGECURRENT	QUANT	6.00000E-003	&Charge Current (A)
VOLTAGEFINISH	TWOPARAM	F	1.00000E-003	3.60000E+003	&Voltage Finish	 I (A) < 	Max Time(s)
SAMPLETIME	QUANT	1.00000E-002	Sa&mple Period (s)
CHARGESTOPAT1	MULTIPARAM	4	1.00000E+000	Charge Stop At &1	Voltage > Limit	V
CHARGESTOPAT2	MULTIPARAM	0	0.00000E+000	Charge Stop At &2	None	N/A
AESBHCSELECTOR	TOGGLE	F	Save Both Half Cells
IRCOMP	TOGGLE	F	IR &Measure
EOC	QUANT	0	Open Circuit (V)
SEQUENCER	TOGGLE	TRUE	Run as Sequence
PSTATMODEL	IQUANT	53	Pstat Model
PSTATSECTION	LABEL	IFC5000-01520	Pstat Section
PSTATSERIALNO	LABEL	01520	Pstat Serial Number
CTRLMODE	IQUANT	0	Control Mode
ELECTROMETER	IQUANT	1	RE=0 or CS=1
IESTAB	IQUANT	0	I/E Stability
CASPEED	IQUANT	4	Control Amp Speed
CONVENTION	IQUANT	1	Current Convention
ICHRANGE	IQUANT	2	Ich Range
ICHRANGEMODE	TOGGLE	T	Ich Auto Range
ICHOFFSETENABLE	TOGGLE	F	Ich Offset Enable
ICHOFFSET	QUANT	0	Ich Offset (V)
ICHFILTER	IQUANT	1	Ich Filter
VCHRANGE	IQUANT	2	Vch Range
VCHRANGEMODE	TOGGLE	T	Vch Auto Range
VCHOFFSETENABLE	TOGGLE	F	Vch Offset Enable
VCHOFFSET	QUANT	0	Vch Offset (V)
VCHFILTER	IQUANT	1	Vch Filter
IERANGELOWERLIMIT	IQUANT	9	I/E Range Lower Limit
IERANGEMODE	TOGGLE	F	I/E AutoRange
IERANGE	IQUANT	10	I/E Range
ACHSELECT	IQUANT	1	Ach Select
ACHRANGE	IQUANT	2	Ach Range
ACHOFFSETENABLE	TOGGLE	F	Ach Offset Enable
ACHOFFSET	QUANT	0	Ach Offset (V)
ACHFILTER	IQUANT	1	Ach Filter
CABLEID	IQUANT	14	Cable ID
DCCALDATE	LABEL	20-10-2016	DC Calibration Date
ACCALDATE	LABEL	12/3/2015	AC Calibration Date
FRAMEWORKVERSION	QUANT	7.01	Framework Version
INSTRUMENTVERSION	LABEL	4.00	Instrument Version
CURVE	TABLE	62
	Pt	T	Vf	Im	Vu	Pwr	Sig	Ach	Temp	IERange	Over
	#	s	V	A	V	W	V	V	deg C	#	bits
	0	0.013333	6.17025E-001	5.98870E-003	0.00000E+000	3.69518E-003	3.59960E-001	-1.10841E+000	3.57670E+000	10	...........
	1	0.026667	6.25643E-001	5.99503E-003	0.00000E+000	3.75075E-003	3.59960E-001	-1.10666E+000	3.57670E+000	10	...........
	2	0.04	6.33567E-001	5.99693E-003	0.00000E+000	3.79946E-003	3.59960E-001	-1.11708E+000	3.57670E+000	10	...........
	3	0.053333	6.41126E-001	5.98871E-003	0.00000E+000	3.83952E-003	3.59960E-001	-1.10788E+000	3.57670E+000	10	...........
	4	0.066667	6.48395E-001	5.99483E-003	0.00000E+000	3.88702E-003	3.59960E-001	-1.10674E+000	3.57670E+000	10	...........
	5	0.08	6.55492E-001	5.99070E-003	0.00000E+000	3.92686E-003	3.59960E-001	-1.11736E+000	3.57670E+000	10	...........
	6	0.093333	6.62388E-001	5.99326E-003	0.00000E+000	3.96986E-003	3.59960E-001	-1.10819E+000	3.57670E+000	10	...........
	7	0.106667	6.69207E-001	5.99469E-003	0.00000E+000	4.01169E-003	3.59960E-001	-1.10662E+000	3.57670E+000	10	...........
	8	0.12	6.75900E-001	5.99759E-003	0.00000E+000	4.05377E-003	3.59960E-001	-1.11729E+000	3.57685E+000	10	...........
	9	0.133333	6.82522E-001	5.99390E-003	0.00000E+000	4.09096E-003	3.59960E-001	-1.10827E+000	3.57690E+000	10	...........
	10	0.146667	6.89099E-001	5.99433E-003	0.00000E+000	4.13069E-003	3.59960E-001	-1.10700E+000	3.57690E+000	10	...........
	11	0.16	6.95684E-001	5.99769E-003	0.00000E+000	4.17250E-003	3.59960E-001	-1.11733E+000	3.57690E+000	10	...........
	12	0.173333	7.02161E-001	5.99271E-003	0.00000E+000	4.20785E-003	3.59960E-001	-1.10809E+000	3.57690E+000	10	...........
	13	0.186667	7.08646E-001	5.99698E-003	0.00000E+000	4.24974E-003	3.59960E-001	-1.10663E+000	3.57690E+000	10	...........
	14	0.2	7.15061E-001	5.99340E-003	0.00000E+000	4.28564E-003	3.59960E-001	-1.11738E+000	3.57690E+000	10	...........
	15	0.213333	7.21535E-001	5.99504E-003	0.00000E+000	4.32563E-003	3.59960E-001	-1.10839E+000	3.57690E+000	10	...........
	16	0.226667	7.27847E-001	5.99380E-003	0.00000E+000	4.36257E-003	3.59960E-001	-1.10702E+000	3.57690E+000	10	...........
	17	0.24	7.34194E-001	5.99255E-003	0.00000E+000	4.39970E-003	3.59960E-001	-1.11730E+000	3.57690E+000	10	...........
	18	0.253333	7.40556E-001	5.99073E-003	0.00000E+000	4.43646E-003	3.59960E-001	-1.10831E+000	3.57690E+000	10	...........
	19	0.266667	7.46917E-001	5.99020E-003	0.00000E+000	4.47418E-003	3.59960E-001	-1.10701E+000	3.57690E+000	10	...........
	20	0.28	7.53217E-001	5.99362E-003	0.00000E+000	4.51450E-003	3.59960E-001	-1.11768E+000	3.57690E+000	10	...........
	21	0.293333	7.59561E-001	5.98944E-003	0.00000E+000	4.54935E-003	3.59960E-001	-1.10867E+000	3.57690E+000	10	...........
	22	0.306667	7.65831E-001	5.99496E-003	0.00000E+000	4.59113E-003	3.59960E-001	-1.10688E+000	3.57690E+000	10	...........
	23	0.32	7.72133E-001	5.99805E-003	0.00000E+000	4.63129E-003	3.59960E-001	-1.11741E+000	3.57690E+000	10	...........
	24	0.333333	7.78402E-001	5.99045E-003	0.00000E+000	4.66298E-003	3.59960E-001	-1.10855E+000	3.57690E+000	10	...........
	25	0.346667	7.84654E-001	5.99297E-003	0.00000E+000	4.70241E-003	3.59960E-001	-1.10668E+000	3.57690E+000	10	...........
	26	0.36	7.90914E-001	5.99397E-003	0.00000E+000	4.74072E-003	3.59960E-001	-1.11710E+000	3.57690E+000	10	...........
	27	0.373333	7.97212E-001	5.99272E-003	0.00000E+000	4.77746E-003	3.59960E-001	-1.10784E+000	3.57690E+000	10	...........
	28	0.386667	8.03380E-001	5.99398E-003	0.00000E+000	4.81544E-003	3.59960E-001	-1.10634E+000	3.57690E+000	10	...........
	29	0.4	8.09581E-001	5.99112E-003	0.00000E+000	4.85030E-003	3.59960E-001	-1.11692E+000	3.57690E+000	10	...........
	30	0.413333	8.15831E-001	5.99724E-003	0.00000E+000	4.89274E-003	3.59960E-001	-1.10814E+000	3.57690E+000	10	...........
	31	0.426667	8.22019E-001	5.98949E-003	0.00000E+000	4.92348E-003	3.59960E-001	-1.10634E+000	3.57690E+000	10	...........
	32	0.44	8.28215E-001	5.99337E-003	0.00000E+000	4.96381E-003	3.59960E-001	-1.11680E+000	3.57690E+000	10	...........
	33	0.453333	8.34385E-001	5.99677E-003	0.00000E+000	5.00362E-003	3.59960E-001	-1.10758E+000	3.57690E+000	10	...........
	34	0.466667	8.40576E-001	5.99599E-003	0.00000E+000	5.04009E-003	3.59960E-001	-1.10627E+000	3.57690E+000	10	...........
	35	0.48	8.46761E-001	5.99419E-003	0.00000E+000	5.07565E-003	3.59960E-001	-1.11685E+000	3.57690E+000	10	...........
	36	0.493333	8.52915E-001	5.99700E-003	0.00000E+000	5.11493E-003	3.59960E-001	-1.10765E+000	3.57690E+000	10	...........
	37	0.506667	8.59033E-001	5.99733E-003	0.00000E+000	5.15190E-003	3.59960E-001	-1.10603E+000	3.57690E+000	10	...........
	38	0.52	8.65134E-001	5.99182E-003	0.00000E+000	5.18373E-003	3.59960E-001	-1.11673E+000	3.57690E+000	10	...........
	39	0.533333	8.71256E-001	5.99071E-003	0.00000E+000	5.21945E-003	3.59960E-001	-1.10755E+000	3.57690E+000	10	...........
	40	0.546667	8.77317E-001	5.99605E-003	0.00000E+000	5.26044E-003	3.59960E-001	-1.10627E+000	3.57690E+000	10	...........
	41	0.56	8.83400E-001	5.99610E-003	0.00000E+000	5.29695E-003	3.59960E-001	-1.11668E+000	3.57690E+000	10	...........
	42	0.573333	8.89421E-001	5.99085E-003	0.00000E+000	5.32839E-003	3.59960E-001	-1.10755E+000	3.57690E+000	10	...........
	43	0.586667	8.95448E-001	5.99237E-003	0.00000E+000	5.36586E-003	3.59960E-001	-1.10598E+000	3.57690E+000	10	...........
	44	0.6	9.01461E-001	5.99416E-003	0.00000E+000	5.40350E-003	3.59960E-001	-1.11682E+000	3.57690E+000	10	...........
	45	0.613333	9.07470E-001	5.99203E-003	0.00000E+000	5.43758E-003	3.59960E-001	-1.10781E+000	3.57690E+000	10	...........
	46	0.626667	9.13419E-001	5.99325E-003	0.00000E+000	5.47435E-003	3.59960E-001	-1.10608E+000	3.57690E+000	10	...........
	47	0.64	9.19332E-001	5.99260E-003	0.00000E+000	5.50919E-003	3.59960E-001	-1.11643E+000	3.57690E+000	10	...........
	48	0.653333	9.25273E-001	5.99196E-003	0.00000E+000	5.54419E-003	3.59960E-001	-1.10738E+000	3.57690E+000	10	...........
	49	0.666667	9.31139E-001	5.99510E-003	0.00000E+000	5.58226E-003	3.59960E-001	-1.10565E+000	3.57690E+000	10	...........
	50	0.68	9.36996E-001	5.99432E-003	0.00000E+000	5.61666E-003	3.59960E-001	-1.11622E+000	3.57690E+000	10	...........
	51	0.693333	9.42779E-001	5.99638E-003	0.00000E+000	5.65326E-003	3.59960E-001	-1.10704E+000	3.57690E+000	10	...........
	52	0.706667	9.48585E-001	5.99083E-003	0.00000E+000	5.68281E-003	3.59960E-001	-1.10559E+000	3.57690E+000	10	...........
	53	0.72	9.54317E-001	5.99357E-003	0.00000E+000	5.71977E-003	3.59960E-001	-1.11602E+000	3.57690E+000	10	...........
	54	0.733333	9.59975E-001	5.99453E-003	0.00000E+000	5.75460E-003	3.59960E-001	-1.10721E+000	3.57690E+000	10	...........
	55	0.746667	9.65620E-001	5.99467E-003	0.00000E+000	5.78857E-003	3.59960E-001	-1.10563E+000	3.57690E+000	10	...........
	56	0.76	9.71236E-001	5.99372E-003	0.00000E+000	5.82131E-003	3.59960E-001	-1.11602E+000	3.57690E+000	10	...........
	57	0.773333	9.76847E-001	5.99525E-003	0.00000E+000	5.85644E-003	3.59960E-001	-1.10719E+000	3.57690E+000	10	...........
	58	0.786667	9.82381E-001	5.99269E-003	0.00000E+000	5.88710E-003	3.59960E-001	-1.10566E+000	3.57690E+000	10	...........
	59	0.8	9.87888E-001	5.99571E-003	0.00000E+000	5.92309E-003	3.59960E-001	-1.11631E+000	3.57690E+000	10	...........
	60	0.813333	9.93321E-001	5.99423E-003	0.00000E+000	5.95420E-003	3.59960E-001	-1.10732E+000	3.57690E+000	10	...........
	61	0.825	9.98402E-001	5.99130E-003	0.00000E+000	5.98173E-003	3.59960E-001	-1.10632E+000	3.57690E+000	10	...........
STARTTIMEOFFSET	QUANT	555.9299	Start Time Offset (s)