File: Data/CV_CRGO300517_1/PWRCCD_CRGO300517_1/CHARGE_DISCHARGE/CHARGE_#714.DTA
EXPLAIN
TAG	PWR800_CHARGE
TITLE	LABEL	PWR Cyclic Charge Discharge (Cell) - Charge Step	Test &Identifier
DATE	LABEL	22-6-2017	Date
TIME	LABEL	16:04:05	Time
NOTES	NOTES	3	&Notes...
	supercap test cell
	0.6mg
	6M KOH
PSTAT	PSTAT	IFC5000-01520	Potentiostat
CAPACITY	QUANT	1.00000E-003	Capacity (A-hr)
CELLTYPE	SELECTOR	1	&Cell Type
WORKINGCONNECTION	SELECTOR	0	&Working Lead
MAXCHARGETIME	VARIABLEANDUNITS	1.00000E+002	s	1.00000E+002	second(s)	Max &Charge Time
CHARGECURRENT	QUANT	6.00000E-003	&Charge Current (A)
VOLTAGEFINISH	TWOPARAM	F	1.00000E-003	3.60000E+003	&Voltage Finish	 I (A) < 	Max Time(s)
SAMPLETIME	QUANT	1.00000E-002	Sa&mple Period (s)
CHARGESTOPAT1	MULTIPARAM	4	1.00000E+000	Charge Stop At &1	Voltage > Limit	V
CHARGESTOPAT2	MULTIPARAM	0	0.00000E+000	Charge Stop At &2	None	N/A
AESBHCSELECTOR	TOGGLE	F	Save Both Half Cells
IRCOMP	TOGGLE	F	IR &Measure
EOC	QUANT	0	Open Circuit (V)
SEQUENCER	TOGGLE	TRUE	Run as Sequence
PSTATMODEL	IQUANT	53	Pstat Model
PSTATSECTION	LABEL	IFC5000-01520	Pstat Section
PSTATSERIALNO	LABEL	01520	Pstat Serial Number
CTRLMODE	IQUANT	0	Control Mode
ELECTROMETER	IQUANT	1	RE=0 or CS=1
IESTAB	IQUANT	0	I/E Stability
CASPEED	IQUANT	4	Control Amp Speed
CONVENTION	IQUANT	1	Current Convention
ICHRANGE	IQUANT	2	Ich Range
ICHRANGEMODE	TOGGLE	T	Ich Auto Range
ICHOFFSETENABLE	TOGGLE	F	Ich Offset Enable
ICHOFFSET	QUANT	0	Ich Offset (V)
ICHFILTER	IQUANT	1	Ich Filter
VCHRANGE	IQUANT	2	Vch Range
VCHRANGEMODE	TOGGLE	T	Vch Auto Range
VCHOFFSETENABLE	TOGGLE	F	Vch Offset Enable
VCHOFFSET	QUANT	0	Vch Offset (V)
VCHFILTER	IQUANT	1	Vch Filter
IERANGELOWERLIMIT	IQUANT	9	I/E Range Lower Limit
IERANGEMODE	TOGGLE	F	I/E AutoRange
IERANGE	IQUANT	10	I/E Range
ACHSELECT	IQUANT	1	Ach Select
ACHRANGE	IQUANT	2	Ach Range
ACHOFFSETENABLE	TOGGLE	F	Ach Offset Enable
ACHOFFSET	QUANT	0	Ach Offset (V)
ACHFILTER	IQUANT	1	Ach Filter
CABLEID	IQUANT	14	Cable ID
DCCALDATE	LABEL	20-10-2016	DC Calibration Date
ACCALDATE	LABEL	12/3/2015	AC Calibration Date
FRAMEWORKVERSION	QUANT	7.01	Framework Version
INSTRUMENTVERSION	LABEL	4.00	Instrument Version
CURVE	TABLE	55
	Pt	T	Vf	Im	Vu	Pwr	Sig	Ach	Temp	IERange	Over
	#	s	V	A	V	W	V	V	deg C	#	bits
	0	0.013333	6.44281E-001	5.99241E-003	0.00000E+000	3.86080E-003	3.59960E-001	-1.14957E+000	3.57660E+000	10	...........
	1	0.026667	6.53367E-001	5.98868E-003	0.00000E+000	3.91281E-003	3.59960E-001	-1.15669E+000	3.57660E+000	10	...........
	2	0.04	6.61725E-001	5.99077E-003	0.00000E+000	3.96424E-003	3.59960E-001	-1.15700E+000	3.57660E+000	10	...........
	3	0.053333	6.69722E-001	5.99261E-003	0.00000E+000	4.01338E-003	3.59960E-001	-1.14916E+000	3.57660E+000	10	...........
	4	0.066667	6.77392E-001	5.99216E-003	0.00000E+000	4.05905E-003	3.59960E-001	-1.15619E+000	3.57660E+000	10	...........
	5	0.08	6.84842E-001	5.99409E-003	0.00000E+000	4.10501E-003	3.59960E-001	-1.15645E+000	3.57660E+000	10	...........
	6	0.093333	6.92165E-001	5.99105E-003	0.00000E+000	4.14680E-003	3.59960E-001	-1.14911E+000	3.57660E+000	10	...........
	7	0.106667	6.99320E-001	5.99549E-003	0.00000E+000	4.19277E-003	3.59960E-001	-1.15648E+000	3.57660E+000	10	...........
	8	0.12	7.06419E-001	5.99518E-003	0.00000E+000	4.23511E-003	3.59960E-001	-1.15597E+000	3.57660E+000	10	...........
	9	0.133333	7.13418E-001	5.98872E-003	0.00000E+000	4.27246E-003	3.59960E-001	-1.14894E+000	3.57660E+000	10	...........
	10	0.146667	7.20447E-001	5.99354E-003	0.00000E+000	4.31803E-003	3.59960E-001	-1.15636E+000	3.57660E+000	10	...........
	11	0.16	7.27324E-001	5.99249E-003	0.00000E+000	4.35848E-003	3.59960E-001	-1.15618E+000	3.57660E+000	10	...........
	12	0.173333	7.34183E-001	5.99402E-003	0.00000E+000	4.40071E-003	3.59960E-001	-1.14901E+000	3.57660E+000	10	...........
	13	0.186667	7.41008E-001	5.99173E-003	0.00000E+000	4.43992E-003	3.59960E-001	-1.15656E+000	3.57660E+000	10	...........
	14	0.2	7.47821E-001	5.99210E-003	0.00000E+000	4.48102E-003	3.59960E-001	-1.15574E+000	3.57660E+000	10	...........
	15	0.213333	7.54617E-001	5.99303E-003	0.00000E+000	4.52244E-003	3.59960E-001	-1.14891E+000	3.57660E+000	10	...........
	16	0.226667	7.61375E-001	5.99746E-003	0.00000E+000	4.56632E-003	3.59960E-001	-1.15663E+000	3.57660E+000	10	...........
	17	0.24	7.68086E-001	5.99099E-003	0.00000E+000	4.60159E-003	3.59960E-001	-1.15562E+000	3.57660E+000	10	...........
	18	0.253333	7.74792E-001	5.99152E-003	0.00000E+000	4.64218E-003	3.59960E-001	-1.14874E+000	3.57660E+000	10	...........
	19	0.266667	7.81421E-001	5.99540E-003	0.00000E+000	4.68493E-003	3.59960E-001	-1.15665E+000	3.57660E+000	10	...........
	20	0.28	7.88101E-001	5.99147E-003	0.00000E+000	4.72188E-003	3.59960E-001	-1.15554E+000	3.57660E+000	10	...........
	21	0.293333	7.94767E-001	5.99652E-003	0.00000E+000	4.76584E-003	3.59960E-001	-1.14914E+000	3.57660E+000	10	...........
	22	0.306667	8.01347E-001	5.99396E-003	0.00000E+000	4.80324E-003	3.59960E-001	-1.15689E+000	3.57660E+000	10	...........
	23	0.32	8.07919E-001	5.99326E-003	0.00000E+000	4.84207E-003	3.59960E-001	-1.15543E+000	3.57660E+000	10	...........
	24	0.333333	8.14469E-001	5.99402E-003	0.00000E+000	4.88195E-003	3.59960E-001	-1.14872E+000	3.57660E+000	10	...........
	25	0.346667	8.21028E-001	5.99537E-003	0.00000E+000	4.92236E-003	3.59960E-001	-1.15710E+000	3.57660E+000	10	...........
	26	0.36	8.27580E-001	5.99355E-003	0.00000E+000	4.96014E-003	3.59960E-001	-1.15521E+000	3.57660E+000	10	...........
	27	0.373333	8.34076E-001	5.99241E-003	0.00000E+000	4.99813E-003	3.59960E-001	-1.14863E+000	3.57660E+000	10	...........
	28	0.386667	8.40525E-001	5.99547E-003	0.00000E+000	5.03934E-003	3.59960E-001	-1.15681E+000	3.57660E+000	10	...........
	29	0.4	8.47032E-001	5.99459E-003	0.00000E+000	5.07762E-003	3.59960E-001	-1.15454E+000	3.57660E+000	10	...........
	30	0.413333	8.53441E-001	5.99335E-003	0.00000E+000	5.11497E-003	3.59960E-001	-1.14863E+000	3.57660E+000	10	...........
	31	0.426667	8.59872E-001	5.99306E-003	0.00000E+000	5.15327E-003	3.59960E-001	-1.15721E+000	3.57660E+000	10	...........
	32	0.44	8.66242E-001	5.99359E-003	0.00000E+000	5.19190E-003	3.59960E-001	-1.15459E+000	3.57660E+000	10	...........
	33	0.453333	8.72608E-001	5.99534E-003	0.00000E+000	5.23158E-003	3.59960E-001	-1.14837E+000	3.57660E+000	10	...........
	34	0.466667	8.78945E-001	5.99334E-003	0.00000E+000	5.26782E-003	3.59960E-001	-1.15692E+000	3.57660E+000	10	...........
	35	0.48	8.85250E-001	5.99128E-003	0.00000E+000	5.30378E-003	3.59960E-001	-1.15415E+000	3.57660E+000	10	...........
	36	0.493333	8.91518E-001	5.99767E-003	0.00000E+000	5.34703E-003	3.59960E-001	-1.14884E+000	3.57660E+000	10	...........
	37	0.506667	8.97754E-001	5.99154E-003	0.00000E+000	5.37893E-003	3.59960E-001	-1.15756E+000	3.57660E+000	10	...........
	38	0.52	9.03957E-001	5.99042E-003	0.00000E+000	5.41509E-003	3.59960E-001	-1.15411E+000	3.57660E+000	10	...........
	39	0.533333	9.10165E-001	5.99112E-003	0.00000E+000	5.45291E-003	3.59960E-001	-1.14840E+000	3.57660E+000	10	...........
	40	0.546667	9.16316E-001	5.99181E-003	0.00000E+000	5.49039E-003	3.59960E-001	-1.15725E+000	3.57660E+000	10	...........
	41	0.56	9.22462E-001	5.99329E-003	0.00000E+000	5.52858E-003	3.59960E-001	-1.15401E+000	3.57660E+000	10	...........
	42	0.573333	9.28520E-001	5.98838E-003	0.00000E+000	5.56033E-003	3.59960E-001	-1.14840E+000	3.57660E+000	10	...........
	43	0.586667	9.34546E-001	5.99819E-003	0.00000E+000	5.60559E-003	3.59960E-001	-1.15757E+000	3.57660E+000	10	...........
	44	0.6	9.40494E-001	5.99641E-003	0.00000E+000	5.63959E-003	3.59960E-001	-1.15388E+000	3.57660E+000	10	...........
	45	0.613333	9.46477E-001	5.99352E-003	0.00000E+000	5.67273E-003	3.59960E-001	-1.14864E+000	3.57660E+000	10	...........
	46	0.626667	9.52393E-001	5.99458E-003	0.00000E+000	5.70920E-003	3.59960E-001	-1.15795E+000	3.57660E+000	10	...........
	47	0.64	9.58249E-001	5.99887E-003	0.00000E+000	5.74841E-003	3.59960E-001	-1.15400E+000	3.57660E+000	10	...........
	48	0.653333	9.64062E-001	5.99351E-003	0.00000E+000	5.77811E-003	3.59960E-001	-1.14853E+000	3.57660E+000	10	...........
	49	0.666667	9.69849E-001	5.99523E-003	0.00000E+000	5.81447E-003	3.59960E-001	-1.15788E+000	3.57660E+000	10	...........
	50	0.68	9.75594E-001	5.99780E-003	0.00000E+000	5.85141E-003	3.59960E-001	-1.15343E+000	3.57660E+000	10	...........
	51	0.693333	9.81268E-001	5.98996E-003	0.00000E+000	5.87776E-003	3.59960E-001	-1.14817E+000	3.57660E+000	10	...........
	52	0.706667	9.86865E-001	5.99380E-003	0.00000E+000	5.91508E-003	3.59960E-001	-1.15778E+000	3.57660E+000	10	...........
	53	0.72	9.92397E-001	5.98482E-003	0.00000E+000	5.93932E-003	3.59960E-001	-1.15302E+000	3.57660E+000	10	...........
	54	0.733333	9.97942E-001	5.99130E-003	0.00000E+000	5.97897E-003	3.59960E-001	-1.14765E+000	3.57660E+000	10	...........
STARTTIMEOFFSET	QUANT	1179.717	Start Time Offset (s)