File: Data/CV_CRGO300517_1/PWRCCD_CRGO300517_1/CHARGE_DISCHARGE/CHARGE_#606.DTA
EXPLAIN
TAG	PWR800_CHARGE
TITLE	LABEL	PWR Cyclic Charge Discharge (Cell) - Charge Step	Test &Identifier
DATE	LABEL	22-6-2017	Date
TIME	LABEL	16:00:00	Time
NOTES	NOTES	3	&Notes...
	supercap test cell
	0.6mg
	6M KOH
PSTAT	PSTAT	IFC5000-01520	Potentiostat
CAPACITY	QUANT	1.00000E-003	Capacity (A-hr)
CELLTYPE	SELECTOR	1	&Cell Type
WORKINGCONNECTION	SELECTOR	0	&Working Lead
MAXCHARGETIME	VARIABLEANDUNITS	1.00000E+002	s	1.00000E+002	second(s)	Max &Charge Time
CHARGECURRENT	QUANT	6.00000E-003	&Charge Current (A)
VOLTAGEFINISH	TWOPARAM	F	1.00000E-003	3.60000E+003	&Voltage Finish	 I (A) < 	Max Time(s)
SAMPLETIME	QUANT	1.00000E-002	Sa&mple Period (s)
CHARGESTOPAT1	MULTIPARAM	4	1.00000E+000	Charge Stop At &1	Voltage > Limit	V
CHARGESTOPAT2	MULTIPARAM	0	0.00000E+000	Charge Stop At &2	None	N/A
AESBHCSELECTOR	TOGGLE	F	Save Both Half Cells
IRCOMP	TOGGLE	F	IR &Measure
EOC	QUANT	0	Open Circuit (V)
SEQUENCER	TOGGLE	TRUE	Run as Sequence
PSTATMODEL	IQUANT	53	Pstat Model
PSTATSECTION	LABEL	IFC5000-01520	Pstat Section
PSTATSERIALNO	LABEL	01520	Pstat Serial Number
CTRLMODE	IQUANT	0	Control Mode
ELECTROMETER	IQUANT	1	RE=0 or CS=1
IESTAB	IQUANT	0	I/E Stability
CASPEED	IQUANT	4	Control Amp Speed
CONVENTION	IQUANT	1	Current Convention
ICHRANGE	IQUANT	2	Ich Range
ICHRANGEMODE	TOGGLE	T	Ich Auto Range
ICHOFFSETENABLE	TOGGLE	F	Ich Offset Enable
ICHOFFSET	QUANT	0	Ich Offset (V)
ICHFILTER	IQUANT	1	Ich Filter
VCHRANGE	IQUANT	2	Vch Range
VCHRANGEMODE	TOGGLE	T	Vch Auto Range
VCHOFFSETENABLE	TOGGLE	F	Vch Offset Enable
VCHOFFSET	QUANT	0	Vch Offset (V)
VCHFILTER	IQUANT	1	Vch Filter
IERANGELOWERLIMIT	IQUANT	9	I/E Range Lower Limit
IERANGEMODE	TOGGLE	F	I/E AutoRange
IERANGE	IQUANT	10	I/E Range
ACHSELECT	IQUANT	1	Ach Select
ACHRANGE	IQUANT	2	Ach Range
ACHOFFSETENABLE	TOGGLE	F	Ach Offset Enable
ACHOFFSET	QUANT	0	Ach Offset (V)
ACHFILTER	IQUANT	1	Ach Filter
CABLEID	IQUANT	14	Cable ID
DCCALDATE	LABEL	20-10-2016	DC Calibration Date
ACCALDATE	LABEL	12/3/2015	AC Calibration Date
FRAMEWORKVERSION	QUANT	7.01	Framework Version
INSTRUMENTVERSION	LABEL	4.00	Instrument Version
CURVE	TABLE	57
	Pt	T	Vf	Im	Vu	Pwr	Sig	Ach	Temp	IERange	Over
	#	s	V	A	V	W	V	V	deg C	#	bits
	0	0.013333	6.39379E-001	5.99075E-003	0.00000E+000	3.83036E-003	3.59960E-001	-1.14660E+000	3.57640E+000	10	...........
	1	0.026667	6.48339E-001	5.99129E-003	0.00000E+000	3.88439E-003	3.59960E-001	-1.15218E+000	3.57640E+000	10	...........
	2	0.04	6.56552E-001	5.99257E-003	0.00000E+000	3.93443E-003	3.59960E-001	-1.15475E+000	3.57640E+000	10	...........
	3	0.053333	6.64399E-001	5.99086E-003	0.00000E+000	3.98032E-003	3.59960E-001	-1.14646E+000	3.57640E+000	10	...........
	4	0.066667	6.71973E-001	5.99216E-003	0.00000E+000	4.02657E-003	3.59960E-001	-1.15214E+000	3.57640E+000	10	...........
	5	0.08	6.79323E-001	5.99344E-003	0.00000E+000	4.07148E-003	3.59960E-001	-1.15486E+000	3.57640E+000	10	...........
	6	0.093333	6.86508E-001	5.99313E-003	0.00000E+000	4.11433E-003	3.59960E-001	-1.14633E+000	3.57640E+000	10	...........
	7	0.106667	6.93631E-001	5.99595E-003	0.00000E+000	4.15898E-003	3.59960E-001	-1.15164E+000	3.57640E+000	10	...........
	8	0.12	7.00595E-001	5.99644E-003	0.00000E+000	4.20107E-003	3.59960E-001	-1.15487E+000	3.57640E+000	10	...........
	9	0.133333	7.07526E-001	5.99723E-003	0.00000E+000	4.24320E-003	3.59960E-001	-1.14655E+000	3.57640E+000	10	...........
	10	0.146667	7.14378E-001	5.99697E-003	0.00000E+000	4.28411E-003	3.59960E-001	-1.15158E+000	3.57640E+000	10	...........
	11	0.16	7.21212E-001	5.99582E-003	0.00000E+000	4.32425E-003	3.59960E-001	-1.15508E+000	3.57655E+000	10	...........
	12	0.173333	7.27985E-001	5.99242E-003	0.00000E+000	4.36239E-003	3.59960E-001	-1.14656E+000	3.57660E+000	10	...........
	13	0.186667	7.34730E-001	5.99179E-003	0.00000E+000	4.40234E-003	3.59960E-001	-1.15146E+000	3.57660E+000	10	...........
	14	0.2	7.41416E-001	5.99361E-003	0.00000E+000	4.44376E-003	3.59960E-001	-1.15515E+000	3.57660E+000	10	...........
	15	0.213333	7.48098E-001	5.99979E-003	0.00000E+000	4.48843E-003	3.59960E-001	-1.14640E+000	3.57660E+000	10	...........
	16	0.226667	7.54817E-001	5.99490E-003	0.00000E+000	4.52505E-003	3.59960E-001	-1.15116E+000	3.57660E+000	10	...........
	17	0.24	7.61421E-001	5.99088E-003	0.00000E+000	4.56158E-003	3.59960E-001	-1.15489E+000	3.57660E+000	10	...........
	18	0.253333	7.68057E-001	5.99333E-003	0.00000E+000	4.60322E-003	3.59960E-001	-1.14586E+000	3.57660E+000	10	...........
	19	0.266667	7.74634E-001	5.99806E-003	0.00000E+000	4.64630E-003	3.59960E-001	-1.15068E+000	3.57660E+000	10	...........
	20	0.28	7.81151E-001	5.99156E-003	0.00000E+000	4.68031E-003	3.59960E-001	-1.15481E+000	3.57660E+000	10	...........
	21	0.293333	7.87733E-001	5.99839E-003	0.00000E+000	4.72513E-003	3.59960E-001	-1.14580E+000	3.57660E+000	10	...........
	22	0.306667	7.94275E-001	5.99545E-003	0.00000E+000	4.76204E-003	3.59960E-001	-1.15032E+000	3.57660E+000	10	...........
	23	0.32	8.00828E-001	5.98975E-003	0.00000E+000	4.79676E-003	3.59960E-001	-1.15486E+000	3.57660E+000	10	...........
	24	0.333333	8.07315E-001	5.99048E-003	0.00000E+000	4.83621E-003	3.59960E-001	-1.14607E+000	3.57660E+000	10	...........
	25	0.346667	8.13870E-001	5.99127E-003	0.00000E+000	4.87611E-003	3.59960E-001	-1.15022E+000	3.57660E+000	10	...........
	26	0.36	8.20375E-001	5.99408E-003	0.00000E+000	4.91740E-003	3.59960E-001	-1.15486E+000	3.57660E+000	10	...........
	27	0.373333	8.26810E-001	5.99137E-003	0.00000E+000	4.95373E-003	3.59960E-001	-1.14564E+000	3.57660E+000	10	...........
	28	0.386667	8.33206E-001	5.99564E-003	0.00000E+000	4.99560E-003	3.59960E-001	-1.14999E+000	3.57660E+000	10	...........
	29	0.4	8.39602E-001	5.99772E-003	0.00000E+000	5.03570E-003	3.59960E-001	-1.15498E+000	3.57660E+000	10	...........
	30	0.413333	8.46038E-001	5.99027E-003	0.00000E+000	5.06799E-003	3.59960E-001	-1.14569E+000	3.57660E+000	10	...........
	31	0.426667	8.52362E-001	5.99660E-003	0.00000E+000	5.11127E-003	3.59960E-001	-1.14972E+000	3.57660E+000	10	...........
	32	0.44	8.58719E-001	5.99413E-003	0.00000E+000	5.14727E-003	3.59960E-001	-1.15494E+000	3.57660E+000	10	...........
	33	0.453333	8.65010E-001	5.99665E-003	0.00000E+000	5.18716E-003	3.59960E-001	-1.14568E+000	3.57660E+000	10	...........
	34	0.466667	8.71361E-001	5.99379E-003	0.00000E+000	5.22276E-003	3.59960E-001	-1.14974E+000	3.57660E+000	10	...........
	35	0.48	8.77617E-001	5.99385E-003	0.00000E+000	5.26031E-003	3.59960E-001	-1.15535E+000	3.57660E+000	10	...........
	36	0.493333	8.83901E-001	5.99166E-003	0.00000E+000	5.29604E-003	3.59960E-001	-1.14580E+000	3.57660E+000	10	...........
	37	0.506667	8.90108E-001	5.99474E-003	0.00000E+000	5.33597E-003	3.59960E-001	-1.14936E+000	3.57660E+000	10	...........
	38	0.52	8.96343E-001	5.99067E-003	0.00000E+000	5.36970E-003	3.59960E-001	-1.15541E+000	3.57660E+000	10	...........
	39	0.533333	9.02503E-001	5.99793E-003	0.00000E+000	5.41315E-003	3.59960E-001	-1.14590E+000	3.57660E+000	10	...........
	40	0.546667	9.08648E-001	5.99398E-003	0.00000E+000	5.44642E-003	3.59960E-001	-1.14944E+000	3.57660E+000	10	...........
	41	0.56	9.14752E-001	5.99475E-003	0.00000E+000	5.48371E-003	3.59960E-001	-1.15552E+000	3.57660E+000	10	...........
	42	0.573333	9.20877E-001	5.99714E-003	0.00000E+000	5.52263E-003	3.59960E-001	-1.14546E+000	3.57660E+000	10	...........
	43	0.586667	9.26918E-001	5.99203E-003	0.00000E+000	5.55412E-003	3.59960E-001	-1.14911E+000	3.57660E+000	10	...........
	44	0.6	9.32887E-001	5.99356E-003	0.00000E+000	5.59131E-003	3.59960E-001	-1.15528E+000	3.57660E+000	10	...........
	45	0.613333	9.38821E-001	5.99258E-003	0.00000E+000	5.62596E-003	3.59960E-001	-1.14556E+000	3.57660E+000	10	...........
	46	0.626667	9.44774E-001	6.00157E-003	0.00000E+000	5.67013E-003	3.59960E-001	-1.14890E+000	3.57660E+000	10	...........
	47	0.64	9.50661E-001	5.99391E-003	0.00000E+000	5.69817E-003	3.59960E-001	-1.15537E+000	3.57660E+000	10	...........
	48	0.653333	9.56483E-001	5.99492E-003	0.00000E+000	5.73404E-003	3.59960E-001	-1.14558E+000	3.57660E+000	10	...........
	49	0.666667	9.62250E-001	5.99312E-003	0.00000E+000	5.76688E-003	3.59960E-001	-1.14887E+000	3.57660E+000	10	...........
	50	0.68	9.68018E-001	5.99403E-003	0.00000E+000	5.80233E-003	3.59960E-001	-1.15547E+000	3.57660E+000	10	...........
	51	0.693333	9.73744E-001	5.99346E-003	0.00000E+000	5.83609E-003	3.59960E-001	-1.14523E+000	3.57660E+000	10	...........
	52	0.706667	9.79380E-001	5.99521E-003	0.00000E+000	5.87159E-003	3.59960E-001	-1.14856E+000	3.57660E+000	10	...........
	53	0.72	9.85010E-001	5.99405E-003	0.00000E+000	5.90420E-003	3.59960E-001	-1.15565E+000	3.57660E+000	10	...........
	54	0.733333	9.90559E-001	5.99381E-003	0.00000E+000	5.93723E-003	3.59960E-001	-1.14550E+000	3.57660E+000	10	...........
	55	0.746667	9.96080E-001	5.99638E-003	0.00000E+000	5.97287E-003	3.59960E-001	-1.14851E+000	3.57660E+000	10	...........
	56	0.751667	9.99827E-001	5.99221E-003	0.00000E+000	5.99117E-003	3.59960E-001	-1.15026E+000	3.57660E+000	10	...........
STARTTIMEOFFSET	QUANT	1019.929	Start Time Offset (s)