File: Data/CV_CRGO300517_1/PWRCCD_CRGO300517_1/CHARGE_DISCHARGE/CHARGE_#78.DTA
EXPLAIN
TAG	PWR800_CHARGE
TITLE	LABEL	PWR Cyclic Charge Discharge (Cell) - Charge Step	Test &Identifier
DATE	LABEL	22-6-2017	Date
TIME	LABEL	15:38:32	Time
NOTES	NOTES	3	&Notes...
	supercap test cell
	0.6mg
	6M KOH
PSTAT	PSTAT	IFC5000-01520	Potentiostat
CAPACITY	QUANT	1.00000E-003	Capacity (A-hr)
CELLTYPE	SELECTOR	1	&Cell Type
WORKINGCONNECTION	SELECTOR	0	&Working Lead
MAXCHARGETIME	VARIABLEANDUNITS	1.00000E+002	s	1.00000E+002	second(s)	Max &Charge Time
CHARGECURRENT	QUANT	6.00000E-003	&Charge Current (A)
VOLTAGEFINISH	TWOPARAM	F	1.00000E-003	3.60000E+003	&Voltage Finish	 I (A) < 	Max Time(s)
SAMPLETIME	QUANT	1.00000E-002	Sa&mple Period (s)
CHARGESTOPAT1	MULTIPARAM	4	1.00000E+000	Charge Stop At &1	Voltage > Limit	V
CHARGESTOPAT2	MULTIPARAM	0	0.00000E+000	Charge Stop At &2	None	N/A
AESBHCSELECTOR	TOGGLE	F	Save Both Half Cells
IRCOMP	TOGGLE	F	IR &Measure
EOC	QUANT	0	Open Circuit (V)
SEQUENCER	TOGGLE	TRUE	Run as Sequence
PSTATMODEL	IQUANT	53	Pstat Model
PSTATSECTION	LABEL	IFC5000-01520	Pstat Section
PSTATSERIALNO	LABEL	01520	Pstat Serial Number
CTRLMODE	IQUANT	0	Control Mode
ELECTROMETER	IQUANT	1	RE=0 or CS=1
IESTAB	IQUANT	0	I/E Stability
CASPEED	IQUANT	4	Control Amp Speed
CONVENTION	IQUANT	1	Current Convention
ICHRANGE	IQUANT	2	Ich Range
ICHRANGEMODE	TOGGLE	T	Ich Auto Range
ICHOFFSETENABLE	TOGGLE	F	Ich Offset Enable
ICHOFFSET	QUANT	0	Ich Offset (V)
ICHFILTER	IQUANT	1	Ich Filter
VCHRANGE	IQUANT	2	Vch Range
VCHRANGEMODE	TOGGLE	T	Vch Auto Range
VCHOFFSETENABLE	TOGGLE	F	Vch Offset Enable
VCHOFFSET	QUANT	0	Vch Offset (V)
VCHFILTER	IQUANT	1	Vch Filter
IERANGELOWERLIMIT	IQUANT	9	I/E Range Lower Limit
IERANGEMODE	TOGGLE	F	I/E AutoRange
IERANGE	IQUANT	10	I/E Range
ACHSELECT	IQUANT	1	Ach Select
ACHRANGE	IQUANT	2	Ach Range
ACHOFFSETENABLE	TOGGLE	F	Ach Offset Enable
ACHOFFSET	QUANT	0	Ach Offset (V)
ACHFILTER	IQUANT	1	Ach Filter
CABLEID	IQUANT	14	Cable ID
DCCALDATE	LABEL	20-10-2016	DC Calibration Date
ACCALDATE	LABEL	12/3/2015	AC Calibration Date
FRAMEWORKVERSION	QUANT	7.01	Framework Version
INSTRUMENTVERSION	LABEL	4.00	Instrument Version
CURVE	TABLE	72
	Pt	T	Vf	Im	Vu	Pwr	Sig	Ach	Temp	IERange	Over
	#	s	V	A	V	W	V	V	deg C	#	bits
	0	0.013333	5.83496E-001	5.99670E-003	0.00000E+000	3.49905E-003	3.59960E-001	-1.05606E+000	3.57700E+000	10	...........
	1	0.026667	5.91731E-001	5.99252E-003	0.00000E+000	3.54596E-003	3.59960E-001	-1.05216E+000	3.57700E+000	10	...........
	2	0.04	5.99237E-001	6.00084E-003	0.00000E+000	3.59593E-003	3.59960E-001	-1.06416E+000	3.57717E+000	10	...........
	3	0.053333	6.06330E-001	5.99521E-003	0.00000E+000	3.63507E-003	3.59960E-001	-1.05587E+000	3.57720E+000	10	...........
	4	0.066667	6.13198E-001	5.99213E-003	0.00000E+000	3.67437E-003	3.59960E-001	-1.05191E+000	3.57720E+000	10	...........
	5	0.08	6.19878E-001	5.98953E-003	0.00000E+000	3.71278E-003	3.59960E-001	-1.06413E+000	3.57720E+000	10	...........
	6	0.093333	6.26342E-001	5.99679E-003	0.00000E+000	3.75604E-003	3.59960E-001	-1.05593E+000	3.57720E+000	10	...........
	7	0.106667	6.32721E-001	5.99406E-003	0.00000E+000	3.79257E-003	3.59960E-001	-1.05204E+000	3.57720E+000	10	...........
	8	0.12	6.39064E-001	5.99214E-003	0.00000E+000	3.82936E-003	3.59960E-001	-1.06384E+000	3.57720E+000	10	...........
	9	0.133333	6.45305E-001	5.99205E-003	0.00000E+000	3.86670E-003	3.59960E-001	-1.05563E+000	3.57720E+000	10	...........
	10	0.146667	6.51491E-001	5.99625E-003	0.00000E+000	3.90651E-003	3.59960E-001	-1.05157E+000	3.57720E+000	10	...........
	11	0.16	6.57597E-001	5.99355E-003	0.00000E+000	3.94134E-003	3.59960E-001	-1.06345E+000	3.57720E+000	10	...........
	12	0.173333	6.63711E-001	5.99697E-003	0.00000E+000	3.98026E-003	3.59960E-001	-1.05547E+000	3.57720E+000	10	...........
	13	0.186667	6.69743E-001	5.99322E-003	0.00000E+000	4.01392E-003	3.59960E-001	-1.05138E+000	3.57720E+000	10	...........
	14	0.2	6.75770E-001	5.99574E-003	0.00000E+000	4.05174E-003	3.59960E-001	-1.06330E+000	3.57720E+000	10	...........
	15	0.213333	6.81781E-001	5.99493E-003	0.00000E+000	4.08723E-003	3.59960E-001	-1.05536E+000	3.57720E+000	10	...........
	16	0.226667	6.87750E-001	5.99089E-003	0.00000E+000	4.12023E-003	3.59960E-001	-1.05135E+000	3.57720E+000	10	...........
	17	0.24	6.93713E-001	5.99829E-003	0.00000E+000	4.16109E-003	3.59960E-001	-1.06338E+000	3.57720E+000	10	...........
	18	0.253333	6.99629E-001	5.99419E-003	0.00000E+000	4.19371E-003	3.59960E-001	-1.05523E+000	3.57720E+000	10	...........
	19	0.266667	7.05554E-001	5.99486E-003	0.00000E+000	4.22969E-003	3.59960E-001	-1.05113E+000	3.57720E+000	10	...........
	20	0.28	7.11437E-001	5.99679E-003	0.00000E+000	4.26634E-003	3.59960E-001	-1.06311E+000	3.57720E+000	10	...........
	21	0.293333	7.17362E-001	5.99110E-003	0.00000E+000	4.29779E-003	3.59960E-001	-1.05558E+000	3.57720E+000	10	...........
	22	0.306667	7.23283E-001	5.99251E-003	0.00000E+000	4.33428E-003	3.59960E-001	-1.05150E+000	3.57720E+000	10	...........
	23	0.32	7.29111E-001	5.99659E-003	0.00000E+000	4.37218E-003	3.59960E-001	-1.06306E+000	3.57720E+000	10	...........
	24	0.333333	7.34967E-001	5.99392E-003	0.00000E+000	4.40533E-003	3.59960E-001	-1.05536E+000	3.57720E+000	10	...........
	25	0.346667	7.40859E-001	5.99279E-003	0.00000E+000	4.43981E-003	3.59960E-001	-1.05100E+000	3.57720E+000	10	...........
	26	0.36	7.46765E-001	5.99237E-003	0.00000E+000	4.47490E-003	3.59960E-001	-1.06313E+000	3.57720E+000	10	...........
	27	0.373333	7.52621E-001	5.99695E-003	0.00000E+000	4.51343E-003	3.59960E-001	-1.05567E+000	3.57720E+000	10	...........
	28	0.386667	7.58462E-001	5.99846E-003	0.00000E+000	4.54961E-003	3.59960E-001	-1.05097E+000	3.57720E+000	10	...........
	29	0.4	7.64267E-001	5.99130E-003	0.00000E+000	4.57895E-003	3.59960E-001	-1.06284E+000	3.57720E+000	10	...........
	30	0.413333	7.70130E-001	5.99544E-003	0.00000E+000	4.61727E-003	3.59960E-001	-1.05544E+000	3.57720E+000	10	...........
	31	0.426667	7.75960E-001	5.99149E-003	0.00000E+000	4.64915E-003	3.59960E-001	-1.05125E+000	3.57720E+000	10	...........
	32	0.44	7.81813E-001	5.99600E-003	0.00000E+000	4.68775E-003	3.59960E-001	-1.06312E+000	3.57720E+000	10	...........
	33	0.453333	7.87658E-001	5.99258E-003	0.00000E+000	4.72010E-003	3.59960E-001	-1.05507E+000	3.57720E+000	10	...........
	34	0.466667	7.93534E-001	5.99277E-003	0.00000E+000	4.75547E-003	3.59960E-001	-1.05081E+000	3.57720E+000	10	...........
	35	0.48	7.99375E-001	5.99064E-003	0.00000E+000	4.78877E-003	3.59960E-001	-1.06247E+000	3.57720E+000	10	...........
	36	0.493333	8.05223E-001	5.99308E-003	0.00000E+000	4.82577E-003	3.59960E-001	-1.05494E+000	3.57720E+000	10	...........
	37	0.506667	8.11015E-001	5.99699E-003	0.00000E+000	4.86365E-003	3.59960E-001	-1.05071E+000	3.57720E+000	10	...........
	38	0.52	8.16830E-001	5.99405E-003	0.00000E+000	4.89612E-003	3.59960E-001	-1.06230E+000	3.57720E+000	10	...........
	39	0.533333	8.22670E-001	5.99274E-003	0.00000E+000	4.93004E-003	3.59960E-001	-1.05471E+000	3.57720E+000	10	...........
	40	0.546667	8.28454E-001	5.99645E-003	0.00000E+000	4.96779E-003	3.59960E-001	-1.05049E+000	3.57720E+000	10	...........
	41	0.56	8.34231E-001	5.99027E-003	0.00000E+000	4.99727E-003	3.59960E-001	-1.06253E+000	3.57720E+000	10	...........
	42	0.573333	8.40055E-001	5.99720E-003	0.00000E+000	5.03798E-003	3.59960E-001	-1.05498E+000	3.57720E+000	10	...........
	43	0.586667	8.45853E-001	5.99476E-003	0.00000E+000	5.07069E-003	3.59960E-001	-1.05073E+000	3.57720E+000	10	...........
	44	0.6	8.51638E-001	5.98998E-003	0.00000E+000	5.10130E-003	3.59960E-001	-1.06219E+000	3.57720E+000	10	...........
	45	0.613333	8.57490E-001	5.99234E-003	0.00000E+000	5.13837E-003	3.59960E-001	-1.05500E+000	3.57720E+000	10	...........
	46	0.626667	8.63223E-001	5.99157E-003	0.00000E+000	5.17206E-003	3.59960E-001	-1.05070E+000	3.57720E+000	10	...........
	47	0.64	8.69039E-001	5.99426E-003	0.00000E+000	5.20925E-003	3.59960E-001	-1.06227E+000	3.57720E+000	10	...........
	48	0.653333	8.74854E-001	5.99492E-003	0.00000E+000	5.24468E-003	3.59960E-001	-1.05477E+000	3.57720E+000	10	...........
	49	0.666667	8.80580E-001	5.99257E-003	0.00000E+000	5.27694E-003	3.59960E-001	-1.05034E+000	3.57720E+000	10	...........
	50	0.68	8.86316E-001	5.99136E-003	0.00000E+000	5.31024E-003	3.59960E-001	-1.06216E+000	3.57720E+000	10	...........
	51	0.693333	8.92028E-001	5.99123E-003	0.00000E+000	5.34434E-003	3.59960E-001	-1.05498E+000	3.57720E+000	10	...........
	52	0.706667	8.97735E-001	5.99329E-003	0.00000E+000	5.38039E-003	3.59960E-001	-1.05061E+000	3.57720E+000	10	...........
	53	0.72	9.03461E-001	5.99696E-003	0.00000E+000	5.41802E-003	3.59960E-001	-1.06216E+000	3.57720E+000	10	...........
	54	0.733333	9.09157E-001	5.99707E-003	0.00000E+000	5.45227E-003	3.59960E-001	-1.05496E+000	3.57720E+000	10	...........
	55	0.746667	9.14869E-001	5.98978E-003	0.00000E+000	5.47986E-003	3.59960E-001	-1.05065E+000	3.57720E+000	10	...........
	56	0.76	9.20585E-001	5.99067E-003	0.00000E+000	5.51492E-003	3.59960E-001	-1.06243E+000	3.57720E+000	10	...........
	57	0.773333	9.26269E-001	5.99343E-003	0.00000E+000	5.55153E-003	3.59960E-001	-1.05518E+000	3.57720E+000	10	...........
	58	0.786667	9.31898E-001	5.99166E-003	0.00000E+000	5.58362E-003	3.59960E-001	-1.05028E+000	3.57720E+000	10	...........
	59	0.8	9.37478E-001	5.99178E-003	0.00000E+000	5.61716E-003	3.59960E-001	-1.06165E+000	3.57720E+000	10	...........
	60	0.813333	9.43050E-001	5.99380E-003	0.00000E+000	5.65246E-003	3.59960E-001	-1.05458E+000	3.57720E+000	10	...........
	61	0.826667	9.48665E-001	5.99469E-003	0.00000E+000	5.68695E-003	3.59960E-001	-1.05038E+000	3.57720E+000	10	...........
	62	0.84	9.54183E-001	5.99382E-003	0.00000E+000	5.71921E-003	3.59960E-001	-1.06192E+000	3.57720E+000	10	...........
	63	0.853333	9.59685E-001	5.99407E-003	0.00000E+000	5.75242E-003	3.59960E-001	-1.05457E+000	3.57720E+000	10	...........
	64	0.866667	9.65197E-001	5.99488E-003	0.00000E+000	5.78624E-003	3.59960E-001	-1.05013E+000	3.57720E+000	10	...........
	65	0.88	9.70636E-001	5.99327E-003	0.00000E+000	5.81728E-003	3.59960E-001	-1.06190E+000	3.57720E+000	10	...........
	66	0.893333	9.76114E-001	5.98970E-003	0.00000E+000	5.84663E-003	3.59960E-001	-1.05492E+000	3.57720E+000	10	...........
	67	0.906667	9.81492E-001	5.99213E-003	0.00000E+000	5.88123E-003	3.59960E-001	-1.05023E+000	3.57720E+000	10	...........
	68	0.92	9.86935E-001	5.99166E-003	0.00000E+000	5.91338E-003	3.59960E-001	-1.06156E+000	3.57720E+000	10	...........
	69	0.933333	9.92264E-001	5.99305E-003	0.00000E+000	5.94669E-003	3.59960E-001	-1.05470E+000	3.57720E+000	10	...........
	70	0.946667	9.97599E-001	5.99644E-003	0.00000E+000	5.98205E-003	3.59960E-001	-1.05011E+000	3.57720E+000	10	...........
	71	0.948333	1.00055E+000	6.00789E-003	0.00000E+000	6.01122E-003	3.59960E-001	-1.06509E+000	3.57720E+000	10	...........
STARTTIMEOFFSET	QUANT	154.2	Start Time Offset (s)