File: Data/CV_CRGO300517_1/PWRCCD_CRGO300517_1/CHARGE_DISCHARGE/CHARGE_#926.DTA
EXPLAIN
TAG	PWR800_CHARGE
TITLE	LABEL	PWR Cyclic Charge Discharge (Cell) - Charge Step	Test &Identifier
DATE	LABEL	22-6-2017	Date
TIME	LABEL	16:11:56	Time
NOTES	NOTES	3	&Notes...
	supercap test cell
	0.6mg
	6M KOH
PSTAT	PSTAT	IFC5000-01520	Potentiostat
CAPACITY	QUANT	1.00000E-003	Capacity (A-hr)
CELLTYPE	SELECTOR	1	&Cell Type
WORKINGCONNECTION	SELECTOR	0	&Working Lead
MAXCHARGETIME	VARIABLEANDUNITS	1.00000E+002	s	1.00000E+002	second(s)	Max &Charge Time
CHARGECURRENT	QUANT	6.00000E-003	&Charge Current (A)
VOLTAGEFINISH	TWOPARAM	F	1.00000E-003	3.60000E+003	&Voltage Finish	 I (A) < 	Max Time(s)
SAMPLETIME	QUANT	1.00000E-002	Sa&mple Period (s)
CHARGESTOPAT1	MULTIPARAM	4	1.00000E+000	Charge Stop At &1	Voltage > Limit	V
CHARGESTOPAT2	MULTIPARAM	0	0.00000E+000	Charge Stop At &2	None	N/A
AESBHCSELECTOR	TOGGLE	F	Save Both Half Cells
IRCOMP	TOGGLE	F	IR &Measure
EOC	QUANT	0	Open Circuit (V)
SEQUENCER	TOGGLE	TRUE	Run as Sequence
PSTATMODEL	IQUANT	53	Pstat Model
PSTATSECTION	LABEL	IFC5000-01520	Pstat Section
PSTATSERIALNO	LABEL	01520	Pstat Serial Number
CTRLMODE	IQUANT	0	Control Mode
ELECTROMETER	IQUANT	1	RE=0 or CS=1
IESTAB	IQUANT	0	I/E Stability
CASPEED	IQUANT	4	Control Amp Speed
CONVENTION	IQUANT	1	Current Convention
ICHRANGE	IQUANT	2	Ich Range
ICHRANGEMODE	TOGGLE	T	Ich Auto Range
ICHOFFSETENABLE	TOGGLE	F	Ich Offset Enable
ICHOFFSET	QUANT	0	Ich Offset (V)
ICHFILTER	IQUANT	1	Ich Filter
VCHRANGE	IQUANT	2	Vch Range
VCHRANGEMODE	TOGGLE	T	Vch Auto Range
VCHOFFSETENABLE	TOGGLE	F	Vch Offset Enable
VCHOFFSET	QUANT	0	Vch Offset (V)
VCHFILTER	IQUANT	1	Vch Filter
IERANGELOWERLIMIT	IQUANT	9	I/E Range Lower Limit
IERANGEMODE	TOGGLE	F	I/E AutoRange
IERANGE	IQUANT	10	I/E Range
ACHSELECT	IQUANT	1	Ach Select
ACHRANGE	IQUANT	2	Ach Range
ACHOFFSETENABLE	TOGGLE	F	Ach Offset Enable
ACHOFFSET	QUANT	0	Ach Offset (V)
ACHFILTER	IQUANT	1	Ach Filter
CABLEID	IQUANT	14	Cable ID
DCCALDATE	LABEL	20-10-2016	DC Calibration Date
ACCALDATE	LABEL	12/3/2015	AC Calibration Date
FRAMEWORKVERSION	QUANT	7.01	Framework Version
INSTRUMENTVERSION	LABEL	4.00	Instrument Version
CURVE	TABLE	53
	Pt	T	Vf	Im	Vu	Pwr	Sig	Ach	Temp	IERange	Over
	#	s	V	A	V	W	V	V	deg C	#	bits
	0	0.013333	6.53497E-001	5.99510E-003	0.00000E+000	3.91778E-003	3.59960E-001	-1.17110E+000	3.57780E+000	10	...........
	1	0.026667	6.62796E-001	5.99391E-003	0.00000E+000	3.97273E-003	3.59960E-001	-1.18007E+000	3.57780E+000	10	...........
	2	0.04	6.71382E-001	5.99283E-003	0.00000E+000	4.02348E-003	3.59960E-001	-1.17620E+000	3.57780E+000	10	...........
	3	0.053333	6.79513E-001	5.99453E-003	0.00000E+000	4.07336E-003	3.59960E-001	-1.17094E+000	3.57780E+000	10	...........
	4	0.066667	6.87321E-001	5.99312E-003	0.00000E+000	4.11920E-003	3.59960E-001	-1.18014E+000	3.57780E+000	10	...........
	5	0.08	6.94989E-001	5.99235E-003	0.00000E+000	4.16462E-003	3.59960E-001	-1.17627E+000	3.57780E+000	10	...........
	6	0.093333	7.02464E-001	5.99124E-003	0.00000E+000	4.20863E-003	3.59960E-001	-1.17083E+000	3.57780E+000	10	...........
	7	0.106667	7.09769E-001	5.99276E-003	0.00000E+000	4.25348E-003	3.59960E-001	-1.17993E+000	3.57780E+000	10	...........
	8	0.12	7.17056E-001	5.99564E-003	0.00000E+000	4.29921E-003	3.59960E-001	-1.17625E+000	3.57780E+000	10	...........
	9	0.133333	7.24252E-001	5.99736E-003	0.00000E+000	4.34360E-003	3.59960E-001	-1.17100E+000	3.57780E+000	10	...........
	10	0.146667	7.31351E-001	5.98951E-003	0.00000E+000	4.38044E-003	3.59960E-001	-1.17979E+000	3.57780E+000	10	...........
	11	0.16	7.38382E-001	5.99168E-003	0.00000E+000	4.42415E-003	3.59960E-001	-1.17565E+000	3.57780E+000	10	...........
	12	0.173333	7.45441E-001	5.99632E-003	0.00000E+000	4.46990E-003	3.59960E-001	-1.17036E+000	3.57780E+000	10	...........
	13	0.186667	7.52390E-001	5.99015E-003	0.00000E+000	4.50693E-003	3.59960E-001	-1.17979E+000	3.57780E+000	10	...........
	14	0.2	7.59313E-001	5.99171E-003	0.00000E+000	4.54958E-003	3.59960E-001	-1.17542E+000	3.57780E+000	10	...........
	15	0.213333	7.66199E-001	5.99283E-003	0.00000E+000	4.59170E-003	3.59960E-001	-1.16985E+000	3.57780E+000	10	...........
	16	0.226667	7.73103E-001	5.99141E-003	0.00000E+000	4.63198E-003	3.59960E-001	-1.17921E+000	3.57780E+000	10	...........
	17	0.24	7.79920E-001	5.99207E-003	0.00000E+000	4.67334E-003	3.59960E-001	-1.17537E+000	3.57780E+000	10	...........
	18	0.253333	7.86733E-001	5.99427E-003	0.00000E+000	4.71589E-003	3.59960E-001	-1.17019E+000	3.57780E+000	10	...........
	19	0.266667	7.93491E-001	5.99501E-003	0.00000E+000	4.75699E-003	3.59960E-001	-1.17954E+000	3.57780E+000	10	...........
	20	0.28	8.00289E-001	5.99202E-003	0.00000E+000	4.79535E-003	3.59960E-001	-1.17485E+000	3.57780E+000	10	...........
	21	0.293333	8.06969E-001	5.99666E-003	0.00000E+000	4.83912E-003	3.59960E-001	-1.16956E+000	3.57780E+000	10	...........
	22	0.306667	8.13671E-001	5.99980E-003	0.00000E+000	4.88187E-003	3.59960E-001	-1.17939E+000	3.57780E+000	10	...........
	23	0.32	8.20359E-001	5.99039E-003	0.00000E+000	4.91427E-003	3.59960E-001	-1.17512E+000	3.57780E+000	10	...........
	24	0.333333	8.27034E-001	5.99549E-003	0.00000E+000	4.95847E-003	3.59960E-001	-1.16987E+000	3.57780E+000	10	...........
	25	0.346667	8.33611E-001	5.99519E-003	0.00000E+000	4.99766E-003	3.59960E-001	-1.17928E+000	3.57780E+000	10	...........
	26	0.36	8.40209E-001	5.99192E-003	0.00000E+000	5.03447E-003	3.59960E-001	-1.17445E+000	3.57780E+000	10	...........
	27	0.373333	8.46815E-001	5.99245E-003	0.00000E+000	5.07449E-003	3.59960E-001	-1.16975E+000	3.57780E+000	10	...........
	28	0.386667	8.53369E-001	5.99314E-003	0.00000E+000	5.11436E-003	3.59960E-001	-1.17927E+000	3.57780E+000	10	...........
	29	0.4	8.59900E-001	5.99780E-003	0.00000E+000	5.15750E-003	3.59960E-001	-1.17463E+000	3.57780E+000	10	...........
	30	0.413333	8.66390E-001	5.99344E-003	0.00000E+000	5.19265E-003	3.59960E-001	-1.16963E+000	3.57780E+000	10	...........
	31	0.426667	8.72887E-001	5.99328E-003	0.00000E+000	5.23146E-003	3.59960E-001	-1.17912E+000	3.57780E+000	10	...........
	32	0.44	8.79328E-001	5.99193E-003	0.00000E+000	5.26888E-003	3.59960E-001	-1.17455E+000	3.57780E+000	10	...........
	33	0.453333	8.85728E-001	5.99274E-003	0.00000E+000	5.30794E-003	3.59960E-001	-1.16977E+000	3.57780E+000	10	...........
	34	0.466667	8.92079E-001	5.99229E-003	0.00000E+000	5.34560E-003	3.59960E-001	-1.17942E+000	3.57780E+000	10	...........
	35	0.48	8.98395E-001	5.99702E-003	0.00000E+000	5.38770E-003	3.59960E-001	-1.17424E+000	3.57780E+000	10	...........
	36	0.493333	9.04719E-001	5.99754E-003	0.00000E+000	5.42608E-003	3.59960E-001	-1.16918E+000	3.57780E+000	10	...........
	37	0.506667	9.10959E-001	5.99399E-003	0.00000E+000	5.46028E-003	3.59960E-001	-1.17894E+000	3.57780E+000	10	...........
	38	0.52	9.17207E-001	5.99368E-003	0.00000E+000	5.49744E-003	3.59960E-001	-1.17414E+000	3.57780E+000	10	...........
	39	0.533333	9.23436E-001	5.98981E-003	0.00000E+000	5.53120E-003	3.59960E-001	-1.16910E+000	3.57780E+000	10	...........
	40	0.546667	9.29534E-001	5.99467E-003	0.00000E+000	5.57225E-003	3.59960E-001	-1.17870E+000	3.57780E+000	10	...........
	41	0.56	9.35600E-001	5.99018E-003	0.00000E+000	5.60442E-003	3.59960E-001	-1.17389E+000	3.57780E+000	10	...........
	42	0.573333	9.41594E-001	5.99351E-003	0.00000E+000	5.64345E-003	3.59960E-001	-1.16920E+000	3.57780E+000	10	...........
	43	0.586667	9.47602E-001	5.99441E-003	0.00000E+000	5.68031E-003	3.59960E-001	-1.17887E+000	3.57780E+000	10	...........
	44	0.6	9.53572E-001	5.99513E-003	0.00000E+000	5.71678E-003	3.59960E-001	-1.17382E+000	3.57780E+000	10	...........
	45	0.613333	9.59456E-001	5.99259E-003	0.00000E+000	5.74963E-003	3.59960E-001	-1.16888E+000	3.57780E+000	10	...........
	46	0.626667	9.65285E-001	5.99131E-003	0.00000E+000	5.78332E-003	3.59960E-001	-1.17857E+000	3.57780E+000	10	...........
	47	0.64	9.71080E-001	5.99633E-003	0.00000E+000	5.82291E-003	3.59960E-001	-1.17366E+000	3.57780E+000	10	...........
	48	0.653333	9.76830E-001	5.99537E-003	0.00000E+000	5.85646E-003	3.59960E-001	-1.16890E+000	3.57780E+000	10	...........
	49	0.666667	9.82550E-001	5.99469E-003	0.00000E+000	5.89008E-003	3.59960E-001	-1.17855E+000	3.57780E+000	10	...........
	50	0.68	9.88236E-001	5.99480E-003	0.00000E+000	5.92428E-003	3.59960E-001	-1.17336E+000	3.57780E+000	10	...........
	51	0.693333	9.93778E-001	5.98884E-003	0.00000E+000	5.95157E-003	3.59960E-001	-1.16858E+000	3.57780E+000	10	...........
	52	0.703333	9.98610E-001	5.99201E-003	0.00000E+000	5.98368E-003	3.59960E-001	-1.18280E+000	3.57780E+000	10	...........
STARTTIMEOFFSET	QUANT	1482.494	Start Time Offset (s)