File: Data/CV_CRGO300517_1/PWRCCD_CRGO300517_1/CHARGE_DISCHARGE/CHARGE_#704.DTA
EXPLAIN
TAG	PWR800_CHARGE
TITLE	LABEL	PWR Cyclic Charge Discharge (Cell) - Charge Step	Test &Identifier
DATE	LABEL	22-6-2017	Date
TIME	LABEL	16:03:42	Time
NOTES	NOTES	3	&Notes...
	supercap test cell
	0.6mg
	6M KOH
PSTAT	PSTAT	IFC5000-01520	Potentiostat
CAPACITY	QUANT	1.00000E-003	Capacity (A-hr)
CELLTYPE	SELECTOR	1	&Cell Type
WORKINGCONNECTION	SELECTOR	0	&Working Lead
MAXCHARGETIME	VARIABLEANDUNITS	1.00000E+002	s	1.00000E+002	second(s)	Max &Charge Time
CHARGECURRENT	QUANT	6.00000E-003	&Charge Current (A)
VOLTAGEFINISH	TWOPARAM	F	1.00000E-003	3.60000E+003	&Voltage Finish	 I (A) < 	Max Time(s)
SAMPLETIME	QUANT	1.00000E-002	Sa&mple Period (s)
CHARGESTOPAT1	MULTIPARAM	4	1.00000E+000	Charge Stop At &1	Voltage > Limit	V
CHARGESTOPAT2	MULTIPARAM	0	0.00000E+000	Charge Stop At &2	None	N/A
AESBHCSELECTOR	TOGGLE	F	Save Both Half Cells
IRCOMP	TOGGLE	F	IR &Measure
EOC	QUANT	0	Open Circuit (V)
SEQUENCER	TOGGLE	TRUE	Run as Sequence
PSTATMODEL	IQUANT	53	Pstat Model
PSTATSECTION	LABEL	IFC5000-01520	Pstat Section
PSTATSERIALNO	LABEL	01520	Pstat Serial Number
CTRLMODE	IQUANT	0	Control Mode
ELECTROMETER	IQUANT	1	RE=0 or CS=1
IESTAB	IQUANT	0	I/E Stability
CASPEED	IQUANT	4	Control Amp Speed
CONVENTION	IQUANT	1	Current Convention
ICHRANGE	IQUANT	2	Ich Range
ICHRANGEMODE	TOGGLE	T	Ich Auto Range
ICHOFFSETENABLE	TOGGLE	F	Ich Offset Enable
ICHOFFSET	QUANT	0	Ich Offset (V)
ICHFILTER	IQUANT	1	Ich Filter
VCHRANGE	IQUANT	2	Vch Range
VCHRANGEMODE	TOGGLE	T	Vch Auto Range
VCHOFFSETENABLE	TOGGLE	F	Vch Offset Enable
VCHOFFSET	QUANT	0	Vch Offset (V)
VCHFILTER	IQUANT	1	Vch Filter
IERANGELOWERLIMIT	IQUANT	9	I/E Range Lower Limit
IERANGEMODE	TOGGLE	F	I/E AutoRange
IERANGE	IQUANT	10	I/E Range
ACHSELECT	IQUANT	1	Ach Select
ACHRANGE	IQUANT	2	Ach Range
ACHOFFSETENABLE	TOGGLE	F	Ach Offset Enable
ACHOFFSET	QUANT	0	Ach Offset (V)
ACHFILTER	IQUANT	1	Ach Filter
CABLEID	IQUANT	14	Cable ID
DCCALDATE	LABEL	20-10-2016	DC Calibration Date
ACCALDATE	LABEL	12/3/2015	AC Calibration Date
FRAMEWORKVERSION	QUANT	7.01	Framework Version
INSTRUMENTVERSION	LABEL	4.00	Instrument Version
CURVE	TABLE	56
	Pt	T	Vf	Im	Vu	Pwr	Sig	Ach	Temp	IERange	Over
	#	s	V	A	V	W	V	V	deg C	#	bits
	0	0.013333	6.43127E-001	5.99559E-003	0.00000E+000	3.85592E-003	3.59960E-001	-1.16010E+000	3.57780E+000	10	...........
	1	0.026667	6.52222E-001	5.99409E-003	0.00000E+000	3.90948E-003	3.59960E-001	-1.16060E+000	3.57780E+000	10	...........
	2	0.04	6.60605E-001	5.99798E-003	0.00000E+000	3.96230E-003	3.59960E-001	-1.15288E+000	3.57780E+000	10	...........
	3	0.053333	6.68564E-001	5.99324E-003	0.00000E+000	4.00686E-003	3.59960E-001	-1.16040E+000	3.57780E+000	10	...........
	4	0.066667	6.76209E-001	5.99224E-003	0.00000E+000	4.05201E-003	3.59960E-001	-1.16056E+000	3.57780E+000	10	...........
	5	0.08	6.83657E-001	6.00086E-003	0.00000E+000	4.10253E-003	3.59960E-001	-1.15291E+000	3.57780E+000	10	...........
	6	0.093333	6.91002E-001	5.99328E-003	0.00000E+000	4.14137E-003	3.59960E-001	-1.16019E+000	3.57780E+000	10	...........
	7	0.106667	6.98191E-001	5.99126E-003	0.00000E+000	4.18304E-003	3.59960E-001	-1.16029E+000	3.57780E+000	10	...........
	8	0.12	7.05303E-001	5.99513E-003	0.00000E+000	4.22838E-003	3.59960E-001	-1.15272E+000	3.57780E+000	10	...........
	9	0.133333	7.12293E-001	5.99176E-003	0.00000E+000	4.26788E-003	3.59960E-001	-1.16023E+000	3.57780E+000	10	...........
	10	0.146667	7.19303E-001	5.99366E-003	0.00000E+000	4.31125E-003	3.59960E-001	-1.15971E+000	3.57780E+000	10	...........
	11	0.16	7.26203E-001	5.99497E-003	0.00000E+000	4.35356E-003	3.59960E-001	-1.15233E+000	3.57780E+000	10	...........
	12	0.173333	7.33059E-001	5.99383E-003	0.00000E+000	4.39383E-003	3.59960E-001	-1.15973E+000	3.57780E+000	10	...........
	13	0.186667	7.39857E-001	5.99053E-003	0.00000E+000	4.43213E-003	3.59960E-001	-1.15949E+000	3.57780E+000	10	...........
	14	0.2	7.46675E-001	5.99763E-003	0.00000E+000	4.47828E-003	3.59960E-001	-1.15237E+000	3.57780E+000	10	...........
	15	0.213333	7.53437E-001	5.99277E-003	0.00000E+000	4.51517E-003	3.59960E-001	-1.15977E+000	3.57780E+000	10	...........
	16	0.226667	7.60155E-001	5.99035E-003	0.00000E+000	4.55360E-003	3.59960E-001	-1.15924E+000	3.57780E+000	10	...........
	17	0.24	7.66842E-001	5.99102E-003	0.00000E+000	4.59416E-003	3.59960E-001	-1.15213E+000	3.57780E+000	10	...........
	18	0.253333	7.73530E-001	5.99187E-003	0.00000E+000	4.63489E-003	3.59960E-001	-1.15982E+000	3.57780E+000	10	...........
	19	0.266667	7.80201E-001	5.99503E-003	0.00000E+000	4.67733E-003	3.59960E-001	-1.15948E+000	3.57780E+000	10	...........
	20	0.28	7.86858E-001	5.99441E-003	0.00000E+000	4.71675E-003	3.59960E-001	-1.15211E+000	3.57780E+000	10	...........
	21	0.293333	7.93475E-001	5.99164E-003	0.00000E+000	4.75422E-003	3.59960E-001	-1.15992E+000	3.57780E+000	10	...........
	22	0.306667	8.00100E-001	5.99541E-003	0.00000E+000	4.79693E-003	3.59960E-001	-1.15924E+000	3.57780E+000	10	...........
	23	0.32	8.06674E-001	5.99653E-003	0.00000E+000	4.83725E-003	3.59960E-001	-1.15220E+000	3.57780E+000	10	...........
	24	0.333333	8.13236E-001	5.99693E-003	0.00000E+000	4.87692E-003	3.59960E-001	-1.16005E+000	3.57780E+000	10	...........
	25	0.346667	8.19752E-001	5.99769E-003	0.00000E+000	4.91662E-003	3.59960E-001	-1.15895E+000	3.57780E+000	10	...........
	26	0.36	8.26265E-001	5.99199E-003	0.00000E+000	4.95097E-003	3.59960E-001	-1.15196E+000	3.57780E+000	10	...........
	27	0.373333	8.32765E-001	5.99734E-003	0.00000E+000	4.99437E-003	3.59960E-001	-1.16010E+000	3.57780E+000	10	...........
	28	0.386667	8.39218E-001	5.99374E-003	0.00000E+000	5.03006E-003	3.59960E-001	-1.15885E+000	3.57780E+000	10	...........
	29	0.4	8.45713E-001	5.99528E-003	0.00000E+000	5.07029E-003	3.59960E-001	-1.15204E+000	3.57780E+000	10	...........
	30	0.413333	8.52146E-001	5.99590E-003	0.00000E+000	5.10938E-003	3.59960E-001	-1.15996E+000	3.57780E+000	10	...........
	31	0.426667	8.58533E-001	5.98622E-003	0.00000E+000	5.13937E-003	3.59960E-001	-1.15844E+000	3.57780E+000	10	...........
	32	0.44	8.64928E-001	5.98796E-003	0.00000E+000	5.17915E-003	3.59960E-001	-1.15200E+000	3.57780E+000	10	...........
	33	0.453333	8.71333E-001	5.99376E-003	0.00000E+000	5.22256E-003	3.59960E-001	-1.16001E+000	3.57780E+000	10	...........
	34	0.466667	8.77626E-001	5.99233E-003	0.00000E+000	5.25903E-003	3.59960E-001	-1.15822E+000	3.57780E+000	10	...........
	35	0.48	8.83917E-001	5.98991E-003	0.00000E+000	5.29459E-003	3.59960E-001	-1.15146E+000	3.57780E+000	10	...........
	36	0.493333	8.90208E-001	5.99109E-003	0.00000E+000	5.33332E-003	3.59960E-001	-1.15960E+000	3.57780E+000	10	...........
	37	0.506667	8.96467E-001	5.99340E-003	0.00000E+000	5.37288E-003	3.59960E-001	-1.15793E+000	3.57780E+000	10	...........
	38	0.52	9.02660E-001	5.98891E-003	0.00000E+000	5.40595E-003	3.59960E-001	-1.15155E+000	3.57780E+000	10	...........
	39	0.533333	9.08862E-001	5.99540E-003	0.00000E+000	5.44899E-003	3.59960E-001	-1.15982E+000	3.57780E+000	10	...........
	40	0.546667	9.15035E-001	5.99613E-003	0.00000E+000	5.48667E-003	3.59960E-001	-1.15768E+000	3.57774E+000	10	...........
	41	0.56	9.21221E-001	5.99335E-003	0.00000E+000	5.52120E-003	3.59960E-001	-1.15137E+000	3.57730E+000	10	...........
	42	0.573333	9.27298E-001	5.99448E-003	0.00000E+000	5.55867E-003	3.59960E-001	-1.15997E+000	3.57730E+000	10	...........
	43	0.586667	9.33354E-001	5.99236E-003	0.00000E+000	5.59300E-003	3.59960E-001	-1.15786E+000	3.57730E+000	10	...........
	44	0.6	9.39320E-001	5.99345E-003	0.00000E+000	5.62977E-003	3.59960E-001	-1.15149E+000	3.57730E+000	10	...........
	45	0.613333	9.45290E-001	5.99515E-003	0.00000E+000	5.66715E-003	3.59960E-001	-1.16006E+000	3.57730E+000	10	...........
	46	0.626667	9.51212E-001	5.99004E-003	0.00000E+000	5.69780E-003	3.59960E-001	-1.15749E+000	3.57730E+000	10	...........
	47	0.64	9.57079E-001	5.99348E-003	0.00000E+000	5.73623E-003	3.59960E-001	-1.15139E+000	3.57730E+000	10	...........
	48	0.653333	9.62858E-001	5.99106E-003	0.00000E+000	5.76854E-003	3.59960E-001	-1.16022E+000	3.57730E+000	10	...........
	49	0.666667	9.68639E-001	5.98985E-003	0.00000E+000	5.80200E-003	3.59960E-001	-1.15748E+000	3.57730E+000	10	...........
	50	0.68	9.74356E-001	5.99263E-003	0.00000E+000	5.83896E-003	3.59960E-001	-1.15125E+000	3.57730E+000	10	...........
	51	0.693333	9.80020E-001	5.99088E-003	0.00000E+000	5.87119E-003	3.59960E-001	-1.15994E+000	3.57730E+000	10	...........
	52	0.706667	9.85655E-001	5.99520E-003	0.00000E+000	5.90920E-003	3.59960E-001	-1.15715E+000	3.57730E+000	10	...........
	53	0.72	9.91233E-001	5.99197E-003	0.00000E+000	5.93944E-003	3.59960E-001	-1.15140E+000	3.57730E+000	10	...........
	54	0.733333	9.96777E-001	5.99362E-003	0.00000E+000	5.97430E-003	3.59960E-001	-1.16012E+000	3.57730E+000	10	...........
	55	0.736667	1.00019E+000	5.99058E-003	0.00000E+000	5.99174E-003	3.59960E-001	-1.14002E+000	3.57730E+000	10	...........
STARTTIMEOFFSET	QUANT	1165.089	Start Time Offset (s)