File: Data/CV_CRGO300517_1/PWRCCD_CRGO300517_1/CHARGE_DISCHARGE/CHARGE_#542.DTA
EXPLAIN
TAG	PWR800_CHARGE
TITLE	LABEL	PWR Cyclic Charge Discharge (Cell) - Charge Step	Test &Identifier
DATE	LABEL	22-6-2017	Date
TIME	LABEL	15:57:32	Time
NOTES	NOTES	3	&Notes...
	supercap test cell
	0.6mg
	6M KOH
PSTAT	PSTAT	IFC5000-01520	Potentiostat
CAPACITY	QUANT	1.00000E-003	Capacity (A-hr)
CELLTYPE	SELECTOR	1	&Cell Type
WORKINGCONNECTION	SELECTOR	0	&Working Lead
MAXCHARGETIME	VARIABLEANDUNITS	1.00000E+002	s	1.00000E+002	second(s)	Max &Charge Time
CHARGECURRENT	QUANT	6.00000E-003	&Charge Current (A)
VOLTAGEFINISH	TWOPARAM	F	1.00000E-003	3.60000E+003	&Voltage Finish	 I (A) < 	Max Time(s)
SAMPLETIME	QUANT	1.00000E-002	Sa&mple Period (s)
CHARGESTOPAT1	MULTIPARAM	4	1.00000E+000	Charge Stop At &1	Voltage > Limit	V
CHARGESTOPAT2	MULTIPARAM	0	0.00000E+000	Charge Stop At &2	None	N/A
AESBHCSELECTOR	TOGGLE	F	Save Both Half Cells
IRCOMP	TOGGLE	F	IR &Measure
EOC	QUANT	0	Open Circuit (V)
SEQUENCER	TOGGLE	TRUE	Run as Sequence
PSTATMODEL	IQUANT	53	Pstat Model
PSTATSECTION	LABEL	IFC5000-01520	Pstat Section
PSTATSERIALNO	LABEL	01520	Pstat Serial Number
CTRLMODE	IQUANT	0	Control Mode
ELECTROMETER	IQUANT	1	RE=0 or CS=1
IESTAB	IQUANT	0	I/E Stability
CASPEED	IQUANT	4	Control Amp Speed
CONVENTION	IQUANT	1	Current Convention
ICHRANGE	IQUANT	2	Ich Range
ICHRANGEMODE	TOGGLE	T	Ich Auto Range
ICHOFFSETENABLE	TOGGLE	F	Ich Offset Enable
ICHOFFSET	QUANT	0	Ich Offset (V)
ICHFILTER	IQUANT	1	Ich Filter
VCHRANGE	IQUANT	2	Vch Range
VCHRANGEMODE	TOGGLE	T	Vch Auto Range
VCHOFFSETENABLE	TOGGLE	F	Vch Offset Enable
VCHOFFSET	QUANT	0	Vch Offset (V)
VCHFILTER	IQUANT	1	Vch Filter
IERANGELOWERLIMIT	IQUANT	9	I/E Range Lower Limit
IERANGEMODE	TOGGLE	F	I/E AutoRange
IERANGE	IQUANT	10	I/E Range
ACHSELECT	IQUANT	1	Ach Select
ACHRANGE	IQUANT	2	Ach Range
ACHOFFSETENABLE	TOGGLE	F	Ach Offset Enable
ACHOFFSET	QUANT	0	Ach Offset (V)
ACHFILTER	IQUANT	1	Ach Filter
CABLEID	IQUANT	14	Cable ID
DCCALDATE	LABEL	20-10-2016	DC Calibration Date
ACCALDATE	LABEL	12/3/2015	AC Calibration Date
FRAMEWORKVERSION	QUANT	7.01	Framework Version
INSTRUMENTVERSION	LABEL	4.00	Instrument Version
CURVE	TABLE	58
	Pt	T	Vf	Im	Vu	Pwr	Sig	Ach	Temp	IERange	Over
	#	s	V	A	V	W	V	V	deg C	#	bits
	0	0.013333	6.34765E-001	5.99299E-003	0.00000E+000	3.80414E-003	3.59960E-001	-1.11145E+000	3.57660E+000	10	...........
	1	0.026667	6.43726E-001	5.99245E-003	0.00000E+000	3.85749E-003	3.59960E-001	-1.12122E+000	3.57660E+000	10	...........
	2	0.04	6.51954E-001	5.99486E-003	0.00000E+000	3.90837E-003	3.59960E-001	-1.11598E+000	3.57660E+000	10	...........
	3	0.053333	6.59738E-001	5.99007E-003	0.00000E+000	3.95188E-003	3.59960E-001	-1.11135E+000	3.57660E+000	10	...........
	4	0.066667	6.67278E-001	5.99500E-003	0.00000E+000	4.00034E-003	3.59960E-001	-1.12187E+000	3.57660E+000	10	...........
	5	0.08	6.74614E-001	5.99074E-003	0.00000E+000	4.04143E-003	3.59960E-001	-1.11638E+000	3.57660E+000	10	...........
	6	0.093333	6.81740E-001	5.99151E-003	0.00000E+000	4.08465E-003	3.59960E-001	-1.11134E+000	3.57660E+000	10	...........
	7	0.106667	6.88803E-001	5.99926E-003	0.00000E+000	4.13230E-003	3.59960E-001	-1.12139E+000	3.57660E+000	10	...........
	8	0.12	6.95751E-001	5.99544E-003	0.00000E+000	4.17134E-003	3.59960E-001	-1.11615E+000	3.57660E+000	10	...........
	9	0.133333	7.02632E-001	5.99369E-003	0.00000E+000	4.21135E-003	3.59960E-001	-1.11171E+000	3.57660E+000	10	...........
	10	0.146667	7.09458E-001	5.98920E-003	0.00000E+000	4.24909E-003	3.59960E-001	-1.12190E+000	3.57660E+000	10	...........
	11	0.16	7.16274E-001	5.99045E-003	0.00000E+000	4.29081E-003	3.59960E-001	-1.11671E+000	3.57660E+000	10	...........
	12	0.173333	7.23042E-001	5.99335E-003	0.00000E+000	4.33344E-003	3.59960E-001	-1.11164E+000	3.57660E+000	10	...........
	13	0.186667	7.29713E-001	5.99131E-003	0.00000E+000	4.37193E-003	3.59960E-001	-1.12197E+000	3.57660E+000	10	...........
	14	0.2	7.36394E-001	5.99592E-003	0.00000E+000	4.41536E-003	3.59960E-001	-1.11744E+000	3.57660E+000	10	...........
	15	0.213333	7.43015E-001	5.99173E-003	0.00000E+000	4.45194E-003	3.59960E-001	-1.11242E+000	3.57660E+000	10	...........
	16	0.226667	7.49665E-001	5.99600E-003	0.00000E+000	4.49499E-003	3.59960E-001	-1.12199E+000	3.57660E+000	10	...........
	17	0.24	7.56283E-001	5.99318E-003	0.00000E+000	4.53254E-003	3.59960E-001	-1.11690E+000	3.57660E+000	10	...........
	18	0.253333	7.62876E-001	5.99623E-003	0.00000E+000	4.57438E-003	3.59960E-001	-1.11181E+000	3.57660E+000	10	...........
	19	0.266667	7.69451E-001	5.99397E-003	0.00000E+000	4.61207E-003	3.59960E-001	-1.12128E+000	3.57660E+000	10	...........
	20	0.28	7.75949E-001	5.99459E-003	0.00000E+000	4.65150E-003	3.59960E-001	-1.11657E+000	3.57660E+000	10	...........
	21	0.293333	7.82521E-001	5.99102E-003	0.00000E+000	4.68810E-003	3.59960E-001	-1.11136E+000	3.57660E+000	10	...........
	22	0.306667	7.89050E-001	5.99566E-003	0.00000E+000	4.73087E-003	3.59960E-001	-1.12091E+000	3.57660E+000	10	...........
	23	0.32	7.95567E-001	5.99359E-003	0.00000E+000	4.76831E-003	3.59960E-001	-1.11629E+000	3.57660E+000	10	...........
	24	0.333333	8.02030E-001	5.99431E-003	0.00000E+000	4.80762E-003	3.59960E-001	-1.11160E+000	3.57671E+000	10	...........
	25	0.346667	8.08463E-001	5.99119E-003	0.00000E+000	4.84366E-003	3.59960E-001	-1.12133E+000	3.57690E+000	10	...........
	26	0.36	8.14892E-001	5.99234E-003	0.00000E+000	4.88311E-003	3.59960E-001	-1.11663E+000	3.57690E+000	10	...........
	27	0.373333	8.21360E-001	5.99360E-003	0.00000E+000	4.92291E-003	3.59960E-001	-1.11143E+000	3.57690E+000	10	...........
	28	0.386667	8.27752E-001	5.99344E-003	0.00000E+000	4.96108E-003	3.59960E-001	-1.12120E+000	3.57690E+000	10	...........
	29	0.4	8.34113E-001	5.99622E-003	0.00000E+000	5.00152E-003	3.59960E-001	-1.11742E+000	3.57690E+000	10	...........
	30	0.413333	8.40459E-001	5.98947E-003	0.00000E+000	5.03391E-003	3.59960E-001	-1.11214E+000	3.57690E+000	10	...........
	31	0.426667	8.46837E-001	5.99416E-003	0.00000E+000	5.07608E-003	3.59960E-001	-1.12095E+000	3.57690E+000	10	...........
	32	0.44	8.53193E-001	5.99178E-003	0.00000E+000	5.11215E-003	3.59960E-001	-1.11668E+000	3.57690E+000	10	...........
	33	0.453333	8.59487E-001	5.99445E-003	0.00000E+000	5.15215E-003	3.59960E-001	-1.11136E+000	3.57690E+000	10	...........
	34	0.466667	8.65741E-001	5.99324E-003	0.00000E+000	5.18859E-003	3.59960E-001	-1.12107E+000	3.57690E+000	10	...........
	35	0.48	8.72080E-001	5.99346E-003	0.00000E+000	5.22678E-003	3.59960E-001	-1.11695E+000	3.57690E+000	10	...........
	36	0.493333	8.78305E-001	5.99545E-003	0.00000E+000	5.26584E-003	3.59960E-001	-1.11164E+000	3.57690E+000	10	...........
	37	0.506667	8.84539E-001	5.99088E-003	0.00000E+000	5.29917E-003	3.59960E-001	-1.12085E+000	3.57690E+000	10	...........
	38	0.52	8.90750E-001	5.99334E-003	0.00000E+000	5.33857E-003	3.59960E-001	-1.11689E+000	3.57690E+000	10	...........
	39	0.533333	8.96920E-001	5.99772E-003	0.00000E+000	5.37948E-003	3.59960E-001	-1.11217E+000	3.57690E+000	10	...........
	40	0.546667	9.03066E-001	5.99871E-003	0.00000E+000	5.41723E-003	3.59960E-001	-1.12142E+000	3.57690E+000	10	...........
	41	0.56	9.09110E-001	5.99193E-003	0.00000E+000	5.44733E-003	3.59960E-001	-1.11733E+000	3.57690E+000	10	...........
	42	0.573333	9.15185E-001	5.99629E-003	0.00000E+000	5.48772E-003	3.59960E-001	-1.11178E+000	3.57690E+000	10	...........
	43	0.586667	9.21294E-001	5.99185E-003	0.00000E+000	5.52025E-003	3.59960E-001	-1.12070E+000	3.57690E+000	10	...........
	44	0.6	9.27308E-001	5.98729E-003	0.00000E+000	5.55207E-003	3.59960E-001	-1.11753E+000	3.57690E+000	10	...........
	45	0.613333	9.33324E-001	5.99767E-003	0.00000E+000	5.59777E-003	3.59960E-001	-1.11224E+000	3.57690E+000	10	...........
	46	0.626667	9.39233E-001	5.99198E-003	0.00000E+000	5.62786E-003	3.59960E-001	-1.12134E+000	3.57690E+000	10	...........
	47	0.64	9.45142E-001	5.99658E-003	0.00000E+000	5.66762E-003	3.59960E-001	-1.11773E+000	3.57690E+000	10	...........
	48	0.653333	9.51016E-001	5.99797E-003	0.00000E+000	5.70417E-003	3.59960E-001	-1.11247E+000	3.57690E+000	10	...........
	49	0.666667	9.56813E-001	5.99316E-003	0.00000E+000	5.73433E-003	3.59960E-001	-1.12170E+000	3.57690E+000	10	...........
	50	0.68	9.62570E-001	5.98822E-003	0.00000E+000	5.76408E-003	3.59960E-001	-1.11873E+000	3.57690E+000	10	...........
	51	0.693333	9.68256E-001	5.98886E-003	0.00000E+000	5.79875E-003	3.59960E-001	-1.11316E+000	3.57690E+000	10	...........
	52	0.706667	9.74003E-001	5.99413E-003	0.00000E+000	5.83830E-003	3.59960E-001	-1.12222E+000	3.57690E+000	10	...........
	53	0.72	9.79666E-001	5.99526E-003	0.00000E+000	5.87336E-003	3.59960E-001	-1.11903E+000	3.57690E+000	10	...........
	54	0.733333	9.85270E-001	5.99550E-003	0.00000E+000	5.90719E-003	3.59960E-001	-1.11381E+000	3.57690E+000	10	...........
	55	0.746667	9.90824E-001	5.99420E-003	0.00000E+000	5.93920E-003	3.59960E-001	-1.12273E+000	3.57690E+000	10	...........
	56	0.76	9.96304E-001	5.99335E-003	0.00000E+000	5.97120E-003	3.59960E-001	-1.11956E+000	3.57690E+000	10	...........
	57	0.763333	9.99729E-001	5.99379E-003	0.00000E+000	5.99217E-003	3.59960E-001	-1.12562E+000	3.57690E+000	10	...........
STARTTIMEOFFSET	QUANT	923.3436	Start Time Offset (s)