File: Data/CV_CRGO300517_1/PWRCCD_CRGO300517_1/CHARGE_DISCHARGE/CHARGE_#324.DTA
EXPLAIN
TAG	PWR800_CHARGE
TITLE	LABEL	PWR Cyclic Charge Discharge (Cell) - Charge Step	Test &Identifier
DATE	LABEL	22-6-2017	Date
TIME	LABEL	15:48:54	Time
NOTES	NOTES	3	&Notes...
	supercap test cell
	0.6mg
	6M KOH
PSTAT	PSTAT	IFC5000-01520	Potentiostat
CAPACITY	QUANT	1.00000E-003	Capacity (A-hr)
CELLTYPE	SELECTOR	1	&Cell Type
WORKINGCONNECTION	SELECTOR	0	&Working Lead
MAXCHARGETIME	VARIABLEANDUNITS	1.00000E+002	s	1.00000E+002	second(s)	Max &Charge Time
CHARGECURRENT	QUANT	6.00000E-003	&Charge Current (A)
VOLTAGEFINISH	TWOPARAM	F	1.00000E-003	3.60000E+003	&Voltage Finish	 I (A) < 	Max Time(s)
SAMPLETIME	QUANT	1.00000E-002	Sa&mple Period (s)
CHARGESTOPAT1	MULTIPARAM	4	1.00000E+000	Charge Stop At &1	Voltage > Limit	V
CHARGESTOPAT2	MULTIPARAM	0	0.00000E+000	Charge Stop At &2	None	N/A
AESBHCSELECTOR	TOGGLE	F	Save Both Half Cells
IRCOMP	TOGGLE	F	IR &Measure
EOC	QUANT	0	Open Circuit (V)
SEQUENCER	TOGGLE	TRUE	Run as Sequence
PSTATMODEL	IQUANT	53	Pstat Model
PSTATSECTION	LABEL	IFC5000-01520	Pstat Section
PSTATSERIALNO	LABEL	01520	Pstat Serial Number
CTRLMODE	IQUANT	0	Control Mode
ELECTROMETER	IQUANT	1	RE=0 or CS=1
IESTAB	IQUANT	0	I/E Stability
CASPEED	IQUANT	4	Control Amp Speed
CONVENTION	IQUANT	1	Current Convention
ICHRANGE	IQUANT	2	Ich Range
ICHRANGEMODE	TOGGLE	T	Ich Auto Range
ICHOFFSETENABLE	TOGGLE	F	Ich Offset Enable
ICHOFFSET	QUANT	0	Ich Offset (V)
ICHFILTER	IQUANT	1	Ich Filter
VCHRANGE	IQUANT	2	Vch Range
VCHRANGEMODE	TOGGLE	T	Vch Auto Range
VCHOFFSETENABLE	TOGGLE	F	Vch Offset Enable
VCHOFFSET	QUANT	0	Vch Offset (V)
VCHFILTER	IQUANT	1	Vch Filter
IERANGELOWERLIMIT	IQUANT	9	I/E Range Lower Limit
IERANGEMODE	TOGGLE	F	I/E AutoRange
IERANGE	IQUANT	10	I/E Range
ACHSELECT	IQUANT	1	Ach Select
ACHRANGE	IQUANT	2	Ach Range
ACHOFFSETENABLE	TOGGLE	F	Ach Offset Enable
ACHOFFSET	QUANT	0	Ach Offset (V)
ACHFILTER	IQUANT	1	Ach Filter
CABLEID	IQUANT	14	Cable ID
DCCALDATE	LABEL	20-10-2016	DC Calibration Date
ACCALDATE	LABEL	12/3/2015	AC Calibration Date
FRAMEWORKVERSION	QUANT	7.01	Framework Version
INSTRUMENTVERSION	LABEL	4.00	Instrument Version
CURVE	TABLE	62
	Pt	T	Vf	Im	Vu	Pwr	Sig	Ach	Temp	IERange	Over
	#	s	V	A	V	W	V	V	deg C	#	bits
	0	0.013333	6.18613E-001	5.99366E-003	0.00000E+000	3.70775E-003	3.59960E-001	-1.11286E+000	3.57810E+000	10	...........
	1	0.026667	6.27236E-001	5.99595E-003	0.00000E+000	3.76088E-003	3.59960E-001	-1.12241E+000	3.57810E+000	10	...........
	2	0.04	6.35178E-001	5.99810E-003	0.00000E+000	3.80986E-003	3.59960E-001	-1.11704E+000	3.57810E+000	10	...........
	3	0.053333	6.42706E-001	5.98877E-003	0.00000E+000	3.84902E-003	3.59960E-001	-1.11260E+000	3.57810E+000	10	...........
	4	0.066667	6.49995E-001	5.99498E-003	0.00000E+000	3.89670E-003	3.59960E-001	-1.12204E+000	3.57810E+000	10	...........
	5	0.08	6.57082E-001	5.99344E-003	0.00000E+000	3.93818E-003	3.59960E-001	-1.11667E+000	3.57810E+000	10	...........
	6	0.093333	6.64017E-001	5.99400E-003	0.00000E+000	3.98012E-003	3.59960E-001	-1.11249E+000	3.57810E+000	10	...........
	7	0.106667	6.70836E-001	5.99417E-003	0.00000E+000	4.02110E-003	3.59960E-001	-1.12188E+000	3.57810E+000	10	...........
	8	0.12	6.77560E-001	5.99670E-003	0.00000E+000	4.06312E-003	3.59960E-001	-1.11659E+000	3.57810E+000	10	...........
	9	0.133333	6.84225E-001	5.99152E-003	0.00000E+000	4.09954E-003	3.59960E-001	-1.11204E+000	3.57810E+000	10	...........
	10	0.146667	6.90832E-001	5.99070E-003	0.00000E+000	4.13857E-003	3.59960E-001	-1.12158E+000	3.57810E+000	10	...........
	11	0.16	6.97386E-001	5.99491E-003	0.00000E+000	4.18076E-003	3.59960E-001	-1.11687E+000	3.57810E+000	10	...........
	12	0.173333	7.03913E-001	5.99472E-003	0.00000E+000	4.21976E-003	3.59960E-001	-1.11211E+000	3.57810E+000	10	...........
	13	0.186667	7.10358E-001	5.99429E-003	0.00000E+000	4.25809E-003	3.59960E-001	-1.12111E+000	3.57810E+000	10	...........
	14	0.2	7.16859E-001	5.99141E-003	0.00000E+000	4.29500E-003	3.59960E-001	-1.11663E+000	3.57810E+000	10	...........
	15	0.213333	7.23332E-001	5.99503E-003	0.00000E+000	4.33640E-003	3.59960E-001	-1.11209E+000	3.57810E+000	10	...........
	16	0.226667	7.29690E-001	5.99571E-003	0.00000E+000	4.37501E-003	3.59960E-001	-1.12140E+000	3.57810E+000	10	...........
	17	0.24	7.36044E-001	5.99593E-003	0.00000E+000	4.41327E-003	3.59960E-001	-1.11683E+000	3.57810E+000	10	...........
	18	0.253333	7.42445E-001	5.99100E-003	0.00000E+000	4.44798E-003	3.59960E-001	-1.11175E+000	3.57810E+000	10	...........
	19	0.266667	7.48814E-001	5.99476E-003	0.00000E+000	4.48896E-003	3.59960E-001	-1.12106E+000	3.57810E+000	10	...........
	20	0.28	7.55181E-001	5.99306E-003	0.00000E+000	4.52585E-003	3.59960E-001	-1.11690E+000	3.57810E+000	10	...........
	21	0.293333	7.61473E-001	5.99052E-003	0.00000E+000	4.56162E-003	3.59960E-001	-1.11199E+000	3.57810E+000	10	...........
	22	0.306667	7.67814E-001	5.99546E-003	0.00000E+000	4.60340E-003	3.59960E-001	-1.12108E+000	3.57810E+000	10	...........
	23	0.32	7.74119E-001	5.99325E-003	0.00000E+000	4.63949E-003	3.59960E-001	-1.11670E+000	3.57810E+000	10	...........
	24	0.333333	7.80403E-001	5.99326E-003	0.00000E+000	4.67716E-003	3.59960E-001	-1.11180E+000	3.57810E+000	10	...........
	25	0.346667	7.86695E-001	5.99543E-003	0.00000E+000	4.71657E-003	3.59960E-001	-1.12074E+000	3.57810E+000	10	...........
	26	0.36	7.92984E-001	5.99551E-003	0.00000E+000	4.75434E-003	3.59960E-001	-1.11700E+000	3.57810E+000	10	...........
	27	0.373333	7.99259E-001	5.99278E-003	0.00000E+000	4.78978E-003	3.59960E-001	-1.11189E+000	3.57810E+000	10	...........
	28	0.386667	8.05481E-001	5.99695E-003	0.00000E+000	4.83043E-003	3.59960E-001	-1.12045E+000	3.57810E+000	10	...........
	29	0.4	8.11674E-001	5.99331E-003	0.00000E+000	4.86462E-003	3.59960E-001	-1.11686E+000	3.57810E+000	10	...........
	30	0.413333	8.17893E-001	5.99483E-003	0.00000E+000	4.90313E-003	3.59960E-001	-1.11160E+000	3.57810E+000	10	...........
	31	0.426667	8.24113E-001	5.99301E-003	0.00000E+000	4.93891E-003	3.59960E-001	-1.12029E+000	3.57810E+000	10	...........
	32	0.44	8.30312E-001	5.99520E-003	0.00000E+000	4.97789E-003	3.59960E-001	-1.11669E+000	3.57810E+000	10	...........
	33	0.453333	8.36511E-001	5.99977E-003	0.00000E+000	5.01887E-003	3.59960E-001	-1.11182E+000	3.57810E+000	10	...........
	34	0.466667	8.42667E-001	5.99287E-003	0.00000E+000	5.05000E-003	3.59960E-001	-1.12024E+000	3.57810E+000	10	...........
	35	0.48	8.48812E-001	5.99060E-003	0.00000E+000	5.08489E-003	3.59960E-001	-1.11720E+000	3.57810E+000	10	...........
	36	0.493333	8.54985E-001	5.98936E-003	0.00000E+000	5.12081E-003	3.59960E-001	-1.11182E+000	3.57810E+000	10	...........
	37	0.506667	8.61099E-001	5.99141E-003	0.00000E+000	5.15920E-003	3.59960E-001	-1.12021E+000	3.57810E+000	10	...........
	38	0.52	8.67222E-001	5.99008E-003	0.00000E+000	5.19473E-003	3.59960E-001	-1.11735E+000	3.57810E+000	10	...........
	39	0.533333	8.73342E-001	5.98968E-003	0.00000E+000	5.23104E-003	3.59960E-001	-1.11191E+000	3.57810E+000	10	...........
	40	0.546667	8.79388E-001	5.99650E-003	0.00000E+000	5.27325E-003	3.59960E-001	-1.11989E+000	3.57810E+000	10	...........
	41	0.56	8.85480E-001	5.99034E-003	0.00000E+000	5.30433E-003	3.59960E-001	-1.11718E+000	3.57810E+000	10	...........
	42	0.573333	8.91526E-001	5.99548E-003	0.00000E+000	5.34513E-003	3.59960E-001	-1.11192E+000	3.57810E+000	10	...........
	43	0.586667	8.97557E-001	5.99944E-003	0.00000E+000	5.38485E-003	3.59960E-001	-1.12003E+000	3.57810E+000	10	...........
	44	0.6	9.03548E-001	5.99788E-003	0.00000E+000	5.41937E-003	3.59960E-001	-1.11750E+000	3.57810E+000	10	...........
	45	0.613333	9.09527E-001	5.99639E-003	0.00000E+000	5.45388E-003	3.59960E-001	-1.11199E+000	3.57810E+000	10	...........
	46	0.626667	9.15449E-001	5.99647E-003	0.00000E+000	5.48946E-003	3.59960E-001	-1.11990E+000	3.57915E+000	10	...........
	47	0.64	9.21439E-001	5.99616E-003	0.00000E+000	5.52509E-003	3.59960E-001	-1.11778E+000	3.58020E+000	10	...........
	48	0.653333	9.27332E-001	5.99352E-003	0.00000E+000	5.55798E-003	3.59960E-001	-1.11223E+000	3.58020E+000	10	...........
	49	0.666667	9.33219E-001	5.99106E-003	0.00000E+000	5.59097E-003	3.59960E-001	-1.12003E+000	3.58020E+000	10	...........
	50	0.68	9.39046E-001	5.99395E-003	0.00000E+000	5.62860E-003	3.59960E-001	-1.11791E+000	3.58020E+000	10	...........
	51	0.693333	9.44826E-001	5.99408E-003	0.00000E+000	5.66337E-003	3.59960E-001	-1.11184E+000	3.58020E+000	10	...........
	52	0.706667	9.50656E-001	5.99457E-003	0.00000E+000	5.69878E-003	3.59960E-001	-1.11973E+000	3.58020E+000	10	...........
	53	0.72	9.56342E-001	5.99531E-003	0.00000E+000	5.73357E-003	3.59960E-001	-1.11779E+000	3.58020E+000	10	...........
	54	0.733333	9.61972E-001	5.99910E-003	0.00000E+000	5.77097E-003	3.59960E-001	-1.11157E+000	3.58020E+000	10	...........
	55	0.746667	9.67622E-001	5.99220E-003	0.00000E+000	5.79818E-003	3.59960E-001	-1.11915E+000	3.58020E+000	10	...........
	56	0.76	9.73248E-001	5.99272E-003	0.00000E+000	5.83240E-003	3.59960E-001	-1.11720E+000	3.58020E+000	10	...........
	57	0.773333	9.78854E-001	5.99086E-003	0.00000E+000	5.86418E-003	3.59960E-001	-1.11129E+000	3.58020E+000	10	...........
	58	0.786667	9.84404E-001	5.99366E-003	0.00000E+000	5.90018E-003	3.59960E-001	-1.11901E+000	3.58020E+000	10	...........
	59	0.8	9.89904E-001	5.99684E-003	0.00000E+000	5.93629E-003	3.59960E-001	-1.11736E+000	3.58020E+000	10	...........
	60	0.813333	9.95270E-001	5.99290E-003	0.00000E+000	5.96456E-003	3.59960E-001	-1.11124E+000	3.58020E+000	10	...........
	61	0.82	9.99351E-001	5.99594E-003	0.00000E+000	5.99205E-003	3.59960E-001	-1.12484E+000	3.58020E+000	10	...........
STARTTIMEOFFSET	QUANT	580.4664	Start Time Offset (s)