File: Data/CV_CRGO300517_1/PWRCCD_CRGO300517_1/CHARGE_DISCHARGE/CHARGE_#191.DTA
EXPLAIN
TAG	PWR800_CHARGE
TITLE	LABEL	PWR Cyclic Charge Discharge (Cell) - Charge Step	Test &Identifier
DATE	LABEL	22-6-2017	Date
TIME	LABEL	15:43:25	Time
NOTES	NOTES	3	&Notes...
	supercap test cell
	0.6mg
	6M KOH
PSTAT	PSTAT	IFC5000-01520	Potentiostat
CAPACITY	QUANT	1.00000E-003	Capacity (A-hr)
CELLTYPE	SELECTOR	1	&Cell Type
WORKINGCONNECTION	SELECTOR	0	&Working Lead
MAXCHARGETIME	VARIABLEANDUNITS	1.00000E+002	s	1.00000E+002	second(s)	Max &Charge Time
CHARGECURRENT	QUANT	6.00000E-003	&Charge Current (A)
VOLTAGEFINISH	TWOPARAM	F	1.00000E-003	3.60000E+003	&Voltage Finish	 I (A) < 	Max Time(s)
SAMPLETIME	QUANT	1.00000E-002	Sa&mple Period (s)
CHARGESTOPAT1	MULTIPARAM	4	1.00000E+000	Charge Stop At &1	Voltage > Limit	V
CHARGESTOPAT2	MULTIPARAM	0	0.00000E+000	Charge Stop At &2	None	N/A
AESBHCSELECTOR	TOGGLE	F	Save Both Half Cells
IRCOMP	TOGGLE	F	IR &Measure
EOC	QUANT	0	Open Circuit (V)
SEQUENCER	TOGGLE	TRUE	Run as Sequence
PSTATMODEL	IQUANT	53	Pstat Model
PSTATSECTION	LABEL	IFC5000-01520	Pstat Section
PSTATSERIALNO	LABEL	01520	Pstat Serial Number
CTRLMODE	IQUANT	0	Control Mode
ELECTROMETER	IQUANT	1	RE=0 or CS=1
IESTAB	IQUANT	0	I/E Stability
CASPEED	IQUANT	4	Control Amp Speed
CONVENTION	IQUANT	1	Current Convention
ICHRANGE	IQUANT	2	Ich Range
ICHRANGEMODE	TOGGLE	T	Ich Auto Range
ICHOFFSETENABLE	TOGGLE	F	Ich Offset Enable
ICHOFFSET	QUANT	0	Ich Offset (V)
ICHFILTER	IQUANT	1	Ich Filter
VCHRANGE	IQUANT	2	Vch Range
VCHRANGEMODE	TOGGLE	T	Vch Auto Range
VCHOFFSETENABLE	TOGGLE	F	Vch Offset Enable
VCHOFFSET	QUANT	0	Vch Offset (V)
VCHFILTER	IQUANT	1	Vch Filter
IERANGELOWERLIMIT	IQUANT	9	I/E Range Lower Limit
IERANGEMODE	TOGGLE	F	I/E AutoRange
IERANGE	IQUANT	10	I/E Range
ACHSELECT	IQUANT	1	Ach Select
ACHRANGE	IQUANT	2	Ach Range
ACHOFFSETENABLE	TOGGLE	F	Ach Offset Enable
ACHOFFSET	QUANT	0	Ach Offset (V)
ACHFILTER	IQUANT	1	Ach Filter
CABLEID	IQUANT	14	Cable ID
DCCALDATE	LABEL	20-10-2016	DC Calibration Date
ACCALDATE	LABEL	12/3/2015	AC Calibration Date
FRAMEWORKVERSION	QUANT	7.01	Framework Version
INSTRUMENTVERSION	LABEL	4.00	Instrument Version
CURVE	TABLE	66
	Pt	T	Vf	Im	Vu	Pwr	Sig	Ach	Temp	IERange	Over
	#	s	V	A	V	W	V	V	deg C	#	bits
	0	0.013333	6.04518E-001	5.99352E-003	0.00000E+000	3.62319E-003	3.59960E-001	-1.08408E+000	3.57720E+000	10	...........
	1	0.026667	6.12978E-001	5.99457E-003	0.00000E+000	3.67454E-003	3.59960E-001	-1.08651E+000	3.57720E+000	10	...........
	2	0.04	6.20773E-001	5.99269E-003	0.00000E+000	3.72009E-003	3.59960E-001	-1.09427E+000	3.57720E+000	10	...........
	3	0.053333	6.28092E-001	5.99486E-003	0.00000E+000	3.76532E-003	3.59960E-001	-1.08459E+000	3.57720E+000	10	...........
	4	0.066667	6.35155E-001	5.99176E-003	0.00000E+000	3.80570E-003	3.59960E-001	-1.08655E+000	3.57720E+000	10	...........
	5	0.08	6.42057E-001	5.99385E-003	0.00000E+000	3.84839E-003	3.59960E-001	-1.09414E+000	3.57720E+000	10	...........
	6	0.093333	6.48795E-001	5.98962E-003	0.00000E+000	3.88604E-003	3.59960E-001	-1.08408E+000	3.57720E+000	10	...........
	7	0.106667	6.55432E-001	5.99504E-003	0.00000E+000	3.92934E-003	3.59960E-001	-1.08620E+000	3.57720E+000	10	...........
	8	0.12	6.62009E-001	5.98995E-003	0.00000E+000	3.96540E-003	3.59960E-001	-1.09439E+000	3.57720E+000	10	...........
	9	0.133333	6.68486E-001	5.99117E-003	0.00000E+000	4.00502E-003	3.59960E-001	-1.08409E+000	3.57720E+000	10	...........
	10	0.146667	6.74888E-001	5.99231E-003	0.00000E+000	4.04414E-003	3.59960E-001	-1.08574E+000	3.57720E+000	10	...........
	11	0.16	6.81276E-001	5.99653E-003	0.00000E+000	4.08530E-003	3.59960E-001	-1.09392E+000	3.57720E+000	10	...........
	12	0.173333	6.87605E-001	5.99417E-003	0.00000E+000	4.12162E-003	3.59960E-001	-1.08409E+000	3.57720E+000	10	...........
	13	0.186667	6.93916E-001	5.99346E-003	0.00000E+000	4.15896E-003	3.59960E-001	-1.08566E+000	3.57720E+000	10	...........
	14	0.2	7.00187E-001	5.99589E-003	0.00000E+000	4.19824E-003	3.59960E-001	-1.09428E+000	3.57720E+000	10	...........
	15	0.213333	7.06460E-001	5.99199E-003	0.00000E+000	4.23310E-003	3.59960E-001	-1.08393E+000	3.57720E+000	10	...........
	16	0.226667	7.12679E-001	5.99709E-003	0.00000E+000	4.27400E-003	3.59960E-001	-1.08543E+000	3.57720E+000	10	...........
	17	0.24	7.18918E-001	5.99340E-003	0.00000E+000	4.30876E-003	3.59960E-001	-1.09439E+000	3.57720E+000	10	...........
	18	0.253333	7.25116E-001	5.99644E-003	0.00000E+000	4.34812E-003	3.59960E-001	-1.08432E+000	3.57720E+000	10	...........
	19	0.266667	7.31280E-001	5.99705E-003	0.00000E+000	4.38552E-003	3.59960E-001	-1.08538E+000	3.57720E+000	10	...........
	20	0.28	7.37417E-001	5.99065E-003	0.00000E+000	4.41761E-003	3.59960E-001	-1.09414E+000	3.57720E+000	10	...........
	21	0.293333	7.43597E-001	5.99504E-003	0.00000E+000	4.45789E-003	3.59960E-001	-1.08403E+000	3.57720E+000	10	...........
	22	0.306667	7.49695E-001	5.98897E-003	0.00000E+000	4.48990E-003	3.59960E-001	-1.08499E+000	3.57741E+000	10	...........
	23	0.32	7.55852E-001	5.99078E-003	0.00000E+000	4.52814E-003	3.59960E-001	-1.09431E+000	3.57760E+000	10	...........
	24	0.333333	7.61979E-001	5.99303E-003	0.00000E+000	4.56656E-003	3.59960E-001	-1.08413E+000	3.57760E+000	10	...........
	25	0.346667	7.68056E-001	5.99042E-003	0.00000E+000	4.60098E-003	3.59960E-001	-1.08484E+000	3.57760E+000	10	...........
	26	0.36	7.74219E-001	5.99578E-003	0.00000E+000	4.64205E-003	3.59960E-001	-1.09417E+000	3.57760E+000	10	...........
	27	0.373333	7.80275E-001	5.99403E-003	0.00000E+000	4.67699E-003	3.59960E-001	-1.08425E+000	3.57760E+000	10	...........
	28	0.386667	7.86354E-001	5.99156E-003	0.00000E+000	4.71149E-003	3.59960E-001	-1.08487E+000	3.57760E+000	10	...........
	29	0.4	7.92458E-001	5.99485E-003	0.00000E+000	4.75067E-003	3.59960E-001	-1.09436E+000	3.57760E+000	10	...........
	30	0.413333	7.98521E-001	5.99214E-003	0.00000E+000	4.78485E-003	3.59960E-001	-1.08401E+000	3.57760E+000	10	...........
	31	0.426667	8.04572E-001	5.99513E-003	0.00000E+000	4.82351E-003	3.59960E-001	-1.08446E+000	3.57760E+000	10	...........
	32	0.44	8.10634E-001	5.99885E-003	0.00000E+000	4.86287E-003	3.59960E-001	-1.09425E+000	3.57760E+000	10	...........
	33	0.453333	8.16666E-001	5.99773E-003	0.00000E+000	4.89815E-003	3.59960E-001	-1.08380E+000	3.57760E+000	10	...........
	34	0.466667	8.22710E-001	5.99256E-003	0.00000E+000	4.93014E-003	3.59960E-001	-1.08385E+000	3.57760E+000	10	...........
	35	0.48	8.28757E-001	5.99690E-003	0.00000E+000	4.96997E-003	3.59960E-001	-1.09363E+000	3.57760E+000	10	...........
	36	0.493333	8.34780E-001	5.99492E-003	0.00000E+000	5.00444E-003	3.59960E-001	-1.08368E+000	3.57760E+000	10	...........
	37	0.506667	8.40789E-001	5.99401E-003	0.00000E+000	5.03970E-003	3.59960E-001	-1.08379E+000	3.57760E+000	10	...........
	38	0.52	8.46862E-001	5.99565E-003	0.00000E+000	5.07749E-003	3.59960E-001	-1.09370E+000	3.57760E+000	10	...........
	39	0.533333	8.52883E-001	5.99366E-003	0.00000E+000	5.11189E-003	3.59960E-001	-1.08382E+000	3.57760E+000	10	...........
	40	0.546667	8.58833E-001	5.99433E-003	0.00000E+000	5.14813E-003	3.59960E-001	-1.08341E+000	3.57760E+000	10	...........
	41	0.56	8.64823E-001	5.99358E-003	0.00000E+000	5.18339E-003	3.59960E-001	-1.09345E+000	3.57760E+000	10	...........
	42	0.573333	8.70821E-001	5.99408E-003	0.00000E+000	5.21978E-003	3.59960E-001	-1.08370E+000	3.57760E+000	10	...........
	43	0.586667	8.76767E-001	5.99435E-003	0.00000E+000	5.25565E-003	3.59960E-001	-1.08330E+000	3.57760E+000	10	...........
	44	0.6	8.82713E-001	5.99139E-003	0.00000E+000	5.28868E-003	3.59960E-001	-1.09332E+000	3.57760E+000	10	...........
	45	0.613333	8.88658E-001	5.99134E-003	0.00000E+000	5.32425E-003	3.59960E-001	-1.08373E+000	3.57760E+000	10	...........
	46	0.626667	8.94524E-001	5.99239E-003	0.00000E+000	5.36034E-003	3.59960E-001	-1.08277E+000	3.57760E+000	10	...........
	47	0.64	9.00431E-001	5.99308E-003	0.00000E+000	5.39636E-003	3.59960E-001	-1.09329E+000	3.57760E+000	10	...........
	48	0.653333	9.06277E-001	5.99456E-003	0.00000E+000	5.43273E-003	3.59960E-001	-1.08382E+000	3.57760E+000	10	...........
	49	0.666667	9.12165E-001	5.99092E-003	0.00000E+000	5.46471E-003	3.59960E-001	-1.08310E+000	3.57760E+000	10	...........
	50	0.68	9.17990E-001	5.99643E-003	0.00000E+000	5.50466E-003	3.59960E-001	-1.09350E+000	3.57760E+000	10	...........
	51	0.693333	9.23842E-001	5.99701E-003	0.00000E+000	5.54029E-003	3.59960E-001	-1.08411E+000	3.57760E+000	10	...........
	52	0.706667	9.29610E-001	5.99894E-003	0.00000E+000	5.57668E-003	3.59960E-001	-1.08311E+000	3.57760E+000	10	...........
	53	0.72	9.35384E-001	5.99598E-003	0.00000E+000	5.60854E-003	3.59960E-001	-1.09353E+000	3.57760E+000	10	...........
	54	0.733333	9.41093E-001	5.99651E-003	0.00000E+000	5.64328E-003	3.59960E-001	-1.08406E+000	3.57760E+000	10	...........
	55	0.746667	9.46787E-001	5.99689E-003	0.00000E+000	5.67778E-003	3.59960E-001	-1.08286E+000	3.57760E+000	10	...........
	56	0.76	9.52409E-001	5.98993E-003	0.00000E+000	5.70486E-003	3.59960E-001	-1.09331E+000	3.57760E+000	10	...........
	57	0.773333	9.58046E-001	5.99554E-003	0.00000E+000	5.74401E-003	3.59960E-001	-1.08383E+000	3.57760E+000	10	...........
	58	0.786667	9.63631E-001	5.99371E-003	0.00000E+000	5.77572E-003	3.59960E-001	-1.08252E+000	3.57760E+000	10	...........
	59	0.8	9.69161E-001	5.99507E-003	0.00000E+000	5.81019E-003	3.59960E-001	-1.09308E+000	3.57760E+000	10	...........
	60	0.813333	9.74736E-001	6.00030E-003	0.00000E+000	5.84871E-003	3.59960E-001	-1.08397E+000	3.57760E+000	10	...........
	61	0.826667	9.80224E-001	5.99744E-003	0.00000E+000	5.87884E-003	3.59960E-001	-1.08256E+000	3.57760E+000	10	...........
	62	0.84	9.85729E-001	5.99257E-003	0.00000E+000	5.90705E-003	3.59960E-001	-1.09312E+000	3.57760E+000	10	...........
	63	0.853333	9.91108E-001	5.99228E-003	0.00000E+000	5.93900E-003	3.59960E-001	-1.08393E+000	3.57760E+000	10	...........
	64	0.866667	9.96525E-001	5.99224E-003	0.00000E+000	5.97142E-003	3.59960E-001	-1.08241E+000	3.57760E+000	10	...........
	65	0.87	9.99864E-001	5.99454E-003	0.00000E+000	5.99373E-003	3.59960E-001	-1.09353E+000	3.57760E+000	10	...........
STARTTIMEOFFSET	QUANT	357.4268	Start Time Offset (s)