File: Data/CV_CRGO300517_1/PWRCCD_CRGO300517_1/CHARGE_DISCHARGE/CHARGE_#761.DTA
EXPLAIN
TAG	PWR800_CHARGE
TITLE	LABEL	PWR Cyclic Charge Discharge (Cell) - Charge Step	Test &Identifier
DATE	LABEL	22-6-2017	Date
TIME	LABEL	16:05:50	Time
NOTES	NOTES	3	&Notes...
	supercap test cell
	0.6mg
	6M KOH
PSTAT	PSTAT	IFC5000-01520	Potentiostat
CAPACITY	QUANT	1.00000E-003	Capacity (A-hr)
CELLTYPE	SELECTOR	1	&Cell Type
WORKINGCONNECTION	SELECTOR	0	&Working Lead
MAXCHARGETIME	VARIABLEANDUNITS	1.00000E+002	s	1.00000E+002	second(s)	Max &Charge Time
CHARGECURRENT	QUANT	6.00000E-003	&Charge Current (A)
VOLTAGEFINISH	TWOPARAM	F	1.00000E-003	3.60000E+003	&Voltage Finish	 I (A) < 	Max Time(s)
SAMPLETIME	QUANT	1.00000E-002	Sa&mple Period (s)
CHARGESTOPAT1	MULTIPARAM	4	1.00000E+000	Charge Stop At &1	Voltage > Limit	V
CHARGESTOPAT2	MULTIPARAM	0	0.00000E+000	Charge Stop At &2	None	N/A
AESBHCSELECTOR	TOGGLE	F	Save Both Half Cells
IRCOMP	TOGGLE	F	IR &Measure
EOC	QUANT	0	Open Circuit (V)
SEQUENCER	TOGGLE	TRUE	Run as Sequence
PSTATMODEL	IQUANT	53	Pstat Model
PSTATSECTION	LABEL	IFC5000-01520	Pstat Section
PSTATSERIALNO	LABEL	01520	Pstat Serial Number
CTRLMODE	IQUANT	0	Control Mode
ELECTROMETER	IQUANT	1	RE=0 or CS=1
IESTAB	IQUANT	0	I/E Stability
CASPEED	IQUANT	4	Control Amp Speed
CONVENTION	IQUANT	1	Current Convention
ICHRANGE	IQUANT	2	Ich Range
ICHRANGEMODE	TOGGLE	T	Ich Auto Range
ICHOFFSETENABLE	TOGGLE	F	Ich Offset Enable
ICHOFFSET	QUANT	0	Ich Offset (V)
ICHFILTER	IQUANT	1	Ich Filter
VCHRANGE	IQUANT	2	Vch Range
VCHRANGEMODE	TOGGLE	T	Vch Auto Range
VCHOFFSETENABLE	TOGGLE	F	Vch Offset Enable
VCHOFFSET	QUANT	0	Vch Offset (V)
VCHFILTER	IQUANT	1	Vch Filter
IERANGELOWERLIMIT	IQUANT	9	I/E Range Lower Limit
IERANGEMODE	TOGGLE	F	I/E AutoRange
IERANGE	IQUANT	10	I/E Range
ACHSELECT	IQUANT	1	Ach Select
ACHRANGE	IQUANT	2	Ach Range
ACHOFFSETENABLE	TOGGLE	F	Ach Offset Enable
ACHOFFSET	QUANT	0	Ach Offset (V)
ACHFILTER	IQUANT	1	Ach Filter
CABLEID	IQUANT	14	Cable ID
DCCALDATE	LABEL	20-10-2016	DC Calibration Date
ACCALDATE	LABEL	12/3/2015	AC Calibration Date
FRAMEWORKVERSION	QUANT	7.01	Framework Version
INSTRUMENTVERSION	LABEL	4.00	Instrument Version
CURVE	TABLE	55
	Pt	T	Vf	Im	Vu	Pwr	Sig	Ach	Temp	IERange	Over
	#	s	V	A	V	W	V	V	deg C	#	bits
	0	0.013333	6.46698E-001	5.99524E-003	0.00000E+000	3.87711E-003	3.59960E-001	-1.15984E+000	3.57680E+000	10	...........
	1	0.026667	6.55817E-001	5.99186E-003	0.00000E+000	3.92956E-003	3.59960E-001	-1.16821E+000	3.57680E+000	10	...........
	2	0.04	6.64236E-001	5.99664E-003	0.00000E+000	3.98318E-003	3.59960E-001	-1.16626E+000	3.57680E+000	10	...........
	3	0.053333	6.72214E-001	5.99563E-003	0.00000E+000	4.03035E-003	3.59960E-001	-1.15997E+000	3.57680E+000	10	...........
	4	0.066667	6.79886E-001	5.99359E-003	0.00000E+000	4.07496E-003	3.59960E-001	-1.16835E+000	3.57680E+000	10	...........
	5	0.08	6.87408E-001	5.99637E-003	0.00000E+000	4.12195E-003	3.59960E-001	-1.16602E+000	3.57680E+000	10	...........
	6	0.093333	6.94741E-001	5.99298E-003	0.00000E+000	4.16357E-003	3.59960E-001	-1.15987E+000	3.57680E+000	10	...........
	7	0.106667	7.01968E-001	5.99733E-003	0.00000E+000	4.20993E-003	3.59960E-001	-1.16835E+000	3.57680E+000	10	...........
	8	0.12	7.09086E-001	5.99946E-003	0.00000E+000	4.25413E-003	3.59960E-001	-1.16610E+000	3.57680E+000	10	...........
	9	0.133333	7.16158E-001	5.99537E-003	0.00000E+000	4.29363E-003	3.59960E-001	-1.15987E+000	3.57680E+000	10	...........
	10	0.146667	7.23194E-001	5.99544E-003	0.00000E+000	4.33587E-003	3.59960E-001	-1.16797E+000	3.57680E+000	10	...........
	11	0.16	7.30115E-001	5.99641E-003	0.00000E+000	4.37807E-003	3.59960E-001	-1.16572E+000	3.57680E+000	10	...........
	12	0.173333	7.36974E-001	5.99249E-003	0.00000E+000	4.41631E-003	3.59960E-001	-1.15920E+000	3.57680E+000	10	...........
	13	0.186667	7.43867E-001	5.99336E-003	0.00000E+000	4.45826E-003	3.59960E-001	-1.16773E+000	3.57680E+000	10	...........
	14	0.2	7.50691E-001	5.99487E-003	0.00000E+000	4.50029E-003	3.59960E-001	-1.16553E+000	3.57680E+000	10	...........
	15	0.213333	7.57519E-001	5.99313E-003	0.00000E+000	4.53991E-003	3.59960E-001	-1.15932E+000	3.57680E+000	10	...........
	16	0.226667	7.64246E-001	5.99405E-003	0.00000E+000	4.58093E-003	3.59960E-001	-1.16764E+000	3.57680E+000	10	...........
	17	0.24	7.70998E-001	5.99037E-003	0.00000E+000	4.61856E-003	3.59960E-001	-1.16558E+000	3.57680E+000	10	...........
	18	0.253333	7.77722E-001	5.99511E-003	0.00000E+000	4.66252E-003	3.59960E-001	-1.15943E+000	3.57680E+000	10	...........
	19	0.266667	7.84436E-001	5.99005E-003	0.00000E+000	4.69881E-003	3.59960E-001	-1.16771E+000	3.57680E+000	10	...........
	20	0.28	7.91078E-001	5.99354E-003	0.00000E+000	4.74136E-003	3.59960E-001	-1.16527E+000	3.57680E+000	10	...........
	21	0.293333	7.97745E-001	5.98816E-003	0.00000E+000	4.77703E-003	3.59960E-001	-1.15926E+000	3.57680E+000	10	...........
	22	0.306667	8.04398E-001	5.99480E-003	0.00000E+000	4.82221E-003	3.59960E-001	-1.16791E+000	3.57680E+000	10	...........
	23	0.32	8.10939E-001	5.99042E-003	0.00000E+000	4.85787E-003	3.59960E-001	-1.16541E+000	3.57680E+000	10	...........
	24	0.333333	8.17550E-001	5.99049E-003	0.00000E+000	4.89752E-003	3.59960E-001	-1.15926E+000	3.57680E+000	10	...........
	25	0.346667	8.24126E-001	5.99013E-003	0.00000E+000	4.93662E-003	3.59960E-001	-1.16773E+000	3.57680E+000	10	...........
	26	0.36	8.30643E-001	5.99486E-003	0.00000E+000	4.97958E-003	3.59960E-001	-1.16520E+000	3.57680E+000	10	...........
	27	0.373333	8.37144E-001	5.99614E-003	0.00000E+000	5.01963E-003	3.59960E-001	-1.15939E+000	3.57680E+000	10	...........
	28	0.386667	8.43642E-001	5.99083E-003	0.00000E+000	5.05412E-003	3.59960E-001	-1.16804E+000	3.57680E+000	10	...........
	29	0.4	8.50125E-001	5.99680E-003	0.00000E+000	5.09802E-003	3.59960E-001	-1.16537E+000	3.57680E+000	10	...........
	30	0.413333	8.56591E-001	6.00006E-003	0.00000E+000	5.13960E-003	3.59960E-001	-1.15931E+000	3.57680E+000	10	...........
	31	0.426667	8.63053E-001	5.99730E-003	0.00000E+000	5.17599E-003	3.59960E-001	-1.16805E+000	3.57680E+000	10	...........
	32	0.44	8.69472E-001	5.98877E-003	0.00000E+000	5.20707E-003	3.59960E-001	-1.16529E+000	3.57680E+000	10	...........
	33	0.453333	8.75814E-001	5.99407E-003	0.00000E+000	5.24969E-003	3.59960E-001	-1.15946E+000	3.57680E+000	10	...........
	34	0.466667	8.82162E-001	5.99433E-003	0.00000E+000	5.28797E-003	3.59960E-001	-1.16794E+000	3.57680E+000	10	...........
	35	0.48	8.88460E-001	5.99330E-003	0.00000E+000	5.32481E-003	3.59960E-001	-1.16504E+000	3.57680E+000	10	...........
	36	0.493333	8.94711E-001	5.99619E-003	0.00000E+000	5.36486E-003	3.59960E-001	-1.15884E+000	3.57680E+000	10	...........
	37	0.506667	9.01009E-001	5.99656E-003	0.00000E+000	5.40295E-003	3.59960E-001	-1.16762E+000	3.57680E+000	10	...........
	38	0.52	9.07178E-001	5.99086E-003	0.00000E+000	5.43478E-003	3.59960E-001	-1.16498E+000	3.57680E+000	10	...........
	39	0.533333	9.13329E-001	5.99285E-003	0.00000E+000	5.47345E-003	3.59960E-001	-1.15892E+000	3.57680E+000	10	...........
	40	0.546667	9.19530E-001	5.99067E-003	0.00000E+000	5.50861E-003	3.59960E-001	-1.16758E+000	3.57680E+000	10	...........
	41	0.56	9.25653E-001	5.99740E-003	0.00000E+000	5.55151E-003	3.59960E-001	-1.16471E+000	3.57680E+000	10	...........
	42	0.573333	9.31711E-001	5.99837E-003	0.00000E+000	5.58875E-003	3.59960E-001	-1.15897E+000	3.57680E+000	10	...........
	43	0.586667	9.37765E-001	5.99466E-003	0.00000E+000	5.62158E-003	3.59960E-001	-1.16776E+000	3.57680E+000	10	...........
	44	0.6	9.43757E-001	5.99735E-003	0.00000E+000	5.66004E-003	3.59960E-001	-1.16492E+000	3.57680E+000	10	...........
	45	0.613333	9.49690E-001	5.99439E-003	0.00000E+000	5.69281E-003	3.59960E-001	-1.15872E+000	3.57680E+000	10	...........
	46	0.626667	9.55563E-001	5.99047E-003	0.00000E+000	5.72427E-003	3.59960E-001	-1.16755E+000	3.57680E+000	10	...........
	47	0.64	9.61427E-001	5.99329E-003	0.00000E+000	5.76211E-003	3.59960E-001	-1.16481E+000	3.57680E+000	10	...........
	48	0.653333	9.67216E-001	5.98954E-003	0.00000E+000	5.79317E-003	3.59960E-001	-1.15894E+000	3.57680E+000	10	...........
	49	0.666667	9.72990E-001	5.99469E-003	0.00000E+000	5.83277E-003	3.59960E-001	-1.16771E+000	3.57680E+000	10	...........
	50	0.68	9.78726E-001	5.99321E-003	0.00000E+000	5.86571E-003	3.59960E-001	-1.16467E+000	3.57680E+000	10	...........
	51	0.693333	9.84337E-001	5.99697E-003	0.00000E+000	5.90304E-003	3.59960E-001	-1.15895E+000	3.57680E+000	10	...........
	52	0.706667	9.89925E-001	5.99494E-003	0.00000E+000	5.93454E-003	3.59960E-001	-1.16790E+000	3.57680E+000	10	...........
	53	0.72	9.95497E-001	5.99319E-003	0.00000E+000	5.96620E-003	3.59960E-001	-1.16513E+000	3.57680E+000	10	...........
	54	0.725	9.99304E-001	5.98578E-003	0.00000E+000	5.98161E-003	3.59960E-001	-1.16652E+000	3.57680E+000	10	...........
STARTTIMEOFFSET	QUANT	1247.993	Start Time Offset (s)