File: Data/CV_CRGO300517_1/PWRCCD_CRGO300517_1/CHARGE_DISCHARGE/CHARGE_#596.DTA
EXPLAIN
TAG	PWR800_CHARGE
TITLE	LABEL	PWR Cyclic Charge Discharge (Cell) - Charge Step	Test &Identifier
DATE	LABEL	22-6-2017	Date
TIME	LABEL	15:59:37	Time
NOTES	NOTES	3	&Notes...
	supercap test cell
	0.6mg
	6M KOH
PSTAT	PSTAT	IFC5000-01520	Potentiostat
CAPACITY	QUANT	1.00000E-003	Capacity (A-hr)
CELLTYPE	SELECTOR	1	&Cell Type
WORKINGCONNECTION	SELECTOR	0	&Working Lead
MAXCHARGETIME	VARIABLEANDUNITS	1.00000E+002	s	1.00000E+002	second(s)	Max &Charge Time
CHARGECURRENT	QUANT	6.00000E-003	&Charge Current (A)
VOLTAGEFINISH	TWOPARAM	F	1.00000E-003	3.60000E+003	&Voltage Finish	 I (A) < 	Max Time(s)
SAMPLETIME	QUANT	1.00000E-002	Sa&mple Period (s)
CHARGESTOPAT1	MULTIPARAM	4	1.00000E+000	Charge Stop At &1	Voltage > Limit	V
CHARGESTOPAT2	MULTIPARAM	0	0.00000E+000	Charge Stop At &2	None	N/A
AESBHCSELECTOR	TOGGLE	F	Save Both Half Cells
IRCOMP	TOGGLE	F	IR &Measure
EOC	QUANT	0	Open Circuit (V)
SEQUENCER	TOGGLE	TRUE	Run as Sequence
PSTATMODEL	IQUANT	53	Pstat Model
PSTATSECTION	LABEL	IFC5000-01520	Pstat Section
PSTATSERIALNO	LABEL	01520	Pstat Serial Number
CTRLMODE	IQUANT	0	Control Mode
ELECTROMETER	IQUANT	1	RE=0 or CS=1
IESTAB	IQUANT	0	I/E Stability
CASPEED	IQUANT	4	Control Amp Speed
CONVENTION	IQUANT	1	Current Convention
ICHRANGE	IQUANT	2	Ich Range
ICHRANGEMODE	TOGGLE	T	Ich Auto Range
ICHOFFSETENABLE	TOGGLE	F	Ich Offset Enable
ICHOFFSET	QUANT	0	Ich Offset (V)
ICHFILTER	IQUANT	1	Ich Filter
VCHRANGE	IQUANT	2	Vch Range
VCHRANGEMODE	TOGGLE	T	Vch Auto Range
VCHOFFSETENABLE	TOGGLE	F	Vch Offset Enable
VCHOFFSET	QUANT	0	Vch Offset (V)
VCHFILTER	IQUANT	1	Vch Filter
IERANGELOWERLIMIT	IQUANT	9	I/E Range Lower Limit
IERANGEMODE	TOGGLE	F	I/E AutoRange
IERANGE	IQUANT	10	I/E Range
ACHSELECT	IQUANT	1	Ach Select
ACHRANGE	IQUANT	2	Ach Range
ACHOFFSETENABLE	TOGGLE	F	Ach Offset Enable
ACHOFFSET	QUANT	0	Ach Offset (V)
ACHFILTER	IQUANT	1	Ach Filter
CABLEID	IQUANT	14	Cable ID
DCCALDATE	LABEL	20-10-2016	DC Calibration Date
ACCALDATE	LABEL	12/3/2015	AC Calibration Date
FRAMEWORKVERSION	QUANT	7.01	Framework Version
INSTRUMENTVERSION	LABEL	4.00	Instrument Version
CURVE	TABLE	57
	Pt	T	Vf	Im	Vu	Pwr	Sig	Ach	Temp	IERange	Over
	#	s	V	A	V	W	V	V	deg C	#	bits
	0	0.013333	6.38429E-001	5.99490E-003	0.00000E+000	3.82732E-003	3.59960E-001	-1.15142E+000	3.57750E+000	10	...........
	1	0.026667	6.47445E-001	5.99376E-003	0.00000E+000	3.88063E-003	3.59960E-001	-1.14603E+000	3.57750E+000	10	...........
	2	0.04	6.55709E-001	5.99446E-003	0.00000E+000	3.93062E-003	3.59960E-001	-1.15434E+000	3.57750E+000	10	...........
	3	0.053333	6.63543E-001	5.98728E-003	0.00000E+000	3.97282E-003	3.59960E-001	-1.15116E+000	3.57750E+000	10	...........
	4	0.066667	6.71095E-001	5.99030E-003	0.00000E+000	4.02006E-003	3.59960E-001	-1.14553E+000	3.57750E+000	10	...........
	5	0.08	6.78461E-001	5.99522E-003	0.00000E+000	4.06753E-003	3.59960E-001	-1.15404E+000	3.57700E+000	10	...........
	6	0.093333	6.85697E-001	5.98998E-003	0.00000E+000	4.10731E-003	3.59960E-001	-1.15087E+000	3.57670E+000	10	...........
	7	0.106667	6.92763E-001	5.99579E-003	0.00000E+000	4.15366E-003	3.59960E-001	-1.14518E+000	3.57670E+000	10	...........
	8	0.12	6.99782E-001	5.99234E-003	0.00000E+000	4.19333E-003	3.59960E-001	-1.15377E+000	3.57670E+000	10	...........
	9	0.133333	7.06681E-001	5.99373E-003	0.00000E+000	4.23565E-003	3.59960E-001	-1.15079E+000	3.57670E+000	10	...........
	10	0.146667	7.13556E-001	5.99947E-003	0.00000E+000	4.28095E-003	3.59960E-001	-1.14523E+000	3.57670E+000	10	...........
	11	0.16	7.20401E-001	5.99545E-003	0.00000E+000	4.31913E-003	3.59960E-001	-1.15391E+000	3.57670E+000	10	...........
	12	0.173333	7.27188E-001	5.99204E-003	0.00000E+000	4.35734E-003	3.59960E-001	-1.15070E+000	3.57670E+000	10	...........
	13	0.186667	7.33921E-001	5.99150E-003	0.00000E+000	4.39728E-003	3.59960E-001	-1.14495E+000	3.57670E+000	10	...........
	14	0.2	7.40616E-001	5.99765E-003	0.00000E+000	4.44195E-003	3.59960E-001	-1.15369E+000	3.57670E+000	10	...........
	15	0.213333	7.47314E-001	5.99391E-003	0.00000E+000	4.47933E-003	3.59960E-001	-1.15074E+000	3.57670E+000	10	...........
	16	0.226667	7.53957E-001	5.98713E-003	0.00000E+000	4.51403E-003	3.59960E-001	-1.14533E+000	3.57670E+000	10	...........
	17	0.24	7.60619E-001	5.99531E-003	0.00000E+000	4.56015E-003	3.59960E-001	-1.15384E+000	3.57670E+000	10	...........
	18	0.253333	7.67195E-001	5.99380E-003	0.00000E+000	4.59842E-003	3.59960E-001	-1.15029E+000	3.57670E+000	10	...........
	19	0.266667	7.73824E-001	5.99148E-003	0.00000E+000	4.63635E-003	3.59960E-001	-1.14497E+000	3.57670E+000	10	...........
	20	0.28	7.80415E-001	5.99393E-003	0.00000E+000	4.67775E-003	3.59960E-001	-1.15386E+000	3.57670E+000	10	...........
	21	0.293333	7.86924E-001	5.99363E-003	0.00000E+000	4.71653E-003	3.59960E-001	-1.15071E+000	3.57670E+000	10	...........
	22	0.306667	7.93440E-001	5.99104E-003	0.00000E+000	4.75353E-003	3.59960E-001	-1.14514E+000	3.57670E+000	10	...........
	23	0.32	7.99991E-001	5.99869E-003	0.00000E+000	4.79890E-003	3.59960E-001	-1.15373E+000	3.57670E+000	10	...........
	24	0.333333	8.06455E-001	5.98919E-003	0.00000E+000	4.83001E-003	3.59960E-001	-1.15058E+000	3.57670E+000	10	...........
	25	0.346667	8.12941E-001	5.99335E-003	0.00000E+000	4.87224E-003	3.59960E-001	-1.14515E+000	3.57670E+000	10	...........
	26	0.36	8.19445E-001	5.99453E-003	0.00000E+000	4.91219E-003	3.59960E-001	-1.15381E+000	3.57670E+000	10	...........
	27	0.373333	8.25898E-001	5.99424E-003	0.00000E+000	4.95063E-003	3.59960E-001	-1.15071E+000	3.57670E+000	10	...........
	28	0.386667	8.32317E-001	5.99349E-003	0.00000E+000	4.98848E-003	3.59960E-001	-1.14495E+000	3.57670E+000	10	...........
	29	0.4	8.38711E-001	5.98957E-003	0.00000E+000	5.02351E-003	3.59960E-001	-1.15332E+000	3.57670E+000	10	...........
	30	0.413333	8.45143E-001	5.99352E-003	0.00000E+000	5.06538E-003	3.59960E-001	-1.15026E+000	3.57670E+000	10	...........
	31	0.426667	8.51523E-001	5.99314E-003	0.00000E+000	5.10330E-003	3.59960E-001	-1.14460E+000	3.57670E+000	10	...........
	32	0.44	8.57886E-001	5.99229E-003	0.00000E+000	5.14070E-003	3.59960E-001	-1.15340E+000	3.57670E+000	10	...........
	33	0.453333	8.64250E-001	5.99368E-003	0.00000E+000	5.18004E-003	3.59960E-001	-1.15017E+000	3.57670E+000	10	...........
	34	0.466667	8.70574E-001	5.99673E-003	0.00000E+000	5.22060E-003	3.59960E-001	-1.14456E+000	3.57670E+000	10	...........
	35	0.48	8.76853E-001	5.99459E-003	0.00000E+000	5.25638E-003	3.59960E-001	-1.15328E+000	3.57670E+000	10	...........
	36	0.493333	8.83122E-001	5.99321E-003	0.00000E+000	5.29273E-003	3.59960E-001	-1.15034E+000	3.57670E+000	10	...........
	37	0.506667	8.89336E-001	5.99320E-003	0.00000E+000	5.32996E-003	3.59960E-001	-1.14454E+000	3.57670E+000	10	...........
	38	0.52	8.95510E-001	5.99428E-003	0.00000E+000	5.36794E-003	3.59960E-001	-1.15320E+000	3.57670E+000	10	...........
	39	0.533333	9.01675E-001	5.99628E-003	0.00000E+000	5.40670E-003	3.59960E-001	-1.15004E+000	3.57670E+000	10	...........
	40	0.546667	9.07840E-001	5.99215E-003	0.00000E+000	5.43992E-003	3.59960E-001	-1.14442E+000	3.57670E+000	10	...........
	41	0.56	9.13988E-001	5.99416E-003	0.00000E+000	5.47859E-003	3.59960E-001	-1.15335E+000	3.57670E+000	10	...........
	42	0.573333	9.20048E-001	5.99063E-003	0.00000E+000	5.51167E-003	3.59960E-001	-1.15033E+000	3.57670E+000	10	...........
	43	0.586667	9.26140E-001	5.99362E-003	0.00000E+000	5.55094E-003	3.59960E-001	-1.14437E+000	3.57670E+000	10	...........
	44	0.6	9.32130E-001	5.99670E-003	0.00000E+000	5.58971E-003	3.59960E-001	-1.15322E+000	3.57670E+000	10	...........
	45	0.613333	9.38076E-001	5.99885E-003	0.00000E+000	5.62738E-003	3.59960E-001	-1.15033E+000	3.57670E+000	10	...........
	46	0.626667	9.43988E-001	5.99261E-003	0.00000E+000	5.65696E-003	3.59960E-001	-1.14479E+000	3.57670E+000	10	...........
	47	0.64	9.49919E-001	5.99135E-003	0.00000E+000	5.69130E-003	3.59960E-001	-1.15334E+000	3.57670E+000	10	...........
	48	0.653333	9.55749E-001	5.99865E-003	0.00000E+000	5.73321E-003	3.59960E-001	-1.15024E+000	3.57670E+000	10	...........
	49	0.666667	9.61527E-001	5.99234E-003	0.00000E+000	5.76180E-003	3.59960E-001	-1.14462E+000	3.57670E+000	10	...........
	50	0.68	9.67288E-001	5.99220E-003	0.00000E+000	5.79618E-003	3.59960E-001	-1.15362E+000	3.57670E+000	10	...........
	51	0.693333	9.72985E-001	5.99169E-003	0.00000E+000	5.82983E-003	3.59960E-001	-1.15051E+000	3.57670E+000	10	...........
	52	0.706667	9.78690E-001	5.99207E-003	0.00000E+000	5.86438E-003	3.59960E-001	-1.14483E+000	3.57670E+000	10	...........
	53	0.72	9.84283E-001	5.99221E-003	0.00000E+000	5.89803E-003	3.59960E-001	-1.15327E+000	3.57670E+000	10	...........
	54	0.733333	9.89845E-001	5.99265E-003	0.00000E+000	5.93180E-003	3.59960E-001	-1.14982E+000	3.57670E+000	10	...........
	55	0.746667	9.95357E-001	5.99350E-003	0.00000E+000	5.96567E-003	3.59960E-001	-1.14443E+000	3.57670E+000	10	...........
	56	0.753333	9.99501E-001	5.99842E-003	0.00000E+000	5.99543E-003	3.59960E-001	-1.15878E+000	3.57670E+000	10	...........
STARTTIMEOFFSET	QUANT	1004.939	Start Time Offset (s)