File: Data/CV_CRGO300517_1/PWRCCD_CRGO300517_1/CHARGE_DISCHARGE/CHARGE_#415.DTA
EXPLAIN
TAG	PWR800_CHARGE
TITLE	LABEL	PWR Cyclic Charge Discharge (Cell) - Charge Step	Test &Identifier
DATE	LABEL	22-6-2017	Date
TIME	LABEL	15:52:34	Time
NOTES	NOTES	3	&Notes...
	supercap test cell
	0.6mg
	6M KOH
PSTAT	PSTAT	IFC5000-01520	Potentiostat
CAPACITY	QUANT	1.00000E-003	Capacity (A-hr)
CELLTYPE	SELECTOR	1	&Cell Type
WORKINGCONNECTION	SELECTOR	0	&Working Lead
MAXCHARGETIME	VARIABLEANDUNITS	1.00000E+002	s	1.00000E+002	second(s)	Max &Charge Time
CHARGECURRENT	QUANT	6.00000E-003	&Charge Current (A)
VOLTAGEFINISH	TWOPARAM	F	1.00000E-003	3.60000E+003	&Voltage Finish	 I (A) < 	Max Time(s)
SAMPLETIME	QUANT	1.00000E-002	Sa&mple Period (s)
CHARGESTOPAT1	MULTIPARAM	4	1.00000E+000	Charge Stop At &1	Voltage > Limit	V
CHARGESTOPAT2	MULTIPARAM	0	0.00000E+000	Charge Stop At &2	None	N/A
AESBHCSELECTOR	TOGGLE	F	Save Both Half Cells
IRCOMP	TOGGLE	F	IR &Measure
EOC	QUANT	0	Open Circuit (V)
SEQUENCER	TOGGLE	TRUE	Run as Sequence
PSTATMODEL	IQUANT	53	Pstat Model
PSTATSECTION	LABEL	IFC5000-01520	Pstat Section
PSTATSERIALNO	LABEL	01520	Pstat Serial Number
CTRLMODE	IQUANT	0	Control Mode
ELECTROMETER	IQUANT	1	RE=0 or CS=1
IESTAB	IQUANT	0	I/E Stability
CASPEED	IQUANT	4	Control Amp Speed
CONVENTION	IQUANT	1	Current Convention
ICHRANGE	IQUANT	2	Ich Range
ICHRANGEMODE	TOGGLE	T	Ich Auto Range
ICHOFFSETENABLE	TOGGLE	F	Ich Offset Enable
ICHOFFSET	QUANT	0	Ich Offset (V)
ICHFILTER	IQUANT	1	Ich Filter
VCHRANGE	IQUANT	2	Vch Range
VCHRANGEMODE	TOGGLE	T	Vch Auto Range
VCHOFFSETENABLE	TOGGLE	F	Vch Offset Enable
VCHOFFSET	QUANT	0	Vch Offset (V)
VCHFILTER	IQUANT	1	Vch Filter
IERANGELOWERLIMIT	IQUANT	9	I/E Range Lower Limit
IERANGEMODE	TOGGLE	F	I/E AutoRange
IERANGE	IQUANT	10	I/E Range
ACHSELECT	IQUANT	1	Ach Select
ACHRANGE	IQUANT	2	Ach Range
ACHOFFSETENABLE	TOGGLE	F	Ach Offset Enable
ACHOFFSET	QUANT	0	Ach Offset (V)
ACHFILTER	IQUANT	1	Ach Filter
CABLEID	IQUANT	14	Cable ID
DCCALDATE	LABEL	20-10-2016	DC Calibration Date
ACCALDATE	LABEL	12/3/2015	AC Calibration Date
FRAMEWORKVERSION	QUANT	7.01	Framework Version
INSTRUMENTVERSION	LABEL	4.00	Instrument Version
CURVE	TABLE	60
	Pt	T	Vf	Im	Vu	Pwr	Sig	Ach	Temp	IERange	Over
	#	s	V	A	V	W	V	V	deg C	#	bits
	0	0.013333	6.25514E-001	5.98929E-003	0.00000E+000	3.74638E-003	3.59960E-001	-1.13216E+000	3.57760E+000	10	...........
	1	0.026667	6.34285E-001	5.99543E-003	0.00000E+000	3.80281E-003	3.59960E-001	-1.13815E+000	3.57760E+000	10	...........
	2	0.04	6.42348E-001	5.99653E-003	0.00000E+000	3.85186E-003	3.59960E-001	-1.12833E+000	3.57760E+000	10	...........
	3	0.053333	6.49990E-001	5.99211E-003	0.00000E+000	3.89481E-003	3.59960E-001	-1.13166E+000	3.57760E+000	10	...........
	4	0.066667	6.57364E-001	5.99604E-003	0.00000E+000	3.94158E-003	3.59960E-001	-1.13797E+000	3.57760E+000	10	...........
	5	0.08	6.64532E-001	5.99346E-003	0.00000E+000	3.98285E-003	3.59960E-001	-1.12842E+000	3.57760E+000	10	...........
	6	0.093333	6.71568E-001	5.99123E-003	0.00000E+000	4.02351E-003	3.59960E-001	-1.13181E+000	3.57760E+000	10	...........
	7	0.106667	6.78511E-001	5.99658E-003	0.00000E+000	4.06875E-003	3.59960E-001	-1.13782E+000	3.57760E+000	10	...........
	8	0.12	6.85381E-001	5.99482E-003	0.00000E+000	4.10874E-003	3.59960E-001	-1.12818E+000	3.57760E+000	10	...........
	9	0.133333	6.92158E-001	5.99473E-003	0.00000E+000	4.14930E-003	3.59960E-001	-1.13173E+000	3.57760E+000	10	...........
	10	0.146667	6.98876E-001	5.99904E-003	0.00000E+000	4.19259E-003	3.59960E-001	-1.13762E+000	3.57760E+000	10	...........
	11	0.16	7.05508E-001	5.99342E-003	0.00000E+000	4.22840E-003	3.59960E-001	-1.12798E+000	3.57760E+000	10	...........
	12	0.173333	7.12084E-001	5.99700E-003	0.00000E+000	4.27037E-003	3.59960E-001	-1.13159E+000	3.57760E+000	10	...........
	13	0.186667	7.18657E-001	5.98762E-003	0.00000E+000	4.30305E-003	3.59960E-001	-1.13750E+000	3.57760E+000	10	...........
	14	0.2	7.25241E-001	5.99610E-003	0.00000E+000	4.34862E-003	3.59960E-001	-1.12813E+000	3.57760E+000	10	...........
	15	0.213333	7.31745E-001	6.00012E-003	0.00000E+000	4.39056E-003	3.59960E-001	-1.13178E+000	3.57760E+000	10	...........
	16	0.226667	7.38233E-001	5.99409E-003	0.00000E+000	4.42504E-003	3.59960E-001	-1.13754E+000	3.57760E+000	10	...........
	17	0.24	7.44776E-001	5.99212E-003	0.00000E+000	4.46279E-003	3.59960E-001	-1.12799E+000	3.57760E+000	10	...........
	18	0.253333	7.51223E-001	5.99164E-003	0.00000E+000	4.50106E-003	3.59960E-001	-1.13179E+000	3.57760E+000	10	...........
	19	0.266667	7.57697E-001	5.99676E-003	0.00000E+000	4.54373E-003	3.59960E-001	-1.13755E+000	3.57760E+000	10	...........
	20	0.28	7.64109E-001	5.99202E-003	0.00000E+000	4.57856E-003	3.59960E-001	-1.12824E+000	3.57760E+000	10	...........
	21	0.293333	7.70549E-001	5.99362E-003	0.00000E+000	4.61838E-003	3.59960E-001	-1.13181E+000	3.57760E+000	10	...........
	22	0.306667	7.76933E-001	5.99744E-003	0.00000E+000	4.65961E-003	3.59960E-001	-1.13729E+000	3.57760E+000	10	...........
	23	0.32	7.83334E-001	5.99560E-003	0.00000E+000	4.69655E-003	3.59960E-001	-1.12806E+000	3.57760E+000	10	...........
	24	0.333333	7.89710E-001	5.99395E-003	0.00000E+000	4.73348E-003	3.59960E-001	-1.13200E+000	3.57760E+000	10	...........
	25	0.346667	7.96071E-001	5.99448E-003	0.00000E+000	4.77203E-003	3.59960E-001	-1.13698E+000	3.57760E+000	10	...........
	26	0.36	8.02406E-001	5.99326E-003	0.00000E+000	4.80903E-003	3.59960E-001	-1.12760E+000	3.57760E+000	10	...........
	27	0.373333	8.08758E-001	5.99460E-003	0.00000E+000	4.84819E-003	3.59960E-001	-1.13155E+000	3.57760E+000	10	...........
	28	0.386667	8.15078E-001	5.99425E-003	0.00000E+000	4.88578E-003	3.59960E-001	-1.13674E+000	3.57760E+000	10	...........
	29	0.4	8.21444E-001	5.99442E-003	0.00000E+000	4.92408E-003	3.59960E-001	-1.12782E+000	3.57760E+000	10	...........
	30	0.413333	8.27727E-001	6.00021E-003	0.00000E+000	4.96653E-003	3.59960E-001	-1.13199E+000	3.57760E+000	10	...........
	31	0.426667	8.33980E-001	5.99620E-003	0.00000E+000	5.00071E-003	3.59960E-001	-1.13671E+000	3.57760E+000	10	...........
	32	0.44	8.40224E-001	5.99511E-003	0.00000E+000	5.03723E-003	3.59960E-001	-1.12752E+000	3.57760E+000	10	...........
	33	0.453333	8.46510E-001	5.99612E-003	0.00000E+000	5.07577E-003	3.59960E-001	-1.13184E+000	3.57760E+000	10	...........
	34	0.466667	8.52740E-001	5.99099E-003	0.00000E+000	5.10875E-003	3.59960E-001	-1.13668E+000	3.57760E+000	10	...........
	35	0.48	8.58947E-001	5.99330E-003	0.00000E+000	5.14793E-003	3.59960E-001	-1.12767E+000	3.57760E+000	10	...........
	36	0.493333	8.65143E-001	5.99370E-003	0.00000E+000	5.18540E-003	3.59960E-001	-1.13196E+000	3.57760E+000	10	...........
	37	0.506667	8.71356E-001	5.99197E-003	0.00000E+000	5.22114E-003	3.59960E-001	-1.13635E+000	3.57760E+000	10	...........
	38	0.52	8.77499E-001	5.99352E-003	0.00000E+000	5.25931E-003	3.59960E-001	-1.12735E+000	3.57760E+000	10	...........
	39	0.533333	8.83652E-001	5.99357E-003	0.00000E+000	5.29623E-003	3.59960E-001	-1.13202E+000	3.57760E+000	10	...........
	40	0.546667	8.89742E-001	5.99646E-003	0.00000E+000	5.33530E-003	3.59960E-001	-1.13660E+000	3.57760E+000	10	...........
	41	0.56	8.95864E-001	5.99537E-003	0.00000E+000	5.37103E-003	3.59960E-001	-1.12770E+000	3.57760E+000	10	...........
	42	0.573333	9.01901E-001	5.99773E-003	0.00000E+000	5.40937E-003	3.59960E-001	-1.13219E+000	3.57760E+000	10	...........
	43	0.586667	9.07967E-001	5.99704E-003	0.00000E+000	5.44511E-003	3.59960E-001	-1.13650E+000	3.57760E+000	10	...........
	44	0.6	9.13992E-001	5.99350E-003	0.00000E+000	5.47801E-003	3.59960E-001	-1.12790E+000	3.57760E+000	10	...........
	45	0.613333	9.20014E-001	5.99547E-003	0.00000E+000	5.51592E-003	3.59960E-001	-1.13231E+000	3.57760E+000	10	...........
	46	0.626667	9.26013E-001	5.99960E-003	0.00000E+000	5.55571E-003	3.59960E-001	-1.13659E+000	3.57760E+000	10	...........
	47	0.64	9.31889E-001	5.99202E-003	0.00000E+000	5.58389E-003	3.59960E-001	-1.12778E+000	3.57760E+000	10	...........
	48	0.653333	9.37817E-001	5.99229E-003	0.00000E+000	5.61967E-003	3.59960E-001	-1.13232E+000	3.57760E+000	10	...........
	49	0.666667	9.43652E-001	5.99199E-003	0.00000E+000	5.65435E-003	3.59960E-001	-1.13602E+000	3.57760E+000	10	...........
	50	0.68	9.49490E-001	5.99554E-003	0.00000E+000	5.69271E-003	3.59960E-001	-1.12737E+000	3.57760E+000	10	...........
	51	0.693333	9.55255E-001	5.99247E-003	0.00000E+000	5.72433E-003	3.59960E-001	-1.13201E+000	3.57760E+000	10	...........
	52	0.706667	9.61000E-001	5.99241E-003	0.00000E+000	5.75871E-003	3.59960E-001	-1.13591E+000	3.57760E+000	10	...........
	53	0.72	9.66687E-001	5.99286E-003	0.00000E+000	5.79322E-003	3.59960E-001	-1.12747E+000	3.57760E+000	10	...........
	54	0.733333	9.72356E-001	5.99157E-003	0.00000E+000	5.82594E-003	3.59960E-001	-1.13218E+000	3.57760E+000	10	...........
	55	0.746667	9.78036E-001	5.99147E-003	0.00000E+000	5.85987E-003	3.59960E-001	-1.13598E+000	3.57760E+000	10	...........
	56	0.76	9.83598E-001	5.99734E-003	0.00000E+000	5.89897E-003	3.59960E-001	-1.12760E+000	3.57760E+000	10	...........
	57	0.773333	9.89085E-001	5.99926E-003	0.00000E+000	5.93378E-003	3.59960E-001	-1.13217E+000	3.57760E+000	10	...........
	58	0.786667	9.94569E-001	5.99433E-003	0.00000E+000	5.96178E-003	3.59960E-001	-1.13573E+000	3.57760E+000	10	...........
	59	0.795	9.99024E-001	5.99468E-003	0.00000E+000	5.98882E-003	3.59960E-001	-1.12264E+000	3.57760E+000	10	...........
STARTTIMEOFFSET	QUANT	726.4268	Start Time Offset (s)