File: Data/CV_CRGO300517_1/PWRCCD_CRGO300517_1/CHARGE_DISCHARGE/CHARGE_#618.DTA
EXPLAIN
TAG	PWR800_CHARGE
TITLE	LABEL	PWR Cyclic Charge Discharge (Cell) - Charge Step	Test &Identifier
DATE	LABEL	22-6-2017	Date
TIME	LABEL	16:00:27	Time
NOTES	NOTES	3	&Notes...
	supercap test cell
	0.6mg
	6M KOH
PSTAT	PSTAT	IFC5000-01520	Potentiostat
CAPACITY	QUANT	1.00000E-003	Capacity (A-hr)
CELLTYPE	SELECTOR	1	&Cell Type
WORKINGCONNECTION	SELECTOR	0	&Working Lead
MAXCHARGETIME	VARIABLEANDUNITS	1.00000E+002	s	1.00000E+002	second(s)	Max &Charge Time
CHARGECURRENT	QUANT	6.00000E-003	&Charge Current (A)
VOLTAGEFINISH	TWOPARAM	F	1.00000E-003	3.60000E+003	&Voltage Finish	 I (A) < 	Max Time(s)
SAMPLETIME	QUANT	1.00000E-002	Sa&mple Period (s)
CHARGESTOPAT1	MULTIPARAM	4	1.00000E+000	Charge Stop At &1	Voltage > Limit	V
CHARGESTOPAT2	MULTIPARAM	0	0.00000E+000	Charge Stop At &2	None	N/A
AESBHCSELECTOR	TOGGLE	F	Save Both Half Cells
IRCOMP	TOGGLE	F	IR &Measure
EOC	QUANT	0	Open Circuit (V)
SEQUENCER	TOGGLE	TRUE	Run as Sequence
PSTATMODEL	IQUANT	53	Pstat Model
PSTATSECTION	LABEL	IFC5000-01520	Pstat Section
PSTATSERIALNO	LABEL	01520	Pstat Serial Number
CTRLMODE	IQUANT	0	Control Mode
ELECTROMETER	IQUANT	1	RE=0 or CS=1
IESTAB	IQUANT	0	I/E Stability
CASPEED	IQUANT	4	Control Amp Speed
CONVENTION	IQUANT	1	Current Convention
ICHRANGE	IQUANT	2	Ich Range
ICHRANGEMODE	TOGGLE	T	Ich Auto Range
ICHOFFSETENABLE	TOGGLE	F	Ich Offset Enable
ICHOFFSET	QUANT	0	Ich Offset (V)
ICHFILTER	IQUANT	1	Ich Filter
VCHRANGE	IQUANT	2	Vch Range
VCHRANGEMODE	TOGGLE	T	Vch Auto Range
VCHOFFSETENABLE	TOGGLE	F	Vch Offset Enable
VCHOFFSET	QUANT	0	Vch Offset (V)
VCHFILTER	IQUANT	1	Vch Filter
IERANGELOWERLIMIT	IQUANT	9	I/E Range Lower Limit
IERANGEMODE	TOGGLE	F	I/E AutoRange
IERANGE	IQUANT	10	I/E Range
ACHSELECT	IQUANT	1	Ach Select
ACHRANGE	IQUANT	2	Ach Range
ACHOFFSETENABLE	TOGGLE	F	Ach Offset Enable
ACHOFFSET	QUANT	0	Ach Offset (V)
ACHFILTER	IQUANT	1	Ach Filter
CABLEID	IQUANT	14	Cable ID
DCCALDATE	LABEL	20-10-2016	DC Calibration Date
ACCALDATE	LABEL	12/3/2015	AC Calibration Date
FRAMEWORKVERSION	QUANT	7.01	Framework Version
INSTRUMENTVERSION	LABEL	4.00	Instrument Version
CURVE	TABLE	57
	Pt	T	Vf	Im	Vu	Pwr	Sig	Ach	Temp	IERange	Over
	#	s	V	A	V	W	V	V	deg C	#	bits
	0	0.013333	6.38904E-001	5.99524E-003	0.00000E+000	3.83038E-003	3.59960E-001	-1.15466E+000	3.57790E+000	10	...........
	1	0.026667	6.47949E-001	5.99181E-003	0.00000E+000	3.88239E-003	3.59960E-001	-1.15801E+000	3.57790E+000	10	...........
	2	0.04	6.56259E-001	5.99206E-003	0.00000E+000	3.93235E-003	3.59960E-001	-1.14934E+000	3.57790E+000	10	...........
	3	0.053333	6.64114E-001	5.99157E-003	0.00000E+000	3.97908E-003	3.59960E-001	-1.15435E+000	3.57790E+000	10	...........
	4	0.066667	6.71701E-001	5.99400E-003	0.00000E+000	4.02618E-003	3.59960E-001	-1.15751E+000	3.57790E+000	10	...........
	5	0.08	6.79082E-001	5.99215E-003	0.00000E+000	4.06916E-003	3.59960E-001	-1.14909E+000	3.57790E+000	10	...........
	6	0.093333	6.86304E-001	5.99519E-003	0.00000E+000	4.11452E-003	3.59960E-001	-1.15423E+000	3.57790E+000	10	...........
	7	0.106667	6.93424E-001	5.99179E-003	0.00000E+000	4.15485E-003	3.59960E-001	-1.15711E+000	3.57790E+000	10	...........
	8	0.12	7.00433E-001	5.99441E-003	0.00000E+000	4.19868E-003	3.59960E-001	-1.14867E+000	3.57790E+000	10	...........
	9	0.133333	7.07402E-001	5.99756E-003	0.00000E+000	4.24268E-003	3.59960E-001	-1.15398E+000	3.57790E+000	10	...........
	10	0.146667	7.14261E-001	5.99520E-003	0.00000E+000	4.28214E-003	3.59960E-001	-1.15697E+000	3.57790E+000	10	...........
	11	0.16	7.21148E-001	5.99206E-003	0.00000E+000	4.32116E-003	3.59960E-001	-1.14888E+000	3.57790E+000	10	...........
	12	0.173333	7.27945E-001	5.99413E-003	0.00000E+000	4.36339E-003	3.59960E-001	-1.15396E+000	3.57790E+000	10	...........
	13	0.186667	7.34688E-001	5.99670E-003	0.00000E+000	4.40571E-003	3.59960E-001	-1.15713E+000	3.57790E+000	10	...........
	14	0.2	7.41475E-001	5.99248E-003	0.00000E+000	4.44327E-003	3.59960E-001	-1.14854E+000	3.57790E+000	10	...........
	15	0.213333	7.48206E-001	5.99396E-003	0.00000E+000	4.48471E-003	3.59960E-001	-1.15393E+000	3.57790E+000	10	...........
	16	0.226667	7.54850E-001	5.99733E-003	0.00000E+000	4.52708E-003	3.59960E-001	-1.15719E+000	3.57790E+000	10	...........
	17	0.24	7.61473E-001	5.99130E-003	0.00000E+000	4.56221E-003	3.59960E-001	-1.14867E+000	3.57790E+000	10	...........
	18	0.253333	7.68067E-001	5.99318E-003	0.00000E+000	4.60316E-003	3.59960E-001	-1.15394E+000	3.57790E+000	10	...........
	19	0.266667	7.74672E-001	5.99446E-003	0.00000E+000	4.64374E-003	3.59960E-001	-1.15661E+000	3.57790E+000	10	...........
	20	0.28	7.81311E-001	5.99745E-003	0.00000E+000	4.68587E-003	3.59960E-001	-1.14824E+000	3.57790E+000	10	...........
	21	0.293333	7.87916E-001	5.99340E-003	0.00000E+000	4.72229E-003	3.59960E-001	-1.15385E+000	3.57790E+000	10	...........
	22	0.306667	7.94464E-001	5.99583E-003	0.00000E+000	4.76347E-003	3.59960E-001	-1.15712E+000	3.57790E+000	10	...........
	23	0.32	8.01007E-001	5.99561E-003	0.00000E+000	4.80252E-003	3.59960E-001	-1.14846E+000	3.57790E+000	10	...........
	24	0.333333	8.07515E-001	5.99528E-003	0.00000E+000	4.84128E-003	3.59960E-001	-1.15383E+000	3.57790E+000	10	...........
	25	0.346667	8.14011E-001	5.99100E-003	0.00000E+000	4.87674E-003	3.59960E-001	-1.15688E+000	3.57790E+000	10	...........
	26	0.36	8.20518E-001	5.99270E-003	0.00000E+000	4.91711E-003	3.59960E-001	-1.14846E+000	3.57790E+000	10	...........
	27	0.373333	8.26964E-001	5.99328E-003	0.00000E+000	4.95623E-003	3.59960E-001	-1.15410E+000	3.57790E+000	10	...........
	28	0.386667	8.33414E-001	5.99366E-003	0.00000E+000	4.99519E-003	3.59960E-001	-1.15694E+000	3.57790E+000	10	...........
	29	0.4	8.39743E-001	5.99190E-003	0.00000E+000	5.03166E-003	3.59960E-001	-1.14852E+000	3.57790E+000	10	...........
	30	0.413333	8.46217E-001	5.99149E-003	0.00000E+000	5.07010E-003	3.59960E-001	-1.15374E+000	3.57790E+000	10	...........
	31	0.426667	8.52597E-001	5.98807E-003	0.00000E+000	5.10541E-003	3.59960E-001	-1.15636E+000	3.57790E+000	10	...........
	32	0.44	8.58952E-001	5.99496E-003	0.00000E+000	5.14938E-003	3.59960E-001	-1.14826E+000	3.57790E+000	10	...........
	33	0.453333	8.65262E-001	5.99303E-003	0.00000E+000	5.18554E-003	3.59960E-001	-1.15338E+000	3.57790E+000	10	...........
	34	0.466667	8.71618E-001	5.99268E-003	0.00000E+000	5.22332E-003	3.59960E-001	-1.15624E+000	3.57790E+000	10	...........
	35	0.48	8.77895E-001	5.99373E-003	0.00000E+000	5.26187E-003	3.59960E-001	-1.14772E+000	3.57790E+000	10	...........
	36	0.493333	8.84156E-001	5.99438E-003	0.00000E+000	5.29996E-003	3.59960E-001	-1.15352E+000	3.57790E+000	10	...........
	37	0.506667	8.90397E-001	5.99124E-003	0.00000E+000	5.33458E-003	3.59960E-001	-1.15627E+000	3.57790E+000	10	...........
	38	0.52	8.96589E-001	5.99494E-003	0.00000E+000	5.37500E-003	3.59960E-001	-1.14783E+000	3.57790E+000	10	...........
	39	0.533333	9.02796E-001	5.99499E-003	0.00000E+000	5.41225E-003	3.59960E-001	-1.15347E+000	3.57790E+000	10	...........
	40	0.546667	9.08903E-001	5.99149E-003	0.00000E+000	5.44568E-003	3.59960E-001	-1.15607E+000	3.57790E+000	10	...........
	41	0.56	9.14984E-001	5.99328E-003	0.00000E+000	5.48375E-003	3.59960E-001	-1.14799E+000	3.57790E+000	10	...........
	42	0.573333	9.21109E-001	5.98894E-003	0.00000E+000	5.51646E-003	3.59960E-001	-1.15348E+000	3.57790E+000	10	...........
	43	0.586667	9.27200E-001	5.99444E-003	0.00000E+000	5.55804E-003	3.59960E-001	-1.15585E+000	3.57790E+000	10	...........
	44	0.6	9.33164E-001	6.00125E-003	0.00000E+000	5.60015E-003	3.59960E-001	-1.14736E+000	3.57790E+000	10	...........
	45	0.613333	9.39183E-001	5.99476E-003	0.00000E+000	5.63018E-003	3.59960E-001	-1.15343E+000	3.57790E+000	10	...........
	46	0.626667	9.45086E-001	5.98919E-003	0.00000E+000	5.66030E-003	3.59960E-001	-1.15614E+000	3.57790E+000	10	...........
	47	0.64	9.50996E-001	5.99392E-003	0.00000E+000	5.70019E-003	3.59960E-001	-1.14794E+000	3.57790E+000	10	...........
	48	0.653333	9.56794E-001	5.98995E-003	0.00000E+000	5.73115E-003	3.59960E-001	-1.15349E+000	3.57790E+000	10	...........
	49	0.666667	9.62585E-001	5.99640E-003	0.00000E+000	5.77204E-003	3.59960E-001	-1.15589E+000	3.57790E+000	10	...........
	50	0.68	9.68340E-001	5.99398E-003	0.00000E+000	5.80421E-003	3.59960E-001	-1.14776E+000	3.57790E+000	10	...........
	51	0.693333	9.74087E-001	5.99666E-003	0.00000E+000	5.84127E-003	3.59960E-001	-1.15368E+000	3.57790E+000	10	...........
	52	0.706667	9.79783E-001	5.99257E-003	0.00000E+000	5.87142E-003	3.59960E-001	-1.15616E+000	3.57790E+000	10	...........
	53	0.72	9.85365E-001	5.99655E-003	0.00000E+000	5.90878E-003	3.59960E-001	-1.14772E+000	3.57790E+000	10	...........
	54	0.733333	9.90949E-001	5.99794E-003	0.00000E+000	5.94366E-003	3.59960E-001	-1.15324E+000	3.57790E+000	10	...........
	55	0.746667	9.96491E-001	5.98977E-003	0.00000E+000	5.96875E-003	3.59960E-001	-1.15541E+000	3.57788E+000	10	...........
	56	0.75	9.99894E-001	5.98023E-003	0.00000E+000	5.97960E-003	3.59960E-001	-1.15336E+000	3.57780E+000	10	...........
STARTTIMEOFFSET	QUANT	1037.869	Start Time Offset (s)