File: Data/CV_CRGO300517_1/PWRCCD_CRGO300517_1/CHARGE_DISCHARGE/CHARGE_#959.DTA
EXPLAIN
TAG	PWR800_CHARGE
TITLE	LABEL	PWR Cyclic Charge Discharge (Cell) - Charge Step	Test &Identifier
DATE	LABEL	22-6-2017	Date
TIME	LABEL	16:13:09	Time
NOTES	NOTES	3	&Notes...
	supercap test cell
	0.6mg
	6M KOH
PSTAT	PSTAT	IFC5000-01520	Potentiostat
CAPACITY	QUANT	1.00000E-003	Capacity (A-hr)
CELLTYPE	SELECTOR	1	&Cell Type
WORKINGCONNECTION	SELECTOR	0	&Working Lead
MAXCHARGETIME	VARIABLEANDUNITS	1.00000E+002	s	1.00000E+002	second(s)	Max &Charge Time
CHARGECURRENT	QUANT	6.00000E-003	&Charge Current (A)
VOLTAGEFINISH	TWOPARAM	F	1.00000E-003	3.60000E+003	&Voltage Finish	 I (A) < 	Max Time(s)
SAMPLETIME	QUANT	1.00000E-002	Sa&mple Period (s)
CHARGESTOPAT1	MULTIPARAM	4	1.00000E+000	Charge Stop At &1	Voltage > Limit	V
CHARGESTOPAT2	MULTIPARAM	0	0.00000E+000	Charge Stop At &2	None	N/A
AESBHCSELECTOR	TOGGLE	F	Save Both Half Cells
IRCOMP	TOGGLE	F	IR &Measure
EOC	QUANT	0	Open Circuit (V)
SEQUENCER	TOGGLE	TRUE	Run as Sequence
PSTATMODEL	IQUANT	53	Pstat Model
PSTATSECTION	LABEL	IFC5000-01520	Pstat Section
PSTATSERIALNO	LABEL	01520	Pstat Serial Number
CTRLMODE	IQUANT	0	Control Mode
ELECTROMETER	IQUANT	1	RE=0 or CS=1
IESTAB	IQUANT	0	I/E Stability
CASPEED	IQUANT	4	Control Amp Speed
CONVENTION	IQUANT	1	Current Convention
ICHRANGE	IQUANT	2	Ich Range
ICHRANGEMODE	TOGGLE	T	Ich Auto Range
ICHOFFSETENABLE	TOGGLE	F	Ich Offset Enable
ICHOFFSET	QUANT	0	Ich Offset (V)
ICHFILTER	IQUANT	1	Ich Filter
VCHRANGE	IQUANT	2	Vch Range
VCHRANGEMODE	TOGGLE	T	Vch Auto Range
VCHOFFSETENABLE	TOGGLE	F	Vch Offset Enable
VCHOFFSET	QUANT	0	Vch Offset (V)
VCHFILTER	IQUANT	1	Vch Filter
IERANGELOWERLIMIT	IQUANT	9	I/E Range Lower Limit
IERANGEMODE	TOGGLE	F	I/E AutoRange
IERANGE	IQUANT	10	I/E Range
ACHSELECT	IQUANT	1	Ach Select
ACHRANGE	IQUANT	2	Ach Range
ACHOFFSETENABLE	TOGGLE	F	Ach Offset Enable
ACHOFFSET	QUANT	0	Ach Offset (V)
ACHFILTER	IQUANT	1	Ach Filter
CABLEID	IQUANT	14	Cable ID
DCCALDATE	LABEL	20-10-2016	DC Calibration Date
ACCALDATE	LABEL	12/3/2015	AC Calibration Date
FRAMEWORKVERSION	QUANT	7.01	Framework Version
INSTRUMENTVERSION	LABEL	4.00	Instrument Version
CURVE	TABLE	53
	Pt	T	Vf	Im	Vu	Pwr	Sig	Ach	Temp	IERange	Over
	#	s	V	A	V	W	V	V	deg C	#	bits
	0	0.013333	6.55802E-001	5.98859E-003	0.00000E+000	3.92733E-003	3.59960E-001	-1.17458E+000	3.57650E+000	10	...........
	1	0.026667	6.65154E-001	5.99488E-003	0.00000E+000	3.98752E-003	3.59960E-001	-1.17587E+000	3.57650E+000	10	...........
	2	0.04	6.73711E-001	5.99450E-003	0.00000E+000	4.03856E-003	3.59960E-001	-1.16797E+000	3.57650E+000	10	...........
	3	0.053333	6.81815E-001	5.99984E-003	0.00000E+000	4.09078E-003	3.59960E-001	-1.17472E+000	3.57650E+000	10	...........
	4	0.066667	6.89672E-001	5.99457E-003	0.00000E+000	4.13429E-003	3.59960E-001	-1.17561E+000	3.57650E+000	10	...........
	5	0.08	6.97302E-001	5.99237E-003	0.00000E+000	4.17849E-003	3.59960E-001	-1.16795E+000	3.57658E+000	10	...........
	6	0.093333	7.04790E-001	5.99348E-003	0.00000E+000	4.22414E-003	3.59960E-001	-1.17490E+000	3.57710E+000	10	...........
	7	0.106667	7.12163E-001	5.99900E-003	0.00000E+000	4.27226E-003	3.59960E-001	-1.17561E+000	3.57710E+000	10	...........
	8	0.12	7.19475E-001	5.99361E-003	0.00000E+000	4.31226E-003	3.59960E-001	-1.16769E+000	3.57710E+000	10	...........
	9	0.133333	7.26677E-001	5.99220E-003	0.00000E+000	4.35439E-003	3.59960E-001	-1.17438E+000	3.57710E+000	10	...........
	10	0.146667	7.33761E-001	5.99743E-003	0.00000E+000	4.40068E-003	3.59960E-001	-1.17538E+000	3.57710E+000	10	...........
	11	0.16	7.40847E-001	5.99359E-003	0.00000E+000	4.44034E-003	3.59960E-001	-1.16766E+000	3.57710E+000	10	...........
	12	0.173333	7.47868E-001	5.99328E-003	0.00000E+000	4.48218E-003	3.59960E-001	-1.17464E+000	3.57710E+000	10	...........
	13	0.186667	7.54837E-001	5.99547E-003	0.00000E+000	4.52560E-003	3.59960E-001	-1.17548E+000	3.57710E+000	10	...........
	14	0.2	7.61777E-001	5.99109E-003	0.00000E+000	4.56388E-003	3.59960E-001	-1.16776E+000	3.57710E+000	10	...........
	15	0.213333	7.68671E-001	5.99646E-003	0.00000E+000	4.60931E-003	3.59960E-001	-1.17461E+000	3.57710E+000	10	...........
	16	0.226667	7.75542E-001	5.99798E-003	0.00000E+000	4.65169E-003	3.59960E-001	-1.17587E+000	3.57710E+000	10	...........
	17	0.24	7.82409E-001	5.99681E-003	0.00000E+000	4.69195E-003	3.59960E-001	-1.16779E+000	3.57710E+000	10	...........
	18	0.253333	7.89229E-001	5.99486E-003	0.00000E+000	4.73131E-003	3.59960E-001	-1.17457E+000	3.57710E+000	10	...........
	19	0.266667	7.96067E-001	5.99297E-003	0.00000E+000	4.77081E-003	3.59960E-001	-1.17558E+000	3.57710E+000	10	...........
	20	0.28	8.02814E-001	5.99308E-003	0.00000E+000	4.81133E-003	3.59960E-001	-1.16778E+000	3.57710E+000	10	...........
	21	0.293333	8.09510E-001	5.99763E-003	0.00000E+000	4.85514E-003	3.59960E-001	-1.17443E+000	3.57710E+000	10	...........
	22	0.306667	8.16196E-001	5.99338E-003	0.00000E+000	4.89178E-003	3.59960E-001	-1.17497E+000	3.57710E+000	10	...........
	23	0.32	8.22887E-001	5.99195E-003	0.00000E+000	4.93070E-003	3.59960E-001	-1.16737E+000	3.57710E+000	10	...........
	24	0.333333	8.29543E-001	5.99287E-003	0.00000E+000	4.97135E-003	3.59960E-001	-1.17391E+000	3.57710E+000	10	...........
	25	0.346667	8.36145E-001	5.99410E-003	0.00000E+000	5.01194E-003	3.59960E-001	-1.17515E+000	3.57710E+000	10	...........
	26	0.36	8.42773E-001	6.00138E-003	0.00000E+000	5.05781E-003	3.59960E-001	-1.16760E+000	3.57710E+000	10	...........
	27	0.373333	8.49387E-001	5.99550E-003	0.00000E+000	5.09250E-003	3.59960E-001	-1.17425E+000	3.57710E+000	10	...........
	28	0.386667	8.55946E-001	5.99647E-003	0.00000E+000	5.13265E-003	3.59960E-001	-1.17523E+000	3.57710E+000	10	...........
	29	0.4	8.62482E-001	5.99621E-003	0.00000E+000	5.17162E-003	3.59960E-001	-1.16757E+000	3.57710E+000	10	...........
	30	0.413333	8.68934E-001	5.99659E-003	0.00000E+000	5.21064E-003	3.59960E-001	-1.17460E+000	3.57710E+000	10	...........
	31	0.426667	8.75428E-001	5.99330E-003	0.00000E+000	5.24670E-003	3.59960E-001	-1.17523E+000	3.57710E+000	10	...........
	32	0.44	8.81802E-001	5.99437E-003	0.00000E+000	5.28584E-003	3.59960E-001	-1.16751E+000	3.57710E+000	10	...........
	33	0.453333	8.88220E-001	5.99523E-003	0.00000E+000	5.32508E-003	3.59960E-001	-1.17448E+000	3.57710E+000	10	...........
	34	0.466667	8.94604E-001	5.98740E-003	0.00000E+000	5.35635E-003	3.59960E-001	-1.17513E+000	3.57710E+000	10	...........
	35	0.48	9.00940E-001	5.99360E-003	0.00000E+000	5.39988E-003	3.59960E-001	-1.16758E+000	3.57710E+000	10	...........
	36	0.493333	9.07216E-001	5.99614E-003	0.00000E+000	5.43979E-003	3.59960E-001	-1.17462E+000	3.57710E+000	10	...........
	37	0.506667	9.13451E-001	5.99356E-003	0.00000E+000	5.47482E-003	3.59960E-001	-1.17527E+000	3.57710E+000	10	...........
	38	0.52	9.19688E-001	5.99499E-003	0.00000E+000	5.51352E-003	3.59960E-001	-1.16759E+000	3.57710E+000	10	...........
	39	0.533333	9.25860E-001	5.98973E-003	0.00000E+000	5.54566E-003	3.59960E-001	-1.17452E+000	3.57710E+000	10	...........
	40	0.546667	9.32010E-001	5.99426E-003	0.00000E+000	5.58671E-003	3.59960E-001	-1.17531E+000	3.57710E+000	10	...........
	41	0.56	9.38074E-001	5.99637E-003	0.00000E+000	5.62503E-003	3.59960E-001	-1.16779E+000	3.57710E+000	10	...........
	42	0.573333	9.44111E-001	5.99127E-003	0.00000E+000	5.65642E-003	3.59960E-001	-1.17474E+000	3.57710E+000	10	...........
	43	0.586667	9.50067E-001	5.99341E-003	0.00000E+000	5.69414E-003	3.59960E-001	-1.17524E+000	3.57710E+000	10	...........
	44	0.6	9.56026E-001	5.99396E-003	0.00000E+000	5.73038E-003	3.59960E-001	-1.16748E+000	3.57710E+000	10	...........
	45	0.613333	9.61895E-001	5.99490E-003	0.00000E+000	5.76646E-003	3.59960E-001	-1.17442E+000	3.57710E+000	10	...........
	46	0.626667	9.67703E-001	5.99156E-003	0.00000E+000	5.79805E-003	3.59960E-001	-1.17509E+000	3.57710E+000	10	...........
	47	0.64	9.73508E-001	5.99539E-003	0.00000E+000	5.83656E-003	3.59960E-001	-1.16738E+000	3.57710E+000	10	...........
	48	0.653333	9.79186E-001	5.99146E-003	0.00000E+000	5.86675E-003	3.59960E-001	-1.17435E+000	3.57710E+000	10	...........
	49	0.666667	9.84858E-001	5.99106E-003	0.00000E+000	5.90034E-003	3.59960E-001	-1.17493E+000	3.57710E+000	10	...........
	50	0.68	9.90514E-001	5.99666E-003	0.00000E+000	5.93978E-003	3.59960E-001	-1.16731E+000	3.57710E+000	10	...........
	51	0.693333	9.96075E-001	5.99485E-003	0.00000E+000	5.97132E-003	3.59960E-001	-1.17443E+000	3.57710E+000	10	...........
	52	0.698333	9.99894E-001	5.99657E-003	0.00000E+000	5.99594E-003	3.59960E-001	-1.16410E+000	3.57710E+000	10	...........
STARTTIMEOFFSET	QUANT	1528.492	Start Time Offset (s)