File: Data/CV_CRGO300517_1/PWRCCD_CRGO300517_1/CHARGE_DISCHARGE/CHARGE_#646.DTA
EXPLAIN
TAG	PWR800_CHARGE
TITLE	LABEL	PWR Cyclic Charge Discharge (Cell) - Charge Step	Test &Identifier
DATE	LABEL	22-6-2017	Date
TIME	LABEL	16:01:31	Time
NOTES	NOTES	3	&Notes...
	supercap test cell
	0.6mg
	6M KOH
PSTAT	PSTAT	IFC5000-01520	Potentiostat
CAPACITY	QUANT	1.00000E-003	Capacity (A-hr)
CELLTYPE	SELECTOR	1	&Cell Type
WORKINGCONNECTION	SELECTOR	0	&Working Lead
MAXCHARGETIME	VARIABLEANDUNITS	1.00000E+002	s	1.00000E+002	second(s)	Max &Charge Time
CHARGECURRENT	QUANT	6.00000E-003	&Charge Current (A)
VOLTAGEFINISH	TWOPARAM	F	1.00000E-003	3.60000E+003	&Voltage Finish	 I (A) < 	Max Time(s)
SAMPLETIME	QUANT	1.00000E-002	Sa&mple Period (s)
CHARGESTOPAT1	MULTIPARAM	4	1.00000E+000	Charge Stop At &1	Voltage > Limit	V
CHARGESTOPAT2	MULTIPARAM	0	0.00000E+000	Charge Stop At &2	None	N/A
AESBHCSELECTOR	TOGGLE	F	Save Both Half Cells
IRCOMP	TOGGLE	F	IR &Measure
EOC	QUANT	0	Open Circuit (V)
SEQUENCER	TOGGLE	TRUE	Run as Sequence
PSTATMODEL	IQUANT	53	Pstat Model
PSTATSECTION	LABEL	IFC5000-01520	Pstat Section
PSTATSERIALNO	LABEL	01520	Pstat Serial Number
CTRLMODE	IQUANT	0	Control Mode
ELECTROMETER	IQUANT	1	RE=0 or CS=1
IESTAB	IQUANT	0	I/E Stability
CASPEED	IQUANT	4	Control Amp Speed
CONVENTION	IQUANT	1	Current Convention
ICHRANGE	IQUANT	2	Ich Range
ICHRANGEMODE	TOGGLE	T	Ich Auto Range
ICHOFFSETENABLE	TOGGLE	F	Ich Offset Enable
ICHOFFSET	QUANT	0	Ich Offset (V)
ICHFILTER	IQUANT	1	Ich Filter
VCHRANGE	IQUANT	2	Vch Range
VCHRANGEMODE	TOGGLE	T	Vch Auto Range
VCHOFFSETENABLE	TOGGLE	F	Vch Offset Enable
VCHOFFSET	QUANT	0	Vch Offset (V)
VCHFILTER	IQUANT	1	Vch Filter
IERANGELOWERLIMIT	IQUANT	9	I/E Range Lower Limit
IERANGEMODE	TOGGLE	F	I/E AutoRange
IERANGE	IQUANT	10	I/E Range
ACHSELECT	IQUANT	1	Ach Select
ACHRANGE	IQUANT	2	Ach Range
ACHOFFSETENABLE	TOGGLE	F	Ach Offset Enable
ACHOFFSET	QUANT	0	Ach Offset (V)
ACHFILTER	IQUANT	1	Ach Filter
CABLEID	IQUANT	14	Cable ID
DCCALDATE	LABEL	20-10-2016	DC Calibration Date
ACCALDATE	LABEL	12/3/2015	AC Calibration Date
FRAMEWORKVERSION	QUANT	7.01	Framework Version
INSTRUMENTVERSION	LABEL	4.00	Instrument Version
CURVE	TABLE	56
	Pt	T	Vf	Im	Vu	Pwr	Sig	Ach	Temp	IERange	Over
	#	s	V	A	V	W	V	V	deg C	#	bits
	0	0.013333	6.41258E-001	5.99055E-003	0.00000E+000	3.84148E-003	3.59960E-001	-1.15009E+000	3.57750E+000	10	...........
	1	0.026667	6.50137E-001	5.98832E-003	0.00000E+000	3.89323E-003	3.59960E-001	-1.15703E+000	3.57750E+000	10	...........
	2	0.04	6.58434E-001	5.99201E-003	0.00000E+000	3.94534E-003	3.59960E-001	-1.15755E+000	3.57750E+000	10	...........
	3	0.053333	6.66291E-001	5.99412E-003	0.00000E+000	3.99382E-003	3.59960E-001	-1.15010E+000	3.57750E+000	10	...........
	4	0.066667	6.73865E-001	5.99246E-003	0.00000E+000	4.03810E-003	3.59960E-001	-1.15701E+000	3.57750E+000	10	...........
	5	0.08	6.81204E-001	5.98878E-003	0.00000E+000	4.07958E-003	3.59960E-001	-1.15772E+000	3.57750E+000	10	...........
	6	0.093333	6.88431E-001	5.99278E-003	0.00000E+000	4.12562E-003	3.59960E-001	-1.15004E+000	3.57750E+000	10	...........
	7	0.106667	6.95570E-001	5.99898E-003	0.00000E+000	4.17271E-003	3.59960E-001	-1.15690E+000	3.57750E+000	10	...........
	8	0.12	7.02604E-001	5.99579E-003	0.00000E+000	4.21267E-003	3.59960E-001	-1.15766E+000	3.57750E+000	10	...........
	9	0.133333	7.09599E-001	5.99543E-003	0.00000E+000	4.25435E-003	3.59960E-001	-1.14976E+000	3.57750E+000	10	...........
	10	0.146667	7.16499E-001	5.98791E-003	0.00000E+000	4.29033E-003	3.59960E-001	-1.15650E+000	3.57750E+000	10	...........
	11	0.16	7.23409E-001	5.99884E-003	0.00000E+000	4.33962E-003	3.59960E-001	-1.15738E+000	3.57750E+000	10	...........
	12	0.173333	7.30212E-001	5.99368E-003	0.00000E+000	4.37665E-003	3.59960E-001	-1.14951E+000	3.57750E+000	10	...........
	13	0.186667	7.36927E-001	5.98739E-003	0.00000E+000	4.41227E-003	3.59960E-001	-1.15633E+000	3.57750E+000	10	...........
	14	0.2	7.43742E-001	5.99518E-003	0.00000E+000	4.45886E-003	3.59960E-001	-1.15717E+000	3.57750E+000	10	...........
	15	0.213333	7.50442E-001	5.99547E-003	0.00000E+000	4.49925E-003	3.59960E-001	-1.14950E+000	3.57750E+000	10	...........
	16	0.226667	7.57154E-001	5.99384E-003	0.00000E+000	4.53826E-003	3.59960E-001	-1.15638E+000	3.57750E+000	10	...........
	17	0.24	7.63804E-001	5.99308E-003	0.00000E+000	4.57754E-003	3.59960E-001	-1.15705E+000	3.57750E+000	10	...........
	18	0.253333	7.70474E-001	5.99185E-003	0.00000E+000	4.61657E-003	3.59960E-001	-1.14943E+000	3.57750E+000	10	...........
	19	0.266667	7.77125E-001	5.98979E-003	0.00000E+000	4.65481E-003	3.59960E-001	-1.15628E+000	3.57750E+000	10	...........
	20	0.28	7.83759E-001	5.99651E-003	0.00000E+000	4.69982E-003	3.59960E-001	-1.15713E+000	3.57750E+000	10	...........
	21	0.293333	7.90298E-001	5.99391E-003	0.00000E+000	4.73697E-003	3.59960E-001	-1.14949E+000	3.57750E+000	10	...........
	22	0.306667	7.96909E-001	5.99347E-003	0.00000E+000	4.77625E-003	3.59960E-001	-1.15616E+000	3.57750E+000	10	...........
	23	0.32	8.03444E-001	5.99646E-003	0.00000E+000	4.81782E-003	3.59960E-001	-1.15687E+000	3.57750E+000	10	...........
	24	0.333333	8.09937E-001	5.99396E-003	0.00000E+000	4.85473E-003	3.59960E-001	-1.14944E+000	3.57750E+000	10	...........
	25	0.346667	8.16415E-001	5.99382E-003	0.00000E+000	4.89345E-003	3.59960E-001	-1.15636E+000	3.57750E+000	10	...........
	26	0.36	8.22933E-001	5.99295E-003	0.00000E+000	4.93180E-003	3.59960E-001	-1.15696E+000	3.57750E+000	10	...........
	27	0.373333	8.29402E-001	5.99637E-003	0.00000E+000	4.97340E-003	3.59960E-001	-1.14941E+000	3.57750E+000	10	...........
	28	0.386667	8.35843E-001	5.99648E-003	0.00000E+000	5.01212E-003	3.59960E-001	-1.15606E+000	3.57750E+000	10	...........
	29	0.4	8.42302E-001	5.99299E-003	0.00000E+000	5.04791E-003	3.59960E-001	-1.15689E+000	3.57750E+000	10	...........
	30	0.413333	8.48734E-001	5.99667E-003	0.00000E+000	5.08958E-003	3.59960E-001	-1.14943E+000	3.57750E+000	10	...........
	31	0.426667	8.55117E-001	5.99565E-003	0.00000E+000	5.12698E-003	3.59960E-001	-1.15626E+000	3.57750E+000	10	...........
	32	0.44	8.61475E-001	5.99408E-003	0.00000E+000	5.16375E-003	3.59960E-001	-1.15697E+000	3.57750E+000	10	...........
	33	0.453333	8.67828E-001	5.99612E-003	0.00000E+000	5.20360E-003	3.59960E-001	-1.14912E+000	3.57750E+000	10	...........
	34	0.466667	8.74177E-001	5.99137E-003	0.00000E+000	5.23752E-003	3.59960E-001	-1.15585E+000	3.57750E+000	10	...........
	35	0.48	8.80476E-001	5.99754E-003	0.00000E+000	5.28069E-003	3.59960E-001	-1.15659E+000	3.57750E+000	10	...........
	36	0.493333	8.86733E-001	5.99472E-003	0.00000E+000	5.31572E-003	3.59960E-001	-1.14899E+000	3.57750E+000	10	...........
	37	0.506667	8.92944E-001	5.99220E-003	0.00000E+000	5.35070E-003	3.59960E-001	-1.15556E+000	3.57750E+000	10	...........
	38	0.52	8.99167E-001	5.99057E-003	0.00000E+000	5.38652E-003	3.59960E-001	-1.15668E+000	3.57750E+000	10	...........
	39	0.533333	9.05338E-001	5.99203E-003	0.00000E+000	5.42481E-003	3.59960E-001	-1.14891E+000	3.57750E+000	10	...........
	40	0.546667	9.11447E-001	5.99505E-003	0.00000E+000	5.46418E-003	3.59960E-001	-1.15563E+000	3.57750E+000	10	...........
	41	0.56	9.17571E-001	5.99457E-003	0.00000E+000	5.50045E-003	3.59960E-001	-1.15673E+000	3.57750E+000	10	...........
	42	0.573333	9.23673E-001	5.99993E-003	0.00000E+000	5.54198E-003	3.59960E-001	-1.14882E+000	3.57750E+000	10	...........
	43	0.586667	9.29675E-001	5.99371E-003	0.00000E+000	5.57220E-003	3.59960E-001	-1.15570E+000	3.57750E+000	10	...........
	44	0.6	9.35676E-001	5.98751E-003	0.00000E+000	5.60237E-003	3.59960E-001	-1.15660E+000	3.57750E+000	10	...........
	45	0.613333	9.41649E-001	5.99507E-003	0.00000E+000	5.64525E-003	3.59960E-001	-1.14906E+000	3.57750E+000	10	...........
	46	0.626667	9.47607E-001	5.99294E-003	0.00000E+000	5.67895E-003	3.59960E-001	-1.15573E+000	3.57750E+000	10	...........
	47	0.64	9.53451E-001	5.99441E-003	0.00000E+000	5.71537E-003	3.59960E-001	-1.15657E+000	3.57750E+000	10	...........
	48	0.653333	9.59229E-001	6.00095E-003	0.00000E+000	5.75628E-003	3.59960E-001	-1.14906E+000	3.57750E+000	10	...........
	49	0.666667	9.65025E-001	5.99792E-003	0.00000E+000	5.78814E-003	3.59960E-001	-1.15581E+000	3.57750E+000	10	...........
	50	0.68	9.70767E-001	5.99359E-003	0.00000E+000	5.81838E-003	3.59960E-001	-1.15695E+000	3.57750E+000	10	...........
	51	0.693333	9.76520E-001	5.99233E-003	0.00000E+000	5.85163E-003	3.59960E-001	-1.14914E+000	3.57750E+000	10	...........
	52	0.706667	9.82141E-001	5.98976E-003	0.00000E+000	5.88278E-003	3.59960E-001	-1.15579E+000	3.57750E+000	10	...........
	53	0.72	9.87774E-001	5.99333E-003	0.00000E+000	5.92006E-003	3.59960E-001	-1.15690E+000	3.57750E+000	10	...........
	54	0.733333	9.93286E-001	5.99478E-003	0.00000E+000	5.95454E-003	3.59960E-001	-1.14916E+000	3.57750E+000	10	...........
	55	0.745	9.98469E-001	5.99132E-003	0.00000E+000	5.98215E-003	3.59960E-001	-1.15865E+000	3.57750E+000	10	...........
STARTTIMEOFFSET	QUANT	1079.552	Start Time Offset (s)