File: Data/CV_CRGO300517_1/PWRCCD_CRGO300517_1/CHARGE_DISCHARGE/CHARGE_#861.DTA
EXPLAIN
TAG	PWR800_CHARGE
TITLE	LABEL	PWR Cyclic Charge Discharge (Cell) - Charge Step	Test &Identifier
DATE	LABEL	22-6-2017	Date
TIME	LABEL	16:09:32	Time
NOTES	NOTES	3	&Notes...
	supercap test cell
	0.6mg
	6M KOH
PSTAT	PSTAT	IFC5000-01520	Potentiostat
CAPACITY	QUANT	1.00000E-003	Capacity (A-hr)
CELLTYPE	SELECTOR	1	&Cell Type
WORKINGCONNECTION	SELECTOR	0	&Working Lead
MAXCHARGETIME	VARIABLEANDUNITS	1.00000E+002	s	1.00000E+002	second(s)	Max &Charge Time
CHARGECURRENT	QUANT	6.00000E-003	&Charge Current (A)
VOLTAGEFINISH	TWOPARAM	F	1.00000E-003	3.60000E+003	&Voltage Finish	 I (A) < 	Max Time(s)
SAMPLETIME	QUANT	1.00000E-002	Sa&mple Period (s)
CHARGESTOPAT1	MULTIPARAM	4	1.00000E+000	Charge Stop At &1	Voltage > Limit	V
CHARGESTOPAT2	MULTIPARAM	0	0.00000E+000	Charge Stop At &2	None	N/A
AESBHCSELECTOR	TOGGLE	F	Save Both Half Cells
IRCOMP	TOGGLE	F	IR &Measure
EOC	QUANT	0	Open Circuit (V)
SEQUENCER	TOGGLE	TRUE	Run as Sequence
PSTATMODEL	IQUANT	53	Pstat Model
PSTATSECTION	LABEL	IFC5000-01520	Pstat Section
PSTATSERIALNO	LABEL	01520	Pstat Serial Number
CTRLMODE	IQUANT	0	Control Mode
ELECTROMETER	IQUANT	1	RE=0 or CS=1
IESTAB	IQUANT	0	I/E Stability
CASPEED	IQUANT	4	Control Amp Speed
CONVENTION	IQUANT	1	Current Convention
ICHRANGE	IQUANT	2	Ich Range
ICHRANGEMODE	TOGGLE	T	Ich Auto Range
ICHOFFSETENABLE	TOGGLE	F	Ich Offset Enable
ICHOFFSET	QUANT	0	Ich Offset (V)
ICHFILTER	IQUANT	1	Ich Filter
VCHRANGE	IQUANT	2	Vch Range
VCHRANGEMODE	TOGGLE	T	Vch Auto Range
VCHOFFSETENABLE	TOGGLE	F	Vch Offset Enable
VCHOFFSET	QUANT	0	Vch Offset (V)
VCHFILTER	IQUANT	1	Vch Filter
IERANGELOWERLIMIT	IQUANT	9	I/E Range Lower Limit
IERANGEMODE	TOGGLE	F	I/E AutoRange
IERANGE	IQUANT	10	I/E Range
ACHSELECT	IQUANT	1	Ach Select
ACHRANGE	IQUANT	2	Ach Range
ACHOFFSETENABLE	TOGGLE	F	Ach Offset Enable
ACHOFFSET	QUANT	0	Ach Offset (V)
ACHFILTER	IQUANT	1	Ach Filter
CABLEID	IQUANT	14	Cable ID
DCCALDATE	LABEL	20-10-2016	DC Calibration Date
ACCALDATE	LABEL	12/3/2015	AC Calibration Date
FRAMEWORKVERSION	QUANT	7.01	Framework Version
INSTRUMENTVERSION	LABEL	4.00	Instrument Version
CURVE	TABLE	54
	Pt	T	Vf	Im	Vu	Pwr	Sig	Ach	Temp	IERange	Over
	#	s	V	A	V	W	V	V	deg C	#	bits
	0	0.013333	6.51518E-001	5.99207E-003	0.00000E+000	3.90394E-003	3.59960E-001	-1.16389E+000	3.57630E+000	10	...........
	1	0.026667	6.60821E-001	5.99665E-003	0.00000E+000	3.96271E-003	3.59960E-001	-1.17505E+000	3.57630E+000	10	...........
	2	0.04	6.69374E-001	5.99286E-003	0.00000E+000	4.01147E-003	3.59960E-001	-1.16618E+000	3.57630E+000	10	...........
	3	0.053333	6.77371E-001	5.99397E-003	0.00000E+000	4.06014E-003	3.59960E-001	-1.16408E+000	3.57630E+000	10	...........
	4	0.066667	6.85138E-001	5.99890E-003	0.00000E+000	4.11007E-003	3.59960E-001	-1.17484E+000	3.57630E+000	10	...........
	5	0.08	6.92723E-001	5.99628E-003	0.00000E+000	4.15376E-003	3.59960E-001	-1.16589E+000	3.57630E+000	10	...........
	6	0.093333	7.00152E-001	5.99161E-003	0.00000E+000	4.19504E-003	3.59960E-001	-1.16370E+000	3.57630E+000	10	...........
	7	0.106667	7.07448E-001	5.98722E-003	0.00000E+000	4.23565E-003	3.59960E-001	-1.17476E+000	3.57630E+000	10	...........
	8	0.12	7.14630E-001	5.98893E-003	0.00000E+000	4.27987E-003	3.59960E-001	-1.16568E+000	3.57630E+000	10	...........
	9	0.133333	7.21812E-001	5.99463E-003	0.00000E+000	4.32699E-003	3.59960E-001	-1.16382E+000	3.57630E+000	10	...........
	10	0.146667	7.28865E-001	5.99343E-003	0.00000E+000	4.36840E-003	3.59960E-001	-1.17464E+000	3.57630E+000	10	...........
	11	0.16	7.35875E-001	5.99568E-003	0.00000E+000	4.41207E-003	3.59960E-001	-1.16575E+000	3.57630E+000	10	...........
	12	0.173333	7.42881E-001	5.98881E-003	0.00000E+000	4.44897E-003	3.59960E-001	-1.16390E+000	3.57630E+000	10	...........
	13	0.186667	7.49795E-001	5.99791E-003	0.00000E+000	4.49721E-003	3.59960E-001	-1.17471E+000	3.57630E+000	10	...........
	14	0.2	7.56665E-001	5.99106E-003	0.00000E+000	4.53323E-003	3.59960E-001	-1.16540E+000	3.57630E+000	10	...........
	15	0.213333	7.63512E-001	5.99500E-003	0.00000E+000	4.57725E-003	3.59960E-001	-1.16360E+000	3.57630E+000	10	...........
	16	0.226667	7.70350E-001	5.99519E-003	0.00000E+000	4.61840E-003	3.59960E-001	-1.17467E+000	3.57630E+000	10	...........
	17	0.24	7.77134E-001	5.99394E-003	0.00000E+000	4.65809E-003	3.59960E-001	-1.16526E+000	3.57630E+000	10	...........
	18	0.253333	7.83902E-001	5.99495E-003	0.00000E+000	4.69945E-003	3.59960E-001	-1.16347E+000	3.57630E+000	10	...........
	19	0.266667	7.90639E-001	5.99206E-003	0.00000E+000	4.73756E-003	3.59960E-001	-1.17436E+000	3.57630E+000	10	...........
	20	0.28	7.97380E-001	5.99463E-003	0.00000E+000	4.78000E-003	3.59960E-001	-1.16498E+000	3.57630E+000	10	...........
	21	0.293333	8.04085E-001	6.00264E-003	0.00000E+000	4.82663E-003	3.59960E-001	-1.16355E+000	3.57630E+000	10	...........
	22	0.306667	8.10723E-001	5.99471E-003	0.00000E+000	4.86005E-003	3.59960E-001	-1.17432E+000	3.57630E+000	10	...........
	23	0.32	8.17381E-001	5.99437E-003	0.00000E+000	4.89968E-003	3.59960E-001	-1.16508E+000	3.57630E+000	10	...........
	24	0.333333	8.24049E-001	5.99634E-003	0.00000E+000	4.94127E-003	3.59960E-001	-1.16333E+000	3.57630E+000	10	...........
	25	0.346667	8.30644E-001	5.99418E-003	0.00000E+000	4.97903E-003	3.59960E-001	-1.17432E+000	3.57630E+000	10	...........
	26	0.36	8.37193E-001	5.99487E-003	0.00000E+000	5.01886E-003	3.59960E-001	-1.16503E+000	3.57630E+000	10	...........
	27	0.373333	8.43769E-001	5.99271E-003	0.00000E+000	5.05646E-003	3.59960E-001	-1.16360E+000	3.57630E+000	10	...........
	28	0.386667	8.50345E-001	5.99820E-003	0.00000E+000	5.10054E-003	3.59960E-001	-1.17440E+000	3.57630E+000	10	...........
	29	0.4	8.56859E-001	5.99534E-003	0.00000E+000	5.13715E-003	3.59960E-001	-1.16477E+000	3.57630E+000	10	...........
	30	0.413333	8.63291E-001	5.99176E-003	0.00000E+000	5.17263E-003	3.59960E-001	-1.16334E+000	3.57630E+000	10	...........
	31	0.426667	8.69777E-001	5.99311E-003	0.00000E+000	5.21267E-003	3.59960E-001	-1.17407E+000	3.57630E+000	10	...........
	32	0.44	8.76203E-001	5.99286E-003	0.00000E+000	5.25097E-003	3.59960E-001	-1.16490E+000	3.57630E+000	10	...........
	33	0.453333	8.82594E-001	5.99245E-003	0.00000E+000	5.28890E-003	3.59960E-001	-1.16339E+000	3.57630E+000	10	...........
	34	0.466667	8.88890E-001	5.98851E-003	0.00000E+000	5.32313E-003	3.59960E-001	-1.17440E+000	3.57630E+000	10	...........
	35	0.48	8.95216E-001	5.99739E-003	0.00000E+000	5.36896E-003	3.59960E-001	-1.16483E+000	3.57668E+000	10	...........
	36	0.493333	9.01491E-001	5.99819E-003	0.00000E+000	5.40732E-003	3.59960E-001	-1.16342E+000	3.57690E+000	10	...........
	37	0.506667	9.07770E-001	5.99662E-003	0.00000E+000	5.44355E-003	3.59960E-001	-1.17431E+000	3.57690E+000	10	...........
	38	0.52	9.13985E-001	5.99468E-003	0.00000E+000	5.47904E-003	3.59960E-001	-1.16494E+000	3.57690E+000	10	...........
	39	0.533333	9.20152E-001	5.99036E-003	0.00000E+000	5.51204E-003	3.59960E-001	-1.16333E+000	3.57690E+000	10	...........
	40	0.546667	9.26298E-001	5.99286E-003	0.00000E+000	5.55118E-003	3.59960E-001	-1.17435E+000	3.57690E+000	10	...........
	41	0.56	9.32398E-001	5.98984E-003	0.00000E+000	5.58491E-003	3.59960E-001	-1.16477E+000	3.57690E+000	10	...........
	42	0.573333	9.38434E-001	5.99311E-003	0.00000E+000	5.62414E-003	3.59960E-001	-1.16326E+000	3.57690E+000	10	...........
	43	0.586667	9.44436E-001	5.99719E-003	0.00000E+000	5.66396E-003	3.59960E-001	-1.17420E+000	3.57690E+000	10	...........
	44	0.6	9.50394E-001	5.99503E-003	0.00000E+000	5.69765E-003	3.59960E-001	-1.16446E+000	3.57690E+000	10	...........
	45	0.613333	9.56317E-001	5.99200E-003	0.00000E+000	5.73025E-003	3.59960E-001	-1.16330E+000	3.57690E+000	10	...........
	46	0.626667	9.62151E-001	5.99452E-003	0.00000E+000	5.76764E-003	3.59960E-001	-1.17428E+000	3.57690E+000	10	...........
	47	0.64	9.67922E-001	5.99747E-003	0.00000E+000	5.80509E-003	3.59960E-001	-1.16465E+000	3.57690E+000	10	...........
	48	0.653333	9.73713E-001	5.99304E-003	0.00000E+000	5.83550E-003	3.59960E-001	-1.16329E+000	3.57690E+000	10	...........
	49	0.666667	9.79415E-001	5.99534E-003	0.00000E+000	5.87192E-003	3.59960E-001	-1.17403E+000	3.57690E+000	10	...........
	50	0.68	9.85077E-001	5.99234E-003	0.00000E+000	5.90292E-003	3.59960E-001	-1.16448E+000	3.57690E+000	10	...........
	51	0.693333	9.90688E-001	5.99646E-003	0.00000E+000	5.94062E-003	3.59960E-001	-1.16338E+000	3.57690E+000	10	...........
	52	0.706667	9.96268E-001	5.99743E-003	0.00000E+000	5.97505E-003	3.59960E-001	-1.17421E+000	3.57690E+000	10	...........
	53	0.71	9.99744E-001	5.99221E-003	0.00000E+000	5.99067E-003	3.59960E-001	-1.15295E+000	3.57690E+000	10	...........
STARTTIMEOFFSET	QUANT	1391.043	Start Time Offset (s)