File: Data/CV_CRGO300517_1/PWRCCD_CRGO300517_1/CHARGE_DISCHARGE/CHARGE_#766.DTA
EXPLAIN
TAG	PWR800_CHARGE
TITLE	LABEL	PWR Cyclic Charge Discharge (Cell) - Charge Step	Test &Identifier
DATE	LABEL	22-6-2017	Date
TIME	LABEL	16:06:01	Time
NOTES	NOTES	3	&Notes...
	supercap test cell
	0.6mg
	6M KOH
PSTAT	PSTAT	IFC5000-01520	Potentiostat
CAPACITY	QUANT	1.00000E-003	Capacity (A-hr)
CELLTYPE	SELECTOR	1	&Cell Type
WORKINGCONNECTION	SELECTOR	0	&Working Lead
MAXCHARGETIME	VARIABLEANDUNITS	1.00000E+002	s	1.00000E+002	second(s)	Max &Charge Time
CHARGECURRENT	QUANT	6.00000E-003	&Charge Current (A)
VOLTAGEFINISH	TWOPARAM	F	1.00000E-003	3.60000E+003	&Voltage Finish	 I (A) < 	Max Time(s)
SAMPLETIME	QUANT	1.00000E-002	Sa&mple Period (s)
CHARGESTOPAT1	MULTIPARAM	4	1.00000E+000	Charge Stop At &1	Voltage > Limit	V
CHARGESTOPAT2	MULTIPARAM	0	0.00000E+000	Charge Stop At &2	None	N/A
AESBHCSELECTOR	TOGGLE	F	Save Both Half Cells
IRCOMP	TOGGLE	F	IR &Measure
EOC	QUANT	0	Open Circuit (V)
SEQUENCER	TOGGLE	TRUE	Run as Sequence
PSTATMODEL	IQUANT	53	Pstat Model
PSTATSECTION	LABEL	IFC5000-01520	Pstat Section
PSTATSERIALNO	LABEL	01520	Pstat Serial Number
CTRLMODE	IQUANT	0	Control Mode
ELECTROMETER	IQUANT	1	RE=0 or CS=1
IESTAB	IQUANT	0	I/E Stability
CASPEED	IQUANT	4	Control Amp Speed
CONVENTION	IQUANT	1	Current Convention
ICHRANGE	IQUANT	2	Ich Range
ICHRANGEMODE	TOGGLE	T	Ich Auto Range
ICHOFFSETENABLE	TOGGLE	F	Ich Offset Enable
ICHOFFSET	QUANT	0	Ich Offset (V)
ICHFILTER	IQUANT	1	Ich Filter
VCHRANGE	IQUANT	2	Vch Range
VCHRANGEMODE	TOGGLE	T	Vch Auto Range
VCHOFFSETENABLE	TOGGLE	F	Vch Offset Enable
VCHOFFSET	QUANT	0	Vch Offset (V)
VCHFILTER	IQUANT	1	Vch Filter
IERANGELOWERLIMIT	IQUANT	9	I/E Range Lower Limit
IERANGEMODE	TOGGLE	F	I/E AutoRange
IERANGE	IQUANT	10	I/E Range
ACHSELECT	IQUANT	1	Ach Select
ACHRANGE	IQUANT	2	Ach Range
ACHOFFSETENABLE	TOGGLE	F	Ach Offset Enable
ACHOFFSET	QUANT	0	Ach Offset (V)
ACHFILTER	IQUANT	1	Ach Filter
CABLEID	IQUANT	14	Cable ID
DCCALDATE	LABEL	20-10-2016	DC Calibration Date
ACCALDATE	LABEL	12/3/2015	AC Calibration Date
FRAMEWORKVERSION	QUANT	7.01	Framework Version
INSTRUMENTVERSION	LABEL	4.00	Instrument Version
CURVE	TABLE	55
	Pt	T	Vf	Im	Vu	Pwr	Sig	Ach	Temp	IERange	Over
	#	s	V	A	V	W	V	V	deg C	#	bits
	0	0.013333	6.47260E-001	5.99598E-003	0.00000E+000	3.88096E-003	3.59960E-001	-1.16388E+000	3.57690E+000	10	...........
	1	0.026667	6.56386E-001	5.98973E-003	0.00000E+000	3.93158E-003	3.59960E-001	-1.17449E+000	3.57690E+000	10	...........
	2	0.04	6.64795E-001	5.99336E-003	0.00000E+000	3.98436E-003	3.59960E-001	-1.16407E+000	3.57690E+000	10	...........
	3	0.053333	6.72767E-001	5.99723E-003	0.00000E+000	4.03474E-003	3.59960E-001	-1.16396E+000	3.57690E+000	10	...........
	4	0.066667	6.80442E-001	5.99695E-003	0.00000E+000	4.08058E-003	3.59960E-001	-1.17462E+000	3.57690E+000	10	...........
	5	0.08	6.87960E-001	5.99222E-003	0.00000E+000	4.12240E-003	3.59960E-001	-1.16377E+000	3.57690E+000	10	...........
	6	0.093333	6.95310E-001	5.99092E-003	0.00000E+000	4.16555E-003	3.59960E-001	-1.16381E+000	3.57690E+000	10	...........
	7	0.106667	7.02555E-001	5.99346E-003	0.00000E+000	4.21074E-003	3.59960E-001	-1.17448E+000	3.57690E+000	10	...........
	8	0.12	7.09702E-001	5.99731E-003	0.00000E+000	4.25630E-003	3.59960E-001	-1.16401E+000	3.57690E+000	10	...........
	9	0.133333	7.16792E-001	5.99146E-003	0.00000E+000	4.29463E-003	3.59960E-001	-1.16367E+000	3.57690E+000	10	...........
	10	0.146667	7.23781E-001	5.99349E-003	0.00000E+000	4.33797E-003	3.59960E-001	-1.17417E+000	3.57690E+000	10	...........
	11	0.16	7.30744E-001	5.99332E-003	0.00000E+000	4.37959E-003	3.59960E-001	-1.16361E+000	3.57690E+000	10	...........
	12	0.173333	7.37632E-001	6.00005E-003	0.00000E+000	4.42583E-003	3.59960E-001	-1.16380E+000	3.57690E+000	10	...........
	13	0.186667	7.44526E-001	5.99619E-003	0.00000E+000	4.46432E-003	3.59960E-001	-1.17442E+000	3.57690E+000	10	...........
	14	0.2	7.51360E-001	5.99313E-003	0.00000E+000	4.50300E-003	3.59960E-001	-1.16351E+000	3.57690E+000	10	...........
	15	0.213333	7.58185E-001	5.99645E-003	0.00000E+000	4.54642E-003	3.59960E-001	-1.16362E+000	3.57690E+000	10	...........
	16	0.226667	7.64940E-001	5.99251E-003	0.00000E+000	4.58391E-003	3.59960E-001	-1.17425E+000	3.57690E+000	10	...........
	17	0.24	7.71752E-001	5.99604E-003	0.00000E+000	4.62746E-003	3.59960E-001	-1.16368E+000	3.57690E+000	10	...........
	18	0.253333	7.78457E-001	5.99208E-003	0.00000E+000	4.66458E-003	3.59960E-001	-1.16390E+000	3.57690E+000	10	...........
	19	0.266667	7.85177E-001	5.99826E-003	0.00000E+000	4.70969E-003	3.59960E-001	-1.17407E+000	3.57690E+000	10	...........
	20	0.28	7.91835E-001	5.99122E-003	0.00000E+000	4.74405E-003	3.59960E-001	-1.16346E+000	3.57690E+000	10	...........
	21	0.293333	7.98511E-001	5.99022E-003	0.00000E+000	4.78326E-003	3.59960E-001	-1.16356E+000	3.57690E+000	10	...........
	22	0.306667	8.05102E-001	5.99564E-003	0.00000E+000	4.82710E-003	3.59960E-001	-1.17395E+000	3.57690E+000	10	...........
	23	0.32	8.11697E-001	5.98630E-003	0.00000E+000	4.85906E-003	3.59960E-001	-1.16300E+000	3.57690E+000	10	...........
	24	0.333333	8.18312E-001	5.99895E-003	0.00000E+000	4.90902E-003	3.59960E-001	-1.16333E+000	3.57690E+000	10	...........
	25	0.346667	8.24899E-001	5.98925E-003	0.00000E+000	4.94053E-003	3.59960E-001	-1.17357E+000	3.57690E+000	10	...........
	26	0.36	8.31430E-001	5.99158E-003	0.00000E+000	4.98158E-003	3.59960E-001	-1.16303E+000	3.57690E+000	10	...........
	27	0.373333	8.37945E-001	5.99463E-003	0.00000E+000	5.02317E-003	3.59960E-001	-1.16331E+000	3.57690E+000	10	...........
	28	0.386667	8.44463E-001	5.99401E-003	0.00000E+000	5.06172E-003	3.59960E-001	-1.17378E+000	3.57690E+000	10	...........
	29	0.4	8.50956E-001	5.98993E-003	0.00000E+000	5.09717E-003	3.59960E-001	-1.16309E+000	3.57690E+000	10	...........
	30	0.413333	8.57417E-001	5.98938E-003	0.00000E+000	5.13540E-003	3.59960E-001	-1.16318E+000	3.57690E+000	10	...........
	31	0.426667	8.63819E-001	5.99356E-003	0.00000E+000	5.17735E-003	3.59960E-001	-1.17360E+000	3.57690E+000	10	...........
	32	0.44	8.70228E-001	5.99279E-003	0.00000E+000	5.21510E-003	3.59960E-001	-1.16283E+000	3.57690E+000	10	...........
	33	0.453333	8.76631E-001	5.99707E-003	0.00000E+000	5.25721E-003	3.59960E-001	-1.16342E+000	3.57690E+000	10	...........
	34	0.466667	8.83012E-001	5.99573E-003	0.00000E+000	5.29430E-003	3.59960E-001	-1.17360E+000	3.57690E+000	10	...........
	35	0.48	8.89289E-001	5.99142E-003	0.00000E+000	5.32811E-003	3.59960E-001	-1.16261E+000	3.57690E+000	10	...........
	36	0.493333	8.95584E-001	5.99157E-003	0.00000E+000	5.36595E-003	3.59960E-001	-1.16343E+000	3.57690E+000	10	...........
	37	0.506667	9.01784E-001	5.99495E-003	0.00000E+000	5.40615E-003	3.59960E-001	-1.17356E+000	3.57690E+000	10	...........
	38	0.52	9.07967E-001	5.99166E-003	0.00000E+000	5.44024E-003	3.59960E-001	-1.16296E+000	3.57690E+000	10	...........
	39	0.533333	9.14162E-001	5.99784E-003	0.00000E+000	5.48300E-003	3.59960E-001	-1.16342E+000	3.57690E+000	10	...........
	40	0.546667	9.20339E-001	5.99817E-003	0.00000E+000	5.52035E-003	3.59960E-001	-1.17349E+000	3.57690E+000	10	...........
	41	0.56	9.26472E-001	5.99412E-003	0.00000E+000	5.55338E-003	3.59960E-001	-1.16281E+000	3.57690E+000	10	...........
	42	0.573333	9.32485E-001	5.99394E-003	0.00000E+000	5.58926E-003	3.59960E-001	-1.16353E+000	3.57690E+000	10	...........
	43	0.586667	9.38460E-001	5.99035E-003	0.00000E+000	5.62170E-003	3.59960E-001	-1.17366E+000	3.57690E+000	10	...........
	44	0.6	9.44463E-001	5.99211E-003	0.00000E+000	5.65933E-003	3.59960E-001	-1.16275E+000	3.57690E+000	10	...........
	45	0.613333	9.50426E-001	5.99908E-003	0.00000E+000	5.70168E-003	3.59960E-001	-1.16324E+000	3.57690E+000	10	...........
	46	0.626667	9.56303E-001	5.99579E-003	0.00000E+000	5.73379E-003	3.59960E-001	-1.17341E+000	3.57690E+000	10	...........
	47	0.64	9.62154E-001	5.99306E-003	0.00000E+000	5.76625E-003	3.59960E-001	-1.16248E+000	3.57690E+000	10	...........
	48	0.653333	9.67945E-001	5.99501E-003	0.00000E+000	5.80284E-003	3.59960E-001	-1.16314E+000	3.57690E+000	10	...........
	49	0.666667	9.73687E-001	5.99395E-003	0.00000E+000	5.83623E-003	3.59960E-001	-1.17315E+000	3.57690E+000	10	...........
	50	0.68	9.79404E-001	5.99657E-003	0.00000E+000	5.87306E-003	3.59960E-001	-1.16214E+000	3.57690E+000	10	...........
	51	0.693333	9.85032E-001	5.99423E-003	0.00000E+000	5.90451E-003	3.59960E-001	-1.16307E+000	3.57690E+000	10	...........
	52	0.706667	9.90636E-001	5.99467E-003	0.00000E+000	5.93853E-003	3.59960E-001	-1.17314E+000	3.57690E+000	10	...........
	53	0.72	9.96164E-001	5.99092E-003	0.00000E+000	5.96794E-003	3.59960E-001	-1.16241E+000	3.57690E+000	10	...........
	54	0.723333	9.99649E-001	6.00055E-003	0.00000E+000	5.99844E-003	3.59960E-001	-1.17586E+000	3.57690E+000	10	...........
STARTTIMEOFFSET	QUANT	1255.211	Start Time Offset (s)