File: Data/CV_CRGO300517_1/PWRCCD_CRGO300517_1/CHARGE_DISCHARGE/CHARGE_#780.DTA
EXPLAIN
TAG	PWR800_CHARGE
TITLE	LABEL	PWR Cyclic Charge Discharge (Cell) - Charge Step	Test &Identifier
DATE	LABEL	22-6-2017	Date
TIME	LABEL	16:06:32	Time
NOTES	NOTES	3	&Notes...
	supercap test cell
	0.6mg
	6M KOH
PSTAT	PSTAT	IFC5000-01520	Potentiostat
CAPACITY	QUANT	1.00000E-003	Capacity (A-hr)
CELLTYPE	SELECTOR	1	&Cell Type
WORKINGCONNECTION	SELECTOR	0	&Working Lead
MAXCHARGETIME	VARIABLEANDUNITS	1.00000E+002	s	1.00000E+002	second(s)	Max &Charge Time
CHARGECURRENT	QUANT	6.00000E-003	&Charge Current (A)
VOLTAGEFINISH	TWOPARAM	F	1.00000E-003	3.60000E+003	&Voltage Finish	 I (A) < 	Max Time(s)
SAMPLETIME	QUANT	1.00000E-002	Sa&mple Period (s)
CHARGESTOPAT1	MULTIPARAM	4	1.00000E+000	Charge Stop At &1	Voltage > Limit	V
CHARGESTOPAT2	MULTIPARAM	0	0.00000E+000	Charge Stop At &2	None	N/A
AESBHCSELECTOR	TOGGLE	F	Save Both Half Cells
IRCOMP	TOGGLE	F	IR &Measure
EOC	QUANT	0	Open Circuit (V)
SEQUENCER	TOGGLE	TRUE	Run as Sequence
PSTATMODEL	IQUANT	53	Pstat Model
PSTATSECTION	LABEL	IFC5000-01520	Pstat Section
PSTATSERIALNO	LABEL	01520	Pstat Serial Number
CTRLMODE	IQUANT	0	Control Mode
ELECTROMETER	IQUANT	1	RE=0 or CS=1
IESTAB	IQUANT	0	I/E Stability
CASPEED	IQUANT	4	Control Amp Speed
CONVENTION	IQUANT	1	Current Convention
ICHRANGE	IQUANT	2	Ich Range
ICHRANGEMODE	TOGGLE	T	Ich Auto Range
ICHOFFSETENABLE	TOGGLE	F	Ich Offset Enable
ICHOFFSET	QUANT	0	Ich Offset (V)
ICHFILTER	IQUANT	1	Ich Filter
VCHRANGE	IQUANT	2	Vch Range
VCHRANGEMODE	TOGGLE	T	Vch Auto Range
VCHOFFSETENABLE	TOGGLE	F	Vch Offset Enable
VCHOFFSET	QUANT	0	Vch Offset (V)
VCHFILTER	IQUANT	1	Vch Filter
IERANGELOWERLIMIT	IQUANT	9	I/E Range Lower Limit
IERANGEMODE	TOGGLE	F	I/E AutoRange
IERANGE	IQUANT	10	I/E Range
ACHSELECT	IQUANT	1	Ach Select
ACHRANGE	IQUANT	2	Ach Range
ACHOFFSETENABLE	TOGGLE	F	Ach Offset Enable
ACHOFFSET	QUANT	0	Ach Offset (V)
ACHFILTER	IQUANT	1	Ach Filter
CABLEID	IQUANT	14	Cable ID
DCCALDATE	LABEL	20-10-2016	DC Calibration Date
ACCALDATE	LABEL	12/3/2015	AC Calibration Date
FRAMEWORKVERSION	QUANT	7.01	Framework Version
INSTRUMENTVERSION	LABEL	4.00	Instrument Version
CURVE	TABLE	55
	Pt	T	Vf	Im	Vu	Pwr	Sig	Ach	Temp	IERange	Over
	#	s	V	A	V	W	V	V	deg C	#	bits
	0	0.013333	6.47748E-001	5.99249E-003	0.00000E+000	3.88162E-003	3.59960E-001	-1.17402E+000	3.57780E+000	10	...........
	1	0.026667	6.56930E-001	5.99559E-003	0.00000E+000	3.93868E-003	3.59960E-001	-1.16882E+000	3.57780E+000	10	...........
	2	0.04	6.65358E-001	5.99058E-003	0.00000E+000	3.98588E-003	3.59960E-001	-1.16389E+000	3.57780E+000	10	...........
	3	0.053333	6.73321E-001	5.99255E-003	0.00000E+000	4.03491E-003	3.59960E-001	-1.17394E+000	3.57780E+000	10	...........
	4	0.066667	6.81049E-001	5.99295E-003	0.00000E+000	4.08149E-003	3.59960E-001	-1.16890E+000	3.57780E+000	10	...........
	5	0.08	6.88549E-001	5.99367E-003	0.00000E+000	4.12693E-003	3.59960E-001	-1.16378E+000	3.57780E+000	10	...........
	6	0.093333	6.95889E-001	5.99078E-003	0.00000E+000	4.16892E-003	3.59960E-001	-1.17382E+000	3.57780E+000	10	...........
	7	0.106667	7.03125E-001	5.99861E-003	0.00000E+000	4.21778E-003	3.59960E-001	-1.16849E+000	3.57780E+000	10	...........
	8	0.12	7.10269E-001	5.99244E-003	0.00000E+000	4.25624E-003	3.59960E-001	-1.16358E+000	3.57780E+000	10	...........
	9	0.133333	7.17340E-001	5.99262E-003	0.00000E+000	4.29875E-003	3.59960E-001	-1.17389E+000	3.57780E+000	10	...........
	10	0.146667	7.24375E-001	5.99275E-003	0.00000E+000	4.34099E-003	3.59960E-001	-1.16838E+000	3.57780E+000	10	...........
	11	0.16	7.31338E-001	5.99090E-003	0.00000E+000	4.38138E-003	3.59960E-001	-1.16349E+000	3.57780E+000	10	...........
	12	0.173333	7.38246E-001	5.99273E-003	0.00000E+000	4.42411E-003	3.59960E-001	-1.17356E+000	3.57780E+000	10	...........
	13	0.186667	7.45144E-001	5.99386E-003	0.00000E+000	4.46629E-003	3.59960E-001	-1.16807E+000	3.57780E+000	10	...........
	14	0.2	7.51926E-001	5.99277E-003	0.00000E+000	4.50612E-003	3.59960E-001	-1.16362E+000	3.57780E+000	10	...........
	15	0.213333	7.58730E-001	5.99251E-003	0.00000E+000	4.54669E-003	3.59960E-001	-1.17371E+000	3.57780E+000	10	...........
	16	0.226667	7.65497E-001	5.99135E-003	0.00000E+000	4.58636E-003	3.59960E-001	-1.16798E+000	3.57780E+000	10	...........
	17	0.24	7.72247E-001	5.99116E-003	0.00000E+000	4.62666E-003	3.59960E-001	-1.16353E+000	3.57780E+000	10	...........
	18	0.253333	7.79039E-001	5.99810E-003	0.00000E+000	4.67275E-003	3.59960E-001	-1.17389E+000	3.57780E+000	10	...........
	19	0.266667	7.85673E-001	5.99040E-003	0.00000E+000	4.70650E-003	3.59960E-001	-1.16803E+000	3.57780E+000	10	...........
	20	0.28	7.92353E-001	5.99469E-003	0.00000E+000	4.74991E-003	3.59960E-001	-1.16350E+000	3.57780E+000	10	...........
	21	0.293333	7.99012E-001	5.99660E-003	0.00000E+000	4.79135E-003	3.59960E-001	-1.17382E+000	3.57780E+000	10	...........
	22	0.306667	8.05631E-001	5.99785E-003	0.00000E+000	4.83205E-003	3.59960E-001	-1.16751E+000	3.57780E+000	10	...........
	23	0.32	8.12212E-001	5.99598E-003	0.00000E+000	4.87001E-003	3.59960E-001	-1.16307E+000	3.57780E+000	10	...........
	24	0.333333	8.18793E-001	5.99593E-003	0.00000E+000	4.90943E-003	3.59960E-001	-1.17358E+000	3.57780E+000	10	...........
	25	0.346667	8.25387E-001	5.98846E-003	0.00000E+000	4.94280E-003	3.59960E-001	-1.16748E+000	3.57780E+000	10	...........
	26	0.36	8.31964E-001	5.99101E-003	0.00000E+000	4.98430E-003	3.59960E-001	-1.16296E+000	3.57780E+000	10	...........
	27	0.373333	8.38448E-001	5.98721E-003	0.00000E+000	5.01996E-003	3.59960E-001	-1.17360E+000	3.57780E+000	10	...........
	28	0.386667	8.44995E-001	5.98974E-003	0.00000E+000	5.06131E-003	3.59960E-001	-1.16736E+000	3.57780E+000	10	...........
	29	0.4	8.51470E-001	5.98728E-003	0.00000E+000	5.09799E-003	3.59960E-001	-1.16322E+000	3.57780E+000	10	...........
	30	0.413333	8.57925E-001	5.99248E-003	0.00000E+000	5.14110E-003	3.59960E-001	-1.17350E+000	3.57780E+000	10	...........
	31	0.426667	8.64371E-001	5.99671E-003	0.00000E+000	5.18339E-003	3.59960E-001	-1.16697E+000	3.57780E+000	10	...........
	32	0.44	8.70812E-001	5.99692E-003	0.00000E+000	5.22219E-003	3.59960E-001	-1.16303E+000	3.57780E+000	10	...........
	33	0.453333	8.77180E-001	5.99404E-003	0.00000E+000	5.25785E-003	3.59960E-001	-1.17362E+000	3.57780E+000	10	...........
	34	0.466667	8.83508E-001	5.99449E-003	0.00000E+000	5.29618E-003	3.59960E-001	-1.16713E+000	3.57780E+000	10	...........
	35	0.48	8.89809E-001	5.99500E-003	0.00000E+000	5.33441E-003	3.59960E-001	-1.16281E+000	3.57780E+000	10	...........
	36	0.493333	8.96072E-001	5.99633E-003	0.00000E+000	5.37314E-003	3.59960E-001	-1.17363E+000	3.57780E+000	10	...........
	37	0.506667	9.02328E-001	5.99238E-003	0.00000E+000	5.40709E-003	3.59960E-001	-1.16692E+000	3.57780E+000	10	...........
	38	0.52	9.08526E-001	5.99429E-003	0.00000E+000	5.44597E-003	3.59960E-001	-1.16297E+000	3.57780E+000	10	...........
	39	0.533333	9.14704E-001	5.99330E-003	0.00000E+000	5.48209E-003	3.59960E-001	-1.17375E+000	3.57780E+000	10	...........
	40	0.546667	9.20878E-001	5.99576E-003	0.00000E+000	5.52137E-003	3.59960E-001	-1.16693E+000	3.57780E+000	10	...........
	41	0.56	9.27031E-001	5.99371E-003	0.00000E+000	5.55635E-003	3.59960E-001	-1.16285E+000	3.57780E+000	10	...........
	42	0.573333	9.33034E-001	5.99499E-003	0.00000E+000	5.59353E-003	3.59960E-001	-1.17350E+000	3.57780E+000	10	...........
	43	0.586667	9.39015E-001	5.99383E-003	0.00000E+000	5.62830E-003	3.59960E-001	-1.16686E+000	3.57780E+000	10	...........
	44	0.6	9.45005E-001	5.99319E-003	0.00000E+000	5.66359E-003	3.59960E-001	-1.16279E+000	3.57780E+000	10	...........
	45	0.613333	9.50960E-001	5.99384E-003	0.00000E+000	5.69990E-003	3.59960E-001	-1.17367E+000	3.57780E+000	10	...........
	46	0.626667	9.56824E-001	5.99403E-003	0.00000E+000	5.73523E-003	3.59960E-001	-1.16653E+000	3.57780E+000	10	...........
	47	0.64	9.62680E-001	5.99452E-003	0.00000E+000	5.77081E-003	3.59960E-001	-1.16243E+000	3.57780E+000	10	...........
	48	0.653333	9.68446E-001	5.99358E-003	0.00000E+000	5.80446E-003	3.59960E-001	-1.17335E+000	3.57780E+000	10	...........
	49	0.666667	9.74247E-001	5.99396E-003	0.00000E+000	5.83960E-003	3.59960E-001	-1.16650E+000	3.57780E+000	10	...........
	50	0.68	9.79913E-001	5.99162E-003	0.00000E+000	5.87127E-003	3.59960E-001	-1.16266E+000	3.57780E+000	10	...........
	51	0.693333	9.85550E-001	5.99300E-003	0.00000E+000	5.90640E-003	3.59960E-001	-1.17337E+000	3.57780E+000	10	...........
	52	0.706667	9.91124E-001	5.99326E-003	0.00000E+000	5.94007E-003	3.59960E-001	-1.16629E+000	3.57780E+000	10	...........
	53	0.72	9.96642E-001	5.99026E-003	0.00000E+000	5.97014E-003	3.59960E-001	-1.16250E+000	3.57780E+000	10	...........
	54	0.723333	1.00012E+000	6.00973E-003	0.00000E+000	6.01044E-003	3.59960E-001	-1.17651E+000	3.57780E+000	10	...........
STARTTIMEOFFSET	QUANT	1275.392	Start Time Offset (s)