File: Data/CV_CRGO300517_1/PWRCCD_CRGO300517_1/CHARGE_DISCHARGE/CHARGE_#604.DTA
EXPLAIN
TAG	PWR800_CHARGE
TITLE	LABEL	PWR Cyclic Charge Discharge (Cell) - Charge Step	Test &Identifier
DATE	LABEL	22-6-2017	Date
TIME	LABEL	15:59:55	Time
NOTES	NOTES	3	&Notes...
	supercap test cell
	0.6mg
	6M KOH
PSTAT	PSTAT	IFC5000-01520	Potentiostat
CAPACITY	QUANT	1.00000E-003	Capacity (A-hr)
CELLTYPE	SELECTOR	1	&Cell Type
WORKINGCONNECTION	SELECTOR	0	&Working Lead
MAXCHARGETIME	VARIABLEANDUNITS	1.00000E+002	s	1.00000E+002	second(s)	Max &Charge Time
CHARGECURRENT	QUANT	6.00000E-003	&Charge Current (A)
VOLTAGEFINISH	TWOPARAM	F	1.00000E-003	3.60000E+003	&Voltage Finish	 I (A) < 	Max Time(s)
SAMPLETIME	QUANT	1.00000E-002	Sa&mple Period (s)
CHARGESTOPAT1	MULTIPARAM	4	1.00000E+000	Charge Stop At &1	Voltage > Limit	V
CHARGESTOPAT2	MULTIPARAM	0	0.00000E+000	Charge Stop At &2	None	N/A
AESBHCSELECTOR	TOGGLE	F	Save Both Half Cells
IRCOMP	TOGGLE	F	IR &Measure
EOC	QUANT	0	Open Circuit (V)
SEQUENCER	TOGGLE	TRUE	Run as Sequence
PSTATMODEL	IQUANT	53	Pstat Model
PSTATSECTION	LABEL	IFC5000-01520	Pstat Section
PSTATSERIALNO	LABEL	01520	Pstat Serial Number
CTRLMODE	IQUANT	0	Control Mode
ELECTROMETER	IQUANT	1	RE=0 or CS=1
IESTAB	IQUANT	0	I/E Stability
CASPEED	IQUANT	4	Control Amp Speed
CONVENTION	IQUANT	1	Current Convention
ICHRANGE	IQUANT	2	Ich Range
ICHRANGEMODE	TOGGLE	T	Ich Auto Range
ICHOFFSETENABLE	TOGGLE	F	Ich Offset Enable
ICHOFFSET	QUANT	0	Ich Offset (V)
ICHFILTER	IQUANT	1	Ich Filter
VCHRANGE	IQUANT	2	Vch Range
VCHRANGEMODE	TOGGLE	T	Vch Auto Range
VCHOFFSETENABLE	TOGGLE	F	Vch Offset Enable
VCHOFFSET	QUANT	0	Vch Offset (V)
VCHFILTER	IQUANT	1	Vch Filter
IERANGELOWERLIMIT	IQUANT	9	I/E Range Lower Limit
IERANGEMODE	TOGGLE	F	I/E AutoRange
IERANGE	IQUANT	10	I/E Range
ACHSELECT	IQUANT	1	Ach Select
ACHRANGE	IQUANT	2	Ach Range
ACHOFFSETENABLE	TOGGLE	F	Ach Offset Enable
ACHOFFSET	QUANT	0	Ach Offset (V)
ACHFILTER	IQUANT	1	Ach Filter
CABLEID	IQUANT	14	Cable ID
DCCALDATE	LABEL	20-10-2016	DC Calibration Date
ACCALDATE	LABEL	12/3/2015	AC Calibration Date
FRAMEWORKVERSION	QUANT	7.01	Framework Version
INSTRUMENTVERSION	LABEL	4.00	Instrument Version
CURVE	TABLE	57
	Pt	T	Vf	Im	Vu	Pwr	Sig	Ach	Temp	IERange	Over
	#	s	V	A	V	W	V	V	deg C	#	bits
	0	0.013333	6.38229E-001	5.99109E-003	0.00000E+000	3.82369E-003	3.59960E-001	-1.14637E+000	3.57790E+000	10	...........
	1	0.026667	6.47250E-001	5.99122E-003	0.00000E+000	3.87781E-003	3.59960E-001	-1.15436E+000	3.57790E+000	10	...........
	2	0.04	6.55543E-001	5.99501E-003	0.00000E+000	3.92999E-003	3.59960E-001	-1.15185E+000	3.57790E+000	10	...........
	3	0.053333	6.63380E-001	5.99312E-003	0.00000E+000	3.97572E-003	3.59960E-001	-1.14583E+000	3.57790E+000	10	...........
	4	0.066667	6.70969E-001	6.00024E-003	0.00000E+000	4.02597E-003	3.59960E-001	-1.15388E+000	3.57790E+000	10	...........
	5	0.08	6.78316E-001	5.98968E-003	0.00000E+000	4.06290E-003	3.59960E-001	-1.15222E+000	3.57790E+000	10	...........
	6	0.093333	6.85510E-001	5.99103E-003	0.00000E+000	4.10691E-003	3.59960E-001	-1.14562E+000	3.57790E+000	10	...........
	7	0.106667	6.92623E-001	5.99181E-003	0.00000E+000	4.15006E-003	3.59960E-001	-1.15375E+000	3.57790E+000	10	...........
	8	0.12	6.99625E-001	5.99603E-003	0.00000E+000	4.19498E-003	3.59960E-001	-1.15241E+000	3.57790E+000	10	...........
	9	0.133333	7.06536E-001	5.99486E-003	0.00000E+000	4.23558E-003	3.59960E-001	-1.14585E+000	3.57790E+000	10	...........
	10	0.146667	7.13441E-001	5.99365E-003	0.00000E+000	4.27611E-003	3.59960E-001	-1.15363E+000	3.57790E+000	10	...........
	11	0.16	7.20348E-001	5.99626E-003	0.00000E+000	4.31940E-003	3.59960E-001	-1.15195E+000	3.57790E+000	10	...........
	12	0.173333	7.27117E-001	5.99633E-003	0.00000E+000	4.36003E-003	3.59960E-001	-1.14583E+000	3.57790E+000	10	...........
	13	0.186667	7.33826E-001	6.00031E-003	0.00000E+000	4.40318E-003	3.59960E-001	-1.15349E+000	3.57790E+000	10	...........
	14	0.2	7.40516E-001	5.99101E-003	0.00000E+000	4.43643E-003	3.59960E-001	-1.15212E+000	3.57790E+000	10	...........
	15	0.213333	7.47239E-001	5.99079E-003	0.00000E+000	4.47655E-003	3.59960E-001	-1.14539E+000	3.57790E+000	10	...........
	16	0.226667	7.53929E-001	5.99076E-003	0.00000E+000	4.51661E-003	3.59960E-001	-1.15320E+000	3.57790E+000	10	...........
	17	0.24	7.60560E-001	5.99387E-003	0.00000E+000	4.55870E-003	3.59960E-001	-1.15195E+000	3.57790E+000	10	...........
	18	0.253333	7.67158E-001	5.99316E-003	0.00000E+000	4.59770E-003	3.59960E-001	-1.14567E+000	3.57790E+000	10	...........
	19	0.266667	7.73719E-001	5.99397E-003	0.00000E+000	4.63765E-003	3.59960E-001	-1.15343E+000	3.57790E+000	10	...........
	20	0.28	7.80289E-001	5.99567E-003	0.00000E+000	4.67835E-003	3.59960E-001	-1.15239E+000	3.57790E+000	10	...........
	21	0.293333	7.86860E-001	5.99738E-003	0.00000E+000	4.71910E-003	3.59960E-001	-1.14546E+000	3.57790E+000	10	...........
	22	0.306667	7.93470E-001	5.99159E-003	0.00000E+000	4.75415E-003	3.59960E-001	-1.15303E+000	3.57790E+000	10	...........
	23	0.32	8.00015E-001	5.99857E-003	0.00000E+000	4.79895E-003	3.59960E-001	-1.15240E+000	3.57790E+000	10	...........
	24	0.333333	8.06504E-001	5.99005E-003	0.00000E+000	4.83099E-003	3.59960E-001	-1.14539E+000	3.57790E+000	10	...........
	25	0.346667	8.12945E-001	5.99289E-003	0.00000E+000	4.87189E-003	3.59960E-001	-1.15284E+000	3.57790E+000	10	...........
	26	0.36	8.19417E-001	5.99499E-003	0.00000E+000	4.91240E-003	3.59960E-001	-1.15190E+000	3.57790E+000	10	...........
	27	0.373333	8.25855E-001	5.98978E-003	0.00000E+000	4.94668E-003	3.59960E-001	-1.14489E+000	3.57790E+000	10	...........
	28	0.386667	8.32333E-001	5.99714E-003	0.00000E+000	4.99162E-003	3.59960E-001	-1.15245E+000	3.57790E+000	10	...........
	29	0.4	8.38729E-001	5.99900E-003	0.00000E+000	5.03153E-003	3.59960E-001	-1.15202E+000	3.57790E+000	10	...........
	30	0.413333	8.45150E-001	6.00135E-003	0.00000E+000	5.07205E-003	3.59960E-001	-1.14499E+000	3.57790E+000	10	...........
	31	0.426667	8.51525E-001	5.99208E-003	0.00000E+000	5.10241E-003	3.59960E-001	-1.15225E+000	3.57790E+000	10	...........
	32	0.44	8.57860E-001	5.99562E-003	0.00000E+000	5.14340E-003	3.59960E-001	-1.15191E+000	3.57790E+000	10	...........
	33	0.453333	8.64179E-001	5.99510E-003	0.00000E+000	5.18083E-003	3.59960E-001	-1.14494E+000	3.57790E+000	10	...........
	34	0.466667	8.70535E-001	5.99375E-003	0.00000E+000	5.21777E-003	3.59960E-001	-1.15237E+000	3.57790E+000	10	...........
	35	0.48	8.76816E-001	5.99421E-003	0.00000E+000	5.25582E-003	3.59960E-001	-1.15199E+000	3.57790E+000	10	...........
	36	0.493333	8.83065E-001	5.99239E-003	0.00000E+000	5.29167E-003	3.59960E-001	-1.14472E+000	3.57790E+000	10	...........
	37	0.506667	8.89296E-001	5.99596E-003	0.00000E+000	5.33218E-003	3.59960E-001	-1.15210E+000	3.57790E+000	10	...........
	38	0.52	8.95499E-001	5.99095E-003	0.00000E+000	5.36489E-003	3.59960E-001	-1.15209E+000	3.57790E+000	10	...........
	39	0.533333	9.01673E-001	5.99068E-003	0.00000E+000	5.40163E-003	3.59960E-001	-1.14485E+000	3.57790E+000	10	...........
	40	0.546667	9.07841E-001	5.99269E-003	0.00000E+000	5.44041E-003	3.59960E-001	-1.15206E+000	3.57790E+000	10	...........
	41	0.56	9.13961E-001	5.99475E-003	0.00000E+000	5.47897E-003	3.59960E-001	-1.15212E+000	3.57790E+000	10	...........
	42	0.573333	9.20073E-001	5.99532E-003	0.00000E+000	5.51614E-003	3.59960E-001	-1.14492E+000	3.57790E+000	10	...........
	43	0.586667	9.26152E-001	5.99983E-003	0.00000E+000	5.55675E-003	3.59960E-001	-1.15215E+000	3.57790E+000	10	...........
	44	0.6	9.32136E-001	5.99172E-003	0.00000E+000	5.58510E-003	3.59960E-001	-1.15229E+000	3.57790E+000	10	...........
	45	0.613333	9.38077E-001	5.99125E-003	0.00000E+000	5.62025E-003	3.59960E-001	-1.14505E+000	3.57790E+000	10	...........
	46	0.626667	9.44014E-001	5.99044E-003	0.00000E+000	5.65506E-003	3.59960E-001	-1.15196E+000	3.57790E+000	10	...........
	47	0.64	9.49902E-001	5.99418E-003	0.00000E+000	5.69388E-003	3.59960E-001	-1.15233E+000	3.57790E+000	10	...........
	48	0.653333	9.55769E-001	5.99467E-003	0.00000E+000	5.72952E-003	3.59960E-001	-1.14507E+000	3.57790E+000	10	...........
	49	0.666667	9.61511E-001	5.99233E-003	0.00000E+000	5.76169E-003	3.59960E-001	-1.15163E+000	3.57790E+000	10	...........
	50	0.68	9.67258E-001	5.99414E-003	0.00000E+000	5.79788E-003	3.59960E-001	-1.15221E+000	3.57790E+000	10	...........
	51	0.693333	9.72986E-001	5.99536E-003	0.00000E+000	5.83340E-003	3.59960E-001	-1.14435E+000	3.57790E+000	10	...........
	52	0.706667	9.78686E-001	5.99736E-003	0.00000E+000	5.86953E-003	3.59960E-001	-1.15119E+000	3.57790E+000	10	...........
	53	0.72	9.84301E-001	5.99744E-003	0.00000E+000	5.90329E-003	3.59960E-001	-1.15223E+000	3.57790E+000	10	...........
	54	0.733333	9.89854E-001	5.99759E-003	0.00000E+000	5.93674E-003	3.59960E-001	-1.14462E+000	3.57790E+000	10	...........
	55	0.746667	9.95385E-001	5.99434E-003	0.00000E+000	5.96668E-003	3.59960E-001	-1.15128E+000	3.57789E+000	10	...........
	56	0.753333	9.99526E-001	5.98774E-003	0.00000E+000	5.98491E-003	3.59960E-001	-1.14548E+000	3.57780E+000	10	...........
STARTTIMEOFFSET	QUANT	1016.934	Start Time Offset (s)