File: Data/CV_CRGO300517_1/PWRCCD_CRGO300517_1/CHARGE_DISCHARGE/CHARGE_#518.DTA
EXPLAIN
TAG	PWR800_CHARGE
TITLE	LABEL	PWR Cyclic Charge Discharge (Cell) - Charge Step	Test &Identifier
DATE	LABEL	22-6-2017	Date
TIME	LABEL	15:56:37	Time
NOTES	NOTES	3	&Notes...
	supercap test cell
	0.6mg
	6M KOH
PSTAT	PSTAT	IFC5000-01520	Potentiostat
CAPACITY	QUANT	1.00000E-003	Capacity (A-hr)
CELLTYPE	SELECTOR	1	&Cell Type
WORKINGCONNECTION	SELECTOR	0	&Working Lead
MAXCHARGETIME	VARIABLEANDUNITS	1.00000E+002	s	1.00000E+002	second(s)	Max &Charge Time
CHARGECURRENT	QUANT	6.00000E-003	&Charge Current (A)
VOLTAGEFINISH	TWOPARAM	F	1.00000E-003	3.60000E+003	&Voltage Finish	 I (A) < 	Max Time(s)
SAMPLETIME	QUANT	1.00000E-002	Sa&mple Period (s)
CHARGESTOPAT1	MULTIPARAM	4	1.00000E+000	Charge Stop At &1	Voltage > Limit	V
CHARGESTOPAT2	MULTIPARAM	0	0.00000E+000	Charge Stop At &2	None	N/A
AESBHCSELECTOR	TOGGLE	F	Save Both Half Cells
IRCOMP	TOGGLE	F	IR &Measure
EOC	QUANT	0	Open Circuit (V)
SEQUENCER	TOGGLE	TRUE	Run as Sequence
PSTATMODEL	IQUANT	53	Pstat Model
PSTATSECTION	LABEL	IFC5000-01520	Pstat Section
PSTATSERIALNO	LABEL	01520	Pstat Serial Number
CTRLMODE	IQUANT	0	Control Mode
ELECTROMETER	IQUANT	1	RE=0 or CS=1
IESTAB	IQUANT	0	I/E Stability
CASPEED	IQUANT	4	Control Amp Speed
CONVENTION	IQUANT	1	Current Convention
ICHRANGE	IQUANT	2	Ich Range
ICHRANGEMODE	TOGGLE	T	Ich Auto Range
ICHOFFSETENABLE	TOGGLE	F	Ich Offset Enable
ICHOFFSET	QUANT	0	Ich Offset (V)
ICHFILTER	IQUANT	1	Ich Filter
VCHRANGE	IQUANT	2	Vch Range
VCHRANGEMODE	TOGGLE	T	Vch Auto Range
VCHOFFSETENABLE	TOGGLE	F	Vch Offset Enable
VCHOFFSET	QUANT	0	Vch Offset (V)
VCHFILTER	IQUANT	1	Vch Filter
IERANGELOWERLIMIT	IQUANT	9	I/E Range Lower Limit
IERANGEMODE	TOGGLE	F	I/E AutoRange
IERANGE	IQUANT	10	I/E Range
ACHSELECT	IQUANT	1	Ach Select
ACHRANGE	IQUANT	2	Ach Range
ACHOFFSETENABLE	TOGGLE	F	Ach Offset Enable
ACHOFFSET	QUANT	0	Ach Offset (V)
ACHFILTER	IQUANT	1	Ach Filter
CABLEID	IQUANT	14	Cable ID
DCCALDATE	LABEL	20-10-2016	DC Calibration Date
ACCALDATE	LABEL	12/3/2015	AC Calibration Date
FRAMEWORKVERSION	QUANT	7.01	Framework Version
INSTRUMENTVERSION	LABEL	4.00	Instrument Version
CURVE	TABLE	58
	Pt	T	Vf	Im	Vu	Pwr	Sig	Ach	Temp	IERange	Over
	#	s	V	A	V	W	V	V	deg C	#	bits
	0	0.013333	6.32769E-001	5.99963E-003	0.00000E+000	3.79638E-003	3.59960E-001	-1.13190E+000	3.57670E+000	10	...........
	1	0.026667	6.41670E-001	5.98953E-003	0.00000E+000	3.84330E-003	3.59960E-001	-1.12863E+000	3.57670E+000	10	...........
	2	0.04	6.49853E-001	5.99548E-003	0.00000E+000	3.89618E-003	3.59960E-001	-1.12358E+000	3.57670E+000	10	...........
	3	0.053333	6.57601E-001	5.99390E-003	0.00000E+000	3.94159E-003	3.59960E-001	-1.13232E+000	3.57670E+000	10	...........
	4	0.066667	6.65083E-001	5.99912E-003	0.00000E+000	3.98991E-003	3.59960E-001	-1.12906E+000	3.57670E+000	10	...........
	5	0.08	6.72363E-001	5.99012E-003	0.00000E+000	4.02753E-003	3.59960E-001	-1.12393E+000	3.57670E+000	10	...........
	6	0.093333	6.79522E-001	5.99270E-003	0.00000E+000	4.07217E-003	3.59960E-001	-1.13284E+000	3.57670E+000	10	...........
	7	0.106667	6.86509E-001	5.99476E-003	0.00000E+000	4.11546E-003	3.59960E-001	-1.12941E+000	3.57670E+000	10	...........
	8	0.12	6.93491E-001	5.99435E-003	0.00000E+000	4.15703E-003	3.59960E-001	-1.12423E+000	3.57670E+000	10	...........
	9	0.133333	7.00311E-001	5.99219E-003	0.00000E+000	4.19639E-003	3.59960E-001	-1.13332E+000	3.57670E+000	10	...........
	10	0.146667	7.07112E-001	5.99973E-003	0.00000E+000	4.24248E-003	3.59960E-001	-1.12986E+000	3.57670E+000	10	...........
	11	0.16	7.13844E-001	5.99400E-003	0.00000E+000	4.27878E-003	3.59960E-001	-1.12465E+000	3.57670E+000	10	...........
	12	0.173333	7.20583E-001	5.98953E-003	0.00000E+000	4.31595E-003	3.59960E-001	-1.13389E+000	3.57670E+000	10	...........
	13	0.186667	7.27244E-001	5.99063E-003	0.00000E+000	4.35665E-003	3.59960E-001	-1.13021E+000	3.57670E+000	10	...........
	14	0.2	7.33863E-001	5.99293E-003	0.00000E+000	4.39799E-003	3.59960E-001	-1.12523E+000	3.57670E+000	10	...........
	15	0.213333	7.40501E-001	5.99102E-003	0.00000E+000	4.43635E-003	3.59960E-001	-1.13456E+000	3.57670E+000	10	...........
	16	0.226667	7.47115E-001	5.99371E-003	0.00000E+000	4.47799E-003	3.59960E-001	-1.13094E+000	3.57670E+000	10	...........
	17	0.24	7.53679E-001	5.99084E-003	0.00000E+000	4.51517E-003	3.59960E-001	-1.12567E+000	3.57670E+000	10	...........
	18	0.253333	7.60263E-001	5.99583E-003	0.00000E+000	4.55840E-003	3.59960E-001	-1.13498E+000	3.57670E+000	10	...........
	19	0.266667	7.66770E-001	5.99404E-003	0.00000E+000	4.59605E-003	3.59960E-001	-1.13135E+000	3.57670E+000	10	...........
	20	0.28	7.73291E-001	5.99324E-003	0.00000E+000	4.63452E-003	3.59960E-001	-1.12618E+000	3.57670E+000	10	...........
	21	0.293333	7.79791E-001	5.98937E-003	0.00000E+000	4.67046E-003	3.59960E-001	-1.13517E+000	3.57670E+000	10	...........
	22	0.306667	7.86264E-001	5.99586E-003	0.00000E+000	4.71432E-003	3.59960E-001	-1.13108E+000	3.57670E+000	10	...........
	23	0.32	7.92711E-001	5.99188E-003	0.00000E+000	4.74983E-003	3.59960E-001	-1.12617E+000	3.57670E+000	10	...........
	24	0.333333	7.99188E-001	5.99529E-003	0.00000E+000	4.79137E-003	3.59960E-001	-1.13539E+000	3.57670E+000	10	...........
	25	0.346667	8.05606E-001	5.99431E-003	0.00000E+000	4.82905E-003	3.59960E-001	-1.13142E+000	3.57670E+000	10	...........
	26	0.36	8.11999E-001	5.99306E-003	0.00000E+000	4.86636E-003	3.59960E-001	-1.12658E+000	3.57670E+000	10	...........
	27	0.373333	8.18376E-001	5.99375E-003	0.00000E+000	4.90514E-003	3.59960E-001	-1.13589E+000	3.57670E+000	10	...........
	28	0.386667	8.24770E-001	5.99032E-003	0.00000E+000	4.94064E-003	3.59960E-001	-1.13189E+000	3.57670E+000	10	...........
	29	0.4	8.31122E-001	5.99845E-003	0.00000E+000	4.98544E-003	3.59960E-001	-1.12711E+000	3.57670E+000	10	...........
	30	0.413333	8.37483E-001	5.99451E-003	0.00000E+000	5.02030E-003	3.59960E-001	-1.13645E+000	3.57670E+000	10	...........
	31	0.426667	8.43809E-001	5.99446E-003	0.00000E+000	5.05818E-003	3.59960E-001	-1.13245E+000	3.57670E+000	10	...........
	32	0.44	8.50161E-001	5.99837E-003	0.00000E+000	5.09958E-003	3.59960E-001	-1.12754E+000	3.57670E+000	10	...........
	33	0.453333	8.56518E-001	5.99523E-003	0.00000E+000	5.13503E-003	3.59960E-001	-1.13691E+000	3.57670E+000	10	...........
	34	0.466667	8.62832E-001	5.99464E-003	0.00000E+000	5.17236E-003	3.59960E-001	-1.13261E+000	3.57670E+000	10	...........
	35	0.48	8.69104E-001	5.99192E-003	0.00000E+000	5.20761E-003	3.59960E-001	-1.12757E+000	3.57670E+000	10	...........
	36	0.493333	8.75349E-001	5.99726E-003	0.00000E+000	5.24970E-003	3.59960E-001	-1.13733E+000	3.57670E+000	10	...........
	37	0.506667	8.81573E-001	5.99561E-003	0.00000E+000	5.28556E-003	3.59960E-001	-1.13304E+000	3.57670E+000	10	...........
	38	0.52	8.87719E-001	5.99187E-003	0.00000E+000	5.31910E-003	3.59960E-001	-1.12809E+000	3.57670E+000	10	...........
	39	0.533333	8.93873E-001	5.99177E-003	0.00000E+000	5.35588E-003	3.59960E-001	-1.13781E+000	3.57670E+000	10	...........
	40	0.546667	9.00003E-001	5.99384E-003	0.00000E+000	5.39448E-003	3.59960E-001	-1.13327E+000	3.57670E+000	10	...........
	41	0.56	9.06094E-001	5.99326E-003	0.00000E+000	5.43046E-003	3.59960E-001	-1.12846E+000	3.57670E+000	10	...........
	42	0.573333	9.12155E-001	5.99371E-003	0.00000E+000	5.46719E-003	3.59960E-001	-1.13788E+000	3.57670E+000	10	...........
	43	0.586667	9.18220E-001	5.99598E-003	0.00000E+000	5.50563E-003	3.59960E-001	-1.13297E+000	3.57670E+000	10	...........
	44	0.6	9.24288E-001	5.99668E-003	0.00000E+000	5.54266E-003	3.59960E-001	-1.12835E+000	3.57670E+000	10	...........
	45	0.613333	9.30286E-001	5.99406E-003	0.00000E+000	5.57619E-003	3.59960E-001	-1.13759E+000	3.57670E+000	10	...........
	46	0.626667	9.36217E-001	5.99518E-003	0.00000E+000	5.61279E-003	3.59960E-001	-1.13256E+000	3.57670E+000	10	...........
	47	0.64	9.42085E-001	5.99063E-003	0.00000E+000	5.64368E-003	3.59960E-001	-1.12766E+000	3.57670E+000	10	...........
	48	0.653333	9.48025E-001	5.99473E-003	0.00000E+000	5.68315E-003	3.59960E-001	-1.13757E+000	3.57670E+000	10	...........
	49	0.666667	9.53868E-001	5.99701E-003	0.00000E+000	5.72036E-003	3.59960E-001	-1.13293E+000	3.57670E+000	10	...........
	50	0.68	9.59623E-001	5.99649E-003	0.00000E+000	5.75437E-003	3.59960E-001	-1.12823E+000	3.57670E+000	10	...........
	51	0.693333	9.65341E-001	6.00020E-003	0.00000E+000	5.79224E-003	3.59960E-001	-1.13788E+000	3.57670E+000	10	...........
	52	0.706667	9.71027E-001	5.99428E-003	0.00000E+000	5.82061E-003	3.59960E-001	-1.13293E+000	3.57670E+000	10	...........
	53	0.72	9.76724E-001	5.99413E-003	0.00000E+000	5.85461E-003	3.59960E-001	-1.12806E+000	3.57670E+000	10	...........
	54	0.733333	9.82334E-001	5.99017E-003	0.00000E+000	5.88435E-003	3.59960E-001	-1.13790E+000	3.57670E+000	10	...........
	55	0.746667	9.87888E-001	5.99356E-003	0.00000E+000	5.92097E-003	3.59960E-001	-1.13285E+000	3.57670E+000	10	...........
	56	0.76	9.93419E-001	5.99634E-003	0.00000E+000	5.95688E-003	3.59960E-001	-1.12779E+000	3.57670E+000	10	...........
	57	0.771667	9.98548E-001	5.99757E-003	0.00000E+000	5.98886E-003	3.59960E-001	-1.13970E+000	3.57670E+000	10	...........
STARTTIMEOFFSET	QUANT	886.6768	Start Time Offset (s)