File: Data/CV_CRGO300517_1/PWRCCD_CRGO300517_1/CHARGE_DISCHARGE/CHARGE_#711.DTA
EXPLAIN
TAG	PWR800_CHARGE
TITLE	LABEL	PWR Cyclic Charge Discharge (Cell) - Charge Step	Test &Identifier
DATE	LABEL	22-6-2017	Date
TIME	LABEL	16:03:58	Time
NOTES	NOTES	3	&Notes...
	supercap test cell
	0.6mg
	6M KOH
PSTAT	PSTAT	IFC5000-01520	Potentiostat
CAPACITY	QUANT	1.00000E-003	Capacity (A-hr)
CELLTYPE	SELECTOR	1	&Cell Type
WORKINGCONNECTION	SELECTOR	0	&Working Lead
MAXCHARGETIME	VARIABLEANDUNITS	1.00000E+002	s	1.00000E+002	second(s)	Max &Charge Time
CHARGECURRENT	QUANT	6.00000E-003	&Charge Current (A)
VOLTAGEFINISH	TWOPARAM	F	1.00000E-003	3.60000E+003	&Voltage Finish	 I (A) < 	Max Time(s)
SAMPLETIME	QUANT	1.00000E-002	Sa&mple Period (s)
CHARGESTOPAT1	MULTIPARAM	4	1.00000E+000	Charge Stop At &1	Voltage > Limit	V
CHARGESTOPAT2	MULTIPARAM	0	0.00000E+000	Charge Stop At &2	None	N/A
AESBHCSELECTOR	TOGGLE	F	Save Both Half Cells
IRCOMP	TOGGLE	F	IR &Measure
EOC	QUANT	0	Open Circuit (V)
SEQUENCER	TOGGLE	TRUE	Run as Sequence
PSTATMODEL	IQUANT	53	Pstat Model
PSTATSECTION	LABEL	IFC5000-01520	Pstat Section
PSTATSERIALNO	LABEL	01520	Pstat Serial Number
CTRLMODE	IQUANT	0	Control Mode
ELECTROMETER	IQUANT	1	RE=0 or CS=1
IESTAB	IQUANT	0	I/E Stability
CASPEED	IQUANT	4	Control Amp Speed
CONVENTION	IQUANT	1	Current Convention
ICHRANGE	IQUANT	2	Ich Range
ICHRANGEMODE	TOGGLE	T	Ich Auto Range
ICHOFFSETENABLE	TOGGLE	F	Ich Offset Enable
ICHOFFSET	QUANT	0	Ich Offset (V)
ICHFILTER	IQUANT	1	Ich Filter
VCHRANGE	IQUANT	2	Vch Range
VCHRANGEMODE	TOGGLE	T	Vch Auto Range
VCHOFFSETENABLE	TOGGLE	F	Vch Offset Enable
VCHOFFSET	QUANT	0	Vch Offset (V)
VCHFILTER	IQUANT	1	Vch Filter
IERANGELOWERLIMIT	IQUANT	9	I/E Range Lower Limit
IERANGEMODE	TOGGLE	F	I/E AutoRange
IERANGE	IQUANT	10	I/E Range
ACHSELECT	IQUANT	1	Ach Select
ACHRANGE	IQUANT	2	Ach Range
ACHOFFSETENABLE	TOGGLE	F	Ach Offset Enable
ACHOFFSET	QUANT	0	Ach Offset (V)
ACHFILTER	IQUANT	1	Ach Filter
CABLEID	IQUANT	14	Cable ID
DCCALDATE	LABEL	20-10-2016	DC Calibration Date
ACCALDATE	LABEL	12/3/2015	AC Calibration Date
FRAMEWORKVERSION	QUANT	7.01	Framework Version
INSTRUMENTVERSION	LABEL	4.00	Instrument Version
CURVE	TABLE	55
	Pt	T	Vf	Im	Vu	Pwr	Sig	Ach	Temp	IERange	Over
	#	s	V	A	V	W	V	V	deg C	#	bits
	0	0.013333	6.44062E-001	5.99342E-003	0.00000E+000	3.86013E-003	3.59960E-001	-1.15233E+000	3.57780E+000	10	...........
	1	0.026667	6.53207E-001	5.99396E-003	0.00000E+000	3.91530E-003	3.59960E-001	-1.16302E+000	3.57780E+000	10	...........
	2	0.04	6.61575E-001	5.99305E-003	0.00000E+000	3.96485E-003	3.59960E-001	-1.15529E+000	3.57780E+000	10	...........
	3	0.053333	6.69517E-001	5.99045E-003	0.00000E+000	4.01071E-003	3.59960E-001	-1.15212E+000	3.57780E+000	10	...........
	4	0.066667	6.77153E-001	5.99256E-003	0.00000E+000	4.05788E-003	3.59960E-001	-1.16288E+000	3.57780E+000	10	...........
	5	0.08	6.84544E-001	5.98985E-003	0.00000E+000	4.10031E-003	3.59960E-001	-1.15490E+000	3.57780E+000	10	...........
	6	0.093333	6.91879E-001	5.99247E-003	0.00000E+000	4.14606E-003	3.59960E-001	-1.15175E+000	3.57780E+000	10	...........
	7	0.106667	6.99071E-001	5.99671E-003	0.00000E+000	4.19213E-003	3.59960E-001	-1.16281E+000	3.57780E+000	10	...........
	8	0.12	7.06188E-001	5.99768E-003	0.00000E+000	4.23549E-003	3.59960E-001	-1.15477E+000	3.57780E+000	10	...........
	9	0.133333	7.13132E-001	5.99395E-003	0.00000E+000	4.27447E-003	3.59960E-001	-1.15174E+000	3.57780E+000	10	...........
	10	0.146667	7.20163E-001	5.99128E-003	0.00000E+000	4.31470E-003	3.59960E-001	-1.16278E+000	3.57780E+000	10	...........
	11	0.16	7.27087E-001	5.99542E-003	0.00000E+000	4.35919E-003	3.59960E-001	-1.15470E+000	3.57780E+000	10	...........
	12	0.173333	7.33942E-001	5.99654E-003	0.00000E+000	4.40112E-003	3.59960E-001	-1.15192E+000	3.57780E+000	10	...........
	13	0.186667	7.40758E-001	5.98940E-003	0.00000E+000	4.43670E-003	3.59960E-001	-1.16291E+000	3.57780E+000	10	...........
	14	0.2	7.47596E-001	5.99387E-003	0.00000E+000	4.48099E-003	3.59960E-001	-1.15434E+000	3.57780E+000	10	...........
	15	0.213333	7.54374E-001	5.99299E-003	0.00000E+000	4.52096E-003	3.59960E-001	-1.15184E+000	3.57780E+000	10	...........
	16	0.226667	7.61128E-001	5.99277E-003	0.00000E+000	4.56127E-003	3.59960E-001	-1.16298E+000	3.57780E+000	10	...........
	17	0.24	7.67828E-001	5.99428E-003	0.00000E+000	4.60258E-003	3.59960E-001	-1.15425E+000	3.57780E+000	10	...........
	18	0.253333	7.74527E-001	5.99481E-003	0.00000E+000	4.64314E-003	3.59960E-001	-1.15164E+000	3.57780E+000	10	...........
	19	0.266667	7.81174E-001	5.99361E-003	0.00000E+000	4.68206E-003	3.59960E-001	-1.16272E+000	3.57780E+000	10	...........
	20	0.28	7.87831E-001	5.99468E-003	0.00000E+000	4.72279E-003	3.59960E-001	-1.15417E+000	3.57780E+000	10	...........
	21	0.293333	7.94457E-001	5.99583E-003	0.00000E+000	4.76342E-003	3.59960E-001	-1.15183E+000	3.57780E+000	10	...........
	22	0.306667	8.01070E-001	5.98987E-003	0.00000E+000	4.79831E-003	3.59960E-001	-1.16300E+000	3.57780E+000	10	...........
	23	0.32	8.07629E-001	5.99494E-003	0.00000E+000	4.84169E-003	3.59960E-001	-1.15391E+000	3.57780E+000	10	...........
	24	0.333333	8.14174E-001	5.99064E-003	0.00000E+000	4.87742E-003	3.59960E-001	-1.15197E+000	3.57780E+000	10	...........
	25	0.346667	8.20745E-001	5.99706E-003	0.00000E+000	4.92206E-003	3.59960E-001	-1.16306E+000	3.57780E+000	10	...........
	26	0.36	8.27245E-001	5.99729E-003	0.00000E+000	4.96123E-003	3.59960E-001	-1.15394E+000	3.57780E+000	10	...........
	27	0.373333	8.33737E-001	5.99186E-003	0.00000E+000	4.99564E-003	3.59960E-001	-1.15178E+000	3.57780E+000	10	...........
	28	0.386667	8.40229E-001	5.99592E-003	0.00000E+000	5.03794E-003	3.59960E-001	-1.16297E+000	3.57780E+000	10	...........
	29	0.4	8.46696E-001	5.98857E-003	0.00000E+000	5.07049E-003	3.59960E-001	-1.15336E+000	3.57780E+000	10	...........
	30	0.413333	8.53126E-001	5.99268E-003	0.00000E+000	5.11251E-003	3.59960E-001	-1.15140E+000	3.57780E+000	10	...........
	31	0.426667	8.59555E-001	5.99588E-003	0.00000E+000	5.15378E-003	3.59960E-001	-1.16264E+000	3.57780E+000	10	...........
	32	0.44	8.65941E-001	5.99648E-003	0.00000E+000	5.19260E-003	3.59960E-001	-1.15304E+000	3.57780E+000	10	...........
	33	0.453333	8.72341E-001	5.99506E-003	0.00000E+000	5.22974E-003	3.59960E-001	-1.15136E+000	3.57780E+000	10	...........
	34	0.466667	8.78623E-001	5.99488E-003	0.00000E+000	5.26723E-003	3.59960E-001	-1.16257E+000	3.57780E+000	10	...........
	35	0.48	8.84921E-001	5.98991E-003	0.00000E+000	5.30060E-003	3.59960E-001	-1.15302E+000	3.57780E+000	10	...........
	36	0.493333	8.91179E-001	5.99381E-003	0.00000E+000	5.34156E-003	3.59960E-001	-1.15148E+000	3.57780E+000	10	...........
	37	0.506667	8.97427E-001	5.99001E-003	0.00000E+000	5.37559E-003	3.59960E-001	-1.16268E+000	3.57780E+000	10	...........
	38	0.52	9.03647E-001	5.99281E-003	0.00000E+000	5.41539E-003	3.59960E-001	-1.15297E+000	3.57780E+000	10	...........
	39	0.533333	9.09846E-001	5.99425E-003	0.00000E+000	5.45384E-003	3.59960E-001	-1.15125E+000	3.57780E+000	10	...........
	40	0.546667	9.15959E-001	5.99074E-003	0.00000E+000	5.48727E-003	3.59960E-001	-1.16275E+000	3.57780E+000	10	...........
	41	0.56	9.22119E-001	5.99157E-003	0.00000E+000	5.52494E-003	3.59960E-001	-1.15297E+000	3.57780E+000	10	...........
	42	0.573333	9.28166E-001	5.99075E-003	0.00000E+000	5.56041E-003	3.59960E-001	-1.15141E+000	3.57780E+000	10	...........
	43	0.586667	9.34190E-001	5.99537E-003	0.00000E+000	5.60081E-003	3.59960E-001	-1.16248E+000	3.57780E+000	10	...........
	44	0.6	9.40182E-001	5.99262E-003	0.00000E+000	5.63416E-003	3.59960E-001	-1.15269E+000	3.57780E+000	10	...........
	45	0.613333	9.46142E-001	5.99355E-003	0.00000E+000	5.67075E-003	3.59960E-001	-1.15157E+000	3.57780E+000	10	...........
	46	0.626667	9.52059E-001	5.99704E-003	0.00000E+000	5.70953E-003	3.59960E-001	-1.16280E+000	3.57780E+000	10	...........
	47	0.64	9.57906E-001	5.98900E-003	0.00000E+000	5.73690E-003	3.59960E-001	-1.15265E+000	3.57780E+000	10	...........
	48	0.653333	9.63741E-001	5.99385E-003	0.00000E+000	5.77652E-003	3.59960E-001	-1.15166E+000	3.57780E+000	10	...........
	49	0.666667	9.69509E-001	5.99150E-003	0.00000E+000	5.80881E-003	3.59960E-001	-1.16261E+000	3.57780E+000	10	...........
	50	0.68	9.75300E-001	5.99200E-003	0.00000E+000	5.84399E-003	3.59960E-001	-1.15257E+000	3.57780E+000	10	...........
	51	0.693333	9.80929E-001	5.99353E-003	0.00000E+000	5.87923E-003	3.59960E-001	-1.15194E+000	3.57780E+000	10	...........
	52	0.706667	9.86560E-001	5.99574E-003	0.00000E+000	5.91516E-003	3.59960E-001	-1.16276E+000	3.57780E+000	10	...........
	53	0.72	9.92085E-001	5.99251E-003	0.00000E+000	5.94508E-003	3.59960E-001	-1.15210E+000	3.57780E+000	10	...........
	54	0.733333	9.97646E-001	5.99913E-003	0.00000E+000	5.98501E-003	3.59960E-001	-1.15122E+000	3.57780E+000	10	...........
STARTTIMEOFFSET	QUANT	1175.337	Start Time Offset (s)