File: Data/CV_CRGO300517_1/PWRCCD_CRGO300517_1/CHARGE_DISCHARGE/CHARGE_#1000.DTA
EXPLAIN
TAG	PWR800_CHARGE
TITLE	LABEL	PWR Cyclic Charge Discharge (Cell) - Charge Step	Test &Identifier
DATE	LABEL	22-6-2017	Date
TIME	LABEL	16:14:38	Time
NOTES	NOTES	3	&Notes...
	supercap test cell
	0.6mg
	6M KOH
PSTAT	PSTAT	IFC5000-01520	Potentiostat
CAPACITY	QUANT	1.00000E-003	Capacity (A-hr)
CELLTYPE	SELECTOR	1	&Cell Type
WORKINGCONNECTION	SELECTOR	0	&Working Lead
MAXCHARGETIME	VARIABLEANDUNITS	1.00000E+002	s	1.00000E+002	second(s)	Max &Charge Time
CHARGECURRENT	QUANT	6.00000E-003	&Charge Current (A)
VOLTAGEFINISH	TWOPARAM	F	1.00000E-003	3.60000E+003	&Voltage Finish	 I (A) < 	Max Time(s)
SAMPLETIME	QUANT	1.00000E-002	Sa&mple Period (s)
CHARGESTOPAT1	MULTIPARAM	4	1.00000E+000	Charge Stop At &1	Voltage > Limit	V
CHARGESTOPAT2	MULTIPARAM	0	0.00000E+000	Charge Stop At &2	None	N/A
AESBHCSELECTOR	TOGGLE	F	Save Both Half Cells
IRCOMP	TOGGLE	F	IR &Measure
EOC	QUANT	0	Open Circuit (V)
SEQUENCER	TOGGLE	TRUE	Run as Sequence
PSTATMODEL	IQUANT	53	Pstat Model
PSTATSECTION	LABEL	IFC5000-01520	Pstat Section
PSTATSERIALNO	LABEL	01520	Pstat Serial Number
CTRLMODE	IQUANT	0	Control Mode
ELECTROMETER	IQUANT	1	RE=0 or CS=1
IESTAB	IQUANT	0	I/E Stability
CASPEED	IQUANT	4	Control Amp Speed
CONVENTION	IQUANT	1	Current Convention
ICHRANGE	IQUANT	2	Ich Range
ICHRANGEMODE	TOGGLE	T	Ich Auto Range
ICHOFFSETENABLE	TOGGLE	F	Ich Offset Enable
ICHOFFSET	QUANT	0	Ich Offset (V)
ICHFILTER	IQUANT	1	Ich Filter
VCHRANGE	IQUANT	2	Vch Range
VCHRANGEMODE	TOGGLE	T	Vch Auto Range
VCHOFFSETENABLE	TOGGLE	F	Vch Offset Enable
VCHOFFSET	QUANT	0	Vch Offset (V)
VCHFILTER	IQUANT	1	Vch Filter
IERANGELOWERLIMIT	IQUANT	9	I/E Range Lower Limit
IERANGEMODE	TOGGLE	F	I/E AutoRange
IERANGE	IQUANT	10	I/E Range
ACHSELECT	IQUANT	1	Ach Select
ACHRANGE	IQUANT	2	Ach Range
ACHOFFSETENABLE	TOGGLE	F	Ach Offset Enable
ACHOFFSET	QUANT	0	Ach Offset (V)
ACHFILTER	IQUANT	1	Ach Filter
CABLEID	IQUANT	14	Cable ID
DCCALDATE	LABEL	20-10-2016	DC Calibration Date
ACCALDATE	LABEL	12/3/2015	AC Calibration Date
FRAMEWORKVERSION	QUANT	7.01	Framework Version
INSTRUMENTVERSION	LABEL	4.00	Instrument Version
CURVE	TABLE	52
	Pt	T	Vf	Im	Vu	Pwr	Sig	Ach	Temp	IERange	Over
	#	s	V	A	V	W	V	V	deg C	#	bits
	0	0.013333	6.57730E-001	5.99700E-003	0.00000E+000	3.94441E-003	3.59960E-001	-1.18178E+000	3.57780E+000	10	...........
	1	0.026667	6.67120E-001	5.99527E-003	0.00000E+000	3.99956E-003	3.59960E-001	-1.17588E+000	3.57780E+000	10	...........
	2	0.04	6.75695E-001	5.98925E-003	0.00000E+000	4.04691E-003	3.59960E-001	-1.18401E+000	3.57780E+000	10	...........
	3	0.053333	6.83846E-001	5.99248E-003	0.00000E+000	4.09793E-003	3.59960E-001	-1.18190E+000	3.57780E+000	10	...........
	4	0.066667	6.91691E-001	5.99309E-003	0.00000E+000	4.14537E-003	3.59960E-001	-1.17562E+000	3.57780E+000	10	...........
	5	0.08	6.99374E-001	5.99308E-003	0.00000E+000	4.19141E-003	3.59960E-001	-1.18399E+000	3.57780E+000	10	...........
	6	0.093333	7.06916E-001	5.99068E-003	0.00000E+000	4.23491E-003	3.59960E-001	-1.18167E+000	3.57780E+000	10	...........
	7	0.106667	7.14342E-001	5.99317E-003	0.00000E+000	4.28117E-003	3.59960E-001	-1.17564E+000	3.57780E+000	10	...........
	8	0.12	7.21687E-001	5.99617E-003	0.00000E+000	4.32736E-003	3.59960E-001	-1.18377E+000	3.57780E+000	10	...........
	9	0.133333	7.28845E-001	5.99435E-003	0.00000E+000	4.36896E-003	3.59960E-001	-1.18123E+000	3.57780E+000	10	...........
	10	0.146667	7.35975E-001	5.99199E-003	0.00000E+000	4.40995E-003	3.59960E-001	-1.17520E+000	3.57780E+000	10	...........
	11	0.16	7.43123E-001	5.99950E-003	0.00000E+000	4.45836E-003	3.59960E-001	-1.18349E+000	3.57780E+000	10	...........
	12	0.173333	7.50153E-001	5.99132E-003	0.00000E+000	4.49441E-003	3.59960E-001	-1.18142E+000	3.57780E+000	10	...........
	13	0.186667	7.57149E-001	5.99128E-003	0.00000E+000	4.53629E-003	3.59960E-001	-1.17536E+000	3.57780E+000	10	...........
	14	0.2	7.64105E-001	5.98907E-003	0.00000E+000	4.57628E-003	3.59960E-001	-1.18372E+000	3.57780E+000	10	...........
	15	0.213333	7.71064E-001	6.00031E-003	0.00000E+000	4.62663E-003	3.59960E-001	-1.18121E+000	3.57780E+000	10	...........
	16	0.226667	7.77977E-001	5.99507E-003	0.00000E+000	4.66403E-003	3.59960E-001	-1.17522E+000	3.57780E+000	10	...........
	17	0.24	7.84828E-001	5.99225E-003	0.00000E+000	4.70288E-003	3.59960E-001	-1.18360E+000	3.57780E+000	10	...........
	18	0.253333	7.91678E-001	5.98989E-003	0.00000E+000	4.74207E-003	3.59960E-001	-1.18143E+000	3.57780E+000	10	...........
	19	0.266667	7.98508E-001	5.99336E-003	0.00000E+000	4.78575E-003	3.59960E-001	-1.17520E+000	3.57780E+000	10	...........
	20	0.28	8.05291E-001	5.99729E-003	0.00000E+000	4.82956E-003	3.59960E-001	-1.18369E+000	3.57780E+000	10	...........
	21	0.293333	8.12032E-001	5.99617E-003	0.00000E+000	4.86908E-003	3.59960E-001	-1.18114E+000	3.57780E+000	10	...........
	22	0.306667	8.18758E-001	5.99585E-003	0.00000E+000	4.90915E-003	3.59960E-001	-1.17525E+000	3.57780E+000	10	...........
	23	0.32	8.25457E-001	5.99412E-003	0.00000E+000	4.94788E-003	3.59960E-001	-1.18370E+000	3.57780E+000	10	...........
	24	0.333333	8.32089E-001	5.99186E-003	0.00000E+000	4.98576E-003	3.59960E-001	-1.18125E+000	3.57780E+000	10	...........
	25	0.346667	8.38749E-001	5.99516E-003	0.00000E+000	5.02844E-003	3.59960E-001	-1.17525E+000	3.57780E+000	10	...........
	26	0.36	8.45387E-001	5.99459E-003	0.00000E+000	5.06775E-003	3.59960E-001	-1.18357E+000	3.57780E+000	10	...........
	27	0.373333	8.51956E-001	5.99792E-003	0.00000E+000	5.10996E-003	3.59960E-001	-1.18124E+000	3.57780E+000	10	...........
	28	0.386667	8.58492E-001	5.99114E-003	0.00000E+000	5.14335E-003	3.59960E-001	-1.17544E+000	3.57780E+000	10	...........
	29	0.4	8.65022E-001	5.99265E-003	0.00000E+000	5.18378E-003	3.59960E-001	-1.18398E+000	3.57780E+000	10	...........
	30	0.413333	8.71552E-001	5.99547E-003	0.00000E+000	5.22536E-003	3.59960E-001	-1.18124E+000	3.57780E+000	10	...........
	31	0.426667	8.78023E-001	5.99629E-003	0.00000E+000	5.26488E-003	3.59960E-001	-1.17521E+000	3.57780E+000	10	...........
	32	0.44	8.84458E-001	5.99095E-003	0.00000E+000	5.29874E-003	3.59960E-001	-1.18343E+000	3.57780E+000	10	...........
	33	0.453333	8.90864E-001	5.99068E-003	0.00000E+000	5.33688E-003	3.59960E-001	-1.18082E+000	3.57780E+000	10	...........
	34	0.466667	8.97218E-001	5.99752E-003	0.00000E+000	5.38108E-003	3.59960E-001	-1.17480E+000	3.57780E+000	10	...........
	35	0.48	9.03535E-001	5.99409E-003	0.00000E+000	5.41587E-003	3.59960E-001	-1.18327E+000	3.57780E+000	10	...........
	36	0.493333	9.09801E-001	5.99298E-003	0.00000E+000	5.45241E-003	3.59960E-001	-1.18060E+000	3.57780E+000	10	...........
	37	0.506667	9.16019E-001	5.99114E-003	0.00000E+000	5.48800E-003	3.59960E-001	-1.17472E+000	3.57780E+000	10	...........
	38	0.52	9.22287E-001	5.99539E-003	0.00000E+000	5.52946E-003	3.59960E-001	-1.18329E+000	3.57780E+000	10	...........
	39	0.533333	9.28473E-001	5.99460E-003	0.00000E+000	5.56583E-003	3.59960E-001	-1.18067E+000	3.57780E+000	10	...........
	40	0.546667	9.34602E-001	5.99754E-003	0.00000E+000	5.60531E-003	3.59960E-001	-1.17478E+000	3.57780E+000	10	...........
	41	0.56	9.40621E-001	5.99519E-003	0.00000E+000	5.63920E-003	3.59960E-001	-1.18320E+000	3.57780E+000	10	...........
	42	0.573333	9.46622E-001	5.99293E-003	0.00000E+000	5.67303E-003	3.59960E-001	-1.18072E+000	3.57780E+000	10	...........
	43	0.586667	9.52625E-001	5.99356E-003	0.00000E+000	5.70962E-003	3.59960E-001	-1.17495E+000	3.57780E+000	10	...........
	44	0.6	9.58566E-001	5.99881E-003	0.00000E+000	5.75025E-003	3.59960E-001	-1.18329E+000	3.57780E+000	10	...........
	45	0.613333	9.64436E-001	5.99720E-003	0.00000E+000	5.78392E-003	3.59960E-001	-1.18068E+000	3.57780E+000	10	...........
	46	0.626667	9.70283E-001	6.00440E-003	0.00000E+000	5.82597E-003	3.59960E-001	-1.17457E+000	3.57780E+000	10	...........
	47	0.64	9.76039E-001	5.99535E-003	0.00000E+000	5.85169E-003	3.59960E-001	-1.18311E+000	3.57780E+000	10	...........
	48	0.653333	9.81752E-001	5.99189E-003	0.00000E+000	5.88255E-003	3.59960E-001	-1.18064E+000	3.57780E+000	10	...........
	49	0.666667	9.87379E-001	5.99296E-003	0.00000E+000	5.91732E-003	3.59960E-001	-1.17497E+000	3.57780E+000	10	...........
	50	0.68	9.92944E-001	5.99459E-003	0.00000E+000	5.95230E-003	3.59960E-001	-1.18342E+000	3.57780E+000	10	...........
	51	0.691667	9.98149E-001	5.99410E-003	0.00000E+000	5.98301E-003	3.59960E-001	-1.17960E+000	3.57780E+000	10	...........
STARTTIMEOFFSET	QUANT	1585.259	Start Time Offset (s)