File: Data/CV_CRGO300517_1/PWRCCD_CRGO300517_1/CHARGE_DISCHARGE/CHARGE_#433.DTA
EXPLAIN
TAG	PWR800_CHARGE
TITLE	LABEL	PWR Cyclic Charge Discharge (Cell) - Charge Step	Test &Identifier
DATE	LABEL	22-6-2017	Date
TIME	LABEL	15:53:16	Time
NOTES	NOTES	3	&Notes...
	supercap test cell
	0.6mg
	6M KOH
PSTAT	PSTAT	IFC5000-01520	Potentiostat
CAPACITY	QUANT	1.00000E-003	Capacity (A-hr)
CELLTYPE	SELECTOR	1	&Cell Type
WORKINGCONNECTION	SELECTOR	0	&Working Lead
MAXCHARGETIME	VARIABLEANDUNITS	1.00000E+002	s	1.00000E+002	second(s)	Max &Charge Time
CHARGECURRENT	QUANT	6.00000E-003	&Charge Current (A)
VOLTAGEFINISH	TWOPARAM	F	1.00000E-003	3.60000E+003	&Voltage Finish	 I (A) < 	Max Time(s)
SAMPLETIME	QUANT	1.00000E-002	Sa&mple Period (s)
CHARGESTOPAT1	MULTIPARAM	4	1.00000E+000	Charge Stop At &1	Voltage > Limit	V
CHARGESTOPAT2	MULTIPARAM	0	0.00000E+000	Charge Stop At &2	None	N/A
AESBHCSELECTOR	TOGGLE	F	Save Both Half Cells
IRCOMP	TOGGLE	F	IR &Measure
EOC	QUANT	0	Open Circuit (V)
SEQUENCER	TOGGLE	TRUE	Run as Sequence
PSTATMODEL	IQUANT	53	Pstat Model
PSTATSECTION	LABEL	IFC5000-01520	Pstat Section
PSTATSERIALNO	LABEL	01520	Pstat Serial Number
CTRLMODE	IQUANT	0	Control Mode
ELECTROMETER	IQUANT	1	RE=0 or CS=1
IESTAB	IQUANT	0	I/E Stability
CASPEED	IQUANT	4	Control Amp Speed
CONVENTION	IQUANT	1	Current Convention
ICHRANGE	IQUANT	2	Ich Range
ICHRANGEMODE	TOGGLE	T	Ich Auto Range
ICHOFFSETENABLE	TOGGLE	F	Ich Offset Enable
ICHOFFSET	QUANT	0	Ich Offset (V)
ICHFILTER	IQUANT	1	Ich Filter
VCHRANGE	IQUANT	2	Vch Range
VCHRANGEMODE	TOGGLE	T	Vch Auto Range
VCHOFFSETENABLE	TOGGLE	F	Vch Offset Enable
VCHOFFSET	QUANT	0	Vch Offset (V)
VCHFILTER	IQUANT	1	Vch Filter
IERANGELOWERLIMIT	IQUANT	9	I/E Range Lower Limit
IERANGEMODE	TOGGLE	F	I/E AutoRange
IERANGE	IQUANT	10	I/E Range
ACHSELECT	IQUANT	1	Ach Select
ACHRANGE	IQUANT	2	Ach Range
ACHOFFSETENABLE	TOGGLE	F	Ach Offset Enable
ACHOFFSET	QUANT	0	Ach Offset (V)
ACHFILTER	IQUANT	1	Ach Filter
CABLEID	IQUANT	14	Cable ID
DCCALDATE	LABEL	20-10-2016	DC Calibration Date
ACCALDATE	LABEL	12/3/2015	AC Calibration Date
FRAMEWORKVERSION	QUANT	7.01	Framework Version
INSTRUMENTVERSION	LABEL	4.00	Instrument Version
CURVE	TABLE	60
	Pt	T	Vf	Im	Vu	Pwr	Sig	Ach	Temp	IERange	Over
	#	s	V	A	V	W	V	V	deg C	#	bits
	0	0.013333	6.27165E-001	5.99188E-003	0.00000E+000	3.75790E-003	3.59960E-001	-1.13480E+000	3.57650E+000	10	...........
	1	0.026667	6.35931E-001	5.99141E-003	0.00000E+000	3.81012E-003	3.59960E-001	-1.13221E+000	3.57650E+000	10	...........
	2	0.04	6.44039E-001	5.99234E-003	0.00000E+000	3.85930E-003	3.59960E-001	-1.14300E+000	3.57650E+000	10	...........
	3	0.053333	6.51696E-001	5.99199E-003	0.00000E+000	3.90496E-003	3.59960E-001	-1.13417E+000	3.57650E+000	10	...........
	4	0.066667	6.59122E-001	5.99151E-003	0.00000E+000	3.94913E-003	3.59960E-001	-1.13177E+000	3.57650E+000	10	...........
	5	0.08	6.66322E-001	5.99163E-003	0.00000E+000	3.99236E-003	3.59960E-001	-1.14278E+000	3.57650E+000	10	...........
	6	0.093333	6.73371E-001	5.99040E-003	0.00000E+000	4.03376E-003	3.59960E-001	-1.13413E+000	3.57650E+000	10	...........
	7	0.106667	6.80290E-001	5.99411E-003	0.00000E+000	4.07773E-003	3.59960E-001	-1.13162E+000	3.57650E+000	10	...........
	8	0.12	6.87166E-001	5.99244E-003	0.00000E+000	4.11780E-003	3.59960E-001	-1.14260E+000	3.57650E+000	10	...........
	9	0.133333	6.93977E-001	5.98875E-003	0.00000E+000	4.15606E-003	3.59960E-001	-1.13379E+000	3.57650E+000	10	...........
	10	0.146667	7.00723E-001	5.99626E-003	0.00000E+000	4.20172E-003	3.59960E-001	-1.13155E+000	3.57650E+000	10	...........
	11	0.16	7.07358E-001	5.99035E-003	0.00000E+000	4.23732E-003	3.59960E-001	-1.14271E+000	3.57650E+000	10	...........
	12	0.173333	7.13982E-001	5.99491E-003	0.00000E+000	4.28026E-003	3.59960E-001	-1.13364E+000	3.57650E+000	10	...........
	13	0.186667	7.20638E-001	5.99384E-003	0.00000E+000	4.31939E-003	3.59960E-001	-1.13145E+000	3.57650E+000	10	...........
	14	0.2	7.27179E-001	5.99068E-003	0.00000E+000	4.35630E-003	3.59960E-001	-1.14258E+000	3.57650E+000	10	...........
	15	0.213333	7.33687E-001	5.99049E-003	0.00000E+000	4.39514E-003	3.59960E-001	-1.13370E+000	3.57650E+000	10	...........
	16	0.226667	7.40220E-001	5.99601E-003	0.00000E+000	4.43837E-003	3.59960E-001	-1.13147E+000	3.57650E+000	10	...........
	17	0.24	7.46747E-001	5.99052E-003	0.00000E+000	4.47340E-003	3.59960E-001	-1.14216E+000	3.57650E+000	10	...........
	18	0.253333	7.53200E-001	5.99275E-003	0.00000E+000	4.51374E-003	3.59960E-001	-1.13320E+000	3.57650E+000	10	...........
	19	0.266667	7.59688E-001	5.99121E-003	0.00000E+000	4.55145E-003	3.59960E-001	-1.13130E+000	3.57650E+000	10	...........
	20	0.28	7.66128E-001	5.99682E-003	0.00000E+000	4.59433E-003	3.59960E-001	-1.14251E+000	3.57650E+000	10	...........
	21	0.293333	7.72557E-001	5.99062E-003	0.00000E+000	4.62810E-003	3.59960E-001	-1.13322E+000	3.57650E+000	10	...........
	22	0.306667	7.78970E-001	5.99401E-003	0.00000E+000	4.66915E-003	3.59960E-001	-1.13148E+000	3.57655E+000	10	...........
	23	0.32	7.85397E-001	5.99597E-003	0.00000E+000	4.70922E-003	3.59960E-001	-1.14222E+000	3.57670E+000	10	...........
	24	0.333333	7.91764E-001	5.99024E-003	0.00000E+000	4.74286E-003	3.59960E-001	-1.13313E+000	3.57670E+000	10	...........
	25	0.346667	7.98192E-001	5.99294E-003	0.00000E+000	4.78351E-003	3.59960E-001	-1.13135E+000	3.57670E+000	10	...........
	26	0.36	8.04540E-001	5.98915E-003	0.00000E+000	4.81851E-003	3.59960E-001	-1.14257E+000	3.57670E+000	10	...........
	27	0.373333	8.10868E-001	5.99199E-003	0.00000E+000	4.85871E-003	3.59960E-001	-1.13275E+000	3.57670E+000	10	...........
	28	0.386667	8.17214E-001	5.99594E-003	0.00000E+000	4.89997E-003	3.59960E-001	-1.13097E+000	3.57670E+000	10	...........
	29	0.4	8.23564E-001	5.99351E-003	0.00000E+000	4.93604E-003	3.59960E-001	-1.14187E+000	3.57670E+000	10	...........
	30	0.413333	8.29859E-001	5.99711E-003	0.00000E+000	4.97675E-003	3.59960E-001	-1.13248E+000	3.57670E+000	10	...........
	31	0.426667	8.36103E-001	5.99142E-003	0.00000E+000	5.00945E-003	3.59960E-001	-1.13085E+000	3.57670E+000	10	...........
	32	0.44	8.42394E-001	5.99358E-003	0.00000E+000	5.04896E-003	3.59960E-001	-1.14174E+000	3.57670E+000	10	...........
	33	0.453333	8.48679E-001	5.99259E-003	0.00000E+000	5.08579E-003	3.59960E-001	-1.13211E+000	3.57670E+000	10	...........
	34	0.466667	8.54909E-001	5.99537E-003	0.00000E+000	5.12549E-003	3.59960E-001	-1.13055E+000	3.57670E+000	10	...........
	35	0.48	8.61115E-001	5.99199E-003	0.00000E+000	5.15979E-003	3.59960E-001	-1.14132E+000	3.57670E+000	10	...........
	36	0.493333	8.67314E-001	5.99521E-003	0.00000E+000	5.19973E-003	3.59960E-001	-1.13148E+000	3.57670E+000	10	...........
	37	0.506667	8.73548E-001	5.99333E-003	0.00000E+000	5.23547E-003	3.59960E-001	-1.12969E+000	3.57670E+000	10	...........
	38	0.52	8.79696E-001	5.99563E-003	0.00000E+000	5.27433E-003	3.59960E-001	-1.14036E+000	3.57670E+000	10	...........
	39	0.533333	8.85833E-001	5.99735E-003	0.00000E+000	5.31265E-003	3.59960E-001	-1.13021E+000	3.57670E+000	10	...........
	40	0.546667	8.91941E-001	5.99282E-003	0.00000E+000	5.34525E-003	3.59960E-001	-1.12842E+000	3.57670E+000	10	...........
	41	0.56	8.98051E-001	5.99276E-003	0.00000E+000	5.38180E-003	3.59960E-001	-1.13925E+000	3.57670E+000	10	...........
	42	0.573333	9.04105E-001	6.00136E-003	0.00000E+000	5.42586E-003	3.59960E-001	-1.12891E+000	3.57670E+000	10	...........
	43	0.586667	9.10171E-001	5.99692E-003	0.00000E+000	5.45822E-003	3.59960E-001	-1.12765E+000	3.57670E+000	10	...........
	44	0.6	9.16157E-001	5.99225E-003	0.00000E+000	5.48984E-003	3.59960E-001	-1.13815E+000	3.57670E+000	10	...........
	45	0.613333	9.22170E-001	5.99091E-003	0.00000E+000	5.52464E-003	3.59960E-001	-1.12807E+000	3.57670E+000	10	...........
	46	0.626667	9.28142E-001	5.99384E-003	0.00000E+000	5.56314E-003	3.59960E-001	-1.12668E+000	3.57670E+000	10	...........
	47	0.64	9.34072E-001	5.99568E-003	0.00000E+000	5.60040E-003	3.59960E-001	-1.13747E+000	3.57670E+000	10	...........
	48	0.653333	9.39938E-001	5.99335E-003	0.00000E+000	5.63338E-003	3.59960E-001	-1.12707E+000	3.57670E+000	10	...........
	49	0.666667	9.45799E-001	5.99190E-003	0.00000E+000	5.66714E-003	3.59960E-001	-1.12617E+000	3.57670E+000	10	...........
	50	0.68	9.51627E-001	5.99788E-003	0.00000E+000	5.70775E-003	3.59960E-001	-1.13706E+000	3.57670E+000	10	...........
	51	0.693333	9.57362E-001	5.99769E-003	0.00000E+000	5.74196E-003	3.59960E-001	-1.12679E+000	3.57670E+000	10	...........
	52	0.706667	9.63082E-001	5.99714E-003	0.00000E+000	5.77573E-003	3.59960E-001	-1.12580E+000	3.57670E+000	10	...........
	53	0.72	9.68804E-001	5.99412E-003	0.00000E+000	5.80712E-003	3.59960E-001	-1.13691E+000	3.57670E+000	10	...........
	54	0.733333	9.74476E-001	5.99269E-003	0.00000E+000	5.83973E-003	3.59960E-001	-1.12669E+000	3.57670E+000	10	...........
	55	0.746667	9.80073E-001	5.99850E-003	0.00000E+000	5.87896E-003	3.59960E-001	-1.12645E+000	3.57670E+000	10	...........
	56	0.76	9.85645E-001	5.99628E-003	0.00000E+000	5.91021E-003	3.59960E-001	-1.13763E+000	3.57670E+000	10	...........
	57	0.773333	9.91119E-001	5.99549E-003	0.00000E+000	5.94225E-003	3.59960E-001	-1.12785E+000	3.57670E+000	10	...........
	58	0.786667	9.96644E-001	5.99440E-003	0.00000E+000	5.97428E-003	3.59960E-001	-1.12741E+000	3.57670E+000	10	...........
	59	0.79	1.00006E+000	5.98645E-003	0.00000E+000	5.98683E-003	3.59960E-001	-1.13635E+000	3.57670E+000	10	...........
STARTTIMEOFFSET	QUANT	754.805	Start Time Offset (s)