File: Data/CV_CRGO300517_1/PWRCCD_CRGO300517_1/CHARGE_DISCHARGE/CHARGE_#977.DTA
EXPLAIN
TAG	PWR800_CHARGE
TITLE	LABEL	PWR Cyclic Charge Discharge (Cell) - Charge Step	Test &Identifier
DATE	LABEL	22-6-2017	Date
TIME	LABEL	16:13:48	Time
NOTES	NOTES	3	&Notes...
	supercap test cell
	0.6mg
	6M KOH
PSTAT	PSTAT	IFC5000-01520	Potentiostat
CAPACITY	QUANT	1.00000E-003	Capacity (A-hr)
CELLTYPE	SELECTOR	1	&Cell Type
WORKINGCONNECTION	SELECTOR	0	&Working Lead
MAXCHARGETIME	VARIABLEANDUNITS	1.00000E+002	s	1.00000E+002	second(s)	Max &Charge Time
CHARGECURRENT	QUANT	6.00000E-003	&Charge Current (A)
VOLTAGEFINISH	TWOPARAM	F	1.00000E-003	3.60000E+003	&Voltage Finish	 I (A) < 	Max Time(s)
SAMPLETIME	QUANT	1.00000E-002	Sa&mple Period (s)
CHARGESTOPAT1	MULTIPARAM	4	1.00000E+000	Charge Stop At &1	Voltage > Limit	V
CHARGESTOPAT2	MULTIPARAM	0	0.00000E+000	Charge Stop At &2	None	N/A
AESBHCSELECTOR	TOGGLE	F	Save Both Half Cells
IRCOMP	TOGGLE	F	IR &Measure
EOC	QUANT	0	Open Circuit (V)
SEQUENCER	TOGGLE	TRUE	Run as Sequence
PSTATMODEL	IQUANT	53	Pstat Model
PSTATSECTION	LABEL	IFC5000-01520	Pstat Section
PSTATSERIALNO	LABEL	01520	Pstat Serial Number
CTRLMODE	IQUANT	0	Control Mode
ELECTROMETER	IQUANT	1	RE=0 or CS=1
IESTAB	IQUANT	0	I/E Stability
CASPEED	IQUANT	4	Control Amp Speed
CONVENTION	IQUANT	1	Current Convention
ICHRANGE	IQUANT	2	Ich Range
ICHRANGEMODE	TOGGLE	T	Ich Auto Range
ICHOFFSETENABLE	TOGGLE	F	Ich Offset Enable
ICHOFFSET	QUANT	0	Ich Offset (V)
ICHFILTER	IQUANT	1	Ich Filter
VCHRANGE	IQUANT	2	Vch Range
VCHRANGEMODE	TOGGLE	T	Vch Auto Range
VCHOFFSETENABLE	TOGGLE	F	Vch Offset Enable
VCHOFFSET	QUANT	0	Vch Offset (V)
VCHFILTER	IQUANT	1	Vch Filter
IERANGELOWERLIMIT	IQUANT	9	I/E Range Lower Limit
IERANGEMODE	TOGGLE	F	I/E AutoRange
IERANGE	IQUANT	10	I/E Range
ACHSELECT	IQUANT	1	Ach Select
ACHRANGE	IQUANT	2	Ach Range
ACHOFFSETENABLE	TOGGLE	F	Ach Offset Enable
ACHOFFSET	QUANT	0	Ach Offset (V)
ACHFILTER	IQUANT	1	Ach Filter
CABLEID	IQUANT	14	Cable ID
DCCALDATE	LABEL	20-10-2016	DC Calibration Date
ACCALDATE	LABEL	12/3/2015	AC Calibration Date
FRAMEWORKVERSION	QUANT	7.01	Framework Version
INSTRUMENTVERSION	LABEL	4.00	Instrument Version
CURVE	TABLE	53
	Pt	T	Vf	Im	Vu	Pwr	Sig	Ach	Temp	IERange	Over
	#	s	V	A	V	W	V	V	deg C	#	bits
	0	0.013333	6.56019E-001	5.98874E-003	0.00000E+000	3.92873E-003	3.59960E-001	-1.17939E+000	3.57780E+000	10	...........
	1	0.026667	6.65379E-001	5.99248E-003	0.00000E+000	3.98727E-003	3.59960E-001	-1.16925E+000	3.57780E+000	10	...........
	2	0.04	6.74005E-001	5.99679E-003	0.00000E+000	4.04186E-003	3.59960E-001	-1.17259E+000	3.57780E+000	10	...........
	3	0.053333	6.82178E-001	5.99437E-003	0.00000E+000	4.08922E-003	3.59960E-001	-1.17939E+000	3.57780E+000	10	...........
	4	0.066667	6.90026E-001	5.99302E-003	0.00000E+000	4.13534E-003	3.59960E-001	-1.16928E+000	3.57780E+000	10	...........
	5	0.08	6.97711E-001	5.99228E-003	0.00000E+000	4.18088E-003	3.59960E-001	-1.17250E+000	3.57780E+000	10	...........
	6	0.093333	7.05243E-001	5.99559E-003	0.00000E+000	4.22834E-003	3.59960E-001	-1.17927E+000	3.57780E+000	10	...........
	7	0.106667	7.12640E-001	5.99743E-003	0.00000E+000	4.27401E-003	3.59960E-001	-1.16927E+000	3.57780E+000	10	...........
	8	0.12	7.19953E-001	5.98960E-003	0.00000E+000	4.31223E-003	3.59960E-001	-1.17270E+000	3.57780E+000	10	...........
	9	0.133333	7.27206E-001	5.99143E-003	0.00000E+000	4.35700E-003	3.59960E-001	-1.17913E+000	3.57780E+000	10	...........
	10	0.146667	7.34315E-001	5.99672E-003	0.00000E+000	4.40348E-003	3.59960E-001	-1.16921E+000	3.57780E+000	10	...........
	11	0.16	7.41418E-001	5.99070E-003	0.00000E+000	4.44162E-003	3.59960E-001	-1.17255E+000	3.57780E+000	10	...........
	12	0.173333	7.48457E-001	5.98996E-003	0.00000E+000	4.48323E-003	3.59960E-001	-1.17884E+000	3.57780E+000	10	...........
	13	0.186667	7.55485E-001	5.99503E-003	0.00000E+000	4.52916E-003	3.59960E-001	-1.16874E+000	3.57780E+000	10	...........
	14	0.2	7.62452E-001	5.98980E-003	0.00000E+000	4.56693E-003	3.59960E-001	-1.17200E+000	3.57780E+000	10	...........
	15	0.213333	7.69349E-001	5.99051E-003	0.00000E+000	4.60879E-003	3.59960E-001	-1.17854E+000	3.57780E+000	10	...........
	16	0.226667	7.76270E-001	5.99209E-003	0.00000E+000	4.65148E-003	3.59960E-001	-1.16860E+000	3.57780E+000	10	...........
	17	0.24	7.83143E-001	5.99415E-003	0.00000E+000	4.69427E-003	3.59960E-001	-1.17233E+000	3.57780E+000	10	...........
	18	0.253333	7.89991E-001	5.99192E-003	0.00000E+000	4.73357E-003	3.59960E-001	-1.17872E+000	3.57780E+000	10	...........
	19	0.266667	7.96830E-001	5.98961E-003	0.00000E+000	4.77270E-003	3.59960E-001	-1.16852E+000	3.57780E+000	10	...........
	20	0.28	8.03593E-001	5.99385E-003	0.00000E+000	4.81662E-003	3.59960E-001	-1.17182E+000	3.57780E+000	10	...........
	21	0.293333	8.10345E-001	5.99374E-003	0.00000E+000	4.85700E-003	3.59960E-001	-1.17841E+000	3.57780E+000	10	...........
	22	0.306667	8.17061E-001	5.99593E-003	0.00000E+000	4.89904E-003	3.59960E-001	-1.16852E+000	3.57780E+000	10	...........
	23	0.32	8.23721E-001	5.99333E-003	0.00000E+000	4.93684E-003	3.59960E-001	-1.17183E+000	3.57780E+000	10	...........
	24	0.333333	8.30388E-001	5.99032E-003	0.00000E+000	4.97429E-003	3.59960E-001	-1.17846E+000	3.57780E+000	10	...........
	25	0.346667	8.37055E-001	5.99759E-003	0.00000E+000	5.02031E-003	3.59960E-001	-1.16835E+000	3.57780E+000	10	...........
	26	0.36	8.43685E-001	5.99629E-003	0.00000E+000	5.05898E-003	3.59960E-001	-1.17173E+000	3.57780E+000	10	...........
	27	0.373333	8.50270E-001	5.99259E-003	0.00000E+000	5.09532E-003	3.59960E-001	-1.17849E+000	3.57780E+000	10	...........
	28	0.386667	8.56817E-001	5.98785E-003	0.00000E+000	5.13049E-003	3.59960E-001	-1.16860E+000	3.57780E+000	10	...........
	29	0.4	8.63362E-001	5.99280E-003	0.00000E+000	5.17396E-003	3.59960E-001	-1.17210E+000	3.57780E+000	10	...........
	30	0.413333	8.69856E-001	5.99231E-003	0.00000E+000	5.21245E-003	3.59960E-001	-1.17824E+000	3.57780E+000	10	...........
	31	0.426667	8.76283E-001	5.98665E-003	0.00000E+000	5.24600E-003	3.59960E-001	-1.16862E+000	3.57780E+000	10	...........
	32	0.44	8.82731E-001	5.99747E-003	0.00000E+000	5.29415E-003	3.59960E-001	-1.17218E+000	3.57780E+000	10	...........
	33	0.453333	8.89113E-001	5.99362E-003	0.00000E+000	5.32901E-003	3.59960E-001	-1.17831E+000	3.57780E+000	10	...........
	34	0.466667	8.95533E-001	5.99420E-003	0.00000E+000	5.36800E-003	3.59960E-001	-1.16838E+000	3.57780E+000	10	...........
	35	0.48	9.01865E-001	5.99510E-003	0.00000E+000	5.40677E-003	3.59960E-001	-1.17182E+000	3.57780E+000	10	...........
	36	0.493333	9.08153E-001	5.99496E-003	0.00000E+000	5.44434E-003	3.59960E-001	-1.17814E+000	3.57780E+000	10	...........
	37	0.506667	9.14416E-001	5.99042E-003	0.00000E+000	5.47774E-003	3.59960E-001	-1.16835E+000	3.57780E+000	10	...........
	38	0.52	9.20645E-001	5.99337E-003	0.00000E+000	5.51777E-003	3.59960E-001	-1.17185E+000	3.57780E+000	10	...........
	39	0.533333	9.26827E-001	5.99755E-003	0.00000E+000	5.55869E-003	3.59960E-001	-1.17802E+000	3.57780E+000	10	...........
	40	0.546667	9.32929E-001	5.99503E-003	0.00000E+000	5.59294E-003	3.59960E-001	-1.16827E+000	3.57780E+000	10	...........
	41	0.56	9.38999E-001	5.99276E-003	0.00000E+000	5.62719E-003	3.59960E-001	-1.17199E+000	3.57780E+000	10	...........
	42	0.573333	9.45036E-001	5.99383E-003	0.00000E+000	5.66439E-003	3.59960E-001	-1.17817E+000	3.57780E+000	10	...........
	43	0.586667	9.51042E-001	5.99525E-003	0.00000E+000	5.70174E-003	3.59960E-001	-1.16828E+000	3.57780E+000	10	...........
	44	0.6	9.56948E-001	5.99510E-003	0.00000E+000	5.73699E-003	3.59960E-001	-1.17174E+000	3.57780E+000	10	...........
	45	0.613333	9.62845E-001	5.99276E-003	0.00000E+000	5.77010E-003	3.59960E-001	-1.17790E+000	3.57780E+000	10	...........
	46	0.626667	9.68702E-001	5.99654E-003	0.00000E+000	5.80886E-003	3.59960E-001	-1.16818E+000	3.57780E+000	10	...........
	47	0.64	9.74540E-001	6.00113E-003	0.00000E+000	5.84834E-003	3.59960E-001	-1.17177E+000	3.57780E+000	10	...........
	48	0.653333	9.80229E-001	5.99149E-003	0.00000E+000	5.87303E-003	3.59960E-001	-1.17791E+000	3.57780E+000	10	...........
	49	0.666667	9.85865E-001	5.99538E-003	0.00000E+000	5.91063E-003	3.59960E-001	-1.16813E+000	3.57780E+000	10	...........
	50	0.68	9.91483E-001	5.98796E-003	0.00000E+000	5.93696E-003	3.59960E-001	-1.17185E+000	3.57780E+000	10	...........
	51	0.693333	9.97040E-001	5.98930E-003	0.00000E+000	5.97157E-003	3.59960E-001	-1.17798E+000	3.57780E+000	10	...........
	52	0.695	1.00015E+000	5.98353E-003	0.00000E+000	5.98445E-003	3.59960E-001	-1.17486E+000	3.57780E+000	10	...........
STARTTIMEOFFSET	QUANT	1553.476	Start Time Offset (s)