File: Data/CV_CRGO300517_1/PWRCCD_CRGO300517_1/CHARGE_DISCHARGE/CHARGE_#767.DTA
EXPLAIN
TAG	PWR800_CHARGE
TITLE	LABEL	PWR Cyclic Charge Discharge (Cell) - Charge Step	Test &Identifier
DATE	LABEL	22-6-2017	Date
TIME	LABEL	16:06:03	Time
NOTES	NOTES	3	&Notes...
	supercap test cell
	0.6mg
	6M KOH
PSTAT	PSTAT	IFC5000-01520	Potentiostat
CAPACITY	QUANT	1.00000E-003	Capacity (A-hr)
CELLTYPE	SELECTOR	1	&Cell Type
WORKINGCONNECTION	SELECTOR	0	&Working Lead
MAXCHARGETIME	VARIABLEANDUNITS	1.00000E+002	s	1.00000E+002	second(s)	Max &Charge Time
CHARGECURRENT	QUANT	6.00000E-003	&Charge Current (A)
VOLTAGEFINISH	TWOPARAM	F	1.00000E-003	3.60000E+003	&Voltage Finish	 I (A) < 	Max Time(s)
SAMPLETIME	QUANT	1.00000E-002	Sa&mple Period (s)
CHARGESTOPAT1	MULTIPARAM	4	1.00000E+000	Charge Stop At &1	Voltage > Limit	V
CHARGESTOPAT2	MULTIPARAM	0	0.00000E+000	Charge Stop At &2	None	N/A
AESBHCSELECTOR	TOGGLE	F	Save Both Half Cells
IRCOMP	TOGGLE	F	IR &Measure
EOC	QUANT	0	Open Circuit (V)
SEQUENCER	TOGGLE	TRUE	Run as Sequence
PSTATMODEL	IQUANT	53	Pstat Model
PSTATSECTION	LABEL	IFC5000-01520	Pstat Section
PSTATSERIALNO	LABEL	01520	Pstat Serial Number
CTRLMODE	IQUANT	0	Control Mode
ELECTROMETER	IQUANT	1	RE=0 or CS=1
IESTAB	IQUANT	0	I/E Stability
CASPEED	IQUANT	4	Control Amp Speed
CONVENTION	IQUANT	1	Current Convention
ICHRANGE	IQUANT	2	Ich Range
ICHRANGEMODE	TOGGLE	T	Ich Auto Range
ICHOFFSETENABLE	TOGGLE	F	Ich Offset Enable
ICHOFFSET	QUANT	0	Ich Offset (V)
ICHFILTER	IQUANT	1	Ich Filter
VCHRANGE	IQUANT	2	Vch Range
VCHRANGEMODE	TOGGLE	T	Vch Auto Range
VCHOFFSETENABLE	TOGGLE	F	Vch Offset Enable
VCHOFFSET	QUANT	0	Vch Offset (V)
VCHFILTER	IQUANT	1	Vch Filter
IERANGELOWERLIMIT	IQUANT	9	I/E Range Lower Limit
IERANGEMODE	TOGGLE	F	I/E AutoRange
IERANGE	IQUANT	10	I/E Range
ACHSELECT	IQUANT	1	Ach Select
ACHRANGE	IQUANT	2	Ach Range
ACHOFFSETENABLE	TOGGLE	F	Ach Offset Enable
ACHOFFSET	QUANT	0	Ach Offset (V)
ACHFILTER	IQUANT	1	Ach Filter
CABLEID	IQUANT	14	Cable ID
DCCALDATE	LABEL	20-10-2016	DC Calibration Date
ACCALDATE	LABEL	12/3/2015	AC Calibration Date
FRAMEWORKVERSION	QUANT	7.01	Framework Version
INSTRUMENTVERSION	LABEL	4.00	Instrument Version
CURVE	TABLE	55
	Pt	T	Vf	Im	Vu	Pwr	Sig	Ach	Temp	IERange	Over
	#	s	V	A	V	W	V	V	deg C	#	bits
	0	0.013333	6.47686E-001	5.99502E-003	0.00000E+000	3.88289E-003	3.59960E-001	-1.16295E+000	3.57780E+000	10	...........
	1	0.026667	6.56823E-001	5.99341E-003	0.00000E+000	3.93661E-003	3.59960E-001	-1.17386E+000	3.57780E+000	10	...........
	2	0.04	6.65235E-001	5.98863E-003	0.00000E+000	3.98385E-003	3.59960E-001	-1.16579E+000	3.57780E+000	10	...........
	3	0.053333	6.73188E-001	5.99163E-003	0.00000E+000	4.03350E-003	3.59960E-001	-1.16295E+000	3.57780E+000	10	...........
	4	0.066667	6.80877E-001	5.99791E-003	0.00000E+000	4.08384E-003	3.59960E-001	-1.17415E+000	3.57780E+000	10	...........
	5	0.08	6.88377E-001	5.99251E-003	0.00000E+000	4.12511E-003	3.59960E-001	-1.16586E+000	3.57780E+000	10	...........
	6	0.093333	6.95722E-001	5.98991E-003	0.00000E+000	4.16731E-003	3.59960E-001	-1.16274E+000	3.57780E+000	10	...........
	7	0.106667	7.02958E-001	5.99564E-003	0.00000E+000	4.21468E-003	3.59960E-001	-1.17381E+000	3.57780E+000	10	...........
	8	0.12	7.10059E-001	5.99190E-003	0.00000E+000	4.25461E-003	3.59960E-001	-1.16560E+000	3.57780E+000	10	...........
	9	0.133333	7.17126E-001	5.99373E-003	0.00000E+000	4.29826E-003	3.59960E-001	-1.16276E+000	3.57780E+000	10	...........
	10	0.146667	7.24102E-001	5.99600E-003	0.00000E+000	4.34172E-003	3.59960E-001	-1.17368E+000	3.57780E+000	10	...........
	11	0.16	7.31091E-001	5.99447E-003	0.00000E+000	4.38250E-003	3.59960E-001	-1.16559E+000	3.57780E+000	10	...........
	12	0.173333	7.37966E-001	5.99069E-003	0.00000E+000	4.42093E-003	3.59960E-001	-1.16256E+000	3.57780E+000	10	...........
	13	0.186667	7.44828E-001	5.99163E-003	0.00000E+000	4.46274E-003	3.59960E-001	-1.17356E+000	3.57780E+000	10	...........
	14	0.2	7.51678E-001	5.99055E-003	0.00000E+000	4.50297E-003	3.59960E-001	-1.16566E+000	3.57780E+000	10	...........
	15	0.213333	7.58490E-001	5.99190E-003	0.00000E+000	4.54480E-003	3.59960E-001	-1.16283E+000	3.57780E+000	10	...........
	16	0.226667	7.65246E-001	5.99458E-003	0.00000E+000	4.58733E-003	3.59960E-001	-1.17395E+000	3.57780E+000	10	...........
	17	0.24	7.71992E-001	5.99550E-003	0.00000E+000	4.62848E-003	3.59960E-001	-1.16557E+000	3.57780E+000	10	...........
	18	0.253333	7.78683E-001	5.99310E-003	0.00000E+000	4.66673E-003	3.59960E-001	-1.16265E+000	3.57780E+000	10	...........
	19	0.266667	7.85367E-001	5.99001E-003	0.00000E+000	4.70435E-003	3.59960E-001	-1.17382E+000	3.57780E+000	10	...........
	20	0.28	7.92093E-001	5.99507E-003	0.00000E+000	4.74866E-003	3.59960E-001	-1.16530E+000	3.57780E+000	10	...........
	21	0.293333	7.98753E-001	5.99284E-003	0.00000E+000	4.78680E-003	3.59960E-001	-1.16262E+000	3.57780E+000	10	...........
	22	0.306667	8.05380E-001	5.99220E-003	0.00000E+000	4.82599E-003	3.59960E-001	-1.17331E+000	3.57780E+000	10	...........
	23	0.32	8.11971E-001	5.99923E-003	0.00000E+000	4.87120E-003	3.59960E-001	-1.16501E+000	3.57780E+000	10	...........
	24	0.333333	8.18551E-001	5.99312E-003	0.00000E+000	4.90568E-003	3.59960E-001	-1.16230E+000	3.57780E+000	10	...........
	25	0.346667	8.25123E-001	5.99677E-003	0.00000E+000	4.94808E-003	3.59960E-001	-1.17345E+000	3.57780E+000	10	...........
	26	0.36	8.31647E-001	5.99340E-003	0.00000E+000	4.98439E-003	3.59960E-001	-1.16479E+000	3.57780E+000	10	...........
	27	0.373333	8.38153E-001	5.99152E-003	0.00000E+000	5.02181E-003	3.59960E-001	-1.16218E+000	3.57780E+000	10	...........
	28	0.386667	8.44647E-001	5.99199E-003	0.00000E+000	5.06111E-003	3.59960E-001	-1.17324E+000	3.57780E+000	10	...........
	29	0.4	8.51154E-001	5.99352E-003	0.00000E+000	5.10141E-003	3.59960E-001	-1.16482E+000	3.57780E+000	10	...........
	30	0.413333	8.57613E-001	5.99567E-003	0.00000E+000	5.14196E-003	3.59960E-001	-1.16218E+000	3.57780E+000	10	...........
	31	0.426667	8.64020E-001	5.99229E-003	0.00000E+000	5.17746E-003	3.59960E-001	-1.17328E+000	3.57780E+000	10	...........
	32	0.44	8.70466E-001	5.99808E-003	0.00000E+000	5.22112E-003	3.59960E-001	-1.16468E+000	3.57780E+000	10	...........
	33	0.453333	8.76805E-001	5.99415E-003	0.00000E+000	5.25570E-003	3.59960E-001	-1.16219E+000	3.57780E+000	10	...........
	34	0.466667	8.83170E-001	5.99971E-003	0.00000E+000	5.29876E-003	3.59960E-001	-1.17334E+000	3.57780E+000	10	...........
	35	0.48	8.89519E-001	5.98858E-003	0.00000E+000	5.32695E-003	3.59960E-001	-1.16462E+000	3.57780E+000	10	...........
	36	0.493333	8.95773E-001	5.99410E-003	0.00000E+000	5.36936E-003	3.59960E-001	-1.16210E+000	3.57780E+000	10	...........
	37	0.506667	9.01993E-001	5.99074E-003	0.00000E+000	5.40360E-003	3.59960E-001	-1.17333E+000	3.57780E+000	10	...........
	38	0.52	9.08231E-001	5.99827E-003	0.00000E+000	5.44781E-003	3.59960E-001	-1.16454E+000	3.57780E+000	10	...........
	39	0.533333	9.14437E-001	5.99480E-003	0.00000E+000	5.48187E-003	3.59960E-001	-1.16240E+000	3.57780E+000	10	...........
	40	0.546667	9.20571E-001	5.99723E-003	0.00000E+000	5.52088E-003	3.59960E-001	-1.17364E+000	3.57780E+000	10	...........
	41	0.56	9.26702E-001	5.99868E-003	0.00000E+000	5.55899E-003	3.59960E-001	-1.16472E+000	3.57780E+000	10	...........
	42	0.573333	9.32732E-001	5.99057E-003	0.00000E+000	5.58759E-003	3.59960E-001	-1.16205E+000	3.57780E+000	10	...........
	43	0.586667	9.38756E-001	5.99354E-003	0.00000E+000	5.62647E-003	3.59960E-001	-1.17336E+000	3.57780E+000	10	...........
	44	0.6	9.44752E-001	5.99326E-003	0.00000E+000	5.66215E-003	3.59960E-001	-1.16461E+000	3.57823E+000	10	...........
	45	0.613333	9.50665E-001	5.98985E-003	0.00000E+000	5.69434E-003	3.59960E-001	-1.16238E+000	3.57950E+000	10	...........
	46	0.626667	9.56558E-001	5.99168E-003	0.00000E+000	5.73139E-003	3.59960E-001	-1.17334E+000	3.57950E+000	10	...........
	47	0.64	9.62388E-001	5.99005E-003	0.00000E+000	5.76475E-003	3.59960E-001	-1.16399E+000	3.57950E+000	10	...........
	48	0.653333	9.68148E-001	5.99219E-003	0.00000E+000	5.80132E-003	3.59960E-001	-1.16163E+000	3.57950E+000	10	...........
	49	0.666667	9.73953E-001	5.99513E-003	0.00000E+000	5.83897E-003	3.59960E-001	-1.17295E+000	3.57950E+000	10	...........
	50	0.68	9.79599E-001	5.99345E-003	0.00000E+000	5.87117E-003	3.59960E-001	-1.16412E+000	3.57950E+000	10	...........
	51	0.693333	9.85275E-001	5.99610E-003	0.00000E+000	5.90780E-003	3.59960E-001	-1.16174E+000	3.57950E+000	10	...........
	52	0.706667	9.90831E-001	5.99487E-003	0.00000E+000	5.93990E-003	3.59960E-001	-1.17290E+000	3.57950E+000	10	...........
	53	0.72	9.96399E-001	5.99390E-003	0.00000E+000	5.97231E-003	3.59960E-001	-1.16396E+000	3.57950E+000	10	...........
	54	0.723333	9.99874E-001	6.00063E-003	0.00000E+000	5.99988E-003	3.59960E-001	-1.17445E+000	3.57950E+000	10	...........
STARTTIMEOFFSET	QUANT	1256.651	Start Time Offset (s)