File: Data/CV_CRGO300517_1/PWRCCD_CRGO300517_1/CHARGE_DISCHARGE/CHARGE_#966.DTA
EXPLAIN
TAG	PWR800_CHARGE
TITLE	LABEL	PWR Cyclic Charge Discharge (Cell) - Charge Step	Test &Identifier
DATE	LABEL	22-6-2017	Date
TIME	LABEL	16:13:24	Time
NOTES	NOTES	3	&Notes...
	supercap test cell
	0.6mg
	6M KOH
PSTAT	PSTAT	IFC5000-01520	Potentiostat
CAPACITY	QUANT	1.00000E-003	Capacity (A-hr)
CELLTYPE	SELECTOR	1	&Cell Type
WORKINGCONNECTION	SELECTOR	0	&Working Lead
MAXCHARGETIME	VARIABLEANDUNITS	1.00000E+002	s	1.00000E+002	second(s)	Max &Charge Time
CHARGECURRENT	QUANT	6.00000E-003	&Charge Current (A)
VOLTAGEFINISH	TWOPARAM	F	1.00000E-003	3.60000E+003	&Voltage Finish	 I (A) < 	Max Time(s)
SAMPLETIME	QUANT	1.00000E-002	Sa&mple Period (s)
CHARGESTOPAT1	MULTIPARAM	4	1.00000E+000	Charge Stop At &1	Voltage > Limit	V
CHARGESTOPAT2	MULTIPARAM	0	0.00000E+000	Charge Stop At &2	None	N/A
AESBHCSELECTOR	TOGGLE	F	Save Both Half Cells
IRCOMP	TOGGLE	F	IR &Measure
EOC	QUANT	0	Open Circuit (V)
SEQUENCER	TOGGLE	TRUE	Run as Sequence
PSTATMODEL	IQUANT	53	Pstat Model
PSTATSECTION	LABEL	IFC5000-01520	Pstat Section
PSTATSERIALNO	LABEL	01520	Pstat Serial Number
CTRLMODE	IQUANT	0	Control Mode
ELECTROMETER	IQUANT	1	RE=0 or CS=1
IESTAB	IQUANT	0	I/E Stability
CASPEED	IQUANT	4	Control Amp Speed
CONVENTION	IQUANT	1	Current Convention
ICHRANGE	IQUANT	2	Ich Range
ICHRANGEMODE	TOGGLE	T	Ich Auto Range
ICHOFFSETENABLE	TOGGLE	F	Ich Offset Enable
ICHOFFSET	QUANT	0	Ich Offset (V)
ICHFILTER	IQUANT	1	Ich Filter
VCHRANGE	IQUANT	2	Vch Range
VCHRANGEMODE	TOGGLE	T	Vch Auto Range
VCHOFFSETENABLE	TOGGLE	F	Vch Offset Enable
VCHOFFSET	QUANT	0	Vch Offset (V)
VCHFILTER	IQUANT	1	Vch Filter
IERANGELOWERLIMIT	IQUANT	9	I/E Range Lower Limit
IERANGEMODE	TOGGLE	F	I/E AutoRange
IERANGE	IQUANT	10	I/E Range
ACHSELECT	IQUANT	1	Ach Select
ACHRANGE	IQUANT	2	Ach Range
ACHOFFSETENABLE	TOGGLE	F	Ach Offset Enable
ACHOFFSET	QUANT	0	Ach Offset (V)
ACHFILTER	IQUANT	1	Ach Filter
CABLEID	IQUANT	14	Cable ID
DCCALDATE	LABEL	20-10-2016	DC Calibration Date
ACCALDATE	LABEL	12/3/2015	AC Calibration Date
FRAMEWORKVERSION	QUANT	7.01	Framework Version
INSTRUMENTVERSION	LABEL	4.00	Instrument Version
CURVE	TABLE	53
	Pt	T	Vf	Im	Vu	Pwr	Sig	Ach	Temp	IERange	Over
	#	s	V	A	V	W	V	V	deg C	#	bits
	0	0.013333	6.55931E-001	5.99419E-003	0.00000E+000	3.93177E-003	3.59960E-001	-1.17328E+000	3.57780E+000	10	...........
	1	0.026667	6.65231E-001	5.99615E-003	0.00000E+000	3.98883E-003	3.59960E-001	-1.18319E+000	3.57780E+000	10	...........
	2	0.04	6.73787E-001	5.99622E-003	0.00000E+000	4.04018E-003	3.59960E-001	-1.17750E+000	3.57780E+000	10	...........
	3	0.053333	6.81900E-001	5.99274E-003	0.00000E+000	4.08645E-003	3.59960E-001	-1.17311E+000	3.57780E+000	10	...........
	4	0.066667	6.89722E-001	5.99059E-003	0.00000E+000	4.13184E-003	3.59960E-001	-1.18334E+000	3.57780E+000	10	...........
	5	0.08	6.97360E-001	5.99120E-003	0.00000E+000	4.17802E-003	3.59960E-001	-1.17735E+000	3.57780E+000	10	...........
	6	0.093333	7.04872E-001	5.99396E-003	0.00000E+000	4.22498E-003	3.59960E-001	-1.17249E+000	3.57780E+000	10	...........
	7	0.106667	7.12224E-001	5.99633E-003	0.00000E+000	4.27073E-003	3.59960E-001	-1.18288E+000	3.57780E+000	10	...........
	8	0.12	7.19555E-001	5.99494E-003	0.00000E+000	4.31369E-003	3.59960E-001	-1.17704E+000	3.57780E+000	10	...........
	9	0.133333	7.26767E-001	5.99105E-003	0.00000E+000	4.35409E-003	3.59960E-001	-1.17274E+000	3.57780E+000	10	...........
	10	0.146667	7.33883E-001	5.99893E-003	0.00000E+000	4.40252E-003	3.59960E-001	-1.18283E+000	3.57780E+000	10	...........
	11	0.16	7.40968E-001	5.99425E-003	0.00000E+000	4.44155E-003	3.59960E-001	-1.17683E+000	3.57780E+000	10	...........
	12	0.173333	7.48022E-001	5.99827E-003	0.00000E+000	4.48684E-003	3.59960E-001	-1.17269E+000	3.57780E+000	10	...........
	13	0.186667	7.55011E-001	5.99535E-003	0.00000E+000	4.52655E-003	3.59960E-001	-1.18288E+000	3.57780E+000	10	...........
	14	0.2	7.61970E-001	5.99418E-003	0.00000E+000	4.56738E-003	3.59960E-001	-1.17668E+000	3.57780E+000	10	...........
	15	0.213333	7.68881E-001	5.99099E-003	0.00000E+000	4.60636E-003	3.59960E-001	-1.17219E+000	3.57780E+000	10	...........
	16	0.226667	7.75764E-001	5.99408E-003	0.00000E+000	4.64999E-003	3.59960E-001	-1.18275E+000	3.57780E+000	10	...........
	17	0.24	7.82647E-001	5.99448E-003	0.00000E+000	4.69156E-003	3.59960E-001	-1.17651E+000	3.57780E+000	10	...........
	18	0.253333	7.89455E-001	5.99631E-003	0.00000E+000	4.73381E-003	3.59960E-001	-1.17238E+000	3.57780E+000	10	...........
	19	0.266667	7.96280E-001	5.99285E-003	0.00000E+000	4.77199E-003	3.59960E-001	-1.18280E+000	3.57780E+000	10	...........
	20	0.28	8.03049E-001	5.99556E-003	0.00000E+000	4.81473E-003	3.59960E-001	-1.17643E+000	3.57780E+000	10	...........
	21	0.293333	8.09765E-001	5.99530E-003	0.00000E+000	4.85479E-003	3.59960E-001	-1.17231E+000	3.57780E+000	10	...........
	22	0.306667	8.16467E-001	5.99395E-003	0.00000E+000	4.89386E-003	3.59960E-001	-1.18288E+000	3.57780E+000	10	...........
	23	0.32	8.23151E-001	5.99471E-003	0.00000E+000	4.93455E-003	3.59960E-001	-1.17661E+000	3.57780E+000	10	...........
	24	0.333333	8.29807E-001	5.99478E-003	0.00000E+000	4.97451E-003	3.59960E-001	-1.17251E+000	3.57780E+000	10	...........
	25	0.346667	8.36408E-001	5.99484E-003	0.00000E+000	5.01414E-003	3.59960E-001	-1.18306E+000	3.57780E+000	10	...........
	26	0.36	8.43013E-001	5.99176E-003	0.00000E+000	5.05113E-003	3.59960E-001	-1.17644E+000	3.57780E+000	10	...........
	27	0.373333	8.49622E-001	5.99305E-003	0.00000E+000	5.09183E-003	3.59960E-001	-1.17241E+000	3.57780E+000	10	...........
	28	0.386667	8.56202E-001	5.99245E-003	0.00000E+000	5.13074E-003	3.59960E-001	-1.18307E+000	3.57780E+000	10	...........
	29	0.4	8.62739E-001	5.99252E-003	0.00000E+000	5.16998E-003	3.59960E-001	-1.17630E+000	3.57780E+000	10	...........
	30	0.413333	8.69276E-001	5.99268E-003	0.00000E+000	5.20929E-003	3.59960E-001	-1.17192E+000	3.57780E+000	10	...........
	31	0.426667	8.75736E-001	5.99098E-003	0.00000E+000	5.24651E-003	3.59960E-001	-1.18247E+000	3.57780E+000	10	...........
	32	0.44	8.82193E-001	5.99355E-003	0.00000E+000	5.28747E-003	3.59960E-001	-1.17592E+000	3.57780E+000	10	...........
	33	0.453333	8.88585E-001	5.99337E-003	0.00000E+000	5.32562E-003	3.59960E-001	-1.17197E+000	3.57780E+000	10	...........
	34	0.466667	8.94951E-001	5.99368E-003	0.00000E+000	5.36405E-003	3.59960E-001	-1.18244E+000	3.57780E+000	10	...........
	35	0.48	9.01248E-001	5.99347E-003	0.00000E+000	5.40160E-003	3.59960E-001	-1.17570E+000	3.57780E+000	10	...........
	36	0.493333	9.07525E-001	5.99404E-003	0.00000E+000	5.43974E-003	3.59960E-001	-1.17182E+000	3.57780E+000	10	...........
	37	0.506667	9.13755E-001	5.99543E-003	0.00000E+000	5.47835E-003	3.59960E-001	-1.18252E+000	3.57780E+000	10	...........
	38	0.52	9.20009E-001	5.99349E-003	0.00000E+000	5.51407E-003	3.59960E-001	-1.17591E+000	3.57780E+000	10	...........
	39	0.533333	9.26208E-001	5.99401E-003	0.00000E+000	5.55170E-003	3.59960E-001	-1.17194E+000	3.57780E+000	10	...........
	40	0.546667	9.32325E-001	5.99688E-003	0.00000E+000	5.59104E-003	3.59960E-001	-1.18259E+000	3.57780E+000	10	...........
	41	0.56	9.38391E-001	5.99265E-003	0.00000E+000	5.62345E-003	3.59960E-001	-1.17562E+000	3.57780E+000	10	...........
	42	0.573333	9.44381E-001	5.98923E-003	0.00000E+000	5.65612E-003	3.59960E-001	-1.17183E+000	3.57780E+000	10	...........
	43	0.586667	9.50377E-001	5.99458E-003	0.00000E+000	5.69711E-003	3.59960E-001	-1.18271E+000	3.57780E+000	10	...........
	44	0.6	9.56297E-001	5.99728E-003	0.00000E+000	5.73517E-003	3.59960E-001	-1.17556E+000	3.57780E+000	10	...........
	45	0.613333	9.62190E-001	5.99249E-003	0.00000E+000	5.76591E-003	3.59960E-001	-1.17181E+000	3.57780E+000	10	...........
	46	0.626667	9.68022E-001	5.99247E-003	0.00000E+000	5.80084E-003	3.59960E-001	-1.18264E+000	3.57780E+000	10	...........
	47	0.64	9.73872E-001	5.99402E-003	0.00000E+000	5.83741E-003	3.59960E-001	-1.17576E+000	3.57780E+000	10	...........
	48	0.653333	9.79583E-001	5.99415E-003	0.00000E+000	5.87176E-003	3.59960E-001	-1.17217E+000	3.57780E+000	10	...........
	49	0.666667	9.85261E-001	5.99876E-003	0.00000E+000	5.91034E-003	3.59960E-001	-1.18265E+000	3.57780E+000	10	...........
	50	0.68	9.90894E-001	5.99423E-003	0.00000E+000	5.93965E-003	3.59960E-001	-1.17561E+000	3.57780E+000	10	...........
	51	0.693333	9.96481E-001	5.99809E-003	0.00000E+000	5.97698E-003	3.59960E-001	-1.17195E+000	3.57780E+000	10	...........
	52	0.696667	9.99944E-001	5.98374E-003	0.00000E+000	5.98340E-003	3.59960E-001	-1.18543E+000	3.57780E+000	10	...........
STARTTIMEOFFSET	QUANT	1538.217	Start Time Offset (s)