File: Data/CV_CRGO300517_1/PWRCCD_CRGO300517_1/CHARGE_DISCHARGE/CHARGE_#289.DTA
EXPLAIN
TAG	PWR800_CHARGE
TITLE	LABEL	PWR Cyclic Charge Discharge (Cell) - Charge Step	Test &Identifier
DATE	LABEL	22-6-2017	Date
TIME	LABEL	15:47:29	Time
NOTES	NOTES	3	&Notes...
	supercap test cell
	0.6mg
	6M KOH
PSTAT	PSTAT	IFC5000-01520	Potentiostat
CAPACITY	QUANT	1.00000E-003	Capacity (A-hr)
CELLTYPE	SELECTOR	1	&Cell Type
WORKINGCONNECTION	SELECTOR	0	&Working Lead
MAXCHARGETIME	VARIABLEANDUNITS	1.00000E+002	s	1.00000E+002	second(s)	Max &Charge Time
CHARGECURRENT	QUANT	6.00000E-003	&Charge Current (A)
VOLTAGEFINISH	TWOPARAM	F	1.00000E-003	3.60000E+003	&Voltage Finish	 I (A) < 	Max Time(s)
SAMPLETIME	QUANT	1.00000E-002	Sa&mple Period (s)
CHARGESTOPAT1	MULTIPARAM	4	1.00000E+000	Charge Stop At &1	Voltage > Limit	V
CHARGESTOPAT2	MULTIPARAM	0	0.00000E+000	Charge Stop At &2	None	N/A
AESBHCSELECTOR	TOGGLE	F	Save Both Half Cells
IRCOMP	TOGGLE	F	IR &Measure
EOC	QUANT	0	Open Circuit (V)
SEQUENCER	TOGGLE	TRUE	Run as Sequence
PSTATMODEL	IQUANT	53	Pstat Model
PSTATSECTION	LABEL	IFC5000-01520	Pstat Section
PSTATSERIALNO	LABEL	01520	Pstat Serial Number
CTRLMODE	IQUANT	0	Control Mode
ELECTROMETER	IQUANT	1	RE=0 or CS=1
IESTAB	IQUANT	0	I/E Stability
CASPEED	IQUANT	4	Control Amp Speed
CONVENTION	IQUANT	1	Current Convention
ICHRANGE	IQUANT	2	Ich Range
ICHRANGEMODE	TOGGLE	T	Ich Auto Range
ICHOFFSETENABLE	TOGGLE	F	Ich Offset Enable
ICHOFFSET	QUANT	0	Ich Offset (V)
ICHFILTER	IQUANT	1	Ich Filter
VCHRANGE	IQUANT	2	Vch Range
VCHRANGEMODE	TOGGLE	T	Vch Auto Range
VCHOFFSETENABLE	TOGGLE	F	Vch Offset Enable
VCHOFFSET	QUANT	0	Vch Offset (V)
VCHFILTER	IQUANT	1	Vch Filter
IERANGELOWERLIMIT	IQUANT	9	I/E Range Lower Limit
IERANGEMODE	TOGGLE	F	I/E AutoRange
IERANGE	IQUANT	10	I/E Range
ACHSELECT	IQUANT	1	Ach Select
ACHRANGE	IQUANT	2	Ach Range
ACHOFFSETENABLE	TOGGLE	F	Ach Offset Enable
ACHOFFSET	QUANT	0	Ach Offset (V)
ACHFILTER	IQUANT	1	Ach Filter
CABLEID	IQUANT	14	Cable ID
DCCALDATE	LABEL	20-10-2016	DC Calibration Date
ACCALDATE	LABEL	12/3/2015	AC Calibration Date
FRAMEWORKVERSION	QUANT	7.01	Framework Version
INSTRUMENTVERSION	LABEL	4.00	Instrument Version
CURVE	TABLE	63
	Pt	T	Vf	Im	Vu	Pwr	Sig	Ach	Temp	IERange	Over
	#	s	V	A	V	W	V	V	deg C	#	bits
	0	0.013333	6.15674E-001	5.99368E-003	0.00000E+000	3.69015E-003	3.59960E-001	-1.11335E+000	3.57670E+000	10	...........
	1	0.026667	6.24271E-001	5.99396E-003	0.00000E+000	3.74186E-003	3.59960E-001	-1.10937E+000	3.57678E+000	10	...........
	2	0.04	6.32112E-001	5.99149E-003	0.00000E+000	3.78729E-003	3.59960E-001	-1.10425E+000	3.57690E+000	10	...........
	3	0.053333	6.39607E-001	5.99386E-003	0.00000E+000	3.83372E-003	3.59960E-001	-1.11329E+000	3.57690E+000	10	...........
	4	0.066667	6.46876E-001	5.99597E-003	0.00000E+000	3.87865E-003	3.59960E-001	-1.10954E+000	3.57690E+000	10	...........
	5	0.08	6.53879E-001	5.99180E-003	0.00000E+000	3.91791E-003	3.59960E-001	-1.10447E+000	3.57690E+000	10	...........
	6	0.093333	6.60724E-001	5.99400E-003	0.00000E+000	3.96038E-003	3.59960E-001	-1.11300E+000	3.57690E+000	10	...........
	7	0.106667	6.67511E-001	5.99053E-003	0.00000E+000	3.99874E-003	3.59960E-001	-1.10953E+000	3.57690E+000	10	...........
	8	0.12	6.74241E-001	5.99431E-003	0.00000E+000	4.04161E-003	3.59960E-001	-1.10433E+000	3.57690E+000	10	...........
	9	0.133333	6.80851E-001	5.99612E-003	0.00000E+000	4.08246E-003	3.59960E-001	-1.11294E+000	3.57690E+000	10	...........
	10	0.146667	6.87407E-001	5.99230E-003	0.00000E+000	4.11915E-003	3.59960E-001	-1.10973E+000	3.57690E+000	10	...........
	11	0.16	6.93947E-001	5.99411E-003	0.00000E+000	4.15960E-003	3.59960E-001	-1.10430E+000	3.57690E+000	10	...........
	12	0.173333	7.00387E-001	5.99469E-003	0.00000E+000	4.19860E-003	3.59960E-001	-1.11290E+000	3.57690E+000	10	...........
	13	0.186667	7.06806E-001	5.99069E-003	0.00000E+000	4.23426E-003	3.59960E-001	-1.10975E+000	3.57690E+000	10	...........
	14	0.2	7.13210E-001	5.99605E-003	0.00000E+000	4.27645E-003	3.59960E-001	-1.10426E+000	3.57690E+000	10	...........
	15	0.213333	7.19655E-001	5.99519E-003	0.00000E+000	4.31447E-003	3.59960E-001	-1.11229E+000	3.57690E+000	10	...........
	16	0.226667	7.26021E-001	5.99132E-003	0.00000E+000	4.34983E-003	3.59960E-001	-1.10959E+000	3.57690E+000	10	...........
	17	0.24	7.32335E-001	5.99635E-003	0.00000E+000	4.39133E-003	3.59960E-001	-1.10405E+000	3.57690E+000	10	...........
	18	0.253333	7.38676E-001	5.99371E-003	0.00000E+000	4.42741E-003	3.59960E-001	-1.11219E+000	3.57690E+000	10	...........
	19	0.266667	7.45076E-001	5.98973E-003	0.00000E+000	4.46281E-003	3.59960E-001	-1.10971E+000	3.57690E+000	10	...........
	20	0.28	7.51310E-001	5.99421E-003	0.00000E+000	4.50351E-003	3.59960E-001	-1.10408E+000	3.57690E+000	10	...........
	21	0.293333	7.57587E-001	5.99140E-003	0.00000E+000	4.53901E-003	3.59960E-001	-1.11225E+000	3.57690E+000	10	...........
	22	0.306667	7.63862E-001	5.99229E-003	0.00000E+000	4.57728E-003	3.59960E-001	-1.10972E+000	3.57690E+000	10	...........
	23	0.32	7.70143E-001	5.99373E-003	0.00000E+000	4.61603E-003	3.59960E-001	-1.10382E+000	3.57690E+000	10	...........
	24	0.333333	7.76368E-001	5.99513E-003	0.00000E+000	4.65442E-003	3.59960E-001	-1.11194E+000	3.57690E+000	10	...........
	25	0.346667	7.82590E-001	5.99076E-003	0.00000E+000	4.68830E-003	3.59960E-001	-1.10980E+000	3.57690E+000	10	...........
	26	0.36	7.88807E-001	5.99741E-003	0.00000E+000	4.73080E-003	3.59960E-001	-1.10394E+000	3.57690E+000	10	...........
	27	0.373333	7.95053E-001	5.99238E-003	0.00000E+000	4.76426E-003	3.59960E-001	-1.11165E+000	3.57690E+000	10	...........
	28	0.386667	8.01278E-001	5.99215E-003	0.00000E+000	4.80138E-003	3.59960E-001	-1.10994E+000	3.57690E+000	10	...........
	29	0.4	8.07449E-001	5.99479E-003	0.00000E+000	4.84049E-003	3.59960E-001	-1.10391E+000	3.57690E+000	10	...........
	30	0.413333	8.13631E-001	5.99807E-003	0.00000E+000	4.88022E-003	3.59960E-001	-1.11180E+000	3.57690E+000	10	...........
	31	0.426667	8.19837E-001	5.99282E-003	0.00000E+000	4.91314E-003	3.59960E-001	-1.11028E+000	3.57690E+000	10	...........
	32	0.44	8.26003E-001	5.99632E-003	0.00000E+000	4.95298E-003	3.59960E-001	-1.10406E+000	3.57690E+000	10	...........
	33	0.453333	8.32136E-001	5.99474E-003	0.00000E+000	4.98844E-003	3.59960E-001	-1.11158E+000	3.57690E+000	10	...........
	34	0.466667	8.38262E-001	5.99640E-003	0.00000E+000	5.02655E-003	3.59960E-001	-1.11030E+000	3.57690E+000	10	...........
	35	0.48	8.44399E-001	5.99465E-003	0.00000E+000	5.06187E-003	3.59960E-001	-1.10392E+000	3.57690E+000	10	...........
	36	0.493333	8.50551E-001	5.98794E-003	0.00000E+000	5.09305E-003	3.59960E-001	-1.11151E+000	3.57690E+000	10	...........
	37	0.506667	8.56661E-001	5.99481E-003	0.00000E+000	5.13552E-003	3.59960E-001	-1.11024E+000	3.57690E+000	10	...........
	38	0.52	8.62794E-001	5.99295E-003	0.00000E+000	5.17068E-003	3.59960E-001	-1.10355E+000	3.57690E+000	10	...........
	39	0.533333	8.68881E-001	5.99447E-003	0.00000E+000	5.20848E-003	3.59960E-001	-1.11073E+000	3.57690E+000	10	...........
	40	0.546667	8.74990E-001	5.99185E-003	0.00000E+000	5.24281E-003	3.59960E-001	-1.11019E+000	3.57690E+000	10	...........
	41	0.56	8.81026E-001	5.98904E-003	0.00000E+000	5.27650E-003	3.59960E-001	-1.10372E+000	3.57690E+000	10	...........
	42	0.573333	8.87048E-001	5.99454E-003	0.00000E+000	5.31745E-003	3.59960E-001	-1.11074E+000	3.57690E+000	10	...........
	43	0.586667	8.93057E-001	5.99604E-003	0.00000E+000	5.35481E-003	3.59960E-001	-1.10989E+000	3.57690E+000	10	...........
	44	0.6	8.99028E-001	5.99510E-003	0.00000E+000	5.38976E-003	3.59960E-001	-1.10334E+000	3.57690E+000	10	...........
	45	0.613333	9.04993E-001	5.99348E-003	0.00000E+000	5.42405E-003	3.59960E-001	-1.11064E+000	3.57690E+000	10	...........
	46	0.626667	9.10970E-001	5.99360E-003	0.00000E+000	5.45999E-003	3.59960E-001	-1.11040E+000	3.57690E+000	10	...........
	47	0.64	9.16883E-001	5.99319E-003	0.00000E+000	5.49505E-003	3.59960E-001	-1.10335E+000	3.57690E+000	10	...........
	48	0.653333	9.22804E-001	5.99785E-003	0.00000E+000	5.53484E-003	3.59960E-001	-1.11037E+000	3.57690E+000	10	...........
	49	0.666667	9.28649E-001	5.99495E-003	0.00000E+000	5.56720E-003	3.59960E-001	-1.11021E+000	3.57690E+000	10	...........
	50	0.68	9.34469E-001	5.99602E-003	0.00000E+000	5.60310E-003	3.59960E-001	-1.10335E+000	3.57690E+000	10	...........
	51	0.693333	9.40271E-001	5.99392E-003	0.00000E+000	5.63590E-003	3.59960E-001	-1.11035E+000	3.57690E+000	10	...........
	52	0.706667	9.46059E-001	5.99702E-003	0.00000E+000	5.67354E-003	3.59960E-001	-1.11032E+000	3.57690E+000	10	...........
	53	0.72	9.51797E-001	5.99034E-003	0.00000E+000	5.70159E-003	3.59960E-001	-1.10322E+000	3.57690E+000	10	...........
	54	0.733333	9.57486E-001	5.99159E-003	0.00000E+000	5.73686E-003	3.59960E-001	-1.11014E+000	3.57690E+000	10	...........
	55	0.746667	9.63122E-001	5.99307E-003	0.00000E+000	5.77206E-003	3.59960E-001	-1.11069E+000	3.57690E+000	10	...........
	56	0.76	9.68751E-001	5.99457E-003	0.00000E+000	5.80725E-003	3.59960E-001	-1.10346E+000	3.57690E+000	10	...........
	57	0.773333	9.74363E-001	5.99351E-003	0.00000E+000	5.83986E-003	3.59960E-001	-1.11004E+000	3.57690E+000	10	...........
	58	0.786667	9.79934E-001	5.99199E-003	0.00000E+000	5.87175E-003	3.59960E-001	-1.11051E+000	3.57690E+000	10	...........
	59	0.8	9.85477E-001	5.99792E-003	0.00000E+000	5.91082E-003	3.59960E-001	-1.10338E+000	3.57690E+000	10	...........
	60	0.813333	9.90902E-001	5.99179E-003	0.00000E+000	5.93727E-003	3.59960E-001	-1.10992E+000	3.57690E+000	10	...........
	61	0.826667	9.96326E-001	5.99331E-003	0.00000E+000	5.97129E-003	3.59960E-001	-1.11058E+000	3.57690E+000	10	...........
	62	0.83	9.99689E-001	5.98749E-003	0.00000E+000	5.98563E-003	3.59960E-001	-1.11039E+000	3.57690E+000	10	...........
STARTTIMEOFFSET	QUANT	522.9866	Start Time Offset (s)