File: Data/CV_CRGO300517_1/PWRCCD_CRGO300517_1/CHARGE_DISCHARGE/CHARGE_#691.DTA
EXPLAIN
TAG	PWR800_CHARGE
TITLE	LABEL	PWR Cyclic Charge Discharge (Cell) - Charge Step	Test &Identifier
DATE	LABEL	22-6-2017	Date
TIME	LABEL	16:03:13	Time
NOTES	NOTES	3	&Notes...
	supercap test cell
	0.6mg
	6M KOH
PSTAT	PSTAT	IFC5000-01520	Potentiostat
CAPACITY	QUANT	1.00000E-003	Capacity (A-hr)
CELLTYPE	SELECTOR	1	&Cell Type
WORKINGCONNECTION	SELECTOR	0	&Working Lead
MAXCHARGETIME	VARIABLEANDUNITS	1.00000E+002	s	1.00000E+002	second(s)	Max &Charge Time
CHARGECURRENT	QUANT	6.00000E-003	&Charge Current (A)
VOLTAGEFINISH	TWOPARAM	F	1.00000E-003	3.60000E+003	&Voltage Finish	 I (A) < 	Max Time(s)
SAMPLETIME	QUANT	1.00000E-002	Sa&mple Period (s)
CHARGESTOPAT1	MULTIPARAM	4	1.00000E+000	Charge Stop At &1	Voltage > Limit	V
CHARGESTOPAT2	MULTIPARAM	0	0.00000E+000	Charge Stop At &2	None	N/A
AESBHCSELECTOR	TOGGLE	F	Save Both Half Cells
IRCOMP	TOGGLE	F	IR &Measure
EOC	QUANT	0	Open Circuit (V)
SEQUENCER	TOGGLE	TRUE	Run as Sequence
PSTATMODEL	IQUANT	53	Pstat Model
PSTATSECTION	LABEL	IFC5000-01520	Pstat Section
PSTATSERIALNO	LABEL	01520	Pstat Serial Number
CTRLMODE	IQUANT	0	Control Mode
ELECTROMETER	IQUANT	1	RE=0 or CS=1
IESTAB	IQUANT	0	I/E Stability
CASPEED	IQUANT	4	Control Amp Speed
CONVENTION	IQUANT	1	Current Convention
ICHRANGE	IQUANT	2	Ich Range
ICHRANGEMODE	TOGGLE	T	Ich Auto Range
ICHOFFSETENABLE	TOGGLE	F	Ich Offset Enable
ICHOFFSET	QUANT	0	Ich Offset (V)
ICHFILTER	IQUANT	1	Ich Filter
VCHRANGE	IQUANT	2	Vch Range
VCHRANGEMODE	TOGGLE	T	Vch Auto Range
VCHOFFSETENABLE	TOGGLE	F	Vch Offset Enable
VCHOFFSET	QUANT	0	Vch Offset (V)
VCHFILTER	IQUANT	1	Vch Filter
IERANGELOWERLIMIT	IQUANT	9	I/E Range Lower Limit
IERANGEMODE	TOGGLE	F	I/E AutoRange
IERANGE	IQUANT	10	I/E Range
ACHSELECT	IQUANT	1	Ach Select
ACHRANGE	IQUANT	2	Ach Range
ACHOFFSETENABLE	TOGGLE	F	Ach Offset Enable
ACHOFFSET	QUANT	0	Ach Offset (V)
ACHFILTER	IQUANT	1	Ach Filter
CABLEID	IQUANT	14	Cable ID
DCCALDATE	LABEL	20-10-2016	DC Calibration Date
ACCALDATE	LABEL	12/3/2015	AC Calibration Date
FRAMEWORKVERSION	QUANT	7.01	Framework Version
INSTRUMENTVERSION	LABEL	4.00	Instrument Version
CURVE	TABLE	56
	Pt	T	Vf	Im	Vu	Pwr	Sig	Ach	Temp	IERange	Over
	#	s	V	A	V	W	V	V	deg C	#	bits
	0	0.013333	6.42354E-001	5.99058E-003	0.00000E+000	3.84807E-003	3.59960E-001	-1.14908E+000	3.57690E+000	10	...........
	1	0.026667	6.51421E-001	5.99145E-003	0.00000E+000	3.90296E-003	3.59960E-001	-1.16008E+000	3.57690E+000	10	...........
	2	0.04	6.59784E-001	5.99256E-003	0.00000E+000	3.95380E-003	3.59960E-001	-1.15058E+000	3.57690E+000	10	...........
	3	0.053333	6.67737E-001	5.99675E-003	0.00000E+000	4.00426E-003	3.59960E-001	-1.14847E+000	3.57690E+000	10	...........
	4	0.066667	6.75349E-001	5.99320E-003	0.00000E+000	4.04750E-003	3.59960E-001	-1.15982E+000	3.57690E+000	10	...........
	5	0.08	6.82812E-001	5.99548E-003	0.00000E+000	4.09378E-003	3.59960E-001	-1.15040E+000	3.57690E+000	10	...........
	6	0.093333	6.90074E-001	5.99175E-003	0.00000E+000	4.13475E-003	3.59960E-001	-1.14848E+000	3.57690E+000	10	...........
	7	0.106667	6.97245E-001	5.99329E-003	0.00000E+000	4.17879E-003	3.59960E-001	-1.15966E+000	3.57690E+000	10	...........
	8	0.12	7.04345E-001	5.99344E-003	0.00000E+000	4.22145E-003	3.59960E-001	-1.15018E+000	3.57690E+000	10	...........
	9	0.133333	7.11316E-001	5.99854E-003	0.00000E+000	4.26686E-003	3.59960E-001	-1.14811E+000	3.57690E+000	10	...........
	10	0.146667	7.18316E-001	5.98771E-003	0.00000E+000	4.30107E-003	3.59960E-001	-1.15938E+000	3.57690E+000	10	...........
	11	0.16	7.25246E-001	5.99407E-003	0.00000E+000	4.34718E-003	3.59960E-001	-1.15025E+000	3.57690E+000	10	...........
	12	0.173333	7.32096E-001	5.99128E-003	0.00000E+000	4.38619E-003	3.59960E-001	-1.14823E+000	3.57690E+000	10	...........
	13	0.186667	7.38915E-001	5.99444E-003	0.00000E+000	4.42938E-003	3.59960E-001	-1.15942E+000	3.57690E+000	10	...........
	14	0.2	7.45684E-001	5.99269E-003	0.00000E+000	4.46865E-003	3.59960E-001	-1.14960E+000	3.57690E+000	10	...........
	15	0.213333	7.52391E-001	5.99169E-003	0.00000E+000	4.50810E-003	3.59960E-001	-1.14813E+000	3.57690E+000	10	...........
	16	0.226667	7.59119E-001	5.99099E-003	0.00000E+000	4.54787E-003	3.59960E-001	-1.15954E+000	3.57690E+000	10	...........
	17	0.24	7.65814E-001	5.99361E-003	0.00000E+000	4.58999E-003	3.59960E-001	-1.14996E+000	3.57690E+000	10	...........
	18	0.253333	7.72537E-001	5.99475E-003	0.00000E+000	4.63117E-003	3.59960E-001	-1.14832E+000	3.57690E+000	10	...........
	19	0.266667	7.79174E-001	5.99105E-003	0.00000E+000	4.66807E-003	3.59960E-001	-1.15942E+000	3.57690E+000	10	...........
	20	0.28	7.85815E-001	5.99230E-003	0.00000E+000	4.70884E-003	3.59960E-001	-1.14951E+000	3.57690E+000	10	...........
	21	0.293333	7.92450E-001	5.98861E-003	0.00000E+000	4.74567E-003	3.59960E-001	-1.14814E+000	3.57690E+000	10	...........
	22	0.306667	7.99035E-001	5.99766E-003	0.00000E+000	4.79234E-003	3.59960E-001	-1.15969E+000	3.57690E+000	10	...........
	23	0.32	8.05531E-001	5.98793E-003	0.00000E+000	4.82346E-003	3.59960E-001	-1.14975E+000	3.57690E+000	10	...........
	24	0.333333	8.12088E-001	5.99647E-003	0.00000E+000	4.86966E-003	3.59960E-001	-1.14818E+000	3.57690E+000	10	...........
	25	0.346667	8.18596E-001	5.99140E-003	0.00000E+000	4.90454E-003	3.59960E-001	-1.15956E+000	3.57690E+000	10	...........
	26	0.36	8.25122E-001	5.99047E-003	0.00000E+000	4.94287E-003	3.59960E-001	-1.14933E+000	3.57690E+000	10	...........
	27	0.373333	8.31604E-001	5.99801E-003	0.00000E+000	4.98797E-003	3.59960E-001	-1.14790E+000	3.57690E+000	10	...........
	28	0.386667	8.38099E-001	5.99298E-003	0.00000E+000	5.02271E-003	3.59960E-001	-1.15906E+000	3.57690E+000	10	...........
	29	0.4	8.44549E-001	5.99164E-003	0.00000E+000	5.06024E-003	3.59960E-001	-1.14881E+000	3.57690E+000	10	...........
	30	0.413333	8.50990E-001	5.99642E-003	0.00000E+000	5.10289E-003	3.59960E-001	-1.14774E+000	3.57690E+000	10	...........
	31	0.426667	8.57400E-001	5.99064E-003	0.00000E+000	5.13638E-003	3.59960E-001	-1.15888E+000	3.57690E+000	10	...........
	32	0.44	8.63745E-001	5.99216E-003	0.00000E+000	5.17570E-003	3.59960E-001	-1.14914E+000	3.57690E+000	10	...........
	33	0.453333	8.70135E-001	5.99899E-003	0.00000E+000	5.21993E-003	3.59960E-001	-1.14792E+000	3.57690E+000	10	...........
	34	0.466667	8.76446E-001	5.99508E-003	0.00000E+000	5.25437E-003	3.59960E-001	-1.15895E+000	3.57690E+000	10	...........
	35	0.48	8.82791E-001	5.99653E-003	0.00000E+000	5.29368E-003	3.59960E-001	-1.14877E+000	3.57690E+000	10	...........
	36	0.493333	8.89065E-001	5.99464E-003	0.00000E+000	5.32962E-003	3.59960E-001	-1.14780E+000	3.57690E+000	10	...........
	37	0.506667	8.95313E-001	6.00001E-003	0.00000E+000	5.37188E-003	3.59960E-001	-1.15902E+000	3.57690E+000	10	...........
	38	0.52	9.01516E-001	5.99608E-003	0.00000E+000	5.40556E-003	3.59960E-001	-1.14876E+000	3.57690E+000	10	...........
	39	0.533333	9.07715E-001	5.99143E-003	0.00000E+000	5.43851E-003	3.59960E-001	-1.14752E+000	3.57690E+000	10	...........
	40	0.546667	9.13831E-001	5.99452E-003	0.00000E+000	5.47798E-003	3.59960E-001	-1.15872E+000	3.57690E+000	10	...........
	41	0.56	9.20019E-001	5.99204E-003	0.00000E+000	5.51279E-003	3.59960E-001	-1.14874E+000	3.57690E+000	10	...........
	42	0.573333	9.26120E-001	5.99118E-003	0.00000E+000	5.54856E-003	3.59960E-001	-1.14794E+000	3.57690E+000	10	...........
	43	0.586667	9.32106E-001	5.99161E-003	0.00000E+000	5.58482E-003	3.59960E-001	-1.15886E+000	3.57690E+000	10	...........
	44	0.6	9.38097E-001	5.99324E-003	0.00000E+000	5.62224E-003	3.59960E-001	-1.14863E+000	3.57690E+000	10	...........
	45	0.613333	9.44083E-001	5.99454E-003	0.00000E+000	5.65935E-003	3.59960E-001	-1.14780E+000	3.57690E+000	10	...........
	46	0.626667	9.49998E-001	5.99587E-003	0.00000E+000	5.69606E-003	3.59960E-001	-1.15892E+000	3.57690E+000	10	...........
	47	0.64	9.55855E-001	5.99488E-003	0.00000E+000	5.73023E-003	3.59960E-001	-1.14883E+000	3.57690E+000	10	...........
	48	0.653333	9.61662E-001	5.99459E-003	0.00000E+000	5.76478E-003	3.59960E-001	-1.14798E+000	3.57690E+000	10	...........
	49	0.666667	9.67421E-001	5.98823E-003	0.00000E+000	5.79314E-003	3.59960E-001	-1.15876E+000	3.57690E+000	10	...........
	50	0.68	9.73184E-001	5.99275E-003	0.00000E+000	5.83205E-003	3.59960E-001	-1.14830E+000	3.57690E+000	10	...........
	51	0.693333	9.78850E-001	5.99327E-003	0.00000E+000	5.86651E-003	3.59960E-001	-1.14767E+000	3.57690E+000	10	...........
	52	0.706667	9.84460E-001	5.99688E-003	0.00000E+000	5.90368E-003	3.59960E-001	-1.15863E+000	3.57690E+000	10	...........
	53	0.72	9.90059E-001	5.99188E-003	0.00000E+000	5.93232E-003	3.59960E-001	-1.14809E+000	3.57690E+000	10	...........
	54	0.733333	9.95642E-001	5.99308E-003	0.00000E+000	5.96697E-003	3.59960E-001	-1.14736E+000	3.57690E+000	10	...........
	55	0.738333	9.99440E-001	5.99657E-003	0.00000E+000	5.99322E-003	3.59960E-001	-1.15819E+000	3.57690E+000	10	...........
STARTTIMEOFFSET	QUANT	1146.002	Start Time Offset (s)