File: Data/CV_CRGO300517_1/PWRCCD_CRGO300517_1/CHARGE_DISCHARGE/CHARGE_#965.DTA
EXPLAIN
TAG	PWR800_CHARGE
TITLE	LABEL	PWR Cyclic Charge Discharge (Cell) - Charge Step	Test &Identifier
DATE	LABEL	22-6-2017	Date
TIME	LABEL	16:13:22	Time
NOTES	NOTES	3	&Notes...
	supercap test cell
	0.6mg
	6M KOH
PSTAT	PSTAT	IFC5000-01520	Potentiostat
CAPACITY	QUANT	1.00000E-003	Capacity (A-hr)
CELLTYPE	SELECTOR	1	&Cell Type
WORKINGCONNECTION	SELECTOR	0	&Working Lead
MAXCHARGETIME	VARIABLEANDUNITS	1.00000E+002	s	1.00000E+002	second(s)	Max &Charge Time
CHARGECURRENT	QUANT	6.00000E-003	&Charge Current (A)
VOLTAGEFINISH	TWOPARAM	F	1.00000E-003	3.60000E+003	&Voltage Finish	 I (A) < 	Max Time(s)
SAMPLETIME	QUANT	1.00000E-002	Sa&mple Period (s)
CHARGESTOPAT1	MULTIPARAM	4	1.00000E+000	Charge Stop At &1	Voltage > Limit	V
CHARGESTOPAT2	MULTIPARAM	0	0.00000E+000	Charge Stop At &2	None	N/A
AESBHCSELECTOR	TOGGLE	F	Save Both Half Cells
IRCOMP	TOGGLE	F	IR &Measure
EOC	QUANT	0	Open Circuit (V)
SEQUENCER	TOGGLE	TRUE	Run as Sequence
PSTATMODEL	IQUANT	53	Pstat Model
PSTATSECTION	LABEL	IFC5000-01520	Pstat Section
PSTATSERIALNO	LABEL	01520	Pstat Serial Number
CTRLMODE	IQUANT	0	Control Mode
ELECTROMETER	IQUANT	1	RE=0 or CS=1
IESTAB	IQUANT	0	I/E Stability
CASPEED	IQUANT	4	Control Amp Speed
CONVENTION	IQUANT	1	Current Convention
ICHRANGE	IQUANT	2	Ich Range
ICHRANGEMODE	TOGGLE	T	Ich Auto Range
ICHOFFSETENABLE	TOGGLE	F	Ich Offset Enable
ICHOFFSET	QUANT	0	Ich Offset (V)
ICHFILTER	IQUANT	1	Ich Filter
VCHRANGE	IQUANT	2	Vch Range
VCHRANGEMODE	TOGGLE	T	Vch Auto Range
VCHOFFSETENABLE	TOGGLE	F	Vch Offset Enable
VCHOFFSET	QUANT	0	Vch Offset (V)
VCHFILTER	IQUANT	1	Vch Filter
IERANGELOWERLIMIT	IQUANT	9	I/E Range Lower Limit
IERANGEMODE	TOGGLE	F	I/E AutoRange
IERANGE	IQUANT	10	I/E Range
ACHSELECT	IQUANT	1	Ach Select
ACHRANGE	IQUANT	2	Ach Range
ACHOFFSETENABLE	TOGGLE	F	Ach Offset Enable
ACHOFFSET	QUANT	0	Ach Offset (V)
ACHFILTER	IQUANT	1	Ach Filter
CABLEID	IQUANT	14	Cable ID
DCCALDATE	LABEL	20-10-2016	DC Calibration Date
ACCALDATE	LABEL	12/3/2015	AC Calibration Date
FRAMEWORKVERSION	QUANT	7.01	Framework Version
INSTRUMENTVERSION	LABEL	4.00	Instrument Version
CURVE	TABLE	53
	Pt	T	Vf	Im	Vu	Pwr	Sig	Ach	Temp	IERange	Over
	#	s	V	A	V	W	V	V	deg C	#	bits
	0	0.013333	6.56273E-001	5.99305E-003	0.00000E+000	3.93308E-003	3.59960E-001	-1.17569E+000	3.57660E+000	10	...........
	1	0.026667	6.65595E-001	5.99433E-003	0.00000E+000	3.98980E-003	3.59960E-001	-1.18549E+000	3.57660E+000	10	...........
	2	0.04	6.74156E-001	6.00026E-003	0.00000E+000	4.04511E-003	3.59960E-001	-1.17470E+000	3.57660E+000	10	...........
	3	0.053333	6.82290E-001	5.99608E-003	0.00000E+000	4.09106E-003	3.59960E-001	-1.17544E+000	3.57660E+000	10	...........
	4	0.066667	6.90137E-001	5.98739E-003	0.00000E+000	4.13212E-003	3.59960E-001	-1.18514E+000	3.57660E+000	10	...........
	5	0.08	6.97770E-001	5.99153E-003	0.00000E+000	4.18071E-003	3.59960E-001	-1.17449E+000	3.57660E+000	10	...........
	6	0.093333	7.05259E-001	5.99256E-003	0.00000E+000	4.22631E-003	3.59960E-001	-1.17563E+000	3.57660E+000	10	...........
	7	0.106667	7.12589E-001	5.99524E-003	0.00000E+000	4.27214E-003	3.59960E-001	-1.18495E+000	3.57660E+000	10	...........
	8	0.12	7.19878E-001	5.99781E-003	0.00000E+000	4.31769E-003	3.59960E-001	-1.17419E+000	3.57660E+000	10	...........
	9	0.133333	7.27071E-001	5.99303E-003	0.00000E+000	4.35736E-003	3.59960E-001	-1.17526E+000	3.57660E+000	10	...........
	10	0.146667	7.34191E-001	5.99498E-003	0.00000E+000	4.40146E-003	3.59960E-001	-1.18484E+000	3.57660E+000	10	...........
	11	0.16	7.41281E-001	5.99399E-003	0.00000E+000	4.44323E-003	3.59960E-001	-1.17429E+000	3.57660E+000	10	...........
	12	0.173333	7.48333E-001	5.99183E-003	0.00000E+000	4.48389E-003	3.59960E-001	-1.17528E+000	3.57660E+000	10	...........
	13	0.186667	7.55345E-001	5.99111E-003	0.00000E+000	4.52535E-003	3.59960E-001	-1.18468E+000	3.57660E+000	10	...........
	14	0.2	7.62270E-001	5.99871E-003	0.00000E+000	4.57264E-003	3.59960E-001	-1.17404E+000	3.57660E+000	10	...........
	15	0.213333	7.69172E-001	5.99424E-003	0.00000E+000	4.61060E-003	3.59960E-001	-1.17529E+000	3.57660E+000	10	...........
	16	0.226667	7.76055E-001	5.99821E-003	0.00000E+000	4.65494E-003	3.59960E-001	-1.18473E+000	3.57660E+000	10	...........
	17	0.24	7.82929E-001	5.99668E-003	0.00000E+000	4.69497E-003	3.59960E-001	-1.17397E+000	3.57660E+000	10	...........
	18	0.253333	7.89706E-001	5.99733E-003	0.00000E+000	4.73613E-003	3.59960E-001	-1.17527E+000	3.57660E+000	10	...........
	19	0.266667	7.96566E-001	5.99614E-003	0.00000E+000	4.77632E-003	3.59960E-001	-1.18449E+000	3.57660E+000	10	...........
	20	0.28	8.03318E-001	5.99962E-003	0.00000E+000	4.81960E-003	3.59960E-001	-1.17402E+000	3.57660E+000	10	...........
	21	0.293333	8.10024E-001	5.99415E-003	0.00000E+000	4.85540E-003	3.59960E-001	-1.17533E+000	3.57660E+000	10	...........
	22	0.306667	8.16758E-001	5.99469E-003	0.00000E+000	4.89621E-003	3.59960E-001	-1.18475E+000	3.57660E+000	10	...........
	23	0.32	8.23432E-001	5.99119E-003	0.00000E+000	4.93334E-003	3.59960E-001	-1.17388E+000	3.57660E+000	10	...........
	24	0.333333	8.30071E-001	5.99067E-003	0.00000E+000	4.97268E-003	3.59960E-001	-1.17510E+000	3.57660E+000	10	...........
	25	0.346667	8.36715E-001	5.99575E-003	0.00000E+000	5.01674E-003	3.59960E-001	-1.18424E+000	3.57660E+000	10	...........
	26	0.36	8.43330E-001	5.99631E-003	0.00000E+000	5.05686E-003	3.59960E-001	-1.17360E+000	3.57660E+000	10	...........
	27	0.373333	8.49927E-001	5.99516E-003	0.00000E+000	5.09545E-003	3.59960E-001	-1.17495E+000	3.57660E+000	10	...........
	28	0.386667	8.56477E-001	5.99546E-003	0.00000E+000	5.13497E-003	3.59960E-001	-1.18407E+000	3.57660E+000	10	...........
	29	0.4	8.63002E-001	5.99390E-003	0.00000E+000	5.17274E-003	3.59960E-001	-1.17326E+000	3.57660E+000	10	...........
	30	0.413333	8.69498E-001	5.99551E-003	0.00000E+000	5.21309E-003	3.59960E-001	-1.17480E+000	3.57660E+000	10	...........
	31	0.426667	8.75983E-001	5.99540E-003	0.00000E+000	5.25187E-003	3.59960E-001	-1.18389E+000	3.57660E+000	10	...........
	32	0.44	8.82385E-001	5.99882E-003	0.00000E+000	5.29327E-003	3.59960E-001	-1.17336E+000	3.57660E+000	10	...........
	33	0.453333	8.88789E-001	5.99425E-003	0.00000E+000	5.32762E-003	3.59960E-001	-1.17471E+000	3.57660E+000	10	...........
	34	0.466667	8.95178E-001	5.99304E-003	0.00000E+000	5.36484E-003	3.59960E-001	-1.18374E+000	3.57660E+000	10	...........
	35	0.48	9.01519E-001	5.99510E-003	0.00000E+000	5.40469E-003	3.59960E-001	-1.17313E+000	3.57660E+000	10	...........
	36	0.493333	9.07809E-001	5.99310E-003	0.00000E+000	5.44059E-003	3.59960E-001	-1.17474E+000	3.57660E+000	10	...........
	37	0.506667	9.14067E-001	5.99746E-003	0.00000E+000	5.48208E-003	3.59960E-001	-1.18387E+000	3.57660E+000	10	...........
	38	0.52	9.20276E-001	5.99535E-003	0.00000E+000	5.51737E-003	3.59960E-001	-1.17321E+000	3.57660E+000	10	...........
	39	0.533333	9.26487E-001	5.99279E-003	0.00000E+000	5.55224E-003	3.59960E-001	-1.17466E+000	3.57660E+000	10	...........
	40	0.546667	9.32569E-001	5.99091E-003	0.00000E+000	5.58694E-003	3.59960E-001	-1.18356E+000	3.57660E+000	10	...........
	41	0.56	9.38626E-001	5.99475E-003	0.00000E+000	5.62683E-003	3.59960E-001	-1.17314E+000	3.57660E+000	10	...........
	42	0.573333	9.44642E-001	5.99544E-003	0.00000E+000	5.66355E-003	3.59960E-001	-1.17493E+000	3.57660E+000	10	...........
	43	0.586667	9.50642E-001	5.99331E-003	0.00000E+000	5.69749E-003	3.59960E-001	-1.18366E+000	3.57660E+000	10	...........
	44	0.6	9.56560E-001	5.99471E-003	0.00000E+000	5.73430E-003	3.59960E-001	-1.17312E+000	3.57660E+000	10	...........
	45	0.613333	9.62385E-001	5.99124E-003	0.00000E+000	5.76588E-003	3.59960E-001	-1.17498E+000	3.57660E+000	10	...........
	46	0.626667	9.68208E-001	5.99106E-003	0.00000E+000	5.80059E-003	3.59960E-001	-1.18384E+000	3.57660E+000	10	...........
	47	0.64	9.74023E-001	5.99249E-003	0.00000E+000	5.83682E-003	3.59960E-001	-1.17336E+000	3.57660E+000	10	...........
	48	0.653333	9.79788E-001	5.99695E-003	0.00000E+000	5.87574E-003	3.59960E-001	-1.17496E+000	3.57660E+000	10	...........
	49	0.666667	9.85451E-001	5.99121E-003	0.00000E+000	5.90405E-003	3.59960E-001	-1.18368E+000	3.57660E+000	10	...........
	50	0.68	9.91048E-001	5.99866E-003	0.00000E+000	5.94496E-003	3.59960E-001	-1.17281E+000	3.57660E+000	10	...........
	51	0.693333	9.96585E-001	5.99481E-003	0.00000E+000	5.97434E-003	3.59960E-001	-1.17476E+000	3.57660E+000	10	...........
	52	0.696667	1.00003E+000	5.99930E-003	0.00000E+000	5.99950E-003	3.59960E-001	-1.17684E+000	3.57660E+000	10	...........
STARTTIMEOFFSET	QUANT	1536.828	Start Time Offset (s)