File: Data/CV_CRGO300517_1/PWRCCD_CRGO300517_1/CHARGE_DISCHARGE/CHARGE_#619.DTA
EXPLAIN
TAG	PWR800_CHARGE
TITLE	LABEL	PWR Cyclic Charge Discharge (Cell) - Charge Step	Test &Identifier
DATE	LABEL	22-6-2017	Date
TIME	LABEL	16:00:29	Time
NOTES	NOTES	3	&Notes...
	supercap test cell
	0.6mg
	6M KOH
PSTAT	PSTAT	IFC5000-01520	Potentiostat
CAPACITY	QUANT	1.00000E-003	Capacity (A-hr)
CELLTYPE	SELECTOR	1	&Cell Type
WORKINGCONNECTION	SELECTOR	0	&Working Lead
MAXCHARGETIME	VARIABLEANDUNITS	1.00000E+002	s	1.00000E+002	second(s)	Max &Charge Time
CHARGECURRENT	QUANT	6.00000E-003	&Charge Current (A)
VOLTAGEFINISH	TWOPARAM	F	1.00000E-003	3.60000E+003	&Voltage Finish	 I (A) < 	Max Time(s)
SAMPLETIME	QUANT	1.00000E-002	Sa&mple Period (s)
CHARGESTOPAT1	MULTIPARAM	4	1.00000E+000	Charge Stop At &1	Voltage > Limit	V
CHARGESTOPAT2	MULTIPARAM	0	0.00000E+000	Charge Stop At &2	None	N/A
AESBHCSELECTOR	TOGGLE	F	Save Both Half Cells
IRCOMP	TOGGLE	F	IR &Measure
EOC	QUANT	0	Open Circuit (V)
SEQUENCER	TOGGLE	TRUE	Run as Sequence
PSTATMODEL	IQUANT	53	Pstat Model
PSTATSECTION	LABEL	IFC5000-01520	Pstat Section
PSTATSERIALNO	LABEL	01520	Pstat Serial Number
CTRLMODE	IQUANT	0	Control Mode
ELECTROMETER	IQUANT	1	RE=0 or CS=1
IESTAB	IQUANT	0	I/E Stability
CASPEED	IQUANT	4	Control Amp Speed
CONVENTION	IQUANT	1	Current Convention
ICHRANGE	IQUANT	2	Ich Range
ICHRANGEMODE	TOGGLE	T	Ich Auto Range
ICHOFFSETENABLE	TOGGLE	F	Ich Offset Enable
ICHOFFSET	QUANT	0	Ich Offset (V)
ICHFILTER	IQUANT	1	Ich Filter
VCHRANGE	IQUANT	2	Vch Range
VCHRANGEMODE	TOGGLE	T	Vch Auto Range
VCHOFFSETENABLE	TOGGLE	F	Vch Offset Enable
VCHOFFSET	QUANT	0	Vch Offset (V)
VCHFILTER	IQUANT	1	Vch Filter
IERANGELOWERLIMIT	IQUANT	9	I/E Range Lower Limit
IERANGEMODE	TOGGLE	F	I/E AutoRange
IERANGE	IQUANT	10	I/E Range
ACHSELECT	IQUANT	1	Ach Select
ACHRANGE	IQUANT	2	Ach Range
ACHOFFSETENABLE	TOGGLE	F	Ach Offset Enable
ACHOFFSET	QUANT	0	Ach Offset (V)
ACHFILTER	IQUANT	1	Ach Filter
CABLEID	IQUANT	14	Cable ID
DCCALDATE	LABEL	20-10-2016	DC Calibration Date
ACCALDATE	LABEL	12/3/2015	AC Calibration Date
FRAMEWORKVERSION	QUANT	7.01	Framework Version
INSTRUMENTVERSION	LABEL	4.00	Instrument Version
CURVE	TABLE	57
	Pt	T	Vf	Im	Vu	Pwr	Sig	Ach	Temp	IERange	Over
	#	s	V	A	V	W	V	V	deg C	#	bits
	0	0.013333	6.38864E-001	5.99166E-003	0.00000E+000	3.82786E-003	3.59960E-001	-1.14901E+000	3.57720E+000	10	...........
	1	0.026667	6.47893E-001	5.99428E-003	0.00000E+000	3.88365E-003	3.59960E-001	-1.15636E+000	3.57720E+000	10	...........
	2	0.04	6.56127E-001	5.99171E-003	0.00000E+000	3.93132E-003	3.59960E-001	-1.15562E+000	3.57720E+000	10	...........
	3	0.053333	6.63969E-001	5.99129E-003	0.00000E+000	3.97803E-003	3.59960E-001	-1.14834E+000	3.57720E+000	10	...........
	4	0.066667	6.71583E-001	5.99502E-003	0.00000E+000	4.02615E-003	3.59960E-001	-1.15594E+000	3.57720E+000	10	...........
	5	0.08	6.78930E-001	5.99735E-003	0.00000E+000	4.07178E-003	3.59960E-001	-1.15532E+000	3.57720E+000	10	...........
	6	0.093333	6.86148E-001	5.98894E-003	0.00000E+000	4.10930E-003	3.59960E-001	-1.14832E+000	3.57720E+000	10	...........
	7	0.106667	6.93319E-001	5.99569E-003	0.00000E+000	4.15693E-003	3.59960E-001	-1.15606E+000	3.57720E+000	10	...........
	8	0.12	7.00323E-001	5.98978E-003	0.00000E+000	4.19478E-003	3.59960E-001	-1.15518E+000	3.57720E+000	10	...........
	9	0.133333	7.07260E-001	5.99410E-003	0.00000E+000	4.23939E-003	3.59960E-001	-1.14818E+000	3.57720E+000	10	...........
	10	0.146667	7.14111E-001	5.99058E-003	0.00000E+000	4.27794E-003	3.59960E-001	-1.15607E+000	3.57720E+000	10	...........
	11	0.16	7.21037E-001	5.99385E-003	0.00000E+000	4.32179E-003	3.59960E-001	-1.15516E+000	3.57720E+000	10	...........
	12	0.173333	7.27822E-001	5.99544E-003	0.00000E+000	4.36361E-003	3.59960E-001	-1.14817E+000	3.57720E+000	10	...........
	13	0.186667	7.34572E-001	5.99696E-003	0.00000E+000	4.40520E-003	3.59960E-001	-1.15598E+000	3.57720E+000	10	...........
	14	0.2	7.41316E-001	5.99108E-003	0.00000E+000	4.44128E-003	3.59960E-001	-1.15497E+000	3.57720E+000	10	...........
	15	0.213333	7.48026E-001	5.99426E-003	0.00000E+000	4.48386E-003	3.59960E-001	-1.14813E+000	3.57720E+000	10	...........
	16	0.226667	7.54710E-001	5.99669E-003	0.00000E+000	4.52576E-003	3.59960E-001	-1.15602E+000	3.57720E+000	10	...........
	17	0.24	7.61365E-001	5.99538E-003	0.00000E+000	4.56467E-003	3.59960E-001	-1.15470E+000	3.57720E+000	10	...........
	18	0.253333	7.67976E-001	5.99268E-003	0.00000E+000	4.60223E-003	3.59960E-001	-1.14807E+000	3.57720E+000	10	...........
	19	0.266667	7.74573E-001	5.98713E-003	0.00000E+000	4.63747E-003	3.59960E-001	-1.15607E+000	3.57720E+000	10	...........
	20	0.28	7.81217E-001	5.99657E-003	0.00000E+000	4.68462E-003	3.59960E-001	-1.15490E+000	3.57720E+000	10	...........
	21	0.293333	7.87772E-001	5.98697E-003	0.00000E+000	4.71637E-003	3.59960E-001	-1.14819E+000	3.57720E+000	10	...........
	22	0.306667	7.94360E-001	5.99225E-003	0.00000E+000	4.76000E-003	3.59960E-001	-1.15600E+000	3.57720E+000	10	...........
	23	0.32	8.00842E-001	5.99434E-003	0.00000E+000	4.80052E-003	3.59960E-001	-1.15473E+000	3.57720E+000	10	...........
	24	0.333333	8.07305E-001	5.98724E-003	0.00000E+000	4.83353E-003	3.59960E-001	-1.14831E+000	3.57720E+000	10	...........
	25	0.346667	8.13793E-001	5.99363E-003	0.00000E+000	4.87758E-003	3.59960E-001	-1.15606E+000	3.57720E+000	10	...........
	26	0.36	8.20313E-001	5.99079E-003	0.00000E+000	4.91432E-003	3.59960E-001	-1.15486E+000	3.57720E+000	10	...........
	27	0.373333	8.26729E-001	5.99031E-003	0.00000E+000	4.95236E-003	3.59960E-001	-1.14787E+000	3.57720E+000	10	...........
	28	0.386667	8.33201E-001	5.99365E-003	0.00000E+000	4.99391E-003	3.59960E-001	-1.15560E+000	3.57720E+000	10	...........
	29	0.4	8.39616E-001	5.99934E-003	0.00000E+000	5.03714E-003	3.59960E-001	-1.15448E+000	3.57720E+000	10	...........
	30	0.413333	8.46018E-001	5.99116E-003	0.00000E+000	5.06863E-003	3.59960E-001	-1.14796E+000	3.57720E+000	10	...........
	31	0.426667	8.52409E-001	5.99161E-003	0.00000E+000	5.10731E-003	3.59960E-001	-1.15568E+000	3.57720E+000	10	...........
	32	0.44	8.58777E-001	5.99460E-003	0.00000E+000	5.14803E-003	3.59960E-001	-1.15439E+000	3.57720E+000	10	...........
	33	0.453333	8.65090E-001	5.99388E-003	0.00000E+000	5.18525E-003	3.59960E-001	-1.14780E+000	3.57720E+000	10	...........
	34	0.466667	8.71428E-001	5.99481E-003	0.00000E+000	5.22405E-003	3.59960E-001	-1.15569E+000	3.57689E+000	10	...........
	35	0.48	8.77715E-001	5.99311E-003	0.00000E+000	5.26025E-003	3.59960E-001	-1.15426E+000	3.57670E+000	10	...........
	36	0.493333	8.84001E-001	5.99585E-003	0.00000E+000	5.30033E-003	3.59960E-001	-1.14784E+000	3.57670E+000	10	...........
	37	0.506667	8.90255E-001	5.99369E-003	0.00000E+000	5.33591E-003	3.59960E-001	-1.15555E+000	3.57670E+000	10	...........
	38	0.52	8.96446E-001	5.99190E-003	0.00000E+000	5.37142E-003	3.59960E-001	-1.15401E+000	3.57670E+000	10	...........
	39	0.533333	9.02584E-001	5.99259E-003	0.00000E+000	5.40882E-003	3.59960E-001	-1.14776E+000	3.57670E+000	10	...........
	40	0.546667	9.08748E-001	5.99427E-003	0.00000E+000	5.44728E-003	3.59960E-001	-1.15573E+000	3.57670E+000	10	...........
	41	0.56	9.14834E-001	5.99308E-003	0.00000E+000	5.48267E-003	3.59960E-001	-1.15417E+000	3.57670E+000	10	...........
	42	0.573333	9.20949E-001	5.99314E-003	0.00000E+000	5.51938E-003	3.59960E-001	-1.14771E+000	3.57670E+000	10	...........
	43	0.586667	9.27016E-001	5.99349E-003	0.00000E+000	5.55606E-003	3.59960E-001	-1.15555E+000	3.57670E+000	10	...........
	44	0.6	9.32989E-001	5.99189E-003	0.00000E+000	5.59037E-003	3.59960E-001	-1.15429E+000	3.57670E+000	10	...........
	45	0.613333	9.38924E-001	5.99671E-003	0.00000E+000	5.63046E-003	3.59960E-001	-1.14795E+000	3.57670E+000	10	...........
	46	0.626667	9.44859E-001	5.99607E-003	0.00000E+000	5.66543E-003	3.59960E-001	-1.15583E+000	3.57670E+000	10	...........
	47	0.64	9.50814E-001	5.99192E-003	0.00000E+000	5.69721E-003	3.59960E-001	-1.15431E+000	3.57670E+000	10	...........
	48	0.653333	9.56637E-001	5.99538E-003	0.00000E+000	5.73540E-003	3.59960E-001	-1.14775E+000	3.57670E+000	10	...........
	49	0.666667	9.62391E-001	5.99511E-003	0.00000E+000	5.76964E-003	3.59960E-001	-1.15565E+000	3.57670E+000	10	...........
	50	0.68	9.68115E-001	5.99385E-003	0.00000E+000	5.80274E-003	3.59960E-001	-1.15433E+000	3.57670E+000	10	...........
	51	0.693333	9.73857E-001	5.99789E-003	0.00000E+000	5.84109E-003	3.59960E-001	-1.14762E+000	3.57670E+000	10	...........
	52	0.706667	9.79493E-001	5.99319E-003	0.00000E+000	5.87028E-003	3.59960E-001	-1.15547E+000	3.57670E+000	10	...........
	53	0.72	9.85111E-001	5.99306E-003	0.00000E+000	5.90383E-003	3.59960E-001	-1.15403E+000	3.57670E+000	10	...........
	54	0.733333	9.90699E-001	5.99341E-003	0.00000E+000	5.93766E-003	3.59960E-001	-1.14750E+000	3.57670E+000	10	...........
	55	0.746667	9.96250E-001	5.99813E-003	0.00000E+000	5.97564E-003	3.59960E-001	-1.15575E+000	3.57670E+000	10	...........
	56	0.75	9.99679E-001	5.99404E-003	0.00000E+000	5.99212E-003	3.59960E-001	-1.13719E+000	3.57670E+000	10	...........
STARTTIMEOFFSET	QUANT	1039.362	Start Time Offset (s)