File: Data/CV_CRGO300517_1/PWRCCD_CRGO300517_1/CHARGE_DISCHARGE/CHARGE_#629.DTA
EXPLAIN
TAG	PWR800_CHARGE
TITLE	LABEL	PWR Cyclic Charge Discharge (Cell) - Charge Step	Test &Identifier
DATE	LABEL	22-6-2017	Date
TIME	LABEL	16:00:52	Time
NOTES	NOTES	3	&Notes...
	supercap test cell
	0.6mg
	6M KOH
PSTAT	PSTAT	IFC5000-01520	Potentiostat
CAPACITY	QUANT	1.00000E-003	Capacity (A-hr)
CELLTYPE	SELECTOR	1	&Cell Type
WORKINGCONNECTION	SELECTOR	0	&Working Lead
MAXCHARGETIME	VARIABLEANDUNITS	1.00000E+002	s	1.00000E+002	second(s)	Max &Charge Time
CHARGECURRENT	QUANT	6.00000E-003	&Charge Current (A)
VOLTAGEFINISH	TWOPARAM	F	1.00000E-003	3.60000E+003	&Voltage Finish	 I (A) < 	Max Time(s)
SAMPLETIME	QUANT	1.00000E-002	Sa&mple Period (s)
CHARGESTOPAT1	MULTIPARAM	4	1.00000E+000	Charge Stop At &1	Voltage > Limit	V
CHARGESTOPAT2	MULTIPARAM	0	0.00000E+000	Charge Stop At &2	None	N/A
AESBHCSELECTOR	TOGGLE	F	Save Both Half Cells
IRCOMP	TOGGLE	F	IR &Measure
EOC	QUANT	0	Open Circuit (V)
SEQUENCER	TOGGLE	TRUE	Run as Sequence
PSTATMODEL	IQUANT	53	Pstat Model
PSTATSECTION	LABEL	IFC5000-01520	Pstat Section
PSTATSERIALNO	LABEL	01520	Pstat Serial Number
CTRLMODE	IQUANT	0	Control Mode
ELECTROMETER	IQUANT	1	RE=0 or CS=1
IESTAB	IQUANT	0	I/E Stability
CASPEED	IQUANT	4	Control Amp Speed
CONVENTION	IQUANT	1	Current Convention
ICHRANGE	IQUANT	2	Ich Range
ICHRANGEMODE	TOGGLE	T	Ich Auto Range
ICHOFFSETENABLE	TOGGLE	F	Ich Offset Enable
ICHOFFSET	QUANT	0	Ich Offset (V)
ICHFILTER	IQUANT	1	Ich Filter
VCHRANGE	IQUANT	2	Vch Range
VCHRANGEMODE	TOGGLE	T	Vch Auto Range
VCHOFFSETENABLE	TOGGLE	F	Vch Offset Enable
VCHOFFSET	QUANT	0	Vch Offset (V)
VCHFILTER	IQUANT	1	Vch Filter
IERANGELOWERLIMIT	IQUANT	9	I/E Range Lower Limit
IERANGEMODE	TOGGLE	F	I/E AutoRange
IERANGE	IQUANT	10	I/E Range
ACHSELECT	IQUANT	1	Ach Select
ACHRANGE	IQUANT	2	Ach Range
ACHOFFSETENABLE	TOGGLE	F	Ach Offset Enable
ACHOFFSET	QUANT	0	Ach Offset (V)
ACHFILTER	IQUANT	1	Ach Filter
CABLEID	IQUANT	14	Cable ID
DCCALDATE	LABEL	20-10-2016	DC Calibration Date
ACCALDATE	LABEL	12/3/2015	AC Calibration Date
FRAMEWORKVERSION	QUANT	7.01	Framework Version
INSTRUMENTVERSION	LABEL	4.00	Instrument Version
CURVE	TABLE	57
	Pt	T	Vf	Im	Vu	Pwr	Sig	Ach	Temp	IERange	Over
	#	s	V	A	V	W	V	V	deg C	#	bits
	0	0.013333	6.38833E-001	5.99665E-003	0.00000E+000	3.83086E-003	3.59960E-001	-1.14376E+000	3.57790E+000	10	...........
	1	0.026667	6.47911E-001	5.99107E-003	0.00000E+000	3.88168E-003	3.59960E-001	-1.14086E+000	3.57790E+000	10	...........
	2	0.04	6.56218E-001	5.99425E-003	0.00000E+000	3.93354E-003	3.59960E-001	-1.15175E+000	3.57790E+000	10	...........
	3	0.053333	6.64112E-001	5.99034E-003	0.00000E+000	3.97826E-003	3.59960E-001	-1.14386E+000	3.57790E+000	10	...........
	4	0.066667	6.71741E-001	5.99206E-003	0.00000E+000	4.02511E-003	3.59960E-001	-1.14075E+000	3.57790E+000	10	...........
	5	0.08	6.79129E-001	5.99444E-003	0.00000E+000	4.07100E-003	3.59960E-001	-1.15196E+000	3.57790E+000	10	...........
	6	0.093333	6.86344E-001	5.99214E-003	0.00000E+000	4.11267E-003	3.59960E-001	-1.14344E+000	3.57790E+000	10	...........
	7	0.106667	6.93498E-001	5.99853E-003	0.00000E+000	4.15997E-003	3.59960E-001	-1.14092E+000	3.57790E+000	10	...........
	8	0.12	7.00533E-001	5.99441E-003	0.00000E+000	4.19928E-003	3.59960E-001	-1.15195E+000	3.57790E+000	10	...........
	9	0.133333	7.07483E-001	5.99385E-003	0.00000E+000	4.24055E-003	3.59960E-001	-1.14350E+000	3.57790E+000	10	...........
	10	0.146667	7.14405E-001	5.99307E-003	0.00000E+000	4.28148E-003	3.59960E-001	-1.14087E+000	3.57790E+000	10	...........
	11	0.16	7.21308E-001	5.99098E-003	0.00000E+000	4.32134E-003	3.59960E-001	-1.15159E+000	3.57790E+000	10	...........
	12	0.173333	7.28106E-001	5.98820E-003	0.00000E+000	4.36004E-003	3.59960E-001	-1.14322E+000	3.57790E+000	10	...........
	13	0.186667	7.34885E-001	5.99913E-003	0.00000E+000	4.40867E-003	3.59960E-001	-1.14088E+000	3.57790E+000	10	...........
	14	0.2	7.41627E-001	5.99134E-003	0.00000E+000	4.44334E-003	3.59960E-001	-1.15179E+000	3.57790E+000	10	...........
	15	0.213333	7.48337E-001	5.99594E-003	0.00000E+000	4.48698E-003	3.59960E-001	-1.14330E+000	3.57790E+000	10	...........
	16	0.226667	7.55018E-001	5.99381E-003	0.00000E+000	4.52544E-003	3.59960E-001	-1.14084E+000	3.57790E+000	10	...........
	17	0.24	7.61682E-001	5.99567E-003	0.00000E+000	4.56679E-003	3.59960E-001	-1.15197E+000	3.57790E+000	10	...........
	18	0.253333	7.68280E-001	5.99563E-003	0.00000E+000	4.60632E-003	3.59960E-001	-1.14329E+000	3.57790E+000	10	...........
	19	0.266667	7.74875E-001	5.99375E-003	0.00000E+000	4.64440E-003	3.59960E-001	-1.14089E+000	3.57790E+000	10	...........
	20	0.28	7.81478E-001	5.98932E-003	0.00000E+000	4.68052E-003	3.59960E-001	-1.15182E+000	3.57790E+000	10	...........
	21	0.293333	7.88043E-001	5.99190E-003	0.00000E+000	4.72188E-003	3.59960E-001	-1.14306E+000	3.57790E+000	10	...........
	22	0.306667	7.94624E-001	5.99152E-003	0.00000E+000	4.76101E-003	3.59960E-001	-1.14089E+000	3.57790E+000	10	...........
	23	0.32	8.01173E-001	5.99370E-003	0.00000E+000	4.80199E-003	3.59960E-001	-1.15175E+000	3.57790E+000	10	...........
	24	0.333333	8.07633E-001	5.99304E-003	0.00000E+000	4.84018E-003	3.59960E-001	-1.14272E+000	3.57790E+000	10	...........
	25	0.346667	8.14126E-001	5.99334E-003	0.00000E+000	4.87934E-003	3.59960E-001	-1.14047E+000	3.57790E+000	10	...........
	26	0.36	8.20669E-001	5.99378E-003	0.00000E+000	4.91891E-003	3.59960E-001	-1.15145E+000	3.57790E+000	10	...........
	27	0.373333	8.27129E-001	5.99537E-003	0.00000E+000	4.95894E-003	3.59960E-001	-1.14222E+000	3.57790E+000	10	...........
	28	0.386667	8.33562E-001	5.99155E-003	0.00000E+000	4.99433E-003	3.59960E-001	-1.14062E+000	3.57790E+000	10	...........
	29	0.4	8.40011E-001	5.99421E-003	0.00000E+000	5.03520E-003	3.59960E-001	-1.15143E+000	3.57790E+000	10	...........
	30	0.413333	8.46397E-001	5.99151E-003	0.00000E+000	5.07120E-003	3.59960E-001	-1.14233E+000	3.57790E+000	10	...........
	31	0.426667	8.52797E-001	5.99310E-003	0.00000E+000	5.11090E-003	3.59960E-001	-1.14028E+000	3.57790E+000	10	...........
	32	0.44	8.59181E-001	5.99681E-003	0.00000E+000	5.15234E-003	3.59960E-001	-1.15134E+000	3.57790E+000	10	...........
	33	0.453333	8.65527E-001	5.99738E-003	0.00000E+000	5.19089E-003	3.59960E-001	-1.14224E+000	3.57790E+000	10	...........
	34	0.466667	8.71843E-001	5.98833E-003	0.00000E+000	5.22088E-003	3.59960E-001	-1.14039E+000	3.57790E+000	10	...........
	35	0.48	8.78115E-001	5.99434E-003	0.00000E+000	5.26372E-003	3.59960E-001	-1.15150E+000	3.57790E+000	10	...........
	36	0.493333	8.84384E-001	5.99515E-003	0.00000E+000	5.30201E-003	3.59960E-001	-1.14181E+000	3.57790E+000	10	...........
	37	0.506667	8.90626E-001	5.99503E-003	0.00000E+000	5.33933E-003	3.59960E-001	-1.14029E+000	3.57790E+000	10	...........
	38	0.52	8.96825E-001	5.99250E-003	0.00000E+000	5.37422E-003	3.59960E-001	-1.15135E+000	3.57790E+000	10	...........
	39	0.533333	9.02984E-001	5.99314E-003	0.00000E+000	5.41172E-003	3.59960E-001	-1.14205E+000	3.57790E+000	10	...........
	40	0.546667	9.09180E-001	5.99061E-003	0.00000E+000	5.44655E-003	3.59960E-001	-1.14046E+000	3.57790E+000	10	...........
	41	0.56	9.15264E-001	5.99094E-003	0.00000E+000	5.48329E-003	3.59960E-001	-1.15137E+000	3.57790E+000	10	...........
	42	0.573333	9.21387E-001	5.99726E-003	0.00000E+000	5.52580E-003	3.59960E-001	-1.14190E+000	3.57790E+000	10	...........
	43	0.586667	9.27431E-001	5.99782E-003	0.00000E+000	5.56256E-003	3.59960E-001	-1.14059E+000	3.57790E+000	10	...........
	44	0.6	9.33416E-001	5.99380E-003	0.00000E+000	5.59471E-003	3.59960E-001	-1.15150E+000	3.57790E+000	10	...........
	45	0.613333	9.39419E-001	5.99153E-003	0.00000E+000	5.62856E-003	3.59960E-001	-1.14189E+000	3.57790E+000	10	...........
	46	0.626667	9.45375E-001	5.99739E-003	0.00000E+000	5.66978E-003	3.59960E-001	-1.14045E+000	3.57790E+000	10	...........
	47	0.64	9.51297E-001	5.99733E-003	0.00000E+000	5.70524E-003	3.59960E-001	-1.15125E+000	3.57800E+000	10	...........
	48	0.653333	9.57136E-001	5.99245E-003	0.00000E+000	5.73558E-003	3.59960E-001	-1.14128E+000	3.57830E+000	10	...........
	49	0.666667	9.62954E-001	5.99562E-003	0.00000E+000	5.77350E-003	3.59960E-001	-1.14035E+000	3.57830E+000	10	...........
	50	0.68	9.68677E-001	5.99260E-003	0.00000E+000	5.80490E-003	3.59960E-001	-1.15103E+000	3.57830E+000	10	...........
	51	0.693333	9.74429E-001	5.99338E-003	0.00000E+000	5.84013E-003	3.59960E-001	-1.14107E+000	3.57830E+000	10	...........
	52	0.706667	9.80089E-001	5.99592E-003	0.00000E+000	5.87654E-003	3.59960E-001	-1.14011E+000	3.57830E+000	10	...........
	53	0.72	9.85656E-001	5.99472E-003	0.00000E+000	5.90873E-003	3.59960E-001	-1.15127E+000	3.57830E+000	10	...........
	54	0.733333	9.91228E-001	5.99860E-003	0.00000E+000	5.94598E-003	3.59960E-001	-1.14132E+000	3.57830E+000	10	...........
	55	0.746667	9.96767E-001	5.99229E-003	0.00000E+000	5.97291E-003	3.59960E-001	-1.14051E+000	3.57830E+000	10	...........
	56	0.75	1.00022E+000	6.00088E-003	0.00000E+000	6.00220E-003	3.59960E-001	-1.14941E+000	3.57830E+000	10	...........
STARTTIMEOFFSET	QUANT	1054.263	Start Time Offset (s)