File: Data/CV_CRGO300517_1/PWRCCD_CRGO300517_1/CHARGE_DISCHARGE/CHARGE_#431.DTA
EXPLAIN
TAG	PWR800_CHARGE
TITLE	LABEL	PWR Cyclic Charge Discharge (Cell) - Charge Step	Test &Identifier
DATE	LABEL	22-6-2017	Date
TIME	LABEL	15:53:12	Time
NOTES	NOTES	3	&Notes...
	supercap test cell
	0.6mg
	6M KOH
PSTAT	PSTAT	IFC5000-01520	Potentiostat
CAPACITY	QUANT	1.00000E-003	Capacity (A-hr)
CELLTYPE	SELECTOR	1	&Cell Type
WORKINGCONNECTION	SELECTOR	0	&Working Lead
MAXCHARGETIME	VARIABLEANDUNITS	1.00000E+002	s	1.00000E+002	second(s)	Max &Charge Time
CHARGECURRENT	QUANT	6.00000E-003	&Charge Current (A)
VOLTAGEFINISH	TWOPARAM	F	1.00000E-003	3.60000E+003	&Voltage Finish	 I (A) < 	Max Time(s)
SAMPLETIME	QUANT	1.00000E-002	Sa&mple Period (s)
CHARGESTOPAT1	MULTIPARAM	4	1.00000E+000	Charge Stop At &1	Voltage > Limit	V
CHARGESTOPAT2	MULTIPARAM	0	0.00000E+000	Charge Stop At &2	None	N/A
AESBHCSELECTOR	TOGGLE	F	Save Both Half Cells
IRCOMP	TOGGLE	F	IR &Measure
EOC	QUANT	0	Open Circuit (V)
SEQUENCER	TOGGLE	TRUE	Run as Sequence
PSTATMODEL	IQUANT	53	Pstat Model
PSTATSECTION	LABEL	IFC5000-01520	Pstat Section
PSTATSERIALNO	LABEL	01520	Pstat Serial Number
CTRLMODE	IQUANT	0	Control Mode
ELECTROMETER	IQUANT	1	RE=0 or CS=1
IESTAB	IQUANT	0	I/E Stability
CASPEED	IQUANT	4	Control Amp Speed
CONVENTION	IQUANT	1	Current Convention
ICHRANGE	IQUANT	2	Ich Range
ICHRANGEMODE	TOGGLE	T	Ich Auto Range
ICHOFFSETENABLE	TOGGLE	F	Ich Offset Enable
ICHOFFSET	QUANT	0	Ich Offset (V)
ICHFILTER	IQUANT	1	Ich Filter
VCHRANGE	IQUANT	2	Vch Range
VCHRANGEMODE	TOGGLE	T	Vch Auto Range
VCHOFFSETENABLE	TOGGLE	F	Vch Offset Enable
VCHOFFSET	QUANT	0	Vch Offset (V)
VCHFILTER	IQUANT	1	Vch Filter
IERANGELOWERLIMIT	IQUANT	9	I/E Range Lower Limit
IERANGEMODE	TOGGLE	F	I/E AutoRange
IERANGE	IQUANT	10	I/E Range
ACHSELECT	IQUANT	1	Ach Select
ACHRANGE	IQUANT	2	Ach Range
ACHOFFSETENABLE	TOGGLE	F	Ach Offset Enable
ACHOFFSET	QUANT	0	Ach Offset (V)
ACHFILTER	IQUANT	1	Ach Filter
CABLEID	IQUANT	14	Cable ID
DCCALDATE	LABEL	20-10-2016	DC Calibration Date
ACCALDATE	LABEL	12/3/2015	AC Calibration Date
FRAMEWORKVERSION	QUANT	7.01	Framework Version
INSTRUMENTVERSION	LABEL	4.00	Instrument Version
CURVE	TABLE	60
	Pt	T	Vf	Im	Vu	Pwr	Sig	Ach	Temp	IERange	Over
	#	s	V	A	V	W	V	V	deg C	#	bits
	0	0.013333	6.26886E-001	5.99285E-003	0.00000E+000	3.75684E-003	3.59960E-001	-1.14133E+000	3.57650E+000	10	...........
	1	0.026667	6.35647E-001	5.99265E-003	0.00000E+000	3.80921E-003	3.59960E-001	-1.13568E+000	3.57650E+000	10	...........
	2	0.04	6.43747E-001	5.99439E-003	0.00000E+000	3.85887E-003	3.59960E-001	-1.13133E+000	3.57650E+000	10	...........
	3	0.053333	6.51384E-001	5.99898E-003	0.00000E+000	3.90764E-003	3.59960E-001	-1.14136E+000	3.57670E+000	10	...........
	4	0.066667	6.58763E-001	5.99583E-003	0.00000E+000	3.94983E-003	3.59960E-001	-1.13568E+000	3.57670E+000	10	...........
	5	0.08	6.65943E-001	5.99666E-003	0.00000E+000	3.99343E-003	3.59960E-001	-1.13129E+000	3.57670E+000	10	...........
	6	0.093333	6.73028E-001	5.99602E-003	0.00000E+000	4.03549E-003	3.59960E-001	-1.14126E+000	3.57670E+000	10	...........
	7	0.106667	6.79941E-001	5.99378E-003	0.00000E+000	4.07542E-003	3.59960E-001	-1.13511E+000	3.57670E+000	10	...........
	8	0.12	6.86778E-001	5.99563E-003	0.00000E+000	4.11767E-003	3.59960E-001	-1.13102E+000	3.57670E+000	10	...........
	9	0.133333	6.93612E-001	5.99295E-003	0.00000E+000	4.15678E-003	3.59960E-001	-1.14120E+000	3.57670E+000	10	...........
	10	0.146667	7.00347E-001	5.99560E-003	0.00000E+000	4.19900E-003	3.59960E-001	-1.13513E+000	3.57670E+000	10	...........
	11	0.16	7.07026E-001	5.99335E-003	0.00000E+000	4.23745E-003	3.59960E-001	-1.13100E+000	3.57670E+000	10	...........
	12	0.173333	7.13619E-001	5.99127E-003	0.00000E+000	4.27548E-003	3.59960E-001	-1.14108E+000	3.57670E+000	10	...........
	13	0.186667	7.20284E-001	5.99246E-003	0.00000E+000	4.31627E-003	3.59960E-001	-1.13501E+000	3.57670E+000	10	...........
	14	0.2	7.26830E-001	5.99564E-003	0.00000E+000	4.35781E-003	3.59960E-001	-1.13089E+000	3.57670E+000	10	...........
	15	0.213333	7.33357E-001	5.99090E-003	0.00000E+000	4.39347E-003	3.59960E-001	-1.14145E+000	3.57670E+000	10	...........
	16	0.226667	7.39867E-001	5.99300E-003	0.00000E+000	4.43402E-003	3.59960E-001	-1.13513E+000	3.57670E+000	10	...........
	17	0.24	7.46391E-001	5.99611E-003	0.00000E+000	4.47544E-003	3.59960E-001	-1.13110E+000	3.57670E+000	10	...........
	18	0.253333	7.52899E-001	5.99235E-003	0.00000E+000	4.51164E-003	3.59960E-001	-1.14130E+000	3.57670E+000	10	...........
	19	0.266667	7.59364E-001	5.99957E-003	0.00000E+000	4.55586E-003	3.59960E-001	-1.13508E+000	3.57670E+000	10	...........
	20	0.28	7.65784E-001	5.99320E-003	0.00000E+000	4.58949E-003	3.59960E-001	-1.13124E+000	3.57670E+000	10	...........
	21	0.293333	7.72260E-001	5.99201E-003	0.00000E+000	4.62739E-003	3.59960E-001	-1.14138E+000	3.57670E+000	10	...........
	22	0.306667	7.78665E-001	5.99515E-003	0.00000E+000	4.66821E-003	3.59960E-001	-1.13432E+000	3.57670E+000	10	...........
	23	0.32	7.85061E-001	5.99519E-003	0.00000E+000	4.70659E-003	3.59960E-001	-1.13044E+000	3.57670E+000	10	...........
	24	0.333333	7.91426E-001	5.99488E-003	0.00000E+000	4.74450E-003	3.59960E-001	-1.14110E+000	3.57670E+000	10	...........
	25	0.346667	7.97827E-001	5.99261E-003	0.00000E+000	4.78107E-003	3.59960E-001	-1.13450E+000	3.57670E+000	10	...........
	26	0.36	8.04184E-001	5.99788E-003	0.00000E+000	4.82340E-003	3.59960E-001	-1.13057E+000	3.57670E+000	10	...........
	27	0.373333	8.10518E-001	5.99486E-003	0.00000E+000	4.85894E-003	3.59960E-001	-1.14103E+000	3.57670E+000	10	...........
	28	0.386667	8.16875E-001	5.99271E-003	0.00000E+000	4.89529E-003	3.59960E-001	-1.13431E+000	3.57670E+000	10	...........
	29	0.4	8.23212E-001	5.99216E-003	0.00000E+000	4.93282E-003	3.59960E-001	-1.13070E+000	3.57670E+000	10	...........
	30	0.413333	8.29483E-001	5.99128E-003	0.00000E+000	4.96967E-003	3.59960E-001	-1.14125E+000	3.57670E+000	10	...........
	31	0.426667	8.35797E-001	5.99356E-003	0.00000E+000	5.00940E-003	3.59960E-001	-1.13422E+000	3.57670E+000	10	...........
	32	0.44	8.42083E-001	5.99641E-003	0.00000E+000	5.04948E-003	3.59960E-001	-1.13061E+000	3.57670E+000	10	...........
	33	0.453333	8.48369E-001	5.99407E-003	0.00000E+000	5.08519E-003	3.59960E-001	-1.14098E+000	3.57670E+000	10	...........
	34	0.466667	8.54580E-001	5.99110E-003	0.00000E+000	5.11988E-003	3.59960E-001	-1.13402E+000	3.57670E+000	10	...........
	35	0.48	8.60821E-001	5.99547E-003	0.00000E+000	5.16103E-003	3.59960E-001	-1.13054E+000	3.57670E+000	10	...........
	36	0.493333	8.67027E-001	5.99334E-003	0.00000E+000	5.19639E-003	3.59960E-001	-1.14128E+000	3.57670E+000	10	...........
	37	0.506667	8.73275E-001	5.99259E-003	0.00000E+000	5.23318E-003	3.59960E-001	-1.13389E+000	3.57670E+000	10	...........
	38	0.52	8.79483E-001	5.99221E-003	0.00000E+000	5.27004E-003	3.59960E-001	-1.13062E+000	3.57670E+000	10	...........
	39	0.533333	8.85624E-001	5.99629E-003	0.00000E+000	5.31046E-003	3.59960E-001	-1.14153E+000	3.57670E+000	10	...........
	40	0.546667	8.91725E-001	5.99174E-003	0.00000E+000	5.34298E-003	3.59960E-001	-1.13405E+000	3.57670E+000	10	...........
	41	0.56	8.97824E-001	5.99237E-003	0.00000E+000	5.38009E-003	3.59960E-001	-1.13080E+000	3.57670E+000	10	...........
	42	0.573333	9.03905E-001	5.99786E-003	0.00000E+000	5.42149E-003	3.59960E-001	-1.14131E+000	3.57670E+000	10	...........
	43	0.586667	9.09969E-001	5.99408E-003	0.00000E+000	5.45443E-003	3.59960E-001	-1.13359E+000	3.57670E+000	10	...........
	44	0.6	9.15980E-001	5.99410E-003	0.00000E+000	5.49048E-003	3.59960E-001	-1.13063E+000	3.57670E+000	10	...........
	45	0.613333	9.22038E-001	5.99261E-003	0.00000E+000	5.52541E-003	3.59960E-001	-1.14131E+000	3.57670E+000	10	...........
	46	0.626667	9.27964E-001	5.99644E-003	0.00000E+000	5.56448E-003	3.59960E-001	-1.13324E+000	3.57670E+000	10	...........
	47	0.64	9.33870E-001	5.99551E-003	0.00000E+000	5.59903E-003	3.59960E-001	-1.13022E+000	3.57670E+000	10	...........
	48	0.653333	9.39684E-001	5.99403E-003	0.00000E+000	5.63250E-003	3.59960E-001	-1.14097E+000	3.57670E+000	10	...........
	49	0.666667	9.45539E-001	5.99623E-003	0.00000E+000	5.66967E-003	3.59960E-001	-1.13324E+000	3.57670E+000	10	...........
	50	0.68	9.51388E-001	5.99645E-003	0.00000E+000	5.70495E-003	3.59960E-001	-1.13034E+000	3.57670E+000	10	...........
	51	0.693333	9.57167E-001	5.99544E-003	0.00000E+000	5.73864E-003	3.59960E-001	-1.14098E+000	3.57670E+000	10	...........
	52	0.706667	9.62873E-001	5.99418E-003	0.00000E+000	5.77163E-003	3.59960E-001	-1.13309E+000	3.57670E+000	10	...........
	53	0.72	9.68570E-001	5.99348E-003	0.00000E+000	5.80510E-003	3.59960E-001	-1.13024E+000	3.57670E+000	10	...........
	54	0.733333	9.74258E-001	5.99340E-003	0.00000E+000	5.83911E-003	3.59960E-001	-1.14097E+000	3.57670E+000	10	...........
	55	0.746667	9.79868E-001	5.99586E-003	0.00000E+000	5.87515E-003	3.59960E-001	-1.13299E+000	3.57670E+000	10	...........
	56	0.76	9.85424E-001	5.99254E-003	0.00000E+000	5.90519E-003	3.59960E-001	-1.13021E+000	3.57670E+000	10	...........
	57	0.773333	9.90954E-001	5.99039E-003	0.00000E+000	5.93620E-003	3.59960E-001	-1.14086E+000	3.57670E+000	10	...........
	58	0.786667	9.96418E-001	5.99702E-003	0.00000E+000	5.97554E-003	3.59960E-001	-1.13273E+000	3.57670E+000	10	...........
	59	0.79	9.99869E-001	5.99984E-003	0.00000E+000	5.99905E-003	3.59960E-001	-1.14263E+000	3.57670E+000	10	...........
STARTTIMEOFFSET	QUANT	751.6617	Start Time Offset (s)