File: Data/CV_CRGO300517_1/PWRCCD_CRGO300517_1/CHARGE_DISCHARGE/CHARGE_#979.DTA
EXPLAIN
TAG	PWR800_CHARGE
TITLE	LABEL	PWR Cyclic Charge Discharge (Cell) - Charge Step	Test &Identifier
DATE	LABEL	22-6-2017	Date
TIME	LABEL	16:13:52	Time
NOTES	NOTES	3	&Notes...
	supercap test cell
	0.6mg
	6M KOH
PSTAT	PSTAT	IFC5000-01520	Potentiostat
CAPACITY	QUANT	1.00000E-003	Capacity (A-hr)
CELLTYPE	SELECTOR	1	&Cell Type
WORKINGCONNECTION	SELECTOR	0	&Working Lead
MAXCHARGETIME	VARIABLEANDUNITS	1.00000E+002	s	1.00000E+002	second(s)	Max &Charge Time
CHARGECURRENT	QUANT	6.00000E-003	&Charge Current (A)
VOLTAGEFINISH	TWOPARAM	F	1.00000E-003	3.60000E+003	&Voltage Finish	 I (A) < 	Max Time(s)
SAMPLETIME	QUANT	1.00000E-002	Sa&mple Period (s)
CHARGESTOPAT1	MULTIPARAM	4	1.00000E+000	Charge Stop At &1	Voltage > Limit	V
CHARGESTOPAT2	MULTIPARAM	0	0.00000E+000	Charge Stop At &2	None	N/A
AESBHCSELECTOR	TOGGLE	F	Save Both Half Cells
IRCOMP	TOGGLE	F	IR &Measure
EOC	QUANT	0	Open Circuit (V)
SEQUENCER	TOGGLE	TRUE	Run as Sequence
PSTATMODEL	IQUANT	53	Pstat Model
PSTATSECTION	LABEL	IFC5000-01520	Pstat Section
PSTATSERIALNO	LABEL	01520	Pstat Serial Number
CTRLMODE	IQUANT	0	Control Mode
ELECTROMETER	IQUANT	1	RE=0 or CS=1
IESTAB	IQUANT	0	I/E Stability
CASPEED	IQUANT	4	Control Amp Speed
CONVENTION	IQUANT	1	Current Convention
ICHRANGE	IQUANT	2	Ich Range
ICHRANGEMODE	TOGGLE	T	Ich Auto Range
ICHOFFSETENABLE	TOGGLE	F	Ich Offset Enable
ICHOFFSET	QUANT	0	Ich Offset (V)
ICHFILTER	IQUANT	1	Ich Filter
VCHRANGE	IQUANT	2	Vch Range
VCHRANGEMODE	TOGGLE	T	Vch Auto Range
VCHOFFSETENABLE	TOGGLE	F	Vch Offset Enable
VCHOFFSET	QUANT	0	Vch Offset (V)
VCHFILTER	IQUANT	1	Vch Filter
IERANGELOWERLIMIT	IQUANT	9	I/E Range Lower Limit
IERANGEMODE	TOGGLE	F	I/E AutoRange
IERANGE	IQUANT	10	I/E Range
ACHSELECT	IQUANT	1	Ach Select
ACHRANGE	IQUANT	2	Ach Range
ACHOFFSETENABLE	TOGGLE	F	Ach Offset Enable
ACHOFFSET	QUANT	0	Ach Offset (V)
ACHFILTER	IQUANT	1	Ach Filter
CABLEID	IQUANT	14	Cable ID
DCCALDATE	LABEL	20-10-2016	DC Calibration Date
ACCALDATE	LABEL	12/3/2015	AC Calibration Date
FRAMEWORKVERSION	QUANT	7.01	Framework Version
INSTRUMENTVERSION	LABEL	4.00	Instrument Version
CURVE	TABLE	53
	Pt	T	Vf	Im	Vu	Pwr	Sig	Ach	Temp	IERange	Over
	#	s	V	A	V	W	V	V	deg C	#	bits
	0	0.013333	6.56144E-001	5.99356E-003	0.00000E+000	3.93264E-003	3.59960E-001	-1.17351E+000	3.57630E+000	10	...........
	1	0.026667	6.65544E-001	5.99613E-003	0.00000E+000	3.99069E-003	3.59960E-001	-1.17339E+000	3.57630E+000	10	...........
	2	0.04	6.74122E-001	5.99216E-003	0.00000E+000	4.03945E-003	3.59960E-001	-1.18368E+000	3.57630E+000	10	...........
	3	0.053333	6.82282E-001	5.99405E-003	0.00000E+000	4.08963E-003	3.59960E-001	-1.17312E+000	3.57630E+000	10	...........
	4	0.066667	6.90146E-001	5.99937E-003	0.00000E+000	4.14044E-003	3.59960E-001	-1.17280E+000	3.57630E+000	10	...........
	5	0.08	6.97840E-001	5.99111E-003	0.00000E+000	4.18084E-003	3.59960E-001	-1.18334E+000	3.57630E+000	10	...........
	6	0.093333	7.05308E-001	5.99398E-003	0.00000E+000	4.22760E-003	3.59960E-001	-1.17315E+000	3.57630E+000	10	...........
	7	0.106667	7.12713E-001	5.99269E-003	0.00000E+000	4.27106E-003	3.59960E-001	-1.17271E+000	3.57630E+000	10	...........
	8	0.12	7.20107E-001	5.99126E-003	0.00000E+000	4.31434E-003	3.59960E-001	-1.18321E+000	3.57630E+000	10	...........
	9	0.133333	7.27282E-001	5.99802E-003	0.00000E+000	4.36225E-003	3.59960E-001	-1.17270E+000	3.57630E+000	10	...........
	10	0.146667	7.34382E-001	5.99393E-003	0.00000E+000	4.40183E-003	3.59960E-001	-1.17269E+000	3.57630E+000	10	...........
	11	0.16	7.41491E-001	5.99520E-003	0.00000E+000	4.44539E-003	3.59960E-001	-1.18330E+000	3.57630E+000	10	...........
	12	0.173333	7.48540E-001	5.99331E-003	0.00000E+000	4.48623E-003	3.59960E-001	-1.17263E+000	3.57630E+000	10	...........
	13	0.186667	7.55567E-001	5.99360E-003	0.00000E+000	4.52857E-003	3.59960E-001	-1.17264E+000	3.57630E+000	10	...........
	14	0.2	7.62524E-001	5.99442E-003	0.00000E+000	4.57089E-003	3.59960E-001	-1.18299E+000	3.57630E+000	10	...........
	15	0.213333	7.69488E-001	5.99327E-003	0.00000E+000	4.61175E-003	3.59960E-001	-1.17262E+000	3.57630E+000	10	...........
	16	0.226667	7.76401E-001	5.99640E-003	0.00000E+000	4.65561E-003	3.59960E-001	-1.17288E+000	3.57630E+000	10	...........
	17	0.24	7.83274E-001	5.99942E-003	0.00000E+000	4.69919E-003	3.59960E-001	-1.18313E+000	3.57630E+000	10	...........
	18	0.253333	7.90034E-001	5.99238E-003	0.00000E+000	4.73419E-003	3.59960E-001	-1.17263E+000	3.57630E+000	10	...........
	19	0.266667	7.96859E-001	5.99570E-003	0.00000E+000	4.77773E-003	3.59960E-001	-1.17254E+000	3.57630E+000	10	...........
	20	0.28	8.03649E-001	5.99327E-003	0.00000E+000	4.81649E-003	3.59960E-001	-1.18276E+000	3.57630E+000	10	...........
	21	0.293333	8.10381E-001	5.99201E-003	0.00000E+000	4.85581E-003	3.59960E-001	-1.17221E+000	3.57630E+000	10	...........
	22	0.306667	8.17154E-001	5.99996E-003	0.00000E+000	4.90289E-003	3.59960E-001	-1.17218E+000	3.57630E+000	10	...........
	23	0.32	8.23833E-001	5.99327E-003	0.00000E+000	4.93745E-003	3.59960E-001	-1.18243E+000	3.57630E+000	10	...........
	24	0.333333	8.30535E-001	5.99528E-003	0.00000E+000	4.97929E-003	3.59960E-001	-1.17183E+000	3.57630E+000	10	...........
	25	0.346667	8.37169E-001	5.99724E-003	0.00000E+000	5.02071E-003	3.59960E-001	-1.17203E+000	3.57630E+000	10	...........
	26	0.36	8.43780E-001	5.99009E-003	0.00000E+000	5.05432E-003	3.59960E-001	-1.18258E+000	3.57630E+000	10	...........
	27	0.373333	8.50345E-001	5.99654E-003	0.00000E+000	5.09913E-003	3.59960E-001	-1.17201E+000	3.57630E+000	10	...........
	28	0.386667	8.56887E-001	5.99134E-003	0.00000E+000	5.13390E-003	3.59960E-001	-1.17188E+000	3.57630E+000	10	...........
	29	0.4	8.63428E-001	5.99530E-003	0.00000E+000	5.17652E-003	3.59960E-001	-1.18216E+000	3.57630E+000	10	...........
	30	0.413333	8.69971E-001	5.99428E-003	0.00000E+000	5.21485E-003	3.59960E-001	-1.17185E+000	3.57630E+000	10	...........
	31	0.426667	8.76420E-001	5.99222E-003	0.00000E+000	5.25170E-003	3.59960E-001	-1.17214E+000	3.57630E+000	10	...........
	32	0.44	8.82876E-001	5.99644E-003	0.00000E+000	5.29411E-003	3.59960E-001	-1.18237E+000	3.57630E+000	10	...........
	33	0.453333	8.89279E-001	5.99798E-003	0.00000E+000	5.33388E-003	3.59960E-001	-1.17176E+000	3.57630E+000	10	...........
	34	0.466667	8.95655E-001	5.99370E-003	0.00000E+000	5.36829E-003	3.59960E-001	-1.17185E+000	3.57630E+000	10	...........
	35	0.48	9.01988E-001	5.99810E-003	0.00000E+000	5.41021E-003	3.59960E-001	-1.18239E+000	3.57632E+000	10	...........
	36	0.493333	9.08245E-001	5.99510E-003	0.00000E+000	5.44502E-003	3.59960E-001	-1.17159E+000	3.57660E+000	10	...........
	37	0.506667	9.14470E-001	5.99502E-003	0.00000E+000	5.48227E-003	3.59960E-001	-1.17221E+000	3.57660E+000	10	...........
	38	0.52	9.20722E-001	5.99395E-003	0.00000E+000	5.51876E-003	3.59960E-001	-1.18238E+000	3.57660E+000	10	...........
	39	0.533333	9.26923E-001	5.98957E-003	0.00000E+000	5.55187E-003	3.59960E-001	-1.17181E+000	3.57660E+000	10	...........
	40	0.546667	9.33028E-001	5.99742E-003	0.00000E+000	5.59576E-003	3.59960E-001	-1.17191E+000	3.57660E+000	10	...........
	41	0.56	9.39118E-001	5.99181E-003	0.00000E+000	5.62701E-003	3.59960E-001	-1.18212E+000	3.57660E+000	10	...........
	42	0.573333	9.45132E-001	5.99544E-003	0.00000E+000	5.66648E-003	3.59960E-001	-1.17185E+000	3.57660E+000	10	...........
	43	0.586667	9.51132E-001	5.99432E-003	0.00000E+000	5.70139E-003	3.59960E-001	-1.17219E+000	3.57660E+000	10	...........
	44	0.6	9.57076E-001	5.99702E-003	0.00000E+000	5.73961E-003	3.59960E-001	-1.18231E+000	3.57660E+000	10	...........
	45	0.613333	9.62940E-001	5.99641E-003	0.00000E+000	5.77418E-003	3.59960E-001	-1.17160E+000	3.57660E+000	10	...........
	46	0.626667	9.68752E-001	5.99378E-003	0.00000E+000	5.80649E-003	3.59960E-001	-1.17183E+000	3.57660E+000	10	...........
	47	0.64	9.74610E-001	5.99383E-003	0.00000E+000	5.84165E-003	3.59960E-001	-1.18207E+000	3.57660E+000	10	...........
	48	0.653333	9.80327E-001	5.98889E-003	0.00000E+000	5.87107E-003	3.59960E-001	-1.17140E+000	3.57660E+000	10	...........
	49	0.666667	9.85985E-001	5.98898E-003	0.00000E+000	5.90505E-003	3.59960E-001	-1.17196E+000	3.57660E+000	10	...........
	50	0.68	9.91590E-001	5.99256E-003	0.00000E+000	5.94216E-003	3.59960E-001	-1.18192E+000	3.57660E+000	10	...........
	51	0.693333	9.97184E-001	5.99377E-003	0.00000E+000	5.97689E-003	3.59960E-001	-1.17152E+000	3.57660E+000	10	...........
	52	0.695	1.00030E+000	5.99354E-003	0.00000E+000	5.99536E-003	3.59960E-001	-1.18531E+000	3.57660E+000	10	...........
STARTTIMEOFFSET	QUANT	1556.244	Start Time Offset (s)