File: Data/CV_CRGO300517_1/PWRCCD_CRGO300517_1/CHARGE_DISCHARGE/CHARGE_#764.DTA
EXPLAIN
TAG	PWR800_CHARGE
TITLE	LABEL	PWR Cyclic Charge Discharge (Cell) - Charge Step	Test &Identifier
DATE	LABEL	22-6-2017	Date
TIME	LABEL	16:05:56	Time
NOTES	NOTES	3	&Notes...
	supercap test cell
	0.6mg
	6M KOH
PSTAT	PSTAT	IFC5000-01520	Potentiostat
CAPACITY	QUANT	1.00000E-003	Capacity (A-hr)
CELLTYPE	SELECTOR	1	&Cell Type
WORKINGCONNECTION	SELECTOR	0	&Working Lead
MAXCHARGETIME	VARIABLEANDUNITS	1.00000E+002	s	1.00000E+002	second(s)	Max &Charge Time
CHARGECURRENT	QUANT	6.00000E-003	&Charge Current (A)
VOLTAGEFINISH	TWOPARAM	F	1.00000E-003	3.60000E+003	&Voltage Finish	 I (A) < 	Max Time(s)
SAMPLETIME	QUANT	1.00000E-002	Sa&mple Period (s)
CHARGESTOPAT1	MULTIPARAM	4	1.00000E+000	Charge Stop At &1	Voltage > Limit	V
CHARGESTOPAT2	MULTIPARAM	0	0.00000E+000	Charge Stop At &2	None	N/A
AESBHCSELECTOR	TOGGLE	F	Save Both Half Cells
IRCOMP	TOGGLE	F	IR &Measure
EOC	QUANT	0	Open Circuit (V)
SEQUENCER	TOGGLE	TRUE	Run as Sequence
PSTATMODEL	IQUANT	53	Pstat Model
PSTATSECTION	LABEL	IFC5000-01520	Pstat Section
PSTATSERIALNO	LABEL	01520	Pstat Serial Number
CTRLMODE	IQUANT	0	Control Mode
ELECTROMETER	IQUANT	1	RE=0 or CS=1
IESTAB	IQUANT	0	I/E Stability
CASPEED	IQUANT	4	Control Amp Speed
CONVENTION	IQUANT	1	Current Convention
ICHRANGE	IQUANT	2	Ich Range
ICHRANGEMODE	TOGGLE	T	Ich Auto Range
ICHOFFSETENABLE	TOGGLE	F	Ich Offset Enable
ICHOFFSET	QUANT	0	Ich Offset (V)
ICHFILTER	IQUANT	1	Ich Filter
VCHRANGE	IQUANT	2	Vch Range
VCHRANGEMODE	TOGGLE	T	Vch Auto Range
VCHOFFSETENABLE	TOGGLE	F	Vch Offset Enable
VCHOFFSET	QUANT	0	Vch Offset (V)
VCHFILTER	IQUANT	1	Vch Filter
IERANGELOWERLIMIT	IQUANT	9	I/E Range Lower Limit
IERANGEMODE	TOGGLE	F	I/E AutoRange
IERANGE	IQUANT	10	I/E Range
ACHSELECT	IQUANT	1	Ach Select
ACHRANGE	IQUANT	2	Ach Range
ACHOFFSETENABLE	TOGGLE	F	Ach Offset Enable
ACHOFFSET	QUANT	0	Ach Offset (V)
ACHFILTER	IQUANT	1	Ach Filter
CABLEID	IQUANT	14	Cable ID
DCCALDATE	LABEL	20-10-2016	DC Calibration Date
ACCALDATE	LABEL	12/3/2015	AC Calibration Date
FRAMEWORKVERSION	QUANT	7.01	Framework Version
INSTRUMENTVERSION	LABEL	4.00	Instrument Version
CURVE	TABLE	55
	Pt	T	Vf	Im	Vu	Pwr	Sig	Ach	Temp	IERange	Over
	#	s	V	A	V	W	V	V	deg C	#	bits
	0	0.013333	6.46830E-001	5.99338E-003	0.00000E+000	3.87670E-003	3.59960E-001	-1.17143E+000	3.57660E+000	10	...........
	1	0.026667	6.55964E-001	5.99217E-003	0.00000E+000	3.93065E-003	3.59960E-001	-1.16569E+000	3.57660E+000	10	...........
	2	0.04	6.64384E-001	5.99516E-003	0.00000E+000	3.98309E-003	3.59960E-001	-1.16103E+000	3.57660E+000	10	...........
	3	0.053333	6.72408E-001	5.99317E-003	0.00000E+000	4.02985E-003	3.59960E-001	-1.17126E+000	3.57660E+000	10	...........
	4	0.066667	6.80118E-001	5.99635E-003	0.00000E+000	4.07822E-003	3.59960E-001	-1.16514E+000	3.57660E+000	10	...........
	5	0.08	6.87593E-001	5.99075E-003	0.00000E+000	4.11920E-003	3.59960E-001	-1.16098E+000	3.57660E+000	10	...........
	6	0.093333	6.94954E-001	5.98640E-003	0.00000E+000	4.16027E-003	3.59960E-001	-1.17147E+000	3.57660E+000	10	...........
	7	0.106667	7.02184E-001	5.99498E-003	0.00000E+000	4.20958E-003	3.59960E-001	-1.16543E+000	3.57660E+000	10	...........
	8	0.12	7.09325E-001	5.99080E-003	0.00000E+000	4.24942E-003	3.59960E-001	-1.16074E+000	3.57660E+000	10	...........
	9	0.133333	7.16417E-001	5.99899E-003	0.00000E+000	4.29777E-003	3.59960E-001	-1.17116E+000	3.57660E+000	10	...........
	10	0.146667	7.23442E-001	5.99513E-003	0.00000E+000	4.33712E-003	3.59960E-001	-1.16517E+000	3.57660E+000	10	...........
	11	0.16	7.30378E-001	5.99477E-003	0.00000E+000	4.37845E-003	3.59960E-001	-1.16084E+000	3.57660E+000	10	...........
	12	0.173333	7.37296E-001	5.99688E-003	0.00000E+000	4.42147E-003	3.59960E-001	-1.17125E+000	3.57660E+000	10	...........
	13	0.186667	7.44176E-001	5.99104E-003	0.00000E+000	4.45838E-003	3.59960E-001	-1.16508E+000	3.57660E+000	10	...........
	14	0.2	7.51042E-001	5.99139E-003	0.00000E+000	4.49979E-003	3.59960E-001	-1.16076E+000	3.57660E+000	10	...........
	15	0.213333	7.57849E-001	5.99545E-003	0.00000E+000	4.54365E-003	3.59960E-001	-1.17127E+000	3.57660E+000	10	...........
	16	0.226667	7.64578E-001	5.99041E-003	0.00000E+000	4.58014E-003	3.59960E-001	-1.16493E+000	3.57660E+000	10	...........
	17	0.24	7.71327E-001	5.99668E-003	0.00000E+000	4.62540E-003	3.59960E-001	-1.16059E+000	3.57660E+000	10	...........
	18	0.253333	7.78023E-001	5.98962E-003	0.00000E+000	4.66006E-003	3.59960E-001	-1.17112E+000	3.57660E+000	10	...........
	19	0.266667	7.84741E-001	5.99572E-003	0.00000E+000	4.70509E-003	3.59960E-001	-1.16465E+000	3.57660E+000	10	...........
	20	0.28	7.91416E-001	5.99148E-003	0.00000E+000	4.74175E-003	3.59960E-001	-1.16042E+000	3.57660E+000	10	...........
	21	0.293333	7.98118E-001	5.99463E-003	0.00000E+000	4.78442E-003	3.59960E-001	-1.17102E+000	3.57685E+000	10	...........
	22	0.306667	8.04692E-001	5.99470E-003	0.00000E+000	4.82388E-003	3.59960E-001	-1.16443E+000	3.57710E+000	10	...........
	23	0.32	8.11300E-001	5.99682E-003	0.00000E+000	4.86522E-003	3.59960E-001	-1.16020E+000	3.57710E+000	10	...........
	24	0.333333	8.17890E-001	5.99237E-003	0.00000E+000	4.90110E-003	3.59960E-001	-1.17060E+000	3.57710E+000	10	...........
	25	0.346667	8.24455E-001	5.99764E-003	0.00000E+000	4.94479E-003	3.59960E-001	-1.16447E+000	3.57710E+000	10	...........
	26	0.36	8.31011E-001	5.99304E-003	0.00000E+000	4.98029E-003	3.59960E-001	-1.16047E+000	3.57710E+000	10	...........
	27	0.373333	8.37526E-001	5.99469E-003	0.00000E+000	5.02071E-003	3.59960E-001	-1.17065E+000	3.57710E+000	10	...........
	28	0.386667	8.44045E-001	5.99356E-003	0.00000E+000	5.05884E-003	3.59960E-001	-1.16446E+000	3.57710E+000	10	...........
	29	0.4	8.50552E-001	5.99167E-003	0.00000E+000	5.09623E-003	3.59960E-001	-1.16005E+000	3.57710E+000	10	...........
	30	0.413333	8.56926E-001	5.99453E-003	0.00000E+000	5.13687E-003	3.59960E-001	-1.17065E+000	3.57710E+000	10	...........
	31	0.426667	8.63395E-001	5.99530E-003	0.00000E+000	5.17631E-003	3.59960E-001	-1.16440E+000	3.57710E+000	10	...........
	32	0.44	8.69821E-001	5.99505E-003	0.00000E+000	5.21462E-003	3.59960E-001	-1.16018E+000	3.57710E+000	10	...........
	33	0.453333	8.76176E-001	5.99295E-003	0.00000E+000	5.25087E-003	3.59960E-001	-1.17053E+000	3.57710E+000	10	...........
	34	0.466667	8.82546E-001	5.99497E-003	0.00000E+000	5.29083E-003	3.59960E-001	-1.16393E+000	3.57710E+000	10	...........
	35	0.48	8.88842E-001	5.99575E-003	0.00000E+000	5.32927E-003	3.59960E-001	-1.16021E+000	3.57710E+000	10	...........
	36	0.493333	8.95090E-001	5.99301E-003	0.00000E+000	5.36428E-003	3.59960E-001	-1.17081E+000	3.57710E+000	10	...........
	37	0.506667	9.01366E-001	5.99441E-003	0.00000E+000	5.40316E-003	3.59960E-001	-1.16433E+000	3.57710E+000	10	...........
	38	0.52	9.07561E-001	5.99248E-003	0.00000E+000	5.43854E-003	3.59960E-001	-1.16005E+000	3.57710E+000	10	...........
	39	0.533333	9.13741E-001	5.99263E-003	0.00000E+000	5.47571E-003	3.59960E-001	-1.17095E+000	3.57710E+000	10	...........
	40	0.546667	9.19914E-001	5.99316E-003	0.00000E+000	5.51319E-003	3.59960E-001	-1.16427E+000	3.57710E+000	10	...........
	41	0.56	9.26045E-001	5.99203E-003	0.00000E+000	5.54889E-003	3.59960E-001	-1.16013E+000	3.57710E+000	10	...........
	42	0.573333	9.32144E-001	5.99089E-003	0.00000E+000	5.58437E-003	3.59960E-001	-1.17077E+000	3.57710E+000	10	...........
	43	0.586667	9.38162E-001	5.99209E-003	0.00000E+000	5.62155E-003	3.59960E-001	-1.16381E+000	3.57710E+000	10	...........
	44	0.6	9.44120E-001	5.99270E-003	0.00000E+000	5.65782E-003	3.59960E-001	-1.15966E+000	3.57710E+000	10	...........
	45	0.613333	9.50088E-001	5.99153E-003	0.00000E+000	5.69248E-003	3.59960E-001	-1.17044E+000	3.57710E+000	10	...........
	46	0.626667	9.55935E-001	5.99445E-003	0.00000E+000	5.73030E-003	3.59960E-001	-1.16372E+000	3.57710E+000	10	...........
	47	0.64	9.61789E-001	5.99641E-003	0.00000E+000	5.76728E-003	3.59960E-001	-1.15966E+000	3.57710E+000	10	...........
	48	0.653333	9.67568E-001	5.99405E-003	0.00000E+000	5.79965E-003	3.59960E-001	-1.17030E+000	3.57710E+000	10	...........
	49	0.666667	9.73360E-001	5.99183E-003	0.00000E+000	5.83221E-003	3.59960E-001	-1.16367E+000	3.57710E+000	10	...........
	50	0.68	9.79068E-001	5.99525E-003	0.00000E+000	5.86976E-003	3.59960E-001	-1.15983E+000	3.57710E+000	10	...........
	51	0.693333	9.84700E-001	5.99327E-003	0.00000E+000	5.90157E-003	3.59960E-001	-1.17070E+000	3.57710E+000	10	...........
	52	0.706667	9.90294E-001	5.99132E-003	0.00000E+000	5.93317E-003	3.59960E-001	-1.16369E+000	3.57710E+000	10	...........
	53	0.72	9.95891E-001	5.99380E-003	0.00000E+000	5.96917E-003	3.59960E-001	-1.15959E+000	3.57710E+000	10	...........
	54	0.725	9.99727E-001	5.99796E-003	0.00000E+000	5.99633E-003	3.59960E-001	-1.17404E+000	3.57710E+000	10	...........
STARTTIMEOFFSET	QUANT	1252.324	Start Time Offset (s)