File: Data/CV_CRGO300517_1/PWRCCD_CRGO300517_1/CHARGE_DISCHARGE/CHARGE_#863.DTA
EXPLAIN
TAG	PWR800_CHARGE
TITLE	LABEL	PWR Cyclic Charge Discharge (Cell) - Charge Step	Test &Identifier
DATE	LABEL	22-6-2017	Date
TIME	LABEL	16:09:37	Time
NOTES	NOTES	3	&Notes...
	supercap test cell
	0.6mg
	6M KOH
PSTAT	PSTAT	IFC5000-01520	Potentiostat
CAPACITY	QUANT	1.00000E-003	Capacity (A-hr)
CELLTYPE	SELECTOR	1	&Cell Type
WORKINGCONNECTION	SELECTOR	0	&Working Lead
MAXCHARGETIME	VARIABLEANDUNITS	1.00000E+002	s	1.00000E+002	second(s)	Max &Charge Time
CHARGECURRENT	QUANT	6.00000E-003	&Charge Current (A)
VOLTAGEFINISH	TWOPARAM	F	1.00000E-003	3.60000E+003	&Voltage Finish	 I (A) < 	Max Time(s)
SAMPLETIME	QUANT	1.00000E-002	Sa&mple Period (s)
CHARGESTOPAT1	MULTIPARAM	4	1.00000E+000	Charge Stop At &1	Voltage > Limit	V
CHARGESTOPAT2	MULTIPARAM	0	0.00000E+000	Charge Stop At &2	None	N/A
AESBHCSELECTOR	TOGGLE	F	Save Both Half Cells
IRCOMP	TOGGLE	F	IR &Measure
EOC	QUANT	0	Open Circuit (V)
SEQUENCER	TOGGLE	TRUE	Run as Sequence
PSTATMODEL	IQUANT	53	Pstat Model
PSTATSECTION	LABEL	IFC5000-01520	Pstat Section
PSTATSERIALNO	LABEL	01520	Pstat Serial Number
CTRLMODE	IQUANT	0	Control Mode
ELECTROMETER	IQUANT	1	RE=0 or CS=1
IESTAB	IQUANT	0	I/E Stability
CASPEED	IQUANT	4	Control Amp Speed
CONVENTION	IQUANT	1	Current Convention
ICHRANGE	IQUANT	2	Ich Range
ICHRANGEMODE	TOGGLE	T	Ich Auto Range
ICHOFFSETENABLE	TOGGLE	F	Ich Offset Enable
ICHOFFSET	QUANT	0	Ich Offset (V)
ICHFILTER	IQUANT	1	Ich Filter
VCHRANGE	IQUANT	2	Vch Range
VCHRANGEMODE	TOGGLE	T	Vch Auto Range
VCHOFFSETENABLE	TOGGLE	F	Vch Offset Enable
VCHOFFSET	QUANT	0	Vch Offset (V)
VCHFILTER	IQUANT	1	Vch Filter
IERANGELOWERLIMIT	IQUANT	9	I/E Range Lower Limit
IERANGEMODE	TOGGLE	F	I/E AutoRange
IERANGE	IQUANT	10	I/E Range
ACHSELECT	IQUANT	1	Ach Select
ACHRANGE	IQUANT	2	Ach Range
ACHOFFSETENABLE	TOGGLE	F	Ach Offset Enable
ACHOFFSET	QUANT	0	Ach Offset (V)
ACHFILTER	IQUANT	1	Ach Filter
CABLEID	IQUANT	14	Cable ID
DCCALDATE	LABEL	20-10-2016	DC Calibration Date
ACCALDATE	LABEL	12/3/2015	AC Calibration Date
FRAMEWORKVERSION	QUANT	7.01	Framework Version
INSTRUMENTVERSION	LABEL	4.00	Instrument Version
CURVE	TABLE	54
	Pt	T	Vf	Im	Vu	Pwr	Sig	Ach	Temp	IERange	Over
	#	s	V	A	V	W	V	V	deg C	#	bits
	0	0.013333	6.51511E-001	5.99477E-003	0.00000E+000	3.90566E-003	3.59960E-001	-1.16765E+000	3.57700E+000	10	...........
	1	0.026667	6.60697E-001	5.99871E-003	0.00000E+000	3.96333E-003	3.59960E-001	-1.16718E+000	3.57700E+000	10	...........
	2	0.04	6.69224E-001	5.99490E-003	0.00000E+000	4.01193E-003	3.59960E-001	-1.15975E+000	3.57700E+000	10	...........
	3	0.053333	6.77270E-001	5.98887E-003	0.00000E+000	4.05608E-003	3.59960E-001	-1.16705E+000	3.57700E+000	10	...........
	4	0.066667	6.84986E-001	5.99370E-003	0.00000E+000	4.10560E-003	3.59960E-001	-1.16665E+000	3.57660E+000	10	...........
	5	0.08	6.92533E-001	5.98974E-003	0.00000E+000	4.14809E-003	3.59960E-001	-1.15994E+000	3.57660E+000	10	...........
	6	0.093333	6.99968E-001	5.99017E-003	0.00000E+000	4.19293E-003	3.59960E-001	-1.16738E+000	3.57660E+000	10	...........
	7	0.106667	7.07253E-001	5.99390E-003	0.00000E+000	4.23920E-003	3.59960E-001	-1.16644E+000	3.57660E+000	10	...........
	8	0.12	7.14456E-001	5.98911E-003	0.00000E+000	4.27895E-003	3.59960E-001	-1.15942E+000	3.57660E+000	10	...........
	9	0.133333	7.21624E-001	5.99081E-003	0.00000E+000	4.32311E-003	3.59960E-001	-1.16728E+000	3.57660E+000	10	...........
	10	0.146667	7.28709E-001	5.99006E-003	0.00000E+000	4.36501E-003	3.59960E-001	-1.16643E+000	3.57660E+000	10	...........
	11	0.16	7.35693E-001	5.99762E-003	0.00000E+000	4.41240E-003	3.59960E-001	-1.15965E+000	3.57660E+000	10	...........
	12	0.173333	7.42693E-001	6.00137E-003	0.00000E+000	4.45718E-003	3.59960E-001	-1.16696E+000	3.57660E+000	10	...........
	13	0.186667	7.49639E-001	5.99670E-003	0.00000E+000	4.49536E-003	3.59960E-001	-1.16596E+000	3.57660E+000	10	...........
	14	0.2	7.56538E-001	5.99214E-003	0.00000E+000	4.53328E-003	3.59960E-001	-1.15922E+000	3.57660E+000	10	...........
	15	0.213333	7.63389E-001	5.99464E-003	0.00000E+000	4.57624E-003	3.59960E-001	-1.16738E+000	3.57660E+000	10	...........
	16	0.226667	7.70182E-001	5.99247E-003	0.00000E+000	4.61529E-003	3.59960E-001	-1.16652E+000	3.57660E+000	10	...........
	17	0.24	7.77019E-001	5.99438E-003	0.00000E+000	4.65774E-003	3.59960E-001	-1.15968E+000	3.57660E+000	10	...........
	18	0.253333	7.83764E-001	5.99413E-003	0.00000E+000	4.69798E-003	3.59960E-001	-1.16721E+000	3.57660E+000	10	...........
	19	0.266667	7.90498E-001	5.99524E-003	0.00000E+000	4.73922E-003	3.59960E-001	-1.16632E+000	3.57660E+000	10	...........
	20	0.28	7.97260E-001	5.99176E-003	0.00000E+000	4.77699E-003	3.59960E-001	-1.15973E+000	3.57660E+000	10	...........
	21	0.293333	8.03960E-001	5.99493E-003	0.00000E+000	4.81968E-003	3.59960E-001	-1.16756E+000	3.57660E+000	10	...........
	22	0.306667	8.10600E-001	5.99324E-003	0.00000E+000	4.85812E-003	3.59960E-001	-1.16612E+000	3.57660E+000	10	...........
	23	0.32	8.17256E-001	5.99258E-003	0.00000E+000	4.89748E-003	3.59960E-001	-1.15919E+000	3.57660E+000	10	...........
	24	0.333333	8.23885E-001	5.99502E-003	0.00000E+000	4.93921E-003	3.59960E-001	-1.16701E+000	3.57660E+000	10	...........
	25	0.346667	8.30479E-001	5.99195E-003	0.00000E+000	4.97618E-003	3.59960E-001	-1.16592E+000	3.57660E+000	10	...........
	26	0.36	8.37014E-001	5.99386E-003	0.00000E+000	5.01695E-003	3.59960E-001	-1.15948E+000	3.57660E+000	10	...........
	27	0.373333	8.43577E-001	5.99125E-003	0.00000E+000	5.05408E-003	3.59960E-001	-1.16718E+000	3.57660E+000	10	...........
	28	0.386667	8.50120E-001	5.99353E-003	0.00000E+000	5.09522E-003	3.59960E-001	-1.16579E+000	3.57660E+000	10	...........
	29	0.4	8.56610E-001	5.99102E-003	0.00000E+000	5.13196E-003	3.59960E-001	-1.15947E+000	3.57660E+000	10	...........
	30	0.413333	8.63078E-001	5.98957E-003	0.00000E+000	5.16947E-003	3.59960E-001	-1.16735E+000	3.57660E+000	10	...........
	31	0.426667	8.69559E-001	5.99219E-003	0.00000E+000	5.21056E-003	3.59960E-001	-1.16610E+000	3.57660E+000	10	...........
	32	0.44	8.75959E-001	5.99468E-003	0.00000E+000	5.25109E-003	3.59960E-001	-1.15963E+000	3.57660E+000	10	...........
	33	0.453333	8.82354E-001	5.99414E-003	0.00000E+000	5.28895E-003	3.59960E-001	-1.16712E+000	3.57660E+000	10	...........
	34	0.466667	8.88720E-001	5.99098E-003	0.00000E+000	5.32430E-003	3.59960E-001	-1.16570E+000	3.57660E+000	10	...........
	35	0.48	8.95026E-001	5.99294E-003	0.00000E+000	5.36384E-003	3.59960E-001	-1.15914E+000	3.57660E+000	10	...........
	36	0.493333	9.01319E-001	5.99435E-003	0.00000E+000	5.40282E-003	3.59960E-001	-1.16742E+000	3.57660E+000	10	...........
	37	0.506667	9.07602E-001	5.99605E-003	0.00000E+000	5.44203E-003	3.59960E-001	-1.16574E+000	3.57660E+000	10	...........
	38	0.52	9.13792E-001	5.99348E-003	0.00000E+000	5.47679E-003	3.59960E-001	-1.15920E+000	3.57660E+000	10	...........
	39	0.533333	9.20009E-001	5.99179E-003	0.00000E+000	5.51250E-003	3.59960E-001	-1.16701E+000	3.57660E+000	10	...........
	40	0.546667	9.26204E-001	5.99392E-003	0.00000E+000	5.55159E-003	3.59960E-001	-1.16564E+000	3.57660E+000	10	...........
	41	0.56	9.32293E-001	5.99494E-003	0.00000E+000	5.58904E-003	3.59960E-001	-1.15894E+000	3.57660E+000	10	...........
	42	0.573333	9.38311E-001	5.98923E-003	0.00000E+000	5.61976E-003	3.59960E-001	-1.16697E+000	3.57660E+000	10	...........
	43	0.586667	9.44360E-001	5.99692E-003	0.00000E+000	5.66325E-003	3.59960E-001	-1.16500E+000	3.57660E+000	10	...........
	44	0.6	9.50317E-001	5.99471E-003	0.00000E+000	5.69687E-003	3.59960E-001	-1.15821E+000	3.57660E+000	10	...........
	45	0.613333	9.56203E-001	5.98908E-003	0.00000E+000	5.72677E-003	3.59960E-001	-1.16645E+000	3.57660E+000	10	...........
	46	0.626667	9.62101E-001	5.99418E-003	0.00000E+000	5.76701E-003	3.59960E-001	-1.16487E+000	3.57660E+000	10	...........
	47	0.64	9.67876E-001	5.99523E-003	0.00000E+000	5.80264E-003	3.59960E-001	-1.15816E+000	3.57660E+000	10	...........
	48	0.653333	9.73678E-001	5.99623E-003	0.00000E+000	5.83840E-003	3.59960E-001	-1.16606E+000	3.57660E+000	10	...........
	49	0.666667	9.79353E-001	5.99763E-003	0.00000E+000	5.87379E-003	3.59960E-001	-1.16413E+000	3.57660E+000	10	...........
	50	0.68	9.85006E-001	5.99174E-003	0.00000E+000	5.90190E-003	3.59960E-001	-1.15802E+000	3.57660E+000	10	...........
	51	0.693333	9.90647E-001	5.99430E-003	0.00000E+000	5.93824E-003	3.59960E-001	-1.16632E+000	3.57660E+000	10	...........
	52	0.706667	9.96201E-001	5.99111E-003	0.00000E+000	5.96835E-003	3.59960E-001	-1.16415E+000	3.57660E+000	10	...........
	53	0.711667	9.99977E-001	5.99371E-003	0.00000E+000	5.99357E-003	3.59960E-001	-1.16431E+000	3.57660E+000	10	...........
STARTTIMEOFFSET	QUANT	1393.871	Start Time Offset (s)