File: Data/CV_CRGO300517_1/PWRCCD_CRGO300517_1/CHARGE_DISCHARGE/CHARGE_#895.DTA
EXPLAIN
TAG	PWR800_CHARGE
TITLE	LABEL	PWR Cyclic Charge Discharge (Cell) - Charge Step	Test &Identifier
DATE	LABEL	22-6-2017	Date
TIME	LABEL	16:10:48	Time
NOTES	NOTES	3	&Notes...
	supercap test cell
	0.6mg
	6M KOH
PSTAT	PSTAT	IFC5000-01520	Potentiostat
CAPACITY	QUANT	1.00000E-003	Capacity (A-hr)
CELLTYPE	SELECTOR	1	&Cell Type
WORKINGCONNECTION	SELECTOR	0	&Working Lead
MAXCHARGETIME	VARIABLEANDUNITS	1.00000E+002	s	1.00000E+002	second(s)	Max &Charge Time
CHARGECURRENT	QUANT	6.00000E-003	&Charge Current (A)
VOLTAGEFINISH	TWOPARAM	F	1.00000E-003	3.60000E+003	&Voltage Finish	 I (A) < 	Max Time(s)
SAMPLETIME	QUANT	1.00000E-002	Sa&mple Period (s)
CHARGESTOPAT1	MULTIPARAM	4	1.00000E+000	Charge Stop At &1	Voltage > Limit	V
CHARGESTOPAT2	MULTIPARAM	0	0.00000E+000	Charge Stop At &2	None	N/A
AESBHCSELECTOR	TOGGLE	F	Save Both Half Cells
IRCOMP	TOGGLE	F	IR &Measure
EOC	QUANT	0	Open Circuit (V)
SEQUENCER	TOGGLE	TRUE	Run as Sequence
PSTATMODEL	IQUANT	53	Pstat Model
PSTATSECTION	LABEL	IFC5000-01520	Pstat Section
PSTATSERIALNO	LABEL	01520	Pstat Serial Number
CTRLMODE	IQUANT	0	Control Mode
ELECTROMETER	IQUANT	1	RE=0 or CS=1
IESTAB	IQUANT	0	I/E Stability
CASPEED	IQUANT	4	Control Amp Speed
CONVENTION	IQUANT	1	Current Convention
ICHRANGE	IQUANT	2	Ich Range
ICHRANGEMODE	TOGGLE	T	Ich Auto Range
ICHOFFSETENABLE	TOGGLE	F	Ich Offset Enable
ICHOFFSET	QUANT	0	Ich Offset (V)
ICHFILTER	IQUANT	1	Ich Filter
VCHRANGE	IQUANT	2	Vch Range
VCHRANGEMODE	TOGGLE	T	Vch Auto Range
VCHOFFSETENABLE	TOGGLE	F	Vch Offset Enable
VCHOFFSET	QUANT	0	Vch Offset (V)
VCHFILTER	IQUANT	1	Vch Filter
IERANGELOWERLIMIT	IQUANT	9	I/E Range Lower Limit
IERANGEMODE	TOGGLE	F	I/E AutoRange
IERANGE	IQUANT	10	I/E Range
ACHSELECT	IQUANT	1	Ach Select
ACHRANGE	IQUANT	2	Ach Range
ACHOFFSETENABLE	TOGGLE	F	Ach Offset Enable
ACHOFFSET	QUANT	0	Ach Offset (V)
ACHFILTER	IQUANT	1	Ach Filter
CABLEID	IQUANT	14	Cable ID
DCCALDATE	LABEL	20-10-2016	DC Calibration Date
ACCALDATE	LABEL	12/3/2015	AC Calibration Date
FRAMEWORKVERSION	QUANT	7.01	Framework Version
INSTRUMENTVERSION	LABEL	4.00	Instrument Version
CURVE	TABLE	53
	Pt	T	Vf	Im	Vu	Pwr	Sig	Ach	Temp	IERange	Over
	#	s	V	A	V	W	V	V	deg C	#	bits
	0	0.013333	6.52793E-001	5.99329E-003	0.00000E+000	3.91238E-003	3.59960E-001	-1.17468E+000	3.57780E+000	10	...........
	1	0.026667	6.62073E-001	5.99378E-003	0.00000E+000	3.96832E-003	3.59960E-001	-1.17370E+000	3.57780E+000	10	...........
	2	0.04	6.70653E-001	5.99632E-003	0.00000E+000	4.02145E-003	3.59960E-001	-1.16711E+000	3.57780E+000	10	...........
	3	0.053333	6.78714E-001	5.99457E-003	0.00000E+000	4.06860E-003	3.59960E-001	-1.17473E+000	3.57780E+000	10	...........
	4	0.066667	6.86504E-001	5.99450E-003	0.00000E+000	4.11525E-003	3.59960E-001	-1.17393E+000	3.57780E+000	10	...........
	5	0.08	6.94110E-001	5.99908E-003	0.00000E+000	4.16402E-003	3.59960E-001	-1.16670E+000	3.57780E+000	10	...........
	6	0.093333	7.01540E-001	5.99549E-003	0.00000E+000	4.20608E-003	3.59960E-001	-1.17446E+000	3.57780E+000	10	...........
	7	0.106667	7.08853E-001	5.99241E-003	0.00000E+000	4.24774E-003	3.59960E-001	-1.17394E+000	3.57780E+000	10	...........
	8	0.12	7.16123E-001	5.99409E-003	0.00000E+000	4.29251E-003	3.59960E-001	-1.16704E+000	3.57780E+000	10	...........
	9	0.133333	7.23329E-001	5.99603E-003	0.00000E+000	4.33711E-003	3.59960E-001	-1.17440E+000	3.57780E+000	10	...........
	10	0.146667	7.30396E-001	5.99257E-003	0.00000E+000	4.37695E-003	3.59960E-001	-1.17345E+000	3.57780E+000	10	...........
	11	0.16	7.37444E-001	5.99431E-003	0.00000E+000	4.42047E-003	3.59960E-001	-1.16673E+000	3.57780E+000	10	...........
	12	0.173333	7.44465E-001	5.99397E-003	0.00000E+000	4.46230E-003	3.59960E-001	-1.17426E+000	3.57780E+000	10	...........
	13	0.186667	7.51337E-001	5.98986E-003	0.00000E+000	4.50040E-003	3.59960E-001	-1.17320E+000	3.57780E+000	10	...........
	14	0.2	7.58243E-001	5.99091E-003	0.00000E+000	4.54257E-003	3.59960E-001	-1.16637E+000	3.57780E+000	10	...........
	15	0.213333	7.65083E-001	5.99344E-003	0.00000E+000	4.58548E-003	3.59960E-001	-1.17380E+000	3.57780E+000	10	...........
	16	0.226667	7.71967E-001	5.99658E-003	0.00000E+000	4.62916E-003	3.59960E-001	-1.17301E+000	3.57780E+000	10	...........
	17	0.24	7.78753E-001	5.99134E-003	0.00000E+000	4.66578E-003	3.59960E-001	-1.16621E+000	3.57780E+000	10	...........
	18	0.253333	7.85558E-001	5.99086E-003	0.00000E+000	4.70617E-003	3.59960E-001	-1.17402E+000	3.57780E+000	10	...........
	19	0.266667	7.92321E-001	5.99458E-003	0.00000E+000	4.74963E-003	3.59960E-001	-1.17294E+000	3.57780E+000	10	...........
	20	0.28	7.99096E-001	5.99491E-003	0.00000E+000	4.79051E-003	3.59960E-001	-1.16593E+000	3.57780E+000	10	...........
	21	0.293333	8.05796E-001	5.99354E-003	0.00000E+000	4.82957E-003	3.59960E-001	-1.17379E+000	3.57780E+000	10	...........
	22	0.306667	8.12457E-001	5.99163E-003	0.00000E+000	4.86794E-003	3.59960E-001	-1.17305E+000	3.57780E+000	10	...........
	23	0.32	8.19132E-001	5.99186E-003	0.00000E+000	4.90813E-003	3.59960E-001	-1.16610E+000	3.57780E+000	10	...........
	24	0.333333	8.25763E-001	5.99541E-003	0.00000E+000	4.95079E-003	3.59960E-001	-1.17393E+000	3.57780E+000	10	...........
	25	0.346667	8.32354E-001	5.99674E-003	0.00000E+000	4.99142E-003	3.59960E-001	-1.17266E+000	3.57780E+000	10	...........
	26	0.36	8.38907E-001	5.99028E-003	0.00000E+000	5.02528E-003	3.59960E-001	-1.16585E+000	3.57780E+000	10	...........
	27	0.373333	8.45506E-001	5.99538E-003	0.00000E+000	5.06912E-003	3.59960E-001	-1.17388E+000	3.57780E+000	10	...........
	28	0.386667	8.52027E-001	5.99079E-003	0.00000E+000	5.10431E-003	3.59960E-001	-1.17306E+000	3.57780E+000	10	...........
	29	0.4	8.58533E-001	5.99576E-003	0.00000E+000	5.14756E-003	3.59960E-001	-1.16608E+000	3.57780E+000	10	...........
	30	0.413333	8.65022E-001	5.99634E-003	0.00000E+000	5.18696E-003	3.59960E-001	-1.17364E+000	3.57780E+000	10	...........
	31	0.426667	8.71511E-001	5.99285E-003	0.00000E+000	5.22284E-003	3.59960E-001	-1.17279E+000	3.57780E+000	10	...........
	32	0.44	8.77924E-001	5.99674E-003	0.00000E+000	5.26468E-003	3.59960E-001	-1.16624E+000	3.57780E+000	10	...........
	33	0.453333	8.84301E-001	5.99172E-003	0.00000E+000	5.29848E-003	3.59960E-001	-1.17386E+000	3.57780E+000	10	...........
	34	0.466667	8.90604E-001	5.99725E-003	0.00000E+000	5.34118E-003	3.59960E-001	-1.17273E+000	3.57780E+000	10	...........
	35	0.48	8.96957E-001	5.99091E-003	0.00000E+000	5.37359E-003	3.59960E-001	-1.16585E+000	3.57780E+000	10	...........
	36	0.493333	9.03259E-001	5.99488E-003	0.00000E+000	5.41493E-003	3.59960E-001	-1.17319E+000	3.57780E+000	10	...........
	37	0.506667	9.09538E-001	5.99225E-003	0.00000E+000	5.45018E-003	3.59960E-001	-1.17255E+000	3.57780E+000	10	...........
	38	0.52	9.15745E-001	5.99283E-003	0.00000E+000	5.48791E-003	3.59960E-001	-1.16563E+000	3.57780E+000	10	...........
	39	0.533333	9.21948E-001	5.99669E-003	0.00000E+000	5.52863E-003	3.59960E-001	-1.17327E+000	3.57780E+000	10	...........
	40	0.546667	9.28101E-001	5.99534E-003	0.00000E+000	5.56428E-003	3.59960E-001	-1.17221E+000	3.57780E+000	10	...........
	41	0.56	9.34188E-001	5.99306E-003	0.00000E+000	5.59865E-003	3.59960E-001	-1.16540E+000	3.57780E+000	10	...........
	42	0.573333	9.40199E-001	5.99512E-003	0.00000E+000	5.63660E-003	3.59960E-001	-1.17339E+000	3.57780E+000	10	...........
	43	0.586667	9.46228E-001	5.99454E-003	0.00000E+000	5.67220E-003	3.59960E-001	-1.17244E+000	3.57780E+000	10	...........
	44	0.6	9.52184E-001	5.99150E-003	0.00000E+000	5.70501E-003	3.59960E-001	-1.16532E+000	3.57780E+000	10	...........
	45	0.613333	9.58100E-001	5.99478E-003	0.00000E+000	5.74360E-003	3.59960E-001	-1.17303E+000	3.57780E+000	10	...........
	46	0.626667	9.63934E-001	5.99231E-003	0.00000E+000	5.77619E-003	3.59960E-001	-1.17214E+000	3.57780E+000	10	...........
	47	0.64	9.69738E-001	5.99469E-003	0.00000E+000	5.81328E-003	3.59960E-001	-1.16536E+000	3.57780E+000	10	...........
	48	0.653333	9.75541E-001	5.98921E-003	0.00000E+000	5.84272E-003	3.59960E-001	-1.17313E+000	3.57780E+000	10	...........
	49	0.666667	9.81197E-001	5.98997E-003	0.00000E+000	5.87734E-003	3.59960E-001	-1.17191E+000	3.57780E+000	10	...........
	50	0.68	9.86849E-001	5.99390E-003	0.00000E+000	5.91507E-003	3.59960E-001	-1.16526E+000	3.57780E+000	10	...........
	51	0.693333	9.92435E-001	5.99896E-003	0.00000E+000	5.95358E-003	3.59960E-001	-1.17304E+000	3.57780E+000	10	...........
	52	0.706667	9.97952E-001	5.99196E-003	0.00000E+000	5.97968E-003	3.59960E-001	-1.17232E+000	3.57780E+000	10	...........
STARTTIMEOFFSET	QUANT	1439.029	Start Time Offset (s)