File: Data/CV_CRGO300517_1/PWRCCD_CRGO300517_1/CHARGE_DISCHARGE/CHARGE_#853.DTA
EXPLAIN
TAG	PWR800_CHARGE
TITLE	LABEL	PWR Cyclic Charge Discharge (Cell) - Charge Step	Test &Identifier
DATE	LABEL	22-6-2017	Date
TIME	LABEL	16:09:15	Time
NOTES	NOTES	3	&Notes...
	supercap test cell
	0.6mg
	6M KOH
PSTAT	PSTAT	IFC5000-01520	Potentiostat
CAPACITY	QUANT	1.00000E-003	Capacity (A-hr)
CELLTYPE	SELECTOR	1	&Cell Type
WORKINGCONNECTION	SELECTOR	0	&Working Lead
MAXCHARGETIME	VARIABLEANDUNITS	1.00000E+002	s	1.00000E+002	second(s)	Max &Charge Time
CHARGECURRENT	QUANT	6.00000E-003	&Charge Current (A)
VOLTAGEFINISH	TWOPARAM	F	1.00000E-003	3.60000E+003	&Voltage Finish	 I (A) < 	Max Time(s)
SAMPLETIME	QUANT	1.00000E-002	Sa&mple Period (s)
CHARGESTOPAT1	MULTIPARAM	4	1.00000E+000	Charge Stop At &1	Voltage > Limit	V
CHARGESTOPAT2	MULTIPARAM	0	0.00000E+000	Charge Stop At &2	None	N/A
AESBHCSELECTOR	TOGGLE	F	Save Both Half Cells
IRCOMP	TOGGLE	F	IR &Measure
EOC	QUANT	0	Open Circuit (V)
SEQUENCER	TOGGLE	TRUE	Run as Sequence
PSTATMODEL	IQUANT	53	Pstat Model
PSTATSECTION	LABEL	IFC5000-01520	Pstat Section
PSTATSERIALNO	LABEL	01520	Pstat Serial Number
CTRLMODE	IQUANT	0	Control Mode
ELECTROMETER	IQUANT	1	RE=0 or CS=1
IESTAB	IQUANT	0	I/E Stability
CASPEED	IQUANT	4	Control Amp Speed
CONVENTION	IQUANT	1	Current Convention
ICHRANGE	IQUANT	2	Ich Range
ICHRANGEMODE	TOGGLE	T	Ich Auto Range
ICHOFFSETENABLE	TOGGLE	F	Ich Offset Enable
ICHOFFSET	QUANT	0	Ich Offset (V)
ICHFILTER	IQUANT	1	Ich Filter
VCHRANGE	IQUANT	2	Vch Range
VCHRANGEMODE	TOGGLE	T	Vch Auto Range
VCHOFFSETENABLE	TOGGLE	F	Vch Offset Enable
VCHOFFSET	QUANT	0	Vch Offset (V)
VCHFILTER	IQUANT	1	Vch Filter
IERANGELOWERLIMIT	IQUANT	9	I/E Range Lower Limit
IERANGEMODE	TOGGLE	F	I/E AutoRange
IERANGE	IQUANT	10	I/E Range
ACHSELECT	IQUANT	1	Ach Select
ACHRANGE	IQUANT	2	Ach Range
ACHOFFSETENABLE	TOGGLE	F	Ach Offset Enable
ACHOFFSET	QUANT	0	Ach Offset (V)
ACHFILTER	IQUANT	1	Ach Filter
CABLEID	IQUANT	14	Cable ID
DCCALDATE	LABEL	20-10-2016	DC Calibration Date
ACCALDATE	LABEL	12/3/2015	AC Calibration Date
FRAMEWORKVERSION	QUANT	7.01	Framework Version
INSTRUMENTVERSION	LABEL	4.00	Instrument Version
CURVE	TABLE	54
	Pt	T	Vf	Im	Vu	Pwr	Sig	Ach	Temp	IERange	Over
	#	s	V	A	V	W	V	V	deg C	#	bits
	0	0.013333	6.50761E-001	5.99107E-003	0.00000E+000	3.89875E-003	3.59960E-001	-1.17366E+000	3.57640E+000	10	...........
	1	0.026667	6.59972E-001	5.99174E-003	0.00000E+000	3.95438E-003	3.59960E-001	-1.16583E+000	3.57640E+000	10	...........
	2	0.04	6.68538E-001	5.99381E-003	0.00000E+000	4.00709E-003	3.59960E-001	-1.16281E+000	3.57640E+000	10	...........
	3	0.053333	6.76571E-001	5.99222E-003	0.00000E+000	4.05416E-003	3.59960E-001	-1.17355E+000	3.57640E+000	10	...........
	4	0.066667	6.84326E-001	5.99572E-003	0.00000E+000	4.10303E-003	3.59960E-001	-1.16549E+000	3.57640E+000	10	...........
	5	0.08	6.91885E-001	5.99216E-003	0.00000E+000	4.14589E-003	3.59960E-001	-1.16265E+000	3.57640E+000	10	...........
	6	0.093333	6.99305E-001	5.99306E-003	0.00000E+000	4.19098E-003	3.59960E-001	-1.17334E+000	3.57640E+000	10	...........
	7	0.106667	7.06584E-001	5.99875E-003	0.00000E+000	4.23862E-003	3.59960E-001	-1.16552E+000	3.57640E+000	10	...........
	8	0.12	7.13758E-001	5.98920E-003	0.00000E+000	4.27484E-003	3.59960E-001	-1.16240E+000	3.57640E+000	10	...........
	9	0.133333	7.20918E-001	5.99137E-003	0.00000E+000	4.31929E-003	3.59960E-001	-1.17306E+000	3.57640E+000	10	...........
	10	0.146667	7.28017E-001	6.00007E-003	0.00000E+000	4.36815E-003	3.59960E-001	-1.16554E+000	3.57640E+000	10	...........
	11	0.16	7.34991E-001	5.99541E-003	0.00000E+000	4.40657E-003	3.59960E-001	-1.16255E+000	3.57640E+000	10	...........
	12	0.173333	7.41949E-001	5.99247E-003	0.00000E+000	4.44610E-003	3.59960E-001	-1.17335E+000	3.57675E+000	10	...........
	13	0.186667	7.48914E-001	5.99260E-003	0.00000E+000	4.48794E-003	3.59960E-001	-1.16527E+000	3.57710E+000	10	...........
	14	0.2	7.55779E-001	5.99876E-003	0.00000E+000	4.53373E-003	3.59960E-001	-1.16232E+000	3.57710E+000	10	...........
	15	0.213333	7.62594E-001	5.99257E-003	0.00000E+000	4.56990E-003	3.59960E-001	-1.17331E+000	3.57710E+000	10	...........
	16	0.226667	7.69461E-001	5.99552E-003	0.00000E+000	4.61332E-003	3.59960E-001	-1.16565E+000	3.57710E+000	10	...........
	17	0.24	7.76249E-001	5.99674E-003	0.00000E+000	4.65496E-003	3.59960E-001	-1.16238E+000	3.57710E+000	10	...........
	18	0.253333	7.82997E-001	5.99758E-003	0.00000E+000	4.69609E-003	3.59960E-001	-1.17317E+000	3.57710E+000	10	...........
	19	0.266667	7.89712E-001	5.99323E-003	0.00000E+000	4.73293E-003	3.59960E-001	-1.16528E+000	3.57710E+000	10	...........
	20	0.28	7.96454E-001	5.99471E-003	0.00000E+000	4.77451E-003	3.59960E-001	-1.16223E+000	3.57710E+000	10	...........
	21	0.293333	8.03117E-001	5.99982E-003	0.00000E+000	4.81856E-003	3.59960E-001	-1.17312E+000	3.57710E+000	10	...........
	22	0.306667	8.09779E-001	5.99172E-003	0.00000E+000	4.85196E-003	3.59960E-001	-1.16506E+000	3.57710E+000	10	...........
	23	0.32	8.16419E-001	5.98977E-003	0.00000E+000	4.89016E-003	3.59960E-001	-1.16148E+000	3.57710E+000	10	...........
	24	0.333333	8.23075E-001	5.99523E-003	0.00000E+000	4.93452E-003	3.59960E-001	-1.17238E+000	3.57710E+000	10	...........
	25	0.346667	8.29675E-001	5.99126E-003	0.00000E+000	4.97079E-003	3.59960E-001	-1.16505E+000	3.57710E+000	10	...........
	26	0.36	8.36242E-001	5.99351E-003	0.00000E+000	5.01203E-003	3.59960E-001	-1.16192E+000	3.57710E+000	10	...........
	27	0.373333	8.42801E-001	5.99193E-003	0.00000E+000	5.05001E-003	3.59960E-001	-1.17240E+000	3.57710E+000	10	...........
	28	0.386667	8.49312E-001	5.99688E-003	0.00000E+000	5.09322E-003	3.59960E-001	-1.16472E+000	3.57710E+000	10	...........
	29	0.4	8.55802E-001	5.99551E-003	0.00000E+000	5.13097E-003	3.59960E-001	-1.16131E+000	3.57710E+000	10	...........
	30	0.413333	8.62272E-001	5.99541E-003	0.00000E+000	5.16967E-003	3.59960E-001	-1.17241E+000	3.57710E+000	10	...........
	31	0.426667	8.68750E-001	5.99633E-003	0.00000E+000	5.20931E-003	3.59960E-001	-1.16510E+000	3.57710E+000	10	...........
	32	0.44	8.75219E-001	5.99014E-003	0.00000E+000	5.24269E-003	3.59960E-001	-1.16162E+000	3.57710E+000	10	...........
	33	0.453333	8.81550E-001	5.99456E-003	0.00000E+000	5.28451E-003	3.59960E-001	-1.17209E+000	3.57710E+000	10	...........
	34	0.466667	8.87916E-001	5.99839E-003	0.00000E+000	5.32607E-003	3.59960E-001	-1.16498E+000	3.57710E+000	10	...........
	35	0.48	8.94257E-001	5.99284E-003	0.00000E+000	5.35914E-003	3.59960E-001	-1.16161E+000	3.57710E+000	10	...........
	36	0.493333	9.00537E-001	5.99490E-003	0.00000E+000	5.39863E-003	3.59960E-001	-1.17226E+000	3.57710E+000	10	...........
	37	0.506667	9.06821E-001	5.99770E-003	0.00000E+000	5.43884E-003	3.59960E-001	-1.16492E+000	3.57710E+000	10	...........
	38	0.52	9.12976E-001	5.99454E-003	0.00000E+000	5.47287E-003	3.59960E-001	-1.16162E+000	3.57710E+000	10	...........
	39	0.533333	9.19175E-001	5.99157E-003	0.00000E+000	5.50730E-003	3.59960E-001	-1.17234E+000	3.57710E+000	10	...........
	40	0.546667	9.25366E-001	5.99615E-003	0.00000E+000	5.54863E-003	3.59960E-001	-1.16527E+000	3.57710E+000	10	...........
	41	0.56	9.31454E-001	5.99571E-003	0.00000E+000	5.58473E-003	3.59960E-001	-1.16195E+000	3.57710E+000	10	...........
	42	0.573333	9.37520E-001	5.98859E-003	0.00000E+000	5.61442E-003	3.59960E-001	-1.17252E+000	3.57710E+000	10	...........
	43	0.586667	9.43524E-001	5.99641E-003	0.00000E+000	5.65776E-003	3.59960E-001	-1.16508E+000	3.57710E+000	10	...........
	44	0.6	9.49483E-001	5.99650E-003	0.00000E+000	5.69358E-003	3.59960E-001	-1.16158E+000	3.57710E+000	10	...........
	45	0.613333	9.55355E-001	5.99065E-003	0.00000E+000	5.72320E-003	3.59960E-001	-1.17248E+000	3.57710E+000	10	...........
	46	0.626667	9.61207E-001	5.99104E-003	0.00000E+000	5.75863E-003	3.59960E-001	-1.16496E+000	3.57710E+000	10	...........
	47	0.64	9.66995E-001	5.99616E-003	0.00000E+000	5.79826E-003	3.59960E-001	-1.16147E+000	3.57710E+000	10	...........
	48	0.653333	9.72791E-001	5.99735E-003	0.00000E+000	5.83417E-003	3.59960E-001	-1.17199E+000	3.57710E+000	10	...........
	49	0.666667	9.78537E-001	5.99410E-003	0.00000E+000	5.86545E-003	3.59960E-001	-1.16504E+000	3.57710E+000	10	...........
	50	0.68	9.84178E-001	5.99275E-003	0.00000E+000	5.89793E-003	3.59960E-001	-1.16158E+000	3.57710E+000	10	...........
	51	0.693333	9.89819E-001	5.99275E-003	0.00000E+000	5.93174E-003	3.59960E-001	-1.17222E+000	3.57710E+000	10	...........
	52	0.706667	9.95341E-001	5.99016E-003	0.00000E+000	5.96225E-003	3.59960E-001	-1.16506E+000	3.57710E+000	10	...........
	53	0.713333	9.99506E-001	5.99429E-003	0.00000E+000	5.99133E-003	3.59960E-001	-1.16854E+000	3.57710E+000	10	...........
STARTTIMEOFFSET	QUANT	1379.701	Start Time Offset (s)