File: Data/CV_CRGO300517_1/PWRCCD_CRGO300517_1/CHARGE_DISCHARGE/CHARGE_#470.DTA
EXPLAIN
TAG	PWR800_CHARGE
TITLE	LABEL	PWR Cyclic Charge Discharge (Cell) - Charge Step	Test &Identifier
DATE	LABEL	22-6-2017	Date
TIME	LABEL	15:54:44	Time
NOTES	NOTES	3	&Notes...
	supercap test cell
	0.6mg
	6M KOH
PSTAT	PSTAT	IFC5000-01520	Potentiostat
CAPACITY	QUANT	1.00000E-003	Capacity (A-hr)
CELLTYPE	SELECTOR	1	&Cell Type
WORKINGCONNECTION	SELECTOR	0	&Working Lead
MAXCHARGETIME	VARIABLEANDUNITS	1.00000E+002	s	1.00000E+002	second(s)	Max &Charge Time
CHARGECURRENT	QUANT	6.00000E-003	&Charge Current (A)
VOLTAGEFINISH	TWOPARAM	F	1.00000E-003	3.60000E+003	&Voltage Finish	 I (A) < 	Max Time(s)
SAMPLETIME	QUANT	1.00000E-002	Sa&mple Period (s)
CHARGESTOPAT1	MULTIPARAM	4	1.00000E+000	Charge Stop At &1	Voltage > Limit	V
CHARGESTOPAT2	MULTIPARAM	0	0.00000E+000	Charge Stop At &2	None	N/A
AESBHCSELECTOR	TOGGLE	F	Save Both Half Cells
IRCOMP	TOGGLE	F	IR &Measure
EOC	QUANT	0	Open Circuit (V)
SEQUENCER	TOGGLE	TRUE	Run as Sequence
PSTATMODEL	IQUANT	53	Pstat Model
PSTATSECTION	LABEL	IFC5000-01520	Pstat Section
PSTATSERIALNO	LABEL	01520	Pstat Serial Number
CTRLMODE	IQUANT	0	Control Mode
ELECTROMETER	IQUANT	1	RE=0 or CS=1
IESTAB	IQUANT	0	I/E Stability
CASPEED	IQUANT	4	Control Amp Speed
CONVENTION	IQUANT	1	Current Convention
ICHRANGE	IQUANT	2	Ich Range
ICHRANGEMODE	TOGGLE	T	Ich Auto Range
ICHOFFSETENABLE	TOGGLE	F	Ich Offset Enable
ICHOFFSET	QUANT	0	Ich Offset (V)
ICHFILTER	IQUANT	1	Ich Filter
VCHRANGE	IQUANT	2	Vch Range
VCHRANGEMODE	TOGGLE	T	Vch Auto Range
VCHOFFSETENABLE	TOGGLE	F	Vch Offset Enable
VCHOFFSET	QUANT	0	Vch Offset (V)
VCHFILTER	IQUANT	1	Vch Filter
IERANGELOWERLIMIT	IQUANT	9	I/E Range Lower Limit
IERANGEMODE	TOGGLE	F	I/E AutoRange
IERANGE	IQUANT	10	I/E Range
ACHSELECT	IQUANT	1	Ach Select
ACHRANGE	IQUANT	2	Ach Range
ACHOFFSETENABLE	TOGGLE	F	Ach Offset Enable
ACHOFFSET	QUANT	0	Ach Offset (V)
ACHFILTER	IQUANT	1	Ach Filter
CABLEID	IQUANT	14	Cable ID
DCCALDATE	LABEL	20-10-2016	DC Calibration Date
ACCALDATE	LABEL	12/3/2015	AC Calibration Date
FRAMEWORKVERSION	QUANT	7.01	Framework Version
INSTRUMENTVERSION	LABEL	4.00	Instrument Version
CURVE	TABLE	59
	Pt	T	Vf	Im	Vu	Pwr	Sig	Ach	Temp	IERange	Over
	#	s	V	A	V	W	V	V	deg C	#	bits
	0	0.013333	6.29833E-001	5.99444E-003	0.00000E+000	3.77550E-003	3.59960E-001	-1.14002E+000	3.57710E+000	10	...........
	1	0.026667	6.38699E-001	5.99487E-003	0.00000E+000	3.82892E-003	3.59960E-001	-1.13961E+000	3.57710E+000	10	...........
	2	0.04	6.46811E-001	5.99593E-003	0.00000E+000	3.87823E-003	3.59960E-001	-1.14991E+000	3.57710E+000	10	...........
	3	0.053333	6.54490E-001	5.99037E-003	0.00000E+000	3.92064E-003	3.59960E-001	-1.14005E+000	3.57710E+000	10	...........
	4	0.066667	6.61959E-001	5.99103E-003	0.00000E+000	3.96581E-003	3.59960E-001	-1.13994E+000	3.57710E+000	10	...........
	5	0.08	6.69252E-001	5.99816E-003	0.00000E+000	4.01428E-003	3.59960E-001	-1.15035E+000	3.57710E+000	10	...........
	6	0.093333	6.76374E-001	5.99299E-003	0.00000E+000	4.05350E-003	3.59960E-001	-1.13998E+000	3.57710E+000	10	...........
	7	0.106667	6.83328E-001	5.99235E-003	0.00000E+000	4.09474E-003	3.59960E-001	-1.13998E+000	3.57710E+000	10	...........
	8	0.12	6.90202E-001	5.99105E-003	0.00000E+000	4.13503E-003	3.59960E-001	-1.15015E+000	3.57710E+000	10	...........
	9	0.133333	6.97016E-001	5.99026E-003	0.00000E+000	4.17530E-003	3.59960E-001	-1.13997E+000	3.57710E+000	10	...........
	10	0.146667	7.03792E-001	5.99664E-003	0.00000E+000	4.22039E-003	3.59960E-001	-1.14017E+000	3.57710E+000	10	...........
	11	0.16	7.10479E-001	5.99075E-003	0.00000E+000	4.25630E-003	3.59960E-001	-1.15002E+000	3.57710E+000	10	...........
	12	0.173333	7.17193E-001	5.99296E-003	0.00000E+000	4.29811E-003	3.59960E-001	-1.13989E+000	3.57710E+000	10	...........
	13	0.186667	7.23839E-001	5.99330E-003	0.00000E+000	4.33819E-003	3.59960E-001	-1.14039E+000	3.57710E+000	10	...........
	14	0.2	7.30439E-001	5.99476E-003	0.00000E+000	4.37881E-003	3.59960E-001	-1.15016E+000	3.57710E+000	10	...........
	15	0.213333	7.36987E-001	5.99179E-003	0.00000E+000	4.41587E-003	3.59960E-001	-1.13996E+000	3.57710E+000	10	...........
	16	0.226667	7.43590E-001	5.99306E-003	0.00000E+000	4.45638E-003	3.59960E-001	-1.14077E+000	3.57710E+000	10	...........
	17	0.24	7.50130E-001	5.99694E-003	0.00000E+000	4.49849E-003	3.59960E-001	-1.15034E+000	3.57710E+000	10	...........
	18	0.253333	7.56671E-001	5.99314E-003	0.00000E+000	4.53484E-003	3.59960E-001	-1.13995E+000	3.57710E+000	10	...........
	19	0.266667	7.63160E-001	5.99652E-003	0.00000E+000	4.57631E-003	3.59960E-001	-1.14091E+000	3.57710E+000	10	...........
	20	0.28	7.69635E-001	5.99013E-003	0.00000E+000	4.61021E-003	3.59960E-001	-1.15015E+000	3.57710E+000	10	...........
	21	0.293333	7.76095E-001	5.99007E-003	0.00000E+000	4.64886E-003	3.59960E-001	-1.14001E+000	3.57710E+000	10	...........
	22	0.306667	7.82577E-001	5.99208E-003	0.00000E+000	4.68927E-003	3.59960E-001	-1.14095E+000	3.57710E+000	10	...........
	23	0.32	7.89017E-001	5.99296E-003	0.00000E+000	4.72855E-003	3.59960E-001	-1.14991E+000	3.57710E+000	10	...........
	24	0.333333	7.95472E-001	5.98919E-003	0.00000E+000	4.76424E-003	3.59960E-001	-1.13963E+000	3.57710E+000	10	...........
	25	0.346667	8.01871E-001	5.99185E-003	0.00000E+000	4.80469E-003	3.59960E-001	-1.14094E+000	3.57710E+000	10	...........
	26	0.36	8.08269E-001	5.99284E-003	0.00000E+000	4.84383E-003	3.59960E-001	-1.15013E+000	3.57710E+000	10	...........
	27	0.373333	8.14663E-001	5.99243E-003	0.00000E+000	4.88181E-003	3.59960E-001	-1.13984E+000	3.57710E+000	10	...........
	28	0.386667	8.21047E-001	6.00079E-003	0.00000E+000	4.92693E-003	3.59960E-001	-1.14146E+000	3.57710E+000	10	...........
	29	0.4	8.27398E-001	5.99258E-003	0.00000E+000	4.95825E-003	3.59960E-001	-1.15029E+000	3.57754E+000	10	...........
	30	0.413333	8.33740E-001	5.99592E-003	0.00000E+000	4.99904E-003	3.59960E-001	-1.13983E+000	3.57760E+000	10	...........
	31	0.426667	8.40031E-001	5.99472E-003	0.00000E+000	5.03575E-003	3.59960E-001	-1.14135E+000	3.57760E+000	10	...........
	32	0.44	8.46360E-001	5.99609E-003	0.00000E+000	5.07485E-003	3.59960E-001	-1.14993E+000	3.57760E+000	10	...........
	33	0.453333	8.52627E-001	5.99661E-003	0.00000E+000	5.11287E-003	3.59960E-001	-1.13956E+000	3.57760E+000	10	...........
	34	0.466667	8.58883E-001	5.99276E-003	0.00000E+000	5.14708E-003	3.59960E-001	-1.14145E+000	3.57760E+000	10	...........
	35	0.48	8.65109E-001	5.99297E-003	0.00000E+000	5.18457E-003	3.59960E-001	-1.14975E+000	3.57760E+000	10	...........
	36	0.493333	8.71356E-001	5.99757E-003	0.00000E+000	5.22602E-003	3.59960E-001	-1.13950E+000	3.57760E+000	10	...........
	37	0.506667	8.77540E-001	5.98995E-003	0.00000E+000	5.25642E-003	3.59960E-001	-1.14155E+000	3.57760E+000	10	...........
	38	0.52	8.83717E-001	5.99389E-003	0.00000E+000	5.29690E-003	3.59960E-001	-1.14979E+000	3.57760E+000	10	...........
	39	0.533333	8.89896E-001	5.99791E-003	0.00000E+000	5.33752E-003	3.59960E-001	-1.13965E+000	3.57760E+000	10	...........
	40	0.546667	8.96009E-001	5.99605E-003	0.00000E+000	5.37252E-003	3.59960E-001	-1.14176E+000	3.57760E+000	10	...........
	41	0.56	9.02132E-001	5.99855E-003	0.00000E+000	5.41148E-003	3.59960E-001	-1.14972E+000	3.57760E+000	10	...........
	42	0.573333	9.08226E-001	5.99498E-003	0.00000E+000	5.44480E-003	3.59960E-001	-1.13949E+000	3.57760E+000	10	...........
	43	0.586667	9.14274E-001	5.99508E-003	0.00000E+000	5.48115E-003	3.59960E-001	-1.14187E+000	3.57760E+000	10	...........
	44	0.6	9.20314E-001	5.99734E-003	0.00000E+000	5.51944E-003	3.59960E-001	-1.14952E+000	3.57760E+000	10	...........
	45	0.613333	9.26322E-001	5.99894E-003	0.00000E+000	5.55695E-003	3.59960E-001	-1.13908E+000	3.57760E+000	10	...........
	46	0.626667	9.32280E-001	5.98865E-003	0.00000E+000	5.58310E-003	3.59960E-001	-1.14150E+000	3.57760E+000	10	...........
	47	0.64	9.38202E-001	5.99526E-003	0.00000E+000	5.62477E-003	3.59960E-001	-1.14840E+000	3.57760E+000	10	...........
	48	0.653333	9.44058E-001	5.99760E-003	0.00000E+000	5.66208E-003	3.59960E-001	-1.13840E+000	3.57760E+000	10	...........
	49	0.666667	9.49929E-001	5.99627E-003	0.00000E+000	5.69604E-003	3.59960E-001	-1.14116E+000	3.57760E+000	10	...........
	50	0.68	9.55733E-001	5.99234E-003	0.00000E+000	5.72708E-003	3.59960E-001	-1.14801E+000	3.57760E+000	10	...........
	51	0.693333	9.61482E-001	5.99225E-003	0.00000E+000	5.76144E-003	3.59960E-001	-1.13806E+000	3.57760E+000	10	...........
	52	0.706667	9.67182E-001	5.99296E-003	0.00000E+000	5.79628E-003	3.59960E-001	-1.14119E+000	3.57760E+000	10	...........
	53	0.72	9.72901E-001	5.99268E-003	0.00000E+000	5.83028E-003	3.59960E-001	-1.14818E+000	3.57760E+000	10	...........
	54	0.733333	9.78564E-001	5.99079E-003	0.00000E+000	5.86237E-003	3.59960E-001	-1.13803E+000	3.57760E+000	10	...........
	55	0.746667	9.84132E-001	5.99540E-003	0.00000E+000	5.90026E-003	3.59960E-001	-1.14133E+000	3.57760E+000	10	...........
	56	0.76	9.89639E-001	5.99395E-003	0.00000E+000	5.93184E-003	3.59960E-001	-1.14777E+000	3.57760E+000	10	...........
	57	0.773333	9.95171E-001	5.99735E-003	0.00000E+000	5.96839E-003	3.59960E-001	-1.13809E+000	3.57760E+000	10	...........
	58	0.78	9.99266E-001	5.99905E-003	0.00000E+000	5.99465E-003	3.59960E-001	-1.15116E+000	3.57760E+000	10	...........
STARTTIMEOFFSET	QUANT	812.6218	Start Time Offset (s)