File: Data/CV_CRGO300517_1/PWRCCD_CRGO300517_1/CHARGE_DISCHARGE/CHARGE_#142.DTA
EXPLAIN
TAG	PWR800_CHARGE
TITLE	LABEL	PWR Cyclic Charge Discharge (Cell) - Charge Step	Test &Identifier
DATE	LABEL	22-6-2017	Date
TIME	LABEL	15:41:20	Time
NOTES	NOTES	3	&Notes...
	supercap test cell
	0.6mg
	6M KOH
PSTAT	PSTAT	IFC5000-01520	Potentiostat
CAPACITY	QUANT	1.00000E-003	Capacity (A-hr)
CELLTYPE	SELECTOR	1	&Cell Type
WORKINGCONNECTION	SELECTOR	0	&Working Lead
MAXCHARGETIME	VARIABLEANDUNITS	1.00000E+002	s	1.00000E+002	second(s)	Max &Charge Time
CHARGECURRENT	QUANT	6.00000E-003	&Charge Current (A)
VOLTAGEFINISH	TWOPARAM	F	1.00000E-003	3.60000E+003	&Voltage Finish	 I (A) < 	Max Time(s)
SAMPLETIME	QUANT	1.00000E-002	Sa&mple Period (s)
CHARGESTOPAT1	MULTIPARAM	4	1.00000E+000	Charge Stop At &1	Voltage > Limit	V
CHARGESTOPAT2	MULTIPARAM	0	0.00000E+000	Charge Stop At &2	None	N/A
AESBHCSELECTOR	TOGGLE	F	Save Both Half Cells
IRCOMP	TOGGLE	F	IR &Measure
EOC	QUANT	0	Open Circuit (V)
SEQUENCER	TOGGLE	TRUE	Run as Sequence
PSTATMODEL	IQUANT	53	Pstat Model
PSTATSECTION	LABEL	IFC5000-01520	Pstat Section
PSTATSERIALNO	LABEL	01520	Pstat Serial Number
CTRLMODE	IQUANT	0	Control Mode
ELECTROMETER	IQUANT	1	RE=0 or CS=1
IESTAB	IQUANT	0	I/E Stability
CASPEED	IQUANT	4	Control Amp Speed
CONVENTION	IQUANT	1	Current Convention
ICHRANGE	IQUANT	2	Ich Range
ICHRANGEMODE	TOGGLE	T	Ich Auto Range
ICHOFFSETENABLE	TOGGLE	F	Ich Offset Enable
ICHOFFSET	QUANT	0	Ich Offset (V)
ICHFILTER	IQUANT	1	Ich Filter
VCHRANGE	IQUANT	2	Vch Range
VCHRANGEMODE	TOGGLE	T	Vch Auto Range
VCHOFFSETENABLE	TOGGLE	F	Vch Offset Enable
VCHOFFSET	QUANT	0	Vch Offset (V)
VCHFILTER	IQUANT	1	Vch Filter
IERANGELOWERLIMIT	IQUANT	9	I/E Range Lower Limit
IERANGEMODE	TOGGLE	F	I/E AutoRange
IERANGE	IQUANT	10	I/E Range
ACHSELECT	IQUANT	1	Ach Select
ACHRANGE	IQUANT	2	Ach Range
ACHOFFSETENABLE	TOGGLE	F	Ach Offset Enable
ACHOFFSET	QUANT	0	Ach Offset (V)
ACHFILTER	IQUANT	1	Ach Filter
CABLEID	IQUANT	14	Cable ID
DCCALDATE	LABEL	20-10-2016	DC Calibration Date
ACCALDATE	LABEL	12/3/2015	AC Calibration Date
FRAMEWORKVERSION	QUANT	7.01	Framework Version
INSTRUMENTVERSION	LABEL	4.00	Instrument Version
CURVE	TABLE	68
	Pt	T	Vf	Im	Vu	Pwr	Sig	Ach	Temp	IERange	Over
	#	s	V	A	V	W	V	V	deg C	#	bits
	0	0.013333	5.96642E-001	5.99470E-003	0.00000E+000	3.57669E-003	3.59960E-001	-1.08863E+000	3.57690E+000	10	...........
	1	0.026667	6.05002E-001	5.99657E-003	0.00000E+000	3.62793E-003	3.59960E-001	-1.09139E+000	3.57690E+000	10	...........
	2	0.04	6.12706E-001	5.99520E-003	0.00000E+000	3.67329E-003	3.59960E-001	-1.08531E+000	3.57690E+000	10	...........
	3	0.053333	6.20010E-001	5.99622E-003	0.00000E+000	3.71772E-003	3.59960E-001	-1.09104E+000	3.57690E+000	10	...........
	4	0.066667	6.27049E-001	5.99669E-003	0.00000E+000	3.76022E-003	3.59960E-001	-1.09394E+000	3.57690E+000	10	...........
	5	0.08	6.33845E-001	5.99275E-003	0.00000E+000	3.79847E-003	3.59960E-001	-1.08837E+000	3.57690E+000	10	...........
	6	0.093333	6.40565E-001	5.99432E-003	0.00000E+000	3.83975E-003	3.59960E-001	-1.09469E+000	3.57690E+000	10	...........
	7	0.106667	6.47104E-001	5.99150E-003	0.00000E+000	3.87712E-003	3.59960E-001	-1.09778E+000	3.57690E+000	10	...........
	8	0.12	6.53578E-001	5.99368E-003	0.00000E+000	3.91734E-003	3.59960E-001	-1.09252E+000	3.57690E+000	10	...........
	9	0.133333	6.59973E-001	5.99505E-003	0.00000E+000	3.95658E-003	3.59960E-001	-1.09972E+000	3.57690E+000	10	...........
	10	0.146667	6.66327E-001	5.99749E-003	0.00000E+000	3.99629E-003	3.59960E-001	-1.10380E+000	3.57690E+000	10	...........
	11	0.16	6.72573E-001	5.99704E-003	0.00000E+000	4.03344E-003	3.59960E-001	-1.09909E+000	3.57690E+000	10	...........
	12	0.173333	6.78825E-001	5.99430E-003	0.00000E+000	4.06908E-003	3.59960E-001	-1.10625E+000	3.57690E+000	10	...........
	13	0.186667	6.85003E-001	5.99492E-003	0.00000E+000	4.10653E-003	3.59960E-001	-1.11017E+000	3.57690E+000	10	...........
	14	0.2	6.91172E-001	5.99265E-003	0.00000E+000	4.14196E-003	3.59960E-001	-1.10571E+000	3.57690E+000	10	...........
	15	0.213333	6.97305E-001	5.99354E-003	0.00000E+000	4.17932E-003	3.59960E-001	-1.11217E+000	3.57690E+000	10	...........
	16	0.226667	7.03464E-001	5.99587E-003	0.00000E+000	4.21788E-003	3.59960E-001	-1.11624E+000	3.57690E+000	10	...........
	17	0.24	7.09582E-001	5.99591E-003	0.00000E+000	4.25459E-003	3.59960E-001	-1.11158E+000	3.57690E+000	10	...........
	18	0.253333	7.15705E-001	5.99632E-003	0.00000E+000	4.29159E-003	3.59960E-001	-1.11905E+000	3.57690E+000	10	...........
	19	0.266667	7.21805E-001	5.99657E-003	0.00000E+000	4.32835E-003	3.59960E-001	-1.12452E+000	3.57690E+000	10	...........
	20	0.28	7.27836E-001	5.99728E-003	0.00000E+000	4.36503E-003	3.59960E-001	-1.12049E+000	3.57690E+000	10	...........
	21	0.293333	7.33899E-001	5.99786E-003	0.00000E+000	4.40183E-003	3.59960E-001	-1.12838E+000	3.57690E+000	10	...........
	22	0.306667	7.39920E-001	5.99377E-003	0.00000E+000	4.43491E-003	3.59960E-001	-1.13336E+000	3.57690E+000	10	...........
	23	0.32	7.45988E-001	5.99439E-003	0.00000E+000	4.47174E-003	3.59960E-001	-1.12950E+000	3.57690E+000	10	...........
	24	0.333333	7.51989E-001	5.99609E-003	0.00000E+000	4.50899E-003	3.59960E-001	-1.13674E+000	3.57696E+000	10	...........
	25	0.346667	7.58046E-001	5.99811E-003	0.00000E+000	4.54684E-003	3.59960E-001	-1.14149E+000	3.57710E+000	10	...........
	26	0.36	7.64064E-001	5.99517E-003	0.00000E+000	4.58069E-003	3.59960E-001	-1.13664E+000	3.57710E+000	10	...........
	27	0.373333	7.70095E-001	5.99476E-003	0.00000E+000	4.61654E-003	3.59960E-001	-1.14238E+000	3.57710E+000	10	...........
	28	0.386667	7.76095E-001	5.99260E-003	0.00000E+000	4.65083E-003	3.59960E-001	-1.14545E+000	3.57710E+000	10	...........
	29	0.4	7.82121E-001	5.99378E-003	0.00000E+000	4.68786E-003	3.59960E-001	-1.13946E+000	3.57710E+000	10	...........
	30	0.413333	7.88088E-001	5.99147E-003	0.00000E+000	4.72180E-003	3.59960E-001	-1.14406E+000	3.57710E+000	10	...........
	31	0.426667	7.94132E-001	5.99115E-003	0.00000E+000	4.75776E-003	3.59960E-001	-1.14599E+000	3.57710E+000	10	...........
	32	0.44	8.00103E-001	5.99534E-003	0.00000E+000	4.79688E-003	3.59960E-001	-1.13764E+000	3.57710E+000	10	...........
	33	0.453333	8.06075E-001	5.99494E-003	0.00000E+000	4.83237E-003	3.59960E-001	-1.13981E+000	3.57710E+000	10	...........
	34	0.466667	8.12068E-001	5.99515E-003	0.00000E+000	4.86847E-003	3.59960E-001	-1.13978E+000	3.57710E+000	10	...........
	35	0.48	8.18023E-001	5.99767E-003	0.00000E+000	4.90623E-003	3.59960E-001	-1.13023E+000	3.57710E+000	10	...........
	36	0.493333	8.24015E-001	5.99185E-003	0.00000E+000	4.93738E-003	3.59960E-001	-1.13116E+000	3.57710E+000	10	...........
	37	0.506667	8.29975E-001	5.99387E-003	0.00000E+000	4.97477E-003	3.59960E-001	-1.12988E+000	3.57710E+000	10	...........
	38	0.52	8.35916E-001	5.99141E-003	0.00000E+000	5.00832E-003	3.59960E-001	-1.11865E+000	3.57710E+000	10	...........
	39	0.533333	8.41859E-001	5.99639E-003	0.00000E+000	5.04812E-003	3.59960E-001	-1.11842E+000	3.57710E+000	10	...........
	40	0.546667	8.47838E-001	5.99769E-003	0.00000E+000	5.08507E-003	3.59960E-001	-1.11637E+000	3.57710E+000	10	...........
	41	0.56	8.53751E-001	5.99295E-003	0.00000E+000	5.11649E-003	3.59960E-001	-1.10514E+000	3.57710E+000	10	...........
	42	0.573333	8.59661E-001	5.99466E-003	0.00000E+000	5.15337E-003	3.59960E-001	-1.10501E+000	3.57710E+000	10	...........
	43	0.586667	8.65553E-001	5.99620E-003	0.00000E+000	5.19003E-003	3.59960E-001	-1.10376E+000	3.57710E+000	10	...........
	44	0.6	8.71465E-001	5.99287E-003	0.00000E+000	5.22258E-003	3.59960E-001	-1.09356E+000	3.57710E+000	10	...........
	45	0.613333	8.77371E-001	5.99528E-003	0.00000E+000	5.26009E-003	3.59960E-001	-1.09470E+000	3.57710E+000	10	...........
	46	0.626667	8.83238E-001	5.99182E-003	0.00000E+000	5.29221E-003	3.59960E-001	-1.09460E+000	3.57710E+000	10	...........
	47	0.64	8.89117E-001	5.99355E-003	0.00000E+000	5.32897E-003	3.59960E-001	-1.08466E+000	3.57710E+000	10	...........
	48	0.653333	8.94941E-001	5.99406E-003	0.00000E+000	5.36434E-003	3.59960E-001	-1.08608E+000	3.57710E+000	10	...........
	49	0.666667	9.00786E-001	5.99757E-003	0.00000E+000	5.40252E-003	3.59960E-001	-1.08624E+000	3.57710E+000	10	...........
	50	0.68	9.06598E-001	5.99481E-003	0.00000E+000	5.43489E-003	3.59960E-001	-1.07693E+000	3.57710E+000	10	...........
	51	0.693333	9.12425E-001	5.99709E-003	0.00000E+000	5.47189E-003	3.59960E-001	-1.07889E+000	3.57710E+000	10	...........
	52	0.706667	9.18210E-001	5.99359E-003	0.00000E+000	5.50338E-003	3.59960E-001	-1.07983E+000	3.57710E+000	10	...........
	53	0.72	9.24003E-001	5.99535E-003	0.00000E+000	5.53972E-003	3.59960E-001	-1.07099E+000	3.57710E+000	10	...........
	54	0.733333	9.29728E-001	5.99305E-003	0.00000E+000	5.57191E-003	3.59960E-001	-1.07387E+000	3.57710E+000	10	...........
	55	0.746667	9.35438E-001	5.99563E-003	0.00000E+000	5.60853E-003	3.59960E-001	-1.07604E+000	3.57710E+000	10	...........
	56	0.76	9.41125E-001	5.99830E-003	0.00000E+000	5.64515E-003	3.59960E-001	-1.06743E+000	3.57710E+000	10	...........
	57	0.773333	9.46792E-001	5.99641E-003	0.00000E+000	5.67735E-003	3.59960E-001	-1.07074E+000	3.57710E+000	10	...........
	58	0.786667	9.52411E-001	5.99648E-003	0.00000E+000	5.71112E-003	3.59960E-001	-1.07296E+000	3.57710E+000	10	...........
	59	0.8	9.58008E-001	5.99404E-003	0.00000E+000	5.74234E-003	3.59960E-001	-1.06517E+000	3.57710E+000	10	...........
	60	0.813333	9.63575E-001	5.99385E-003	0.00000E+000	5.77553E-003	3.59960E-001	-1.06848E+000	3.57710E+000	10	...........
	61	0.826667	9.69064E-001	5.99283E-003	0.00000E+000	5.80744E-003	3.59960E-001	-1.07134E+000	3.57710E+000	10	...........
	62	0.84	9.74660E-001	5.99047E-003	0.00000E+000	5.83867E-003	3.59960E-001	-1.06374E+000	3.57710E+000	10	...........
	63	0.853333	9.80115E-001	5.99823E-003	0.00000E+000	5.87896E-003	3.59960E-001	-1.06769E+000	3.57710E+000	10	...........
	64	0.866667	9.85531E-001	5.99329E-003	0.00000E+000	5.90657E-003	3.59960E-001	-1.07121E+000	3.57710E+000	10	...........
	65	0.88	9.90948E-001	5.99109E-003	0.00000E+000	5.93686E-003	3.59960E-001	-1.06368E+000	3.57710E+000	10	...........
	66	0.893333	9.96309E-001	5.98998E-003	0.00000E+000	5.96787E-003	3.59960E-001	-1.06731E+000	3.57710E+000	10	...........
	67	0.898333	1.00002E+000	5.99721E-003	0.00000E+000	5.99732E-003	3.59960E-001	-1.06401E+000	3.57710E+000	10	...........
STARTTIMEOFFSET	QUANT	271.3617	Start Time Offset (s)