File: Data/CV_CRGO300517_1/PWRCCD_CRGO300517_1/CHARGE_DISCHARGE/CHARGE_#492.DTA
EXPLAIN
TAG	PWR800_CHARGE
TITLE	LABEL	PWR Cyclic Charge Discharge (Cell) - Charge Step	Test &Identifier
DATE	LABEL	22-6-2017	Date
TIME	LABEL	15:55:37	Time
NOTES	NOTES	3	&Notes...
	supercap test cell
	0.6mg
	6M KOH
PSTAT	PSTAT	IFC5000-01520	Potentiostat
CAPACITY	QUANT	1.00000E-003	Capacity (A-hr)
CELLTYPE	SELECTOR	1	&Cell Type
WORKINGCONNECTION	SELECTOR	0	&Working Lead
MAXCHARGETIME	VARIABLEANDUNITS	1.00000E+002	s	1.00000E+002	second(s)	Max &Charge Time
CHARGECURRENT	QUANT	6.00000E-003	&Charge Current (A)
VOLTAGEFINISH	TWOPARAM	F	1.00000E-003	3.60000E+003	&Voltage Finish	 I (A) < 	Max Time(s)
SAMPLETIME	QUANT	1.00000E-002	Sa&mple Period (s)
CHARGESTOPAT1	MULTIPARAM	4	1.00000E+000	Charge Stop At &1	Voltage > Limit	V
CHARGESTOPAT2	MULTIPARAM	0	0.00000E+000	Charge Stop At &2	None	N/A
AESBHCSELECTOR	TOGGLE	F	Save Both Half Cells
IRCOMP	TOGGLE	F	IR &Measure
EOC	QUANT	0	Open Circuit (V)
SEQUENCER	TOGGLE	TRUE	Run as Sequence
PSTATMODEL	IQUANT	53	Pstat Model
PSTATSECTION	LABEL	IFC5000-01520	Pstat Section
PSTATSERIALNO	LABEL	01520	Pstat Serial Number
CTRLMODE	IQUANT	0	Control Mode
ELECTROMETER	IQUANT	1	RE=0 or CS=1
IESTAB	IQUANT	0	I/E Stability
CASPEED	IQUANT	4	Control Amp Speed
CONVENTION	IQUANT	1	Current Convention
ICHRANGE	IQUANT	2	Ich Range
ICHRANGEMODE	TOGGLE	T	Ich Auto Range
ICHOFFSETENABLE	TOGGLE	F	Ich Offset Enable
ICHOFFSET	QUANT	0	Ich Offset (V)
ICHFILTER	IQUANT	1	Ich Filter
VCHRANGE	IQUANT	2	Vch Range
VCHRANGEMODE	TOGGLE	T	Vch Auto Range
VCHOFFSETENABLE	TOGGLE	F	Vch Offset Enable
VCHOFFSET	QUANT	0	Vch Offset (V)
VCHFILTER	IQUANT	1	Vch Filter
IERANGELOWERLIMIT	IQUANT	9	I/E Range Lower Limit
IERANGEMODE	TOGGLE	F	I/E AutoRange
IERANGE	IQUANT	10	I/E Range
ACHSELECT	IQUANT	1	Ach Select
ACHRANGE	IQUANT	2	Ach Range
ACHOFFSETENABLE	TOGGLE	F	Ach Offset Enable
ACHOFFSET	QUANT	0	Ach Offset (V)
ACHFILTER	IQUANT	1	Ach Filter
CABLEID	IQUANT	14	Cable ID
DCCALDATE	LABEL	20-10-2016	DC Calibration Date
ACCALDATE	LABEL	12/3/2015	AC Calibration Date
FRAMEWORKVERSION	QUANT	7.01	Framework Version
INSTRUMENTVERSION	LABEL	4.00	Instrument Version
CURVE	TABLE	59
	Pt	T	Vf	Im	Vu	Pwr	Sig	Ach	Temp	IERange	Over
	#	s	V	A	V	W	V	V	deg C	#	bits
	0	0.013333	6.31730E-001	5.99403E-003	0.00000E+000	3.78661E-003	3.59960E-001	-1.12998E+000	3.57640E+000	10	...........
	1	0.026667	6.40586E-001	5.99084E-003	0.00000E+000	3.83765E-003	3.59960E-001	-1.12961E+000	3.57640E+000	10	...........
	2	0.04	6.48762E-001	5.99327E-003	0.00000E+000	3.88820E-003	3.59960E-001	-1.13909E+000	3.57640E+000	10	...........
	3	0.053333	6.56476E-001	5.99207E-003	0.00000E+000	3.93365E-003	3.59960E-001	-1.13004E+000	3.57640E+000	10	...........
	4	0.066667	6.63921E-001	5.99344E-003	0.00000E+000	3.97917E-003	3.59960E-001	-1.12932E+000	3.57640E+000	10	...........
	5	0.08	6.71215E-001	5.99443E-003	0.00000E+000	4.02355E-003	3.59960E-001	-1.13868E+000	3.57640E+000	10	...........
	6	0.093333	6.78331E-001	5.99452E-003	0.00000E+000	4.06627E-003	3.59960E-001	-1.12974E+000	3.57640E+000	10	...........
	7	0.106667	6.85314E-001	5.99372E-003	0.00000E+000	4.10758E-003	3.59960E-001	-1.12923E+000	3.57640E+000	10	...........
	8	0.12	6.92273E-001	5.99089E-003	0.00000E+000	4.14733E-003	3.59960E-001	-1.13873E+000	3.57640E+000	10	...........
	9	0.133333	6.99091E-001	5.99882E-003	0.00000E+000	4.19372E-003	3.59960E-001	-1.12961E+000	3.57640E+000	10	...........
	10	0.146667	7.05885E-001	5.99547E-003	0.00000E+000	4.23211E-003	3.59960E-001	-1.12906E+000	3.57640E+000	10	...........
	11	0.16	7.12618E-001	5.99226E-003	0.00000E+000	4.27019E-003	3.59960E-001	-1.13849E+000	3.57640E+000	10	...........
	12	0.173333	7.19369E-001	5.99316E-003	0.00000E+000	4.31129E-003	3.59960E-001	-1.12957E+000	3.57640E+000	10	...........
	13	0.186667	7.26038E-001	5.99571E-003	0.00000E+000	4.35311E-003	3.59960E-001	-1.12937E+000	3.57640E+000	10	...........
	14	0.2	7.32668E-001	5.99310E-003	0.00000E+000	4.39095E-003	3.59960E-001	-1.13871E+000	3.57659E+000	10	...........
	15	0.213333	7.39263E-001	5.99653E-003	0.00000E+000	4.43301E-003	3.59960E-001	-1.12962E+000	3.57670E+000	10	...........
	16	0.226667	7.45905E-001	5.99365E-003	0.00000E+000	4.47069E-003	3.59960E-001	-1.12898E+000	3.57670E+000	10	...........
	17	0.24	7.52456E-001	5.99500E-003	0.00000E+000	4.51098E-003	3.59960E-001	-1.13844E+000	3.57670E+000	10	...........
	18	0.253333	7.58980E-001	5.99451E-003	0.00000E+000	4.54971E-003	3.59960E-001	-1.12972E+000	3.57670E+000	10	...........
	19	0.266667	7.65456E-001	5.99583E-003	0.00000E+000	4.58954E-003	3.59960E-001	-1.12885E+000	3.57670E+000	10	...........
	20	0.28	7.71991E-001	5.99642E-003	0.00000E+000	4.62918E-003	3.59960E-001	-1.13860E+000	3.57670E+000	10	...........
	21	0.293333	7.78440E-001	5.99261E-003	0.00000E+000	4.66489E-003	3.59960E-001	-1.12960E+000	3.57670E+000	10	...........
	22	0.306667	7.84928E-001	5.98968E-003	0.00000E+000	4.70147E-003	3.59960E-001	-1.12895E+000	3.57670E+000	10	...........
	23	0.32	7.91373E-001	5.99752E-003	0.00000E+000	4.74627E-003	3.59960E-001	-1.13884E+000	3.57670E+000	10	...........
	24	0.333333	7.97784E-001	5.99311E-003	0.00000E+000	4.78121E-003	3.59960E-001	-1.12966E+000	3.57670E+000	10	...........
	25	0.346667	8.04200E-001	5.99306E-003	0.00000E+000	4.81962E-003	3.59960E-001	-1.12904E+000	3.57670E+000	10	...........
	26	0.36	8.10606E-001	5.99356E-003	0.00000E+000	4.85842E-003	3.59960E-001	-1.13627E+000	3.57670E+000	10	...........
	27	0.373333	8.16971E-001	5.99093E-003	0.00000E+000	4.89442E-003	3.59960E-001	-1.12745E+000	3.57670E+000	10	...........
	28	0.386667	8.23349E-001	5.99673E-003	0.00000E+000	4.93740E-003	3.59960E-001	-1.12565E+000	3.57670E+000	10	...........
	29	0.4	8.29669E-001	5.99803E-003	0.00000E+000	4.97637E-003	3.59960E-001	-1.13113E+000	3.57670E+000	10	...........
	30	0.413333	8.36037E-001	5.99586E-003	0.00000E+000	5.01276E-003	3.59960E-001	-1.12116E+000	3.57670E+000	10	...........
	31	0.426667	8.42352E-001	5.99653E-003	0.00000E+000	5.05119E-003	3.59960E-001	-1.11974E+000	3.57670E+000	10	...........
	32	0.44	8.48672E-001	5.99182E-003	0.00000E+000	5.08509E-003	3.59960E-001	-1.12833E+000	3.57670E+000	10	...........
	33	0.453333	8.54960E-001	5.99742E-003	0.00000E+000	5.12756E-003	3.59960E-001	-1.11791E+000	3.57670E+000	10	...........
	34	0.466667	8.61220E-001	5.99489E-003	0.00000E+000	5.16292E-003	3.59960E-001	-1.11602E+000	3.57670E+000	10	...........
	35	0.48	8.67471E-001	5.99208E-003	0.00000E+000	5.19796E-003	3.59960E-001	-1.12573E+000	3.57670E+000	10	...........
	36	0.493333	8.73756E-001	5.99423E-003	0.00000E+000	5.23749E-003	3.59960E-001	-1.11463E+000	3.57670E+000	10	...........
	37	0.506667	8.79982E-001	5.99185E-003	0.00000E+000	5.27272E-003	3.59960E-001	-1.11233E+000	3.57670E+000	10	...........
	38	0.52	8.86147E-001	5.99325E-003	0.00000E+000	5.31090E-003	3.59960E-001	-1.12233E+000	3.57670E+000	10	...........
	39	0.533333	8.92318E-001	5.99116E-003	0.00000E+000	5.34602E-003	3.59960E-001	-1.11268E+000	3.57670E+000	10	...........
	40	0.546667	8.98483E-001	5.99370E-003	0.00000E+000	5.38523E-003	3.59960E-001	-1.11044E+000	3.57670E+000	10	...........
	41	0.56	9.04585E-001	5.99785E-003	0.00000E+000	5.42556E-003	3.59960E-001	-1.11970E+000	3.57670E+000	10	...........
	42	0.573333	9.10672E-001	5.99243E-003	0.00000E+000	5.45713E-003	3.59960E-001	-1.11070E+000	3.57670E+000	10	...........
	43	0.586667	9.16719E-001	5.99510E-003	0.00000E+000	5.49582E-003	3.59960E-001	-1.10844E+000	3.57670E+000	10	...........
	44	0.6	9.22770E-001	5.99305E-003	0.00000E+000	5.53021E-003	3.59960E-001	-1.11882E+000	3.57670E+000	10	...........
	45	0.613333	9.28773E-001	5.99367E-003	0.00000E+000	5.56675E-003	3.59960E-001	-1.11008E+000	3.57670E+000	10	...........
	46	0.626667	9.34687E-001	6.00068E-003	0.00000E+000	5.60876E-003	3.59960E-001	-1.10797E+000	3.57670E+000	10	...........
	47	0.64	9.40573E-001	5.99233E-003	0.00000E+000	5.63623E-003	3.59960E-001	-1.11741E+000	3.57670E+000	10	...........
	48	0.653333	9.46479E-001	5.99724E-003	0.00000E+000	5.67627E-003	3.59960E-001	-1.10918E+000	3.57670E+000	10	...........
	49	0.666667	9.52318E-001	5.99366E-003	0.00000E+000	5.70786E-003	3.59960E-001	-1.10794E+000	3.57670E+000	10	...........
	50	0.68	9.58110E-001	5.99414E-003	0.00000E+000	5.74304E-003	3.59960E-001	-1.11721E+000	3.57670E+000	10	...........
	51	0.693333	9.63833E-001	5.99470E-003	0.00000E+000	5.77789E-003	3.59960E-001	-1.10882E+000	3.57670E+000	10	...........
	52	0.706667	9.69518E-001	5.99322E-003	0.00000E+000	5.81053E-003	3.59960E-001	-1.10679E+000	3.57670E+000	10	...........
	53	0.72	9.75232E-001	5.99613E-003	0.00000E+000	5.84762E-003	3.59960E-001	-1.11618E+000	3.57670E+000	10	...........
	54	0.733333	9.80864E-001	5.98818E-003	0.00000E+000	5.87359E-003	3.59960E-001	-1.10807E+000	3.57670E+000	10	...........
	55	0.746667	9.86411E-001	5.99613E-003	0.00000E+000	5.91465E-003	3.59960E-001	-1.10673E+000	3.57670E+000	10	...........
	56	0.76	9.91936E-001	5.99498E-003	0.00000E+000	5.94664E-003	3.59960E-001	-1.11653E+000	3.57670E+000	10	...........
	57	0.773333	9.97429E-001	5.99174E-003	0.00000E+000	5.97633E-003	3.59960E-001	-1.10836E+000	3.57670E+000	10	...........
	58	0.775	1.00048E+000	5.99095E-003	0.00000E+000	5.99385E-003	3.59960E-001	-1.11869E+000	3.57670E+000	10	...........
STARTTIMEOFFSET	QUANT	846.6986	Start Time Offset (s)