File: Data/CV_CRGO300517_1/PWRCCD_CRGO300517_1/CHARGE_DISCHARGE/CHARGE_#678.DTA
EXPLAIN
TAG	PWR800_CHARGE
TITLE	LABEL	PWR Cyclic Charge Discharge (Cell) - Charge Step	Test &Identifier
DATE	LABEL	22-6-2017	Date
TIME	LABEL	16:02:44	Time
NOTES	NOTES	3	&Notes...
	supercap test cell
	0.6mg
	6M KOH
PSTAT	PSTAT	IFC5000-01520	Potentiostat
CAPACITY	QUANT	1.00000E-003	Capacity (A-hr)
CELLTYPE	SELECTOR	1	&Cell Type
WORKINGCONNECTION	SELECTOR	0	&Working Lead
MAXCHARGETIME	VARIABLEANDUNITS	1.00000E+002	s	1.00000E+002	second(s)	Max &Charge Time
CHARGECURRENT	QUANT	6.00000E-003	&Charge Current (A)
VOLTAGEFINISH	TWOPARAM	F	1.00000E-003	3.60000E+003	&Voltage Finish	 I (A) < 	Max Time(s)
SAMPLETIME	QUANT	1.00000E-002	Sa&mple Period (s)
CHARGESTOPAT1	MULTIPARAM	4	1.00000E+000	Charge Stop At &1	Voltage > Limit	V
CHARGESTOPAT2	MULTIPARAM	0	0.00000E+000	Charge Stop At &2	None	N/A
AESBHCSELECTOR	TOGGLE	F	Save Both Half Cells
IRCOMP	TOGGLE	F	IR &Measure
EOC	QUANT	0	Open Circuit (V)
SEQUENCER	TOGGLE	TRUE	Run as Sequence
PSTATMODEL	IQUANT	53	Pstat Model
PSTATSECTION	LABEL	IFC5000-01520	Pstat Section
PSTATSERIALNO	LABEL	01520	Pstat Serial Number
CTRLMODE	IQUANT	0	Control Mode
ELECTROMETER	IQUANT	1	RE=0 or CS=1
IESTAB	IQUANT	0	I/E Stability
CASPEED	IQUANT	4	Control Amp Speed
CONVENTION	IQUANT	1	Current Convention
ICHRANGE	IQUANT	2	Ich Range
ICHRANGEMODE	TOGGLE	T	Ich Auto Range
ICHOFFSETENABLE	TOGGLE	F	Ich Offset Enable
ICHOFFSET	QUANT	0	Ich Offset (V)
ICHFILTER	IQUANT	1	Ich Filter
VCHRANGE	IQUANT	2	Vch Range
VCHRANGEMODE	TOGGLE	T	Vch Auto Range
VCHOFFSETENABLE	TOGGLE	F	Vch Offset Enable
VCHOFFSET	QUANT	0	Vch Offset (V)
VCHFILTER	IQUANT	1	Vch Filter
IERANGELOWERLIMIT	IQUANT	9	I/E Range Lower Limit
IERANGEMODE	TOGGLE	F	I/E AutoRange
IERANGE	IQUANT	10	I/E Range
ACHSELECT	IQUANT	1	Ach Select
ACHRANGE	IQUANT	2	Ach Range
ACHOFFSETENABLE	TOGGLE	F	Ach Offset Enable
ACHOFFSET	QUANT	0	Ach Offset (V)
ACHFILTER	IQUANT	1	Ach Filter
CABLEID	IQUANT	14	Cable ID
DCCALDATE	LABEL	20-10-2016	DC Calibration Date
ACCALDATE	LABEL	12/3/2015	AC Calibration Date
FRAMEWORKVERSION	QUANT	7.01	Framework Version
INSTRUMENTVERSION	LABEL	4.00	Instrument Version
CURVE	TABLE	56
	Pt	T	Vf	Im	Vu	Pwr	Sig	Ach	Temp	IERange	Over
	#	s	V	A	V	W	V	V	deg C	#	bits
	0	0.013333	6.42133E-001	5.99044E-003	0.00000E+000	3.84666E-003	3.59960E-001	-1.15111E+000	3.57640E+000	10	...........
	1	0.026667	6.51209E-001	5.99605E-003	0.00000E+000	3.90468E-003	3.59960E-001	-1.15801E+000	3.57640E+000	10	...........
	2	0.04	6.59556E-001	5.99253E-003	0.00000E+000	3.95241E-003	3.59960E-001	-1.15860E+000	3.57640E+000	10	...........
	3	0.053333	6.67470E-001	5.99504E-003	0.00000E+000	4.00151E-003	3.59960E-001	-1.15093E+000	3.57640E+000	10	...........
	4	0.066667	6.75089E-001	5.99430E-003	0.00000E+000	4.04669E-003	3.59960E-001	-1.15810E+000	3.57640E+000	10	...........
	5	0.08	6.82505E-001	5.99419E-003	0.00000E+000	4.09107E-003	3.59960E-001	-1.15874E+000	3.57640E+000	10	...........
	6	0.093333	6.89771E-001	5.99656E-003	0.00000E+000	4.13625E-003	3.59960E-001	-1.15108E+000	3.57640E+000	10	...........
	7	0.106667	6.96952E-001	5.99211E-003	0.00000E+000	4.17621E-003	3.59960E-001	-1.15789E+000	3.57640E+000	10	...........
	8	0.12	7.04026E-001	5.99820E-003	0.00000E+000	4.22289E-003	3.59960E-001	-1.15825E+000	3.57640E+000	10	...........
	9	0.133333	7.11016E-001	5.99622E-003	0.00000E+000	4.26341E-003	3.59960E-001	-1.15043E+000	3.57640E+000	10	...........
	10	0.146667	7.17988E-001	5.99504E-003	0.00000E+000	4.30437E-003	3.59960E-001	-1.15792E+000	3.57640E+000	10	...........
	11	0.16	7.24872E-001	5.99482E-003	0.00000E+000	4.34548E-003	3.59960E-001	-1.15800E+000	3.57640E+000	10	...........
	12	0.173333	7.31709E-001	5.98869E-003	0.00000E+000	4.38198E-003	3.59960E-001	-1.15027E+000	3.57640E+000	10	...........
	13	0.186667	7.38517E-001	5.99357E-003	0.00000E+000	4.42636E-003	3.59960E-001	-1.15755E+000	3.57640E+000	10	...........
	14	0.2	7.45340E-001	5.99710E-003	0.00000E+000	4.46988E-003	3.59960E-001	-1.15749E+000	3.57660E+000	10	...........
	15	0.213333	7.52072E-001	5.99639E-003	0.00000E+000	4.50972E-003	3.59960E-001	-1.15047E+000	3.57660E+000	10	...........
	16	0.226667	7.58781E-001	5.99271E-003	0.00000E+000	4.54715E-003	3.59960E-001	-1.15788E+000	3.57660E+000	10	...........
	17	0.24	7.65465E-001	5.99369E-003	0.00000E+000	4.58796E-003	3.59960E-001	-1.15757E+000	3.57660E+000	10	...........
	18	0.253333	7.72135E-001	5.99465E-003	0.00000E+000	4.62868E-003	3.59960E-001	-1.15026E+000	3.57660E+000	10	...........
	19	0.266667	7.78758E-001	5.99426E-003	0.00000E+000	4.66808E-003	3.59960E-001	-1.15794E+000	3.57660E+000	10	...........
	20	0.28	7.85392E-001	5.99750E-003	0.00000E+000	4.71039E-003	3.59960E-001	-1.15754E+000	3.57660E+000	10	...........
	21	0.293333	7.91998E-001	5.99301E-003	0.00000E+000	4.74645E-003	3.59960E-001	-1.15049E+000	3.57660E+000	10	...........
	22	0.306667	7.98621E-001	5.99625E-003	0.00000E+000	4.78873E-003	3.59960E-001	-1.15792E+000	3.57660E+000	10	...........
	23	0.32	8.05158E-001	5.99409E-003	0.00000E+000	4.82619E-003	3.59960E-001	-1.15728E+000	3.57660E+000	10	...........
	24	0.333333	8.11709E-001	5.99871E-003	0.00000E+000	4.86921E-003	3.59960E-001	-1.15033E+000	3.57660E+000	10	...........
	25	0.346667	8.18259E-001	5.99233E-003	0.00000E+000	4.90328E-003	3.59960E-001	-1.15815E+000	3.57660E+000	10	...........
	26	0.36	8.24743E-001	5.99335E-003	0.00000E+000	4.94298E-003	3.59960E-001	-1.15754E+000	3.57660E+000	10	...........
	27	0.373333	8.31203E-001	5.99518E-003	0.00000E+000	4.98321E-003	3.59960E-001	-1.15038E+000	3.57660E+000	10	...........
	28	0.386667	8.37659E-001	5.99210E-003	0.00000E+000	5.01934E-003	3.59960E-001	-1.15824E+000	3.57660E+000	10	...........
	29	0.4	8.44120E-001	5.98945E-003	0.00000E+000	5.05582E-003	3.59960E-001	-1.15730E+000	3.57660E+000	10	...........
	30	0.413333	8.50551E-001	5.99956E-003	0.00000E+000	5.10293E-003	3.59960E-001	-1.15066E+000	3.57660E+000	10	...........
	31	0.426667	8.56962E-001	5.99659E-003	0.00000E+000	5.13885E-003	3.59960E-001	-1.15838E+000	3.57660E+000	10	...........
	32	0.44	8.63293E-001	5.99448E-003	0.00000E+000	5.17499E-003	3.59960E-001	-1.15714E+000	3.57660E+000	10	...........
	33	0.453333	8.69708E-001	5.99433E-003	0.00000E+000	5.21332E-003	3.59960E-001	-1.15021E+000	3.57660E+000	10	...........
	34	0.466667	8.76029E-001	5.99567E-003	0.00000E+000	5.25238E-003	3.59960E-001	-1.15806E+000	3.57660E+000	10	...........
	35	0.48	8.82324E-001	5.99393E-003	0.00000E+000	5.28859E-003	3.59960E-001	-1.15686E+000	3.57660E+000	10	...........
	36	0.493333	8.88620E-001	5.99129E-003	0.00000E+000	5.32398E-003	3.59960E-001	-1.15003E+000	3.57660E+000	10	...........
	37	0.506667	8.94849E-001	5.99138E-003	0.00000E+000	5.36138E-003	3.59960E-001	-1.15822E+000	3.57660E+000	10	...........
	38	0.52	9.01062E-001	5.99609E-003	0.00000E+000	5.40285E-003	3.59960E-001	-1.15646E+000	3.57660E+000	10	...........
	39	0.533333	9.07267E-001	5.99640E-003	0.00000E+000	5.44034E-003	3.59960E-001	-1.14999E+000	3.57660E+000	10	...........
	40	0.546667	9.13411E-001	5.99455E-003	0.00000E+000	5.47549E-003	3.59960E-001	-1.15823E+000	3.57660E+000	10	...........
	41	0.56	9.19553E-001	5.99469E-003	0.00000E+000	5.51243E-003	3.59960E-001	-1.15649E+000	3.57660E+000	10	...........
	42	0.573333	9.25628E-001	5.99568E-003	0.00000E+000	5.54977E-003	3.59960E-001	-1.15010E+000	3.57660E+000	10	...........
	43	0.586667	9.31634E-001	5.99365E-003	0.00000E+000	5.58388E-003	3.59960E-001	-1.15834E+000	3.57660E+000	10	...........
	44	0.6	9.37638E-001	5.99709E-003	0.00000E+000	5.62310E-003	3.59960E-001	-1.15637E+000	3.57660E+000	10	...........
	45	0.613333	9.43589E-001	5.99167E-003	0.00000E+000	5.65368E-003	3.59960E-001	-1.15025E+000	3.57660E+000	10	...........
	46	0.626667	9.49554E-001	5.99905E-003	0.00000E+000	5.69642E-003	3.59960E-001	-1.15843E+000	3.57660E+000	10	...........
	47	0.64	9.55387E-001	5.98945E-003	0.00000E+000	5.72225E-003	3.59960E-001	-1.15614E+000	3.57660E+000	10	...........
	48	0.653333	9.61213E-001	5.99208E-003	0.00000E+000	5.75967E-003	3.59960E-001	-1.14995E+000	3.57660E+000	10	...........
	49	0.666667	9.66993E-001	5.99409E-003	0.00000E+000	5.79625E-003	3.59960E-001	-1.15837E+000	3.57660E+000	10	...........
	50	0.68	9.72773E-001	5.99992E-003	0.00000E+000	5.83656E-003	3.59960E-001	-1.15628E+000	3.57660E+000	10	...........
	51	0.693333	9.78464E-001	5.99542E-003	0.00000E+000	5.86630E-003	3.59960E-001	-1.15037E+000	3.57660E+000	10	...........
	52	0.706667	9.84088E-001	5.99467E-003	0.00000E+000	5.89928E-003	3.59960E-001	-1.15877E+000	3.57660E+000	10	...........
	53	0.72	9.89666E-001	5.99251E-003	0.00000E+000	5.93058E-003	3.59960E-001	-1.15624E+000	3.57660E+000	10	...........
	54	0.733333	9.95205E-001	5.99165E-003	0.00000E+000	5.96292E-003	3.59960E-001	-1.15026E+000	3.57660E+000	10	...........
	55	0.74	9.99349E-001	5.99417E-003	0.00000E+000	5.99026E-003	3.59960E-001	-1.16467E+000	3.57660E+000	10	...........
STARTTIMEOFFSET	QUANT	1126.861	Start Time Offset (s)