File: Data/CV_CRGO300517_1/PWRCCD_CRGO300517_1/CHARGE_DISCHARGE/CHARGE_#81.DTA
EXPLAIN
TAG	PWR800_CHARGE
TITLE	LABEL	PWR Cyclic Charge Discharge (Cell) - Charge Step	Test &Identifier
DATE	LABEL	22-6-2017	Date
TIME	LABEL	15:38:40	Time
NOTES	NOTES	3	&Notes...
	supercap test cell
	0.6mg
	6M KOH
PSTAT	PSTAT	IFC5000-01520	Potentiostat
CAPACITY	QUANT	1.00000E-003	Capacity (A-hr)
CELLTYPE	SELECTOR	1	&Cell Type
WORKINGCONNECTION	SELECTOR	0	&Working Lead
MAXCHARGETIME	VARIABLEANDUNITS	1.00000E+002	s	1.00000E+002	second(s)	Max &Charge Time
CHARGECURRENT	QUANT	6.00000E-003	&Charge Current (A)
VOLTAGEFINISH	TWOPARAM	F	1.00000E-003	3.60000E+003	&Voltage Finish	 I (A) < 	Max Time(s)
SAMPLETIME	QUANT	1.00000E-002	Sa&mple Period (s)
CHARGESTOPAT1	MULTIPARAM	4	1.00000E+000	Charge Stop At &1	Voltage > Limit	V
CHARGESTOPAT2	MULTIPARAM	0	0.00000E+000	Charge Stop At &2	None	N/A
AESBHCSELECTOR	TOGGLE	F	Save Both Half Cells
IRCOMP	TOGGLE	F	IR &Measure
EOC	QUANT	0	Open Circuit (V)
SEQUENCER	TOGGLE	TRUE	Run as Sequence
PSTATMODEL	IQUANT	53	Pstat Model
PSTATSECTION	LABEL	IFC5000-01520	Pstat Section
PSTATSERIALNO	LABEL	01520	Pstat Serial Number
CTRLMODE	IQUANT	0	Control Mode
ELECTROMETER	IQUANT	1	RE=0 or CS=1
IESTAB	IQUANT	0	I/E Stability
CASPEED	IQUANT	4	Control Amp Speed
CONVENTION	IQUANT	1	Current Convention
ICHRANGE	IQUANT	2	Ich Range
ICHRANGEMODE	TOGGLE	T	Ich Auto Range
ICHOFFSETENABLE	TOGGLE	F	Ich Offset Enable
ICHOFFSET	QUANT	0	Ich Offset (V)
ICHFILTER	IQUANT	1	Ich Filter
VCHRANGE	IQUANT	2	Vch Range
VCHRANGEMODE	TOGGLE	T	Vch Auto Range
VCHOFFSETENABLE	TOGGLE	F	Vch Offset Enable
VCHOFFSET	QUANT	0	Vch Offset (V)
VCHFILTER	IQUANT	1	Vch Filter
IERANGELOWERLIMIT	IQUANT	9	I/E Range Lower Limit
IERANGEMODE	TOGGLE	F	I/E AutoRange
IERANGE	IQUANT	10	I/E Range
ACHSELECT	IQUANT	1	Ach Select
ACHRANGE	IQUANT	2	Ach Range
ACHOFFSETENABLE	TOGGLE	F	Ach Offset Enable
ACHOFFSET	QUANT	0	Ach Offset (V)
ACHFILTER	IQUANT	1	Ach Filter
CABLEID	IQUANT	14	Cable ID
DCCALDATE	LABEL	20-10-2016	DC Calibration Date
ACCALDATE	LABEL	12/3/2015	AC Calibration Date
FRAMEWORKVERSION	QUANT	7.01	Framework Version
INSTRUMENTVERSION	LABEL	4.00	Instrument Version
CURVE	TABLE	71
	Pt	T	Vf	Im	Vu	Pwr	Sig	Ach	Temp	IERange	Over
	#	s	V	A	V	W	V	V	deg C	#	bits
	0	0.013333	5.84184E-001	5.99295E-003	0.00000E+000	3.50098E-003	3.59960E-001	-1.05252E+000	3.57730E+000	10	...........
	1	0.026667	5.92396E-001	5.99353E-003	0.00000E+000	3.55054E-003	3.59960E-001	-1.06464E+000	3.57730E+000	10	...........
	2	0.04	5.99897E-001	5.99430E-003	0.00000E+000	3.59597E-003	3.59960E-001	-1.05572E+000	3.57730E+000	10	...........
	3	0.053333	6.06999E-001	5.99020E-003	0.00000E+000	3.63605E-003	3.59960E-001	-1.05255E+000	3.57730E+000	10	...........
	4	0.066667	6.13884E-001	5.99320E-003	0.00000E+000	3.67913E-003	3.59960E-001	-1.06495E+000	3.57730E+000	10	...........
	5	0.08	6.20567E-001	5.99496E-003	0.00000E+000	3.72028E-003	3.59960E-001	-1.05568E+000	3.57730E+000	10	...........
	6	0.093333	6.27094E-001	5.99332E-003	0.00000E+000	3.75837E-003	3.59960E-001	-1.05243E+000	3.57730E+000	10	...........
	7	0.106667	6.33477E-001	5.99379E-003	0.00000E+000	3.79693E-003	3.59960E-001	-1.06456E+000	3.57730E+000	10	...........
	8	0.12	6.39822E-001	5.99261E-003	0.00000E+000	3.83421E-003	3.59960E-001	-1.05567E+000	3.57730E+000	10	...........
	9	0.133333	6.46066E-001	5.99418E-003	0.00000E+000	3.87263E-003	3.59960E-001	-1.05215E+000	3.57730E+000	10	...........
	10	0.146667	6.52227E-001	5.99376E-003	0.00000E+000	3.90929E-003	3.59960E-001	-1.06402E+000	3.57730E+000	10	...........
	11	0.16	6.58376E-001	5.99418E-003	0.00000E+000	3.94643E-003	3.59960E-001	-1.05487E+000	3.57730E+000	10	...........
	12	0.173333	6.64451E-001	5.99278E-003	0.00000E+000	3.98191E-003	3.59960E-001	-1.05170E+000	3.57730E+000	10	...........
	13	0.186667	6.70520E-001	5.99515E-003	0.00000E+000	4.01986E-003	3.59960E-001	-1.06401E+000	3.57730E+000	10	...........
	14	0.2	6.76517E-001	5.99671E-003	0.00000E+000	4.05688E-003	3.59960E-001	-1.05533E+000	3.57730E+000	10	...........
	15	0.213333	6.82525E-001	5.99470E-003	0.00000E+000	4.09153E-003	3.59960E-001	-1.05188E+000	3.57730E+000	10	...........
	16	0.226667	6.88483E-001	5.98964E-003	0.00000E+000	4.12376E-003	3.59960E-001	-1.06404E+000	3.57730E+000	10	...........
	17	0.24	6.94505E-001	5.99333E-003	0.00000E+000	4.16240E-003	3.59960E-001	-1.05510E+000	3.57730E+000	10	...........
	18	0.253333	7.00438E-001	5.99642E-003	0.00000E+000	4.20012E-003	3.59960E-001	-1.05188E+000	3.57730E+000	10	...........
	19	0.266667	7.06374E-001	5.99561E-003	0.00000E+000	4.23514E-003	3.59960E-001	-1.06396E+000	3.57730E+000	10	...........
	20	0.28	7.12280E-001	5.99245E-003	0.00000E+000	4.26830E-003	3.59960E-001	-1.05498E+000	3.57730E+000	10	...........
	21	0.293333	7.18202E-001	5.99403E-003	0.00000E+000	4.30493E-003	3.59960E-001	-1.05136E+000	3.57730E+000	10	...........
	22	0.306667	7.24084E-001	5.99457E-003	0.00000E+000	4.34058E-003	3.59960E-001	-1.06374E+000	3.57730E+000	10	...........
	23	0.32	7.29980E-001	5.99513E-003	0.00000E+000	4.37632E-003	3.59960E-001	-1.05484E+000	3.57730E+000	10	...........
	24	0.333333	7.35871E-001	5.99299E-003	0.00000E+000	4.41007E-003	3.59960E-001	-1.05156E+000	3.57730E+000	10	...........
	25	0.346667	7.41767E-001	5.99669E-003	0.00000E+000	4.44815E-003	3.59960E-001	-1.06382E+000	3.57730E+000	10	...........
	26	0.36	7.47661E-001	5.99431E-003	0.00000E+000	4.48171E-003	3.59960E-001	-1.05497E+000	3.57730E+000	10	...........
	27	0.373333	7.53465E-001	5.99768E-003	0.00000E+000	4.51905E-003	3.59960E-001	-1.05172E+000	3.57730E+000	10	...........
	28	0.386667	7.59315E-001	5.99443E-003	0.00000E+000	4.55166E-003	3.59960E-001	-1.06401E+000	3.57730E+000	10	...........
	29	0.4	7.65178E-001	5.99286E-003	0.00000E+000	4.58561E-003	3.59960E-001	-1.05519E+000	3.57730E+000	10	...........
	30	0.413333	7.71074E-001	5.99116E-003	0.00000E+000	4.61963E-003	3.59960E-001	-1.05170E+000	3.57730E+000	10	...........
	31	0.426667	7.76905E-001	5.99489E-003	0.00000E+000	4.65746E-003	3.59960E-001	-1.06375E+000	3.57730E+000	10	...........
	32	0.44	7.82789E-001	5.99499E-003	0.00000E+000	4.69281E-003	3.59960E-001	-1.05493E+000	3.57730E+000	10	...........
	33	0.453333	7.88616E-001	5.99455E-003	0.00000E+000	4.72740E-003	3.59960E-001	-1.05156E+000	3.57730E+000	10	...........
	34	0.466667	7.94503E-001	5.99258E-003	0.00000E+000	4.76112E-003	3.59960E-001	-1.06371E+000	3.57730E+000	10	...........
	35	0.48	8.00318E-001	5.99203E-003	0.00000E+000	4.79553E-003	3.59960E-001	-1.05475E+000	3.57730E+000	10	...........
	36	0.493333	8.06165E-001	5.99626E-003	0.00000E+000	4.83398E-003	3.59960E-001	-1.05126E+000	3.57730E+000	10	...........
	37	0.506667	8.11938E-001	5.99240E-003	0.00000E+000	4.86546E-003	3.59960E-001	-1.06327E+000	3.57730E+000	10	...........
	38	0.52	8.17772E-001	5.99641E-003	0.00000E+000	4.90369E-003	3.59960E-001	-1.05478E+000	3.57730E+000	10	...........
	39	0.533333	8.23628E-001	5.99457E-003	0.00000E+000	4.93730E-003	3.59960E-001	-1.05145E+000	3.57730E+000	10	...........
	40	0.546667	8.29451E-001	5.99552E-003	0.00000E+000	4.97299E-003	3.59960E-001	-1.06334E+000	3.57730E+000	10	...........
	41	0.56	8.35278E-001	5.99427E-003	0.00000E+000	5.00688E-003	3.59960E-001	-1.05453E+000	3.57730E+000	10	...........
	42	0.573333	8.41060E-001	5.99497E-003	0.00000E+000	5.04213E-003	3.59960E-001	-1.05094E+000	3.57730E+000	10	...........
	43	0.586667	8.46927E-001	5.99360E-003	0.00000E+000	5.07615E-003	3.59960E-001	-1.06327E+000	3.57730E+000	10	...........
	44	0.6	8.52716E-001	5.99273E-003	0.00000E+000	5.11009E-003	3.59960E-001	-1.05479E+000	3.57730E+000	10	...........
	45	0.613333	8.58514E-001	5.99209E-003	0.00000E+000	5.14429E-003	3.59960E-001	-1.05113E+000	3.57730E+000	10	...........
	46	0.626667	8.64319E-001	5.99094E-003	0.00000E+000	5.17809E-003	3.59960E-001	-1.06312E+000	3.57730E+000	10	...........
	47	0.64	8.70126E-001	5.99454E-003	0.00000E+000	5.21601E-003	3.59960E-001	-1.05455E+000	3.57730E+000	10	...........
	48	0.653333	8.75902E-001	5.99417E-003	0.00000E+000	5.25030E-003	3.59960E-001	-1.05106E+000	3.57730E+000	10	...........
	49	0.666667	8.81654E-001	5.99277E-003	0.00000E+000	5.28355E-003	3.59960E-001	-1.06336E+000	3.57730E+000	10	...........
	50	0.68	8.87400E-001	5.99401E-003	0.00000E+000	5.31908E-003	3.59960E-001	-1.05469E+000	3.57730E+000	10	...........
	51	0.693333	8.93118E-001	5.99188E-003	0.00000E+000	5.35146E-003	3.59960E-001	-1.05098E+000	3.57730E+000	10	...........
	52	0.706667	8.98880E-001	5.99488E-003	0.00000E+000	5.38868E-003	3.59960E-001	-1.06337E+000	3.57730E+000	10	...........
	53	0.72	9.04587E-001	5.99360E-003	0.00000E+000	5.42174E-003	3.59960E-001	-1.05479E+000	3.57730E+000	10	...........
	54	0.733333	9.10308E-001	5.99491E-003	0.00000E+000	5.45721E-003	3.59960E-001	-1.05137E+000	3.57730E+000	10	...........
	55	0.746667	9.15998E-001	5.99411E-003	0.00000E+000	5.49060E-003	3.59960E-001	-1.06338E+000	3.57730E+000	10	...........
	56	0.76	9.21741E-001	5.99408E-003	0.00000E+000	5.52499E-003	3.59960E-001	-1.05461E+000	3.57730E+000	10	...........
	57	0.773333	9.27355E-001	5.99308E-003	0.00000E+000	5.55771E-003	3.59960E-001	-1.05095E+000	3.57730E+000	10	...........
	58	0.786667	9.32989E-001	5.99602E-003	0.00000E+000	5.59423E-003	3.59960E-001	-1.06290E+000	3.57730E+000	10	...........
	59	0.8	9.38611E-001	5.99190E-003	0.00000E+000	5.62407E-003	3.59960E-001	-1.05444E+000	3.57730E+000	10	...........
	60	0.813333	9.44197E-001	5.99149E-003	0.00000E+000	5.65714E-003	3.59960E-001	-1.05065E+000	3.57730E+000	10	...........
	61	0.826667	9.49792E-001	5.99348E-003	0.00000E+000	5.69256E-003	3.59960E-001	-1.06276E+000	3.57730E+000	10	...........
	62	0.84	9.55326E-001	5.99383E-003	0.00000E+000	5.72607E-003	3.59960E-001	-1.05417E+000	3.57730E+000	10	...........
	63	0.853333	9.60864E-001	5.99561E-003	0.00000E+000	5.76097E-003	3.59960E-001	-1.05069E+000	3.57730E+000	10	...........
	64	0.866667	9.66314E-001	5.99513E-003	0.00000E+000	5.79317E-003	3.59960E-001	-1.06289E+000	3.57730E+000	10	...........
	65	0.88	9.71821E-001	5.99324E-003	0.00000E+000	5.82436E-003	3.59960E-001	-1.05443E+000	3.57730E+000	10	...........
	66	0.893333	9.77239E-001	5.99655E-003	0.00000E+000	5.86006E-003	3.59960E-001	-1.05068E+000	3.57730E+000	10	...........
	67	0.906667	9.82624E-001	5.99133E-003	0.00000E+000	5.88722E-003	3.59960E-001	-1.06272E+000	3.57730E+000	10	...........
	68	0.92	9.87992E-001	5.99550E-003	0.00000E+000	5.92351E-003	3.59960E-001	-1.05425E+000	3.57730E+000	10	...........
	69	0.933333	9.93314E-001	5.99108E-003	0.00000E+000	5.95102E-003	3.59960E-001	-1.05079E+000	3.57730E+000	10	...........
	70	0.945	9.98309E-001	5.99323E-003	0.00000E+000	5.98310E-003	3.59960E-001	-1.06516E+000	3.57730E+000	10	...........
STARTTIMEOFFSET	QUANT	159.845	Start Time Offset (s)