File: Data/CV_CRGO300517_1/PWRCCD_CRGO300517_1/CHARGE_DISCHARGE/CHARGE_#649.DTA
EXPLAIN
TAG	PWR800_CHARGE
TITLE	LABEL	PWR Cyclic Charge Discharge (Cell) - Charge Step	Test &Identifier
DATE	LABEL	22-6-2017	Date
TIME	LABEL	16:01:38	Time
NOTES	NOTES	3	&Notes...
	supercap test cell
	0.6mg
	6M KOH
PSTAT	PSTAT	IFC5000-01520	Potentiostat
CAPACITY	QUANT	1.00000E-003	Capacity (A-hr)
CELLTYPE	SELECTOR	1	&Cell Type
WORKINGCONNECTION	SELECTOR	0	&Working Lead
MAXCHARGETIME	VARIABLEANDUNITS	1.00000E+002	s	1.00000E+002	second(s)	Max &Charge Time
CHARGECURRENT	QUANT	6.00000E-003	&Charge Current (A)
VOLTAGEFINISH	TWOPARAM	F	1.00000E-003	3.60000E+003	&Voltage Finish	 I (A) < 	Max Time(s)
SAMPLETIME	QUANT	1.00000E-002	Sa&mple Period (s)
CHARGESTOPAT1	MULTIPARAM	4	1.00000E+000	Charge Stop At &1	Voltage > Limit	V
CHARGESTOPAT2	MULTIPARAM	0	0.00000E+000	Charge Stop At &2	None	N/A
AESBHCSELECTOR	TOGGLE	F	Save Both Half Cells
IRCOMP	TOGGLE	F	IR &Measure
EOC	QUANT	0	Open Circuit (V)
SEQUENCER	TOGGLE	TRUE	Run as Sequence
PSTATMODEL	IQUANT	53	Pstat Model
PSTATSECTION	LABEL	IFC5000-01520	Pstat Section
PSTATSERIALNO	LABEL	01520	Pstat Serial Number
CTRLMODE	IQUANT	0	Control Mode
ELECTROMETER	IQUANT	1	RE=0 or CS=1
IESTAB	IQUANT	0	I/E Stability
CASPEED	IQUANT	4	Control Amp Speed
CONVENTION	IQUANT	1	Current Convention
ICHRANGE	IQUANT	2	Ich Range
ICHRANGEMODE	TOGGLE	T	Ich Auto Range
ICHOFFSETENABLE	TOGGLE	F	Ich Offset Enable
ICHOFFSET	QUANT	0	Ich Offset (V)
ICHFILTER	IQUANT	1	Ich Filter
VCHRANGE	IQUANT	2	Vch Range
VCHRANGEMODE	TOGGLE	T	Vch Auto Range
VCHOFFSETENABLE	TOGGLE	F	Vch Offset Enable
VCHOFFSET	QUANT	0	Vch Offset (V)
VCHFILTER	IQUANT	1	Vch Filter
IERANGELOWERLIMIT	IQUANT	9	I/E Range Lower Limit
IERANGEMODE	TOGGLE	F	I/E AutoRange
IERANGE	IQUANT	10	I/E Range
ACHSELECT	IQUANT	1	Ach Select
ACHRANGE	IQUANT	2	Ach Range
ACHOFFSETENABLE	TOGGLE	F	Ach Offset Enable
ACHOFFSET	QUANT	0	Ach Offset (V)
ACHFILTER	IQUANT	1	Ach Filter
CABLEID	IQUANT	14	Cable ID
DCCALDATE	LABEL	20-10-2016	DC Calibration Date
ACCALDATE	LABEL	12/3/2015	AC Calibration Date
FRAMEWORKVERSION	QUANT	7.01	Framework Version
INSTRUMENTVERSION	LABEL	4.00	Instrument Version
CURVE	TABLE	56
	Pt	T	Vf	Im	Vu	Pwr	Sig	Ach	Temp	IERange	Over
	#	s	V	A	V	W	V	V	deg C	#	bits
	0	0.013333	6.40629E-001	5.99580E-003	0.00000E+000	3.84108E-003	3.59960E-001	-1.16275E+000	3.57660E+000	10	...........
	1	0.026667	6.49669E-001	5.99492E-003	0.00000E+000	3.89472E-003	3.59960E-001	-1.15212E+000	3.57660E+000	10	...........
	2	0.04	6.57984E-001	5.99718E-003	0.00000E+000	3.94605E-003	3.59960E-001	-1.15166E+000	3.57660E+000	10	...........
	3	0.053333	6.65894E-001	5.99372E-003	0.00000E+000	3.99118E-003	3.59960E-001	-1.16276E+000	3.57660E+000	10	...........
	4	0.066667	6.73508E-001	5.99217E-003	0.00000E+000	4.03578E-003	3.59960E-001	-1.15239E+000	3.57660E+000	10	...........
	5	0.08	6.80909E-001	5.99203E-003	0.00000E+000	4.08002E-003	3.59960E-001	-1.15154E+000	3.57660E+000	10	...........
	6	0.093333	6.88151E-001	5.99371E-003	0.00000E+000	4.12458E-003	3.59960E-001	-1.16232E+000	3.57660E+000	10	...........
	7	0.106667	6.95331E-001	5.99513E-003	0.00000E+000	4.16860E-003	3.59960E-001	-1.15221E+000	3.57660E+000	10	...........
	8	0.12	7.02409E-001	5.99385E-003	0.00000E+000	4.21014E-003	3.59960E-001	-1.15129E+000	3.57660E+000	10	...........
	9	0.133333	7.09364E-001	5.99793E-003	0.00000E+000	4.25472E-003	3.59960E-001	-1.16209E+000	3.57660E+000	10	...........
	10	0.146667	7.16274E-001	5.99423E-003	0.00000E+000	4.29351E-003	3.59960E-001	-1.15166E+000	3.57660E+000	10	...........
	11	0.16	7.23159E-001	5.99324E-003	0.00000E+000	4.33407E-003	3.59960E-001	-1.15126E+000	3.57660E+000	10	...........
	12	0.173333	7.29963E-001	5.99472E-003	0.00000E+000	4.37592E-003	3.59960E-001	-1.16185E+000	3.57660E+000	10	...........
	13	0.186667	7.36734E-001	5.98815E-003	0.00000E+000	4.41167E-003	3.59960E-001	-1.15167E+000	3.57660E+000	10	...........
	14	0.2	7.43510E-001	5.99163E-003	0.00000E+000	4.45484E-003	3.59960E-001	-1.15107E+000	3.57660E+000	10	...........
	15	0.213333	7.50214E-001	5.99306E-003	0.00000E+000	4.49608E-003	3.59960E-001	-1.16210E+000	3.57660E+000	10	...........
	16	0.226667	7.56937E-001	5.99130E-003	0.00000E+000	4.53503E-003	3.59960E-001	-1.15154E+000	3.57660E+000	10	...........
	17	0.24	7.63590E-001	5.98625E-003	0.00000E+000	4.57104E-003	3.59960E-001	-1.15094E+000	3.57660E+000	10	...........
	18	0.253333	7.70268E-001	5.98966E-003	0.00000E+000	4.61364E-003	3.59960E-001	-1.16180E+000	3.57660E+000	10	...........
	19	0.266667	7.76900E-001	5.99042E-003	0.00000E+000	4.65396E-003	3.59960E-001	-1.15164E+000	3.57660E+000	10	...........
	20	0.28	7.83548E-001	5.99365E-003	0.00000E+000	4.69631E-003	3.59960E-001	-1.15096E+000	3.57660E+000	10	...........
	21	0.293333	7.90119E-001	5.99588E-003	0.00000E+000	4.73746E-003	3.59960E-001	-1.16182E+000	3.57660E+000	10	...........
	22	0.306667	7.96725E-001	5.99290E-003	0.00000E+000	4.77470E-003	3.59960E-001	-1.15130E+000	3.57660E+000	10	...........
	23	0.32	8.03199E-001	5.99172E-003	0.00000E+000	4.81254E-003	3.59960E-001	-1.15090E+000	3.57660E+000	10	...........
	24	0.333333	8.09731E-001	5.99345E-003	0.00000E+000	4.85308E-003	3.59960E-001	-1.16210E+000	3.57660E+000	10	...........
	25	0.346667	8.16227E-001	5.99434E-003	0.00000E+000	4.89275E-003	3.59960E-001	-1.15182E+000	3.57660E+000	10	...........
	26	0.36	8.22728E-001	5.99546E-003	0.00000E+000	4.93264E-003	3.59960E-001	-1.15120E+000	3.57660E+000	10	...........
	27	0.373333	8.29216E-001	5.99859E-003	0.00000E+000	4.97413E-003	3.59960E-001	-1.16179E+000	3.57660E+000	10	...........
	28	0.386667	8.35671E-001	5.99303E-003	0.00000E+000	5.00820E-003	3.59960E-001	-1.15173E+000	3.57660E+000	10	...........
	29	0.4	8.42082E-001	5.99085E-003	0.00000E+000	5.04479E-003	3.59960E-001	-1.15114E+000	3.57660E+000	10	...........
	30	0.413333	8.48512E-001	5.99245E-003	0.00000E+000	5.08466E-003	3.59960E-001	-1.16202E+000	3.57660E+000	10	...........
	31	0.426667	8.54880E-001	5.99214E-003	0.00000E+000	5.12257E-003	3.59960E-001	-1.15171E+000	3.57660E+000	10	...........
	32	0.44	8.61198E-001	5.99403E-003	0.00000E+000	5.16205E-003	3.59960E-001	-1.15067E+000	3.57660E+000	10	...........
	33	0.453333	8.67561E-001	5.99940E-003	0.00000E+000	5.20485E-003	3.59960E-001	-1.16150E+000	3.57660E+000	10	...........
	34	0.466667	8.73880E-001	5.99234E-003	0.00000E+000	5.23659E-003	3.59960E-001	-1.15133E+000	3.57660E+000	10	...........
	35	0.48	8.80183E-001	5.99222E-003	0.00000E+000	5.27425E-003	3.59960E-001	-1.15088E+000	3.57660E+000	10	...........
	36	0.493333	8.86482E-001	5.98907E-003	0.00000E+000	5.30920E-003	3.59960E-001	-1.16159E+000	3.57660E+000	10	...........
	37	0.506667	8.92657E-001	5.99131E-003	0.00000E+000	5.34818E-003	3.59960E-001	-1.15124E+000	3.57660E+000	10	...........
	38	0.52	8.98855E-001	5.98942E-003	0.00000E+000	5.38362E-003	3.59960E-001	-1.15074E+000	3.57660E+000	10	...........
	39	0.533333	9.05045E-001	5.99154E-003	0.00000E+000	5.42261E-003	3.59960E-001	-1.16146E+000	3.57660E+000	10	...........
	40	0.546667	9.11241E-001	5.99425E-003	0.00000E+000	5.46221E-003	3.59960E-001	-1.15129E+000	3.57660E+000	10	...........
	41	0.56	9.17350E-001	5.98842E-003	0.00000E+000	5.49348E-003	3.59960E-001	-1.15069E+000	3.57660E+000	10	...........
	42	0.573333	9.23477E-001	5.99596E-003	0.00000E+000	5.53713E-003	3.59960E-001	-1.16162E+000	3.57660E+000	10	...........
	43	0.586667	9.29492E-001	5.99354E-003	0.00000E+000	5.57095E-003	3.59960E-001	-1.15105E+000	3.57660E+000	10	...........
	44	0.6	9.35490E-001	5.99447E-003	0.00000E+000	5.60777E-003	3.59960E-001	-1.15065E+000	3.57660E+000	10	...........
	45	0.613333	9.41431E-001	5.99204E-003	0.00000E+000	5.64109E-003	3.59960E-001	-1.16154E+000	3.57660E+000	10	...........
	46	0.626667	9.47421E-001	5.98951E-003	0.00000E+000	5.67459E-003	3.59960E-001	-1.15118E+000	3.57660E+000	10	...........
	47	0.64	9.53278E-001	5.99477E-003	0.00000E+000	5.71468E-003	3.59960E-001	-1.15048E+000	3.57660E+000	10	...........
	48	0.653333	9.59095E-001	5.99151E-003	0.00000E+000	5.74643E-003	3.59960E-001	-1.16157E+000	3.57660E+000	10	...........
	49	0.666667	9.64866E-001	5.99287E-003	0.00000E+000	5.78232E-003	3.59960E-001	-1.15143E+000	3.57660E+000	10	...........
	50	0.68	9.70598E-001	5.99610E-003	0.00000E+000	5.81980E-003	3.59960E-001	-1.15087E+000	3.57660E+000	10	...........
	51	0.693333	9.76371E-001	5.99233E-003	0.00000E+000	5.85074E-003	3.59960E-001	-1.16170E+000	3.57660E+000	10	...........
	52	0.706667	9.81962E-001	5.99217E-003	0.00000E+000	5.88409E-003	3.59960E-001	-1.15117E+000	3.57660E+000	10	...........
	53	0.72	9.87542E-001	5.99493E-003	0.00000E+000	5.92024E-003	3.59960E-001	-1.15085E+000	3.57660E+000	10	...........
	54	0.733333	9.93069E-001	5.99287E-003	0.00000E+000	5.95134E-003	3.59960E-001	-1.16184E+000	3.57660E+000	10	...........
	55	0.745	9.98242E-001	5.99494E-003	0.00000E+000	5.98440E-003	3.59960E-001	-1.14925E+000	3.57660E+000	10	...........
STARTTIMEOFFSET	QUANT	1084.003	Start Time Offset (s)