File: Data/CV_CRGO300517_1/PWRCCD_CRGO300517_1/CHARGE_DISCHARGE/CHARGE_#315.DTA
EXPLAIN
TAG	PWR800_CHARGE
TITLE	LABEL	PWR Cyclic Charge Discharge (Cell) - Charge Step	Test &Identifier
DATE	LABEL	22-6-2017	Date
TIME	LABEL	15:48:32	Time
NOTES	NOTES	3	&Notes...
	supercap test cell
	0.6mg
	6M KOH
PSTAT	PSTAT	IFC5000-01520	Potentiostat
CAPACITY	QUANT	1.00000E-003	Capacity (A-hr)
CELLTYPE	SELECTOR	1	&Cell Type
WORKINGCONNECTION	SELECTOR	0	&Working Lead
MAXCHARGETIME	VARIABLEANDUNITS	1.00000E+002	s	1.00000E+002	second(s)	Max &Charge Time
CHARGECURRENT	QUANT	6.00000E-003	&Charge Current (A)
VOLTAGEFINISH	TWOPARAM	F	1.00000E-003	3.60000E+003	&Voltage Finish	 I (A) < 	Max Time(s)
SAMPLETIME	QUANT	1.00000E-002	Sa&mple Period (s)
CHARGESTOPAT1	MULTIPARAM	4	1.00000E+000	Charge Stop At &1	Voltage > Limit	V
CHARGESTOPAT2	MULTIPARAM	0	0.00000E+000	Charge Stop At &2	None	N/A
AESBHCSELECTOR	TOGGLE	F	Save Both Half Cells
IRCOMP	TOGGLE	F	IR &Measure
EOC	QUANT	0	Open Circuit (V)
SEQUENCER	TOGGLE	TRUE	Run as Sequence
PSTATMODEL	IQUANT	53	Pstat Model
PSTATSECTION	LABEL	IFC5000-01520	Pstat Section
PSTATSERIALNO	LABEL	01520	Pstat Serial Number
CTRLMODE	IQUANT	0	Control Mode
ELECTROMETER	IQUANT	1	RE=0 or CS=1
IESTAB	IQUANT	0	I/E Stability
CASPEED	IQUANT	4	Control Amp Speed
CONVENTION	IQUANT	1	Current Convention
ICHRANGE	IQUANT	2	Ich Range
ICHRANGEMODE	TOGGLE	T	Ich Auto Range
ICHOFFSETENABLE	TOGGLE	F	Ich Offset Enable
ICHOFFSET	QUANT	0	Ich Offset (V)
ICHFILTER	IQUANT	1	Ich Filter
VCHRANGE	IQUANT	2	Vch Range
VCHRANGEMODE	TOGGLE	T	Vch Auto Range
VCHOFFSETENABLE	TOGGLE	F	Vch Offset Enable
VCHOFFSET	QUANT	0	Vch Offset (V)
VCHFILTER	IQUANT	1	Vch Filter
IERANGELOWERLIMIT	IQUANT	9	I/E Range Lower Limit
IERANGEMODE	TOGGLE	F	I/E AutoRange
IERANGE	IQUANT	10	I/E Range
ACHSELECT	IQUANT	1	Ach Select
ACHRANGE	IQUANT	2	Ach Range
ACHOFFSETENABLE	TOGGLE	F	Ach Offset Enable
ACHOFFSET	QUANT	0	Ach Offset (V)
ACHFILTER	IQUANT	1	Ach Filter
CABLEID	IQUANT	14	Cable ID
DCCALDATE	LABEL	20-10-2016	DC Calibration Date
ACCALDATE	LABEL	12/3/2015	AC Calibration Date
FRAMEWORKVERSION	QUANT	7.01	Framework Version
INSTRUMENTVERSION	LABEL	4.00	Instrument Version
CURVE	TABLE	62
	Pt	T	Vf	Im	Vu	Pwr	Sig	Ach	Temp	IERange	Over
	#	s	V	A	V	W	V	V	deg C	#	bits
	0	0.013333	6.17453E-001	5.99164E-003	0.00000E+000	3.69956E-003	3.59960E-001	-1.11248E+000	3.57810E+000	10	...........
	1	0.026667	6.26088E-001	5.99011E-003	0.00000E+000	3.75034E-003	3.59960E-001	-1.10777E+000	3.57810E+000	10	...........
	2	0.04	6.34004E-001	5.99283E-003	0.00000E+000	3.79948E-003	3.59960E-001	-1.11668E+000	3.57810E+000	10	...........
	3	0.053333	6.41531E-001	5.99541E-003	0.00000E+000	3.84624E-003	3.59960E-001	-1.11248E+000	3.57810E+000	10	...........
	4	0.066667	6.48843E-001	5.99206E-003	0.00000E+000	3.88791E-003	3.59960E-001	-1.10758E+000	3.57810E+000	10	...........
	5	0.08	6.55874E-001	5.99237E-003	0.00000E+000	3.93024E-003	3.59960E-001	-1.11681E+000	3.57810E+000	10	...........
	6	0.093333	6.62797E-001	5.99381E-003	0.00000E+000	3.97268E-003	3.59960E-001	-1.11240E+000	3.57810E+000	10	...........
	7	0.106667	6.69637E-001	5.99817E-003	0.00000E+000	4.01660E-003	3.59960E-001	-1.10772E+000	3.57810E+000	10	...........
	8	0.12	6.76362E-001	5.99342E-003	0.00000E+000	4.05372E-003	3.59960E-001	-1.11649E+000	3.57810E+000	10	...........
	9	0.133333	6.82958E-001	5.99846E-003	0.00000E+000	4.09670E-003	3.59960E-001	-1.11250E+000	3.57810E+000	10	...........
	10	0.146667	6.89515E-001	5.99557E-003	0.00000E+000	4.13404E-003	3.59960E-001	-1.10757E+000	3.57810E+000	10	...........
	11	0.16	6.96102E-001	5.99067E-003	0.00000E+000	4.17012E-003	3.59960E-001	-1.11646E+000	3.57810E+000	10	...........
	12	0.173333	7.02578E-001	5.99250E-003	0.00000E+000	4.21020E-003	3.59960E-001	-1.11225E+000	3.57810E+000	10	...........
	13	0.186667	7.09079E-001	5.99391E-003	0.00000E+000	4.25015E-003	3.59960E-001	-1.10705E+000	3.57810E+000	10	...........
	14	0.2	7.15518E-001	5.99464E-003	0.00000E+000	4.28927E-003	3.59960E-001	-1.11579E+000	3.57810E+000	10	...........
	15	0.213333	7.21985E-001	5.99547E-003	0.00000E+000	4.32864E-003	3.59960E-001	-1.11217E+000	3.57810E+000	10	...........
	16	0.226667	7.28415E-001	5.99751E-003	0.00000E+000	4.36867E-003	3.59960E-001	-1.10697E+000	3.57810E+000	10	...........
	17	0.24	7.34727E-001	5.99160E-003	0.00000E+000	4.40219E-003	3.59960E-001	-1.11575E+000	3.57810E+000	10	...........
	18	0.253333	7.41068E-001	5.99412E-003	0.00000E+000	4.44205E-003	3.59960E-001	-1.11216E+000	3.57810E+000	10	...........
	19	0.266667	7.47417E-001	5.99718E-003	0.00000E+000	4.48239E-003	3.59960E-001	-1.10701E+000	3.57810E+000	10	...........
	20	0.28	7.53747E-001	5.99419E-003	0.00000E+000	4.51810E-003	3.59960E-001	-1.11567E+000	3.57810E+000	10	...........
	21	0.293333	7.60074E-001	5.99483E-003	0.00000E+000	4.55652E-003	3.59960E-001	-1.11256E+000	3.57810E+000	10	...........
	22	0.306667	7.66301E-001	5.99131E-003	0.00000E+000	4.59115E-003	3.59960E-001	-1.10702E+000	3.57810E+000	10	...........
	23	0.32	7.72606E-001	5.99203E-003	0.00000E+000	4.62948E-003	3.59960E-001	-1.11537E+000	3.57810E+000	10	...........
	24	0.333333	7.78873E-001	5.99505E-003	0.00000E+000	4.66939E-003	3.59960E-001	-1.11224E+000	3.57810E+000	10	...........
	25	0.346667	7.85137E-001	5.99750E-003	0.00000E+000	4.70886E-003	3.59960E-001	-1.10703E+000	3.57810E+000	10	...........
	26	0.36	7.91393E-001	5.99481E-003	0.00000E+000	4.74425E-003	3.59960E-001	-1.11513E+000	3.57810E+000	10	...........
	27	0.373333	7.97670E-001	5.99439E-003	0.00000E+000	4.78154E-003	3.59960E-001	-1.11239E+000	3.57810E+000	10	...........
	28	0.386667	8.03939E-001	5.99809E-003	0.00000E+000	4.82210E-003	3.59960E-001	-1.10678E+000	3.57810E+000	10	...........
	29	0.4	8.10138E-001	5.99485E-003	0.00000E+000	4.85665E-003	3.59960E-001	-1.11502E+000	3.57810E+000	10	...........
	30	0.413333	8.16349E-001	5.99712E-003	0.00000E+000	4.89574E-003	3.59960E-001	-1.11267E+000	3.57810E+000	10	...........
	31	0.426667	8.22595E-001	5.99312E-003	0.00000E+000	4.92991E-003	3.59960E-001	-1.10687E+000	3.57810E+000	10	...........
	32	0.44	8.28812E-001	5.99183E-003	0.00000E+000	4.96610E-003	3.59960E-001	-1.11495E+000	3.57810E+000	10	...........
	33	0.453333	8.34949E-001	5.99765E-003	0.00000E+000	5.00773E-003	3.59960E-001	-1.11259E+000	3.57810E+000	10	...........
	34	0.466667	8.41166E-001	5.99320E-003	0.00000E+000	5.04128E-003	3.59960E-001	-1.10676E+000	3.57810E+000	10	...........
	35	0.48	8.47351E-001	5.99673E-003	0.00000E+000	5.08134E-003	3.59960E-001	-1.11481E+000	3.57810E+000	10	...........
	36	0.493333	8.53459E-001	5.99307E-003	0.00000E+000	5.11484E-003	3.59960E-001	-1.11247E+000	3.57810E+000	10	...........
	37	0.506667	8.59582E-001	5.99450E-003	0.00000E+000	5.15277E-003	3.59960E-001	-1.10629E+000	3.57810E+000	10	...........
	38	0.52	8.65686E-001	5.99755E-003	0.00000E+000	5.19199E-003	3.59960E-001	-1.11407E+000	3.57754E+000	10	...........
	39	0.533333	8.71854E-001	5.99665E-003	0.00000E+000	5.22820E-003	3.59960E-001	-1.11231E+000	3.57720E+000	10	...........
	40	0.546667	8.77933E-001	5.99366E-003	0.00000E+000	5.26203E-003	3.59960E-001	-1.10603E+000	3.57720E+000	10	...........
	41	0.56	8.83990E-001	5.99132E-003	0.00000E+000	5.29627E-003	3.59960E-001	-1.11389E+000	3.57720E+000	10	...........
	42	0.573333	8.90003E-001	5.99536E-003	0.00000E+000	5.33589E-003	3.59960E-001	-1.11197E+000	3.57720E+000	10	...........
	43	0.586667	8.96028E-001	5.99425E-003	0.00000E+000	5.37102E-003	3.59960E-001	-1.10559E+000	3.57720E+000	10	...........
	44	0.6	9.02024E-001	5.99524E-003	0.00000E+000	5.40785E-003	3.59960E-001	-1.11331E+000	3.57720E+000	10	...........
	45	0.613333	9.07987E-001	5.99318E-003	0.00000E+000	5.44173E-003	3.59960E-001	-1.11179E+000	3.57720E+000	10	...........
	46	0.626667	9.13947E-001	5.99618E-003	0.00000E+000	5.48019E-003	3.59960E-001	-1.10536E+000	3.57720E+000	10	...........
	47	0.64	9.19904E-001	5.99380E-003	0.00000E+000	5.51372E-003	3.59960E-001	-1.11252E+000	3.57720E+000	10	...........
	48	0.653333	9.25800E-001	5.99391E-003	0.00000E+000	5.54916E-003	3.59960E-001	-1.11107E+000	3.57720E+000	10	...........
	49	0.666667	9.31690E-001	5.99524E-003	0.00000E+000	5.58571E-003	3.59960E-001	-1.10475E+000	3.57720E+000	10	...........
	50	0.68	9.37507E-001	5.99609E-003	0.00000E+000	5.62137E-003	3.59960E-001	-1.11206E+000	3.57720E+000	10	...........
	51	0.693333	9.43247E-001	5.99270E-003	0.00000E+000	5.65259E-003	3.59960E-001	-1.11080E+000	3.57720E+000	10	...........
	52	0.706667	9.49129E-001	5.99812E-003	0.00000E+000	5.69299E-003	3.59960E-001	-1.10452E+000	3.57720E+000	10	...........
	53	0.72	9.54865E-001	5.99281E-003	0.00000E+000	5.72232E-003	3.59960E-001	-1.11171E+000	3.57720E+000	10	...........
	54	0.733333	9.60479E-001	5.98872E-003	0.00000E+000	5.75204E-003	3.59960E-001	-1.11104E+000	3.57720E+000	10	...........
	55	0.746667	9.66174E-001	5.99100E-003	0.00000E+000	5.78834E-003	3.59960E-001	-1.10431E+000	3.57720E+000	10	...........
	56	0.76	9.71837E-001	5.99345E-003	0.00000E+000	5.82466E-003	3.59960E-001	-1.11162E+000	3.57720E+000	10	...........
	57	0.773333	9.77398E-001	5.99610E-003	0.00000E+000	5.86057E-003	3.59960E-001	-1.11081E+000	3.57720E+000	10	...........
	58	0.786667	9.82923E-001	5.99406E-003	0.00000E+000	5.89170E-003	3.59960E-001	-1.10418E+000	3.57720E+000	10	...........
	59	0.8	9.88416E-001	5.99363E-003	0.00000E+000	5.92420E-003	3.59960E-001	-1.11129E+000	3.57720E+000	10	...........
	60	0.813333	9.93868E-001	5.99368E-003	0.00000E+000	5.95692E-003	3.59960E-001	-1.11066E+000	3.57720E+000	10	...........
	61	0.823333	9.98597E-001	5.99139E-003	0.00000E+000	5.98298E-003	3.59960E-001	-1.10106E+000	3.57720E+000	10	...........
STARTTIMEOFFSET	QUANT	565.7632	Start Time Offset (s)