File: Data/CV_CRGO300517_1/PWRCCD_CRGO300517_1/CHARGE_DISCHARGE/CHARGE_#808.DTA
EXPLAIN
TAG	PWR800_CHARGE
TITLE	LABEL	PWR Cyclic Charge Discharge (Cell) - Charge Step	Test &Identifier
DATE	LABEL	22-6-2017	Date
TIME	LABEL	16:07:35	Time
NOTES	NOTES	3	&Notes...
	supercap test cell
	0.6mg
	6M KOH
PSTAT	PSTAT	IFC5000-01520	Potentiostat
CAPACITY	QUANT	1.00000E-003	Capacity (A-hr)
CELLTYPE	SELECTOR	1	&Cell Type
WORKINGCONNECTION	SELECTOR	0	&Working Lead
MAXCHARGETIME	VARIABLEANDUNITS	1.00000E+002	s	1.00000E+002	second(s)	Max &Charge Time
CHARGECURRENT	QUANT	6.00000E-003	&Charge Current (A)
VOLTAGEFINISH	TWOPARAM	F	1.00000E-003	3.60000E+003	&Voltage Finish	 I (A) < 	Max Time(s)
SAMPLETIME	QUANT	1.00000E-002	Sa&mple Period (s)
CHARGESTOPAT1	MULTIPARAM	4	1.00000E+000	Charge Stop At &1	Voltage > Limit	V
CHARGESTOPAT2	MULTIPARAM	0	0.00000E+000	Charge Stop At &2	None	N/A
AESBHCSELECTOR	TOGGLE	F	Save Both Half Cells
IRCOMP	TOGGLE	F	IR &Measure
EOC	QUANT	0	Open Circuit (V)
SEQUENCER	TOGGLE	TRUE	Run as Sequence
PSTATMODEL	IQUANT	53	Pstat Model
PSTATSECTION	LABEL	IFC5000-01520	Pstat Section
PSTATSERIALNO	LABEL	01520	Pstat Serial Number
CTRLMODE	IQUANT	0	Control Mode
ELECTROMETER	IQUANT	1	RE=0 or CS=1
IESTAB	IQUANT	0	I/E Stability
CASPEED	IQUANT	4	Control Amp Speed
CONVENTION	IQUANT	1	Current Convention
ICHRANGE	IQUANT	2	Ich Range
ICHRANGEMODE	TOGGLE	T	Ich Auto Range
ICHOFFSETENABLE	TOGGLE	F	Ich Offset Enable
ICHOFFSET	QUANT	0	Ich Offset (V)
ICHFILTER	IQUANT	1	Ich Filter
VCHRANGE	IQUANT	2	Vch Range
VCHRANGEMODE	TOGGLE	T	Vch Auto Range
VCHOFFSETENABLE	TOGGLE	F	Vch Offset Enable
VCHOFFSET	QUANT	0	Vch Offset (V)
VCHFILTER	IQUANT	1	Vch Filter
IERANGELOWERLIMIT	IQUANT	9	I/E Range Lower Limit
IERANGEMODE	TOGGLE	F	I/E AutoRange
IERANGE	IQUANT	10	I/E Range
ACHSELECT	IQUANT	1	Ach Select
ACHRANGE	IQUANT	2	Ach Range
ACHOFFSETENABLE	TOGGLE	F	Ach Offset Enable
ACHOFFSET	QUANT	0	Ach Offset (V)
ACHFILTER	IQUANT	1	Ach Filter
CABLEID	IQUANT	14	Cable ID
DCCALDATE	LABEL	20-10-2016	DC Calibration Date
ACCALDATE	LABEL	12/3/2015	AC Calibration Date
FRAMEWORKVERSION	QUANT	7.01	Framework Version
INSTRUMENTVERSION	LABEL	4.00	Instrument Version
CURVE	TABLE	54
	Pt	T	Vf	Im	Vu	Pwr	Sig	Ach	Temp	IERange	Over
	#	s	V	A	V	W	V	V	deg C	#	bits
	0	0.013333	6.48129E-001	5.98966E-003	0.00000E+000	3.88207E-003	3.59960E-001	-1.16978E+000	3.57660E+000	10	...........
	1	0.026667	6.57324E-001	5.99656E-003	0.00000E+000	3.94168E-003	3.59960E-001	-1.15912E+000	3.57660E+000	10	...........
	2	0.04	6.65795E-001	5.99457E-003	0.00000E+000	3.99116E-003	3.59960E-001	-1.15895E+000	3.57660E+000	10	...........
	3	0.053333	6.73831E-001	5.99571E-003	0.00000E+000	4.04010E-003	3.59960E-001	-1.16936E+000	3.57660E+000	10	...........
	4	0.066667	6.81565E-001	5.99437E-003	0.00000E+000	4.08555E-003	3.59960E-001	-1.15820E+000	3.57660E+000	10	...........
	5	0.08	6.89069E-001	5.99298E-003	0.00000E+000	4.12958E-003	3.59960E-001	-1.15843E+000	3.57660E+000	10	...........
	6	0.093333	6.96504E-001	5.99120E-003	0.00000E+000	4.17290E-003	3.59960E-001	-1.16936E+000	3.57660E+000	10	...........
	7	0.106667	7.03756E-001	5.99319E-003	0.00000E+000	4.21774E-003	3.59960E-001	-1.15831E+000	3.57660E+000	10	...........
	8	0.12	7.10908E-001	5.99737E-003	0.00000E+000	4.26358E-003	3.59960E-001	-1.15830E+000	3.57660E+000	10	...........
	9	0.133333	7.18028E-001	5.99141E-003	0.00000E+000	4.30201E-003	3.59960E-001	-1.16851E+000	3.57660E+000	10	...........
	10	0.146667	7.25097E-001	5.99669E-003	0.00000E+000	4.34818E-003	3.59960E-001	-1.15761E+000	3.57660E+000	10	...........
	11	0.16	7.32062E-001	5.99620E-003	0.00000E+000	4.38959E-003	3.59960E-001	-1.15806E+000	3.57660E+000	10	...........
	12	0.173333	7.38934E-001	5.99218E-003	0.00000E+000	4.42782E-003	3.59960E-001	-1.16886E+000	3.57660E+000	10	...........
	13	0.186667	7.45883E-001	5.99182E-003	0.00000E+000	4.46919E-003	3.59960E-001	-1.15731E+000	3.57660E+000	10	...........
	14	0.2	7.52744E-001	5.99660E-003	0.00000E+000	4.51390E-003	3.59960E-001	-1.15722E+000	3.57660E+000	10	...........
	15	0.213333	7.59544E-001	5.99272E-003	0.00000E+000	4.55173E-003	3.59960E-001	-1.16816E+000	3.57660E+000	10	...........
	16	0.226667	7.66363E-001	5.99487E-003	0.00000E+000	4.59424E-003	3.59960E-001	-1.15716E+000	3.57660E+000	10	...........
	17	0.24	7.73138E-001	5.99682E-003	0.00000E+000	4.63636E-003	3.59960E-001	-1.15758E+000	3.57660E+000	10	...........
	18	0.253333	7.79856E-001	5.99067E-003	0.00000E+000	4.67186E-003	3.59960E-001	-1.16803E+000	3.57660E+000	10	...........
	19	0.266667	7.86613E-001	5.98826E-003	0.00000E+000	4.71044E-003	3.59960E-001	-1.15687E+000	3.57660E+000	10	...........
	20	0.28	7.93349E-001	5.99279E-003	0.00000E+000	4.75437E-003	3.59960E-001	-1.15684E+000	3.57660E+000	10	...........
	21	0.293333	8.00014E-001	5.99298E-003	0.00000E+000	4.79446E-003	3.59960E-001	-1.16775E+000	3.57660E+000	10	...........
	22	0.306667	8.06652E-001	5.98993E-003	0.00000E+000	4.83179E-003	3.59960E-001	-1.15684E+000	3.57660E+000	10	...........
	23	0.32	8.13271E-001	5.99148E-003	0.00000E+000	4.87269E-003	3.59960E-001	-1.15648E+000	3.57660E+000	10	...........
	24	0.333333	8.19872E-001	5.99503E-003	0.00000E+000	4.91516E-003	3.59960E-001	-1.16670E+000	3.57660E+000	10	...........
	25	0.346667	8.26484E-001	5.99764E-003	0.00000E+000	4.95695E-003	3.59960E-001	-1.15565E+000	3.57660E+000	10	...........
	26	0.36	8.33011E-001	5.99348E-003	0.00000E+000	4.99263E-003	3.59960E-001	-1.15616E+000	3.57660E+000	10	...........
	27	0.373333	8.39543E-001	5.99225E-003	0.00000E+000	5.03075E-003	3.59960E-001	-1.16686E+000	3.57660E+000	10	...........
	28	0.386667	8.46098E-001	5.99675E-003	0.00000E+000	5.07384E-003	3.59960E-001	-1.15533E+000	3.57660E+000	10	...........
	29	0.4	8.52563E-001	5.99092E-003	0.00000E+000	5.10764E-003	3.59960E-001	-1.15536E+000	3.57660E+000	10	...........
	30	0.413333	8.58991E-001	5.99009E-003	0.00000E+000	5.14543E-003	3.59960E-001	-1.16605E+000	3.57660E+000	10	...........
	31	0.426667	8.65452E-001	5.99196E-003	0.00000E+000	5.18575E-003	3.59960E-001	-1.15534E+000	3.57660E+000	10	...........
	32	0.44	8.71878E-001	5.99336E-003	0.00000E+000	5.22548E-003	3.59960E-001	-1.15586E+000	3.57660E+000	10	...........
	33	0.453333	8.78253E-001	5.99390E-003	0.00000E+000	5.26416E-003	3.59960E-001	-1.16614E+000	3.57660E+000	10	...........
	34	0.466667	8.84629E-001	5.99455E-003	0.00000E+000	5.30295E-003	3.59960E-001	-1.15474E+000	3.57660E+000	10	...........
	35	0.48	8.90935E-001	5.99844E-003	0.00000E+000	5.34422E-003	3.59960E-001	-1.15528E+000	3.57660E+000	10	...........
	36	0.493333	8.97258E-001	5.99207E-003	0.00000E+000	5.37644E-003	3.59960E-001	-1.16593E+000	3.57660E+000	10	...........
	37	0.506667	9.03522E-001	5.98934E-003	0.00000E+000	5.41150E-003	3.59960E-001	-1.15497E+000	3.57660E+000	10	...........
	38	0.52	9.09736E-001	5.99405E-003	0.00000E+000	5.45300E-003	3.59960E-001	-1.15513E+000	3.57660E+000	10	...........
	39	0.533333	9.15890E-001	5.99489E-003	0.00000E+000	5.49066E-003	3.59960E-001	-1.16550E+000	3.57660E+000	10	...........
	40	0.546667	9.22104E-001	5.99213E-003	0.00000E+000	5.52537E-003	3.59960E-001	-1.15451E+000	3.57660E+000	10	...........
	41	0.56	9.28221E-001	5.99407E-003	0.00000E+000	5.56383E-003	3.59960E-001	-1.15500E+000	3.57660E+000	10	...........
	42	0.573333	9.34263E-001	5.99469E-003	0.00000E+000	5.60062E-003	3.59960E-001	-1.16575E+000	3.57660E+000	10	...........
	43	0.586667	9.40242E-001	5.99206E-003	0.00000E+000	5.63399E-003	3.59960E-001	-1.15462E+000	3.57660E+000	10	...........
	44	0.6	9.46207E-001	5.99654E-003	0.00000E+000	5.67397E-003	3.59960E-001	-1.15494E+000	3.57660E+000	10	...........
	45	0.613333	9.52125E-001	5.99282E-003	0.00000E+000	5.70592E-003	3.59960E-001	-1.16542E+000	3.57660E+000	10	...........
	46	0.626667	9.57995E-001	5.99270E-003	0.00000E+000	5.74097E-003	3.59960E-001	-1.15477E+000	3.57660E+000	10	...........
	47	0.64	9.63843E-001	5.99381E-003	0.00000E+000	5.77709E-003	3.59960E-001	-1.15466E+000	3.57660E+000	10	...........
	48	0.653333	9.69616E-001	5.99325E-003	0.00000E+000	5.81115E-003	3.59960E-001	-1.16494E+000	3.57660E+000	10	...........
	49	0.666667	9.75424E-001	5.99910E-003	0.00000E+000	5.85166E-003	3.59960E-001	-1.15371E+000	3.57660E+000	10	...........
	50	0.68	9.81116E-001	5.99256E-003	0.00000E+000	5.87940E-003	3.59960E-001	-1.15404E+000	3.57660E+000	10	...........
	51	0.693333	9.86760E-001	5.99716E-003	0.00000E+000	5.91776E-003	3.59960E-001	-1.16514E+000	3.57660E+000	10	...........
	52	0.706667	9.92301E-001	5.99355E-003	0.00000E+000	5.94741E-003	3.59960E-001	-1.15428E+000	3.57660E+000	10	...........
	53	0.72	9.97849E-001	5.99783E-003	0.00000E+000	5.98493E-003	3.59960E-001	-1.15438E+000	3.57660E+000	10	...........
STARTTIMEOFFSET	QUANT	1315.58	Start Time Offset (s)