File: Data/CV_CRGO300517_1/PWRCCD_CRGO300517_1/CHARGE_DISCHARGE/CHARGE_#741.DTA
EXPLAIN
TAG	PWR800_CHARGE
TITLE	LABEL	PWR Cyclic Charge Discharge (Cell) - Charge Step	Test &Identifier
DATE	LABEL	22-6-2017	Date
TIME	LABEL	16:05:05	Time
NOTES	NOTES	3	&Notes...
	supercap test cell
	0.6mg
	6M KOH
PSTAT	PSTAT	IFC5000-01520	Potentiostat
CAPACITY	QUANT	1.00000E-003	Capacity (A-hr)
CELLTYPE	SELECTOR	1	&Cell Type
WORKINGCONNECTION	SELECTOR	0	&Working Lead
MAXCHARGETIME	VARIABLEANDUNITS	1.00000E+002	s	1.00000E+002	second(s)	Max &Charge Time
CHARGECURRENT	QUANT	6.00000E-003	&Charge Current (A)
VOLTAGEFINISH	TWOPARAM	F	1.00000E-003	3.60000E+003	&Voltage Finish	 I (A) < 	Max Time(s)
SAMPLETIME	QUANT	1.00000E-002	Sa&mple Period (s)
CHARGESTOPAT1	MULTIPARAM	4	1.00000E+000	Charge Stop At &1	Voltage > Limit	V
CHARGESTOPAT2	MULTIPARAM	0	0.00000E+000	Charge Stop At &2	None	N/A
AESBHCSELECTOR	TOGGLE	F	Save Both Half Cells
IRCOMP	TOGGLE	F	IR &Measure
EOC	QUANT	0	Open Circuit (V)
SEQUENCER	TOGGLE	TRUE	Run as Sequence
PSTATMODEL	IQUANT	53	Pstat Model
PSTATSECTION	LABEL	IFC5000-01520	Pstat Section
PSTATSERIALNO	LABEL	01520	Pstat Serial Number
CTRLMODE	IQUANT	0	Control Mode
ELECTROMETER	IQUANT	1	RE=0 or CS=1
IESTAB	IQUANT	0	I/E Stability
CASPEED	IQUANT	4	Control Amp Speed
CONVENTION	IQUANT	1	Current Convention
ICHRANGE	IQUANT	2	Ich Range
ICHRANGEMODE	TOGGLE	T	Ich Auto Range
ICHOFFSETENABLE	TOGGLE	F	Ich Offset Enable
ICHOFFSET	QUANT	0	Ich Offset (V)
ICHFILTER	IQUANT	1	Ich Filter
VCHRANGE	IQUANT	2	Vch Range
VCHRANGEMODE	TOGGLE	T	Vch Auto Range
VCHOFFSETENABLE	TOGGLE	F	Vch Offset Enable
VCHOFFSET	QUANT	0	Vch Offset (V)
VCHFILTER	IQUANT	1	Vch Filter
IERANGELOWERLIMIT	IQUANT	9	I/E Range Lower Limit
IERANGEMODE	TOGGLE	F	I/E AutoRange
IERANGE	IQUANT	10	I/E Range
ACHSELECT	IQUANT	1	Ach Select
ACHRANGE	IQUANT	2	Ach Range
ACHOFFSETENABLE	TOGGLE	F	Ach Offset Enable
ACHOFFSET	QUANT	0	Ach Offset (V)
ACHFILTER	IQUANT	1	Ach Filter
CABLEID	IQUANT	14	Cable ID
DCCALDATE	LABEL	20-10-2016	DC Calibration Date
ACCALDATE	LABEL	12/3/2015	AC Calibration Date
FRAMEWORKVERSION	QUANT	7.01	Framework Version
INSTRUMENTVERSION	LABEL	4.00	Instrument Version
CURVE	TABLE	55
	Pt	T	Vf	Im	Vu	Pwr	Sig	Ach	Temp	IERange	Over
	#	s	V	A	V	W	V	V	deg C	#	bits
	0	0.013333	6.44908E-001	5.99396E-003	0.00000E+000	3.86555E-003	3.59960E-001	-1.16528E+000	3.57780E+000	10	...........
	1	0.026667	6.54061E-001	5.99016E-003	0.00000E+000	3.91793E-003	3.59960E-001	-1.15886E+000	3.57780E+000	10	...........
	2	0.04	6.62467E-001	5.99471E-003	0.00000E+000	3.97130E-003	3.59960E-001	-1.15452E+000	3.57780E+000	10	...........
	3	0.053333	6.70457E-001	5.99600E-003	0.00000E+000	4.02006E-003	3.59960E-001	-1.16509E+000	3.57780E+000	10	...........
	4	0.066667	6.78137E-001	5.99045E-003	0.00000E+000	4.06235E-003	3.59960E-001	-1.15844E+000	3.57780E+000	10	...........
	5	0.08	6.85660E-001	5.99680E-003	0.00000E+000	4.11176E-003	3.59960E-001	-1.15447E+000	3.57780E+000	10	...........
	6	0.093333	6.93004E-001	5.99141E-003	0.00000E+000	4.15207E-003	3.59960E-001	-1.16498E+000	3.57780E+000	10	...........
	7	0.106667	7.00189E-001	5.99265E-003	0.00000E+000	4.19599E-003	3.59960E-001	-1.15841E+000	3.57780E+000	10	...........
	8	0.12	7.07311E-001	5.99662E-003	0.00000E+000	4.24147E-003	3.59960E-001	-1.15465E+000	3.57780E+000	10	...........
	9	0.133333	7.14375E-001	5.99344E-003	0.00000E+000	4.28156E-003	3.59960E-001	-1.16515E+000	3.57780E+000	10	...........
	10	0.146667	7.21400E-001	5.99090E-003	0.00000E+000	4.32184E-003	3.59960E-001	-1.15798E+000	3.57780E+000	10	...........
	11	0.16	7.28325E-001	5.99457E-003	0.00000E+000	4.36600E-003	3.59960E-001	-1.15421E+000	3.57780E+000	10	...........
	12	0.173333	7.35220E-001	5.99544E-003	0.00000E+000	4.40797E-003	3.59960E-001	-1.16503E+000	3.57780E+000	10	...........
	13	0.186667	7.42061E-001	5.99707E-003	0.00000E+000	4.45019E-003	3.59960E-001	-1.15811E+000	3.57780E+000	10	...........
	14	0.2	7.48925E-001	5.99158E-003	0.00000E+000	4.48724E-003	3.59960E-001	-1.15405E+000	3.57780E+000	10	...........
	15	0.213333	7.55745E-001	5.99356E-003	0.00000E+000	4.52960E-003	3.59960E-001	-1.16496E+000	3.57780E+000	10	...........
	16	0.226667	7.62466E-001	5.99500E-003	0.00000E+000	4.57099E-003	3.59960E-001	-1.15772E+000	3.57780E+000	10	...........
	17	0.24	7.69200E-001	5.99390E-003	0.00000E+000	4.61050E-003	3.59960E-001	-1.15426E+000	3.57780E+000	10	...........
	18	0.253333	7.75945E-001	5.99195E-003	0.00000E+000	4.64942E-003	3.59960E-001	-1.16536E+000	3.57780E+000	10	...........
	19	0.266667	7.82619E-001	5.99055E-003	0.00000E+000	4.68831E-003	3.59960E-001	-1.15778E+000	3.57780E+000	10	...........
	20	0.28	7.89275E-001	5.99883E-003	0.00000E+000	4.73472E-003	3.59960E-001	-1.15429E+000	3.57780E+000	10	...........
	21	0.293333	7.95943E-001	5.99466E-003	0.00000E+000	4.77141E-003	3.59960E-001	-1.16531E+000	3.57780E+000	10	...........
	22	0.306667	8.02546E-001	5.99112E-003	0.00000E+000	4.80815E-003	3.59960E-001	-1.15778E+000	3.57780E+000	10	...........
	23	0.32	8.09188E-001	5.99325E-003	0.00000E+000	4.84967E-003	3.59960E-001	-1.15445E+000	3.57780E+000	10	...........
	24	0.333333	8.15746E-001	5.99231E-003	0.00000E+000	4.88820E-003	3.59960E-001	-1.16539E+000	3.57780E+000	10	...........
	25	0.346667	8.22306E-001	5.99085E-003	0.00000E+000	4.92631E-003	3.59960E-001	-1.15746E+000	3.57780E+000	10	...........
	26	0.36	8.28867E-001	5.99555E-003	0.00000E+000	4.96952E-003	3.59960E-001	-1.15399E+000	3.57780E+000	10	...........
	27	0.373333	8.35389E-001	5.99256E-003	0.00000E+000	5.00612E-003	3.59960E-001	-1.16513E+000	3.57780E+000	10	...........
	28	0.386667	8.41901E-001	5.99167E-003	0.00000E+000	5.04439E-003	3.59960E-001	-1.15717E+000	3.57780E+000	10	...........
	29	0.4	8.48389E-001	5.99088E-003	0.00000E+000	5.08260E-003	3.59960E-001	-1.15398E+000	3.57780E+000	10	...........
	30	0.413333	8.54853E-001	5.99349E-003	0.00000E+000	5.12355E-003	3.59960E-001	-1.16503E+000	3.57780E+000	10	...........
	31	0.426667	8.61286E-001	5.99916E-003	0.00000E+000	5.16700E-003	3.59960E-001	-1.15691E+000	3.57780E+000	10	...........
	32	0.44	8.67675E-001	5.99255E-003	0.00000E+000	5.19959E-003	3.59960E-001	-1.15413E+000	3.57780E+000	10	...........
	33	0.453333	8.74061E-001	5.99689E-003	0.00000E+000	5.24165E-003	3.59960E-001	-1.16510E+000	3.57780E+000	10	...........
	34	0.466667	8.80422E-001	5.99312E-003	0.00000E+000	5.27648E-003	3.59960E-001	-1.15688E+000	3.57780E+000	10	...........
	35	0.48	8.86753E-001	5.99049E-003	0.00000E+000	5.31208E-003	3.59960E-001	-1.15378E+000	3.57780E+000	10	...........
	36	0.493333	8.93037E-001	5.99195E-003	0.00000E+000	5.35103E-003	3.59960E-001	-1.16484E+000	3.57780E+000	10	...........
	37	0.506667	8.99307E-001	5.99193E-003	0.00000E+000	5.38859E-003	3.59960E-001	-1.15675E+000	3.57780E+000	10	...........
	38	0.52	9.05489E-001	5.99214E-003	0.00000E+000	5.42582E-003	3.59960E-001	-1.15392E+000	3.57780E+000	10	...........
	39	0.533333	9.11694E-001	5.99419E-003	0.00000E+000	5.46486E-003	3.59960E-001	-1.16503E+000	3.57780E+000	10	...........
	40	0.546667	9.17842E-001	5.99471E-003	0.00000E+000	5.50220E-003	3.59960E-001	-1.15650E+000	3.57780E+000	10	...........
	41	0.56	9.23990E-001	5.99193E-003	0.00000E+000	5.53649E-003	3.59960E-001	-1.15389E+000	3.57780E+000	10	...........
	42	0.573333	9.30057E-001	5.99536E-003	0.00000E+000	5.57602E-003	3.59960E-001	-1.16533E+000	3.57780E+000	10	...........
	43	0.586667	9.36075E-001	5.99682E-003	0.00000E+000	5.61347E-003	3.59960E-001	-1.15681E+000	3.57780E+000	10	...........
	44	0.6	9.42045E-001	5.99272E-003	0.00000E+000	5.64541E-003	3.59960E-001	-1.15403E+000	3.57780E+000	10	...........
	45	0.613333	9.47975E-001	5.99452E-003	0.00000E+000	5.68266E-003	3.59960E-001	-1.16513E+000	3.57780E+000	10	...........
	46	0.626667	9.53879E-001	5.99184E-003	0.00000E+000	5.71549E-003	3.59960E-001	-1.15630E+000	3.57780E+000	10	...........
	47	0.64	9.59688E-001	5.99257E-003	0.00000E+000	5.75100E-003	3.59960E-001	-1.15398E+000	3.57780E+000	10	...........
	48	0.653333	9.65480E-001	5.99272E-003	0.00000E+000	5.78585E-003	3.59960E-001	-1.16514E+000	3.57780E+000	10	...........
	49	0.666667	9.71205E-001	5.99804E-003	0.00000E+000	5.82532E-003	3.59960E-001	-1.15621E+000	3.57780E+000	10	...........
	50	0.68	9.76947E-001	5.98954E-003	0.00000E+000	5.85146E-003	3.59960E-001	-1.15353E+000	3.57780E+000	10	...........
	51	0.693333	9.82618E-001	5.99627E-003	0.00000E+000	5.89204E-003	3.59960E-001	-1.16480E+000	3.57780E+000	10	...........
	52	0.706667	9.88260E-001	5.99332E-003	0.00000E+000	5.92296E-003	3.59960E-001	-1.15613E+000	3.57780E+000	10	...........
	53	0.72	9.93753E-001	5.99774E-003	0.00000E+000	5.96028E-003	3.59960E-001	-1.15366E+000	3.57780E+000	10	...........
	54	0.73	9.98653E-001	5.99184E-003	0.00000E+000	5.98378E-003	3.59960E-001	-1.16668E+000	3.57780E+000	10	...........
STARTTIMEOFFSET	QUANT	1219.036	Start Time Offset (s)