File: Data/CV_CRGO300517_1/PWRCCD_CRGO300517_1/CHARGE_DISCHARGE/CHARGE_#836.DTA
EXPLAIN
TAG	PWR800_CHARGE
TITLE	LABEL	PWR Cyclic Charge Discharge (Cell) - Charge Step	Test &Identifier
DATE	LABEL	22-6-2017	Date
TIME	LABEL	16:08:37	Time
NOTES	NOTES	3	&Notes...
	supercap test cell
	0.6mg
	6M KOH
PSTAT	PSTAT	IFC5000-01520	Potentiostat
CAPACITY	QUANT	1.00000E-003	Capacity (A-hr)
CELLTYPE	SELECTOR	1	&Cell Type
WORKINGCONNECTION	SELECTOR	0	&Working Lead
MAXCHARGETIME	VARIABLEANDUNITS	1.00000E+002	s	1.00000E+002	second(s)	Max &Charge Time
CHARGECURRENT	QUANT	6.00000E-003	&Charge Current (A)
VOLTAGEFINISH	TWOPARAM	F	1.00000E-003	3.60000E+003	&Voltage Finish	 I (A) < 	Max Time(s)
SAMPLETIME	QUANT	1.00000E-002	Sa&mple Period (s)
CHARGESTOPAT1	MULTIPARAM	4	1.00000E+000	Charge Stop At &1	Voltage > Limit	V
CHARGESTOPAT2	MULTIPARAM	0	0.00000E+000	Charge Stop At &2	None	N/A
AESBHCSELECTOR	TOGGLE	F	Save Both Half Cells
IRCOMP	TOGGLE	F	IR &Measure
EOC	QUANT	0	Open Circuit (V)
SEQUENCER	TOGGLE	TRUE	Run as Sequence
PSTATMODEL	IQUANT	53	Pstat Model
PSTATSECTION	LABEL	IFC5000-01520	Pstat Section
PSTATSERIALNO	LABEL	01520	Pstat Serial Number
CTRLMODE	IQUANT	0	Control Mode
ELECTROMETER	IQUANT	1	RE=0 or CS=1
IESTAB	IQUANT	0	I/E Stability
CASPEED	IQUANT	4	Control Amp Speed
CONVENTION	IQUANT	1	Current Convention
ICHRANGE	IQUANT	2	Ich Range
ICHRANGEMODE	TOGGLE	T	Ich Auto Range
ICHOFFSETENABLE	TOGGLE	F	Ich Offset Enable
ICHOFFSET	QUANT	0	Ich Offset (V)
ICHFILTER	IQUANT	1	Ich Filter
VCHRANGE	IQUANT	2	Vch Range
VCHRANGEMODE	TOGGLE	T	Vch Auto Range
VCHOFFSETENABLE	TOGGLE	F	Vch Offset Enable
VCHOFFSET	QUANT	0	Vch Offset (V)
VCHFILTER	IQUANT	1	Vch Filter
IERANGELOWERLIMIT	IQUANT	9	I/E Range Lower Limit
IERANGEMODE	TOGGLE	F	I/E AutoRange
IERANGE	IQUANT	10	I/E Range
ACHSELECT	IQUANT	1	Ach Select
ACHRANGE	IQUANT	2	Ach Range
ACHOFFSETENABLE	TOGGLE	F	Ach Offset Enable
ACHOFFSET	QUANT	0	Ach Offset (V)
ACHFILTER	IQUANT	1	Ach Filter
CABLEID	IQUANT	14	Cable ID
DCCALDATE	LABEL	20-10-2016	DC Calibration Date
ACCALDATE	LABEL	12/3/2015	AC Calibration Date
FRAMEWORKVERSION	QUANT	7.01	Framework Version
INSTRUMENTVERSION	LABEL	4.00	Instrument Version
CURVE	TABLE	54
	Pt	T	Vf	Im	Vu	Pwr	Sig	Ach	Temp	IERange	Over
	#	s	V	A	V	W	V	V	deg C	#	bits
	0	0.013333	6.49965E-001	5.99229E-003	0.00000E+000	3.89478E-003	3.59960E-001	-1.16791E+000	3.57780E+000	10	...........
	1	0.026667	6.59188E-001	5.99266E-003	0.00000E+000	3.95029E-003	3.59960E-001	-1.15732E+000	3.57780E+000	10	...........
	2	0.04	6.67706E-001	5.99575E-003	0.00000E+000	4.00340E-003	3.59960E-001	-1.15812E+000	3.57780E+000	10	...........
	3	0.053333	6.75740E-001	5.99264E-003	0.00000E+000	4.04947E-003	3.59960E-001	-1.16790E+000	3.57780E+000	10	...........
	4	0.066667	6.83483E-001	5.99729E-003	0.00000E+000	4.09904E-003	3.59960E-001	-1.15728E+000	3.57780E+000	10	...........
	5	0.08	6.91015E-001	5.99579E-003	0.00000E+000	4.14318E-003	3.59960E-001	-1.15803E+000	3.57780E+000	10	...........
	6	0.093333	6.98448E-001	5.99761E-003	0.00000E+000	4.18902E-003	3.59960E-001	-1.16759E+000	3.57780E+000	10	...........
	7	0.106667	7.05705E-001	5.99182E-003	0.00000E+000	4.22846E-003	3.59960E-001	-1.15689E+000	3.57780E+000	10	...........
	8	0.12	7.12908E-001	5.99542E-003	0.00000E+000	4.27418E-003	3.59960E-001	-1.15781E+000	3.57780E+000	10	...........
	9	0.133333	7.20104E-001	5.99012E-003	0.00000E+000	4.31351E-003	3.59960E-001	-1.16761E+000	3.57780E+000	10	...........
	10	0.146667	7.27129E-001	5.99538E-003	0.00000E+000	4.35941E-003	3.59960E-001	-1.15700E+000	3.57780E+000	10	...........
	11	0.16	7.34154E-001	5.98909E-003	0.00000E+000	4.39691E-003	3.59960E-001	-1.15798E+000	3.57780E+000	10	...........
	12	0.173333	7.41140E-001	5.99345E-003	0.00000E+000	4.44198E-003	3.59960E-001	-1.16765E+000	3.57780E+000	10	...........
	13	0.186667	7.48046E-001	5.99180E-003	0.00000E+000	4.48214E-003	3.59960E-001	-1.15703E+000	3.57780E+000	10	...........
	14	0.2	7.54888E-001	5.99337E-003	0.00000E+000	4.52433E-003	3.59960E-001	-1.15800E+000	3.57780E+000	10	...........
	15	0.213333	7.61745E-001	5.99238E-003	0.00000E+000	4.56467E-003	3.59960E-001	-1.16764E+000	3.57780E+000	10	...........
	16	0.226667	7.68527E-001	5.99004E-003	0.00000E+000	4.60351E-003	3.59960E-001	-1.15723E+000	3.57780E+000	10	...........
	17	0.24	7.75328E-001	5.99379E-003	0.00000E+000	4.64716E-003	3.59960E-001	-1.15847E+000	3.57780E+000	10	...........
	18	0.253333	7.82075E-001	5.99723E-003	0.00000E+000	4.69028E-003	3.59960E-001	-1.16770E+000	3.57780E+000	10	...........
	19	0.266667	7.88837E-001	5.99281E-003	0.00000E+000	4.72735E-003	3.59960E-001	-1.15719E+000	3.57780E+000	10	...........
	20	0.28	7.95576E-001	5.99286E-003	0.00000E+000	4.76778E-003	3.59960E-001	-1.15827E+000	3.57780E+000	10	...........
	21	0.293333	8.02236E-001	5.99542E-003	0.00000E+000	4.80974E-003	3.59960E-001	-1.16791E+000	3.57780E+000	10	...........
	22	0.306667	8.08847E-001	5.99500E-003	0.00000E+000	4.84904E-003	3.59960E-001	-1.15735E+000	3.57780E+000	10	...........
	23	0.32	8.15482E-001	5.99208E-003	0.00000E+000	4.88643E-003	3.59960E-001	-1.15859E+000	3.57780E+000	10	...........
	24	0.333333	8.22091E-001	5.99131E-003	0.00000E+000	4.92540E-003	3.59960E-001	-1.16817E+000	3.57780E+000	10	...........
	25	0.346667	8.28717E-001	5.99640E-003	0.00000E+000	4.96932E-003	3.59960E-001	-1.15755E+000	3.57780E+000	10	...........
	26	0.36	8.35268E-001	5.99543E-003	0.00000E+000	5.00779E-003	3.59960E-001	-1.15870E+000	3.57780E+000	10	...........
	27	0.373333	8.41824E-001	5.99470E-003	0.00000E+000	5.04648E-003	3.59960E-001	-1.16808E+000	3.57780E+000	10	...........
	28	0.386667	8.48358E-001	5.99544E-003	0.00000E+000	5.08628E-003	3.59960E-001	-1.15746E+000	3.57780E+000	10	...........
	29	0.4	8.54832E-001	5.99527E-003	0.00000E+000	5.12495E-003	3.59960E-001	-1.15879E+000	3.57780E+000	10	...........
	30	0.413333	8.61351E-001	5.99117E-003	0.00000E+000	5.16051E-003	3.59960E-001	-1.16782E+000	3.57780E+000	10	...........
	31	0.426667	8.67785E-001	5.99667E-003	0.00000E+000	5.20382E-003	3.59960E-001	-1.15730E+000	3.57780E+000	10	...........
	32	0.44	8.74195E-001	5.99224E-003	0.00000E+000	5.23838E-003	3.59960E-001	-1.15875E+000	3.57780E+000	10	...........
	33	0.453333	8.80561E-001	5.99302E-003	0.00000E+000	5.27722E-003	3.59960E-001	-1.16798E+000	3.57780E+000	10	...........
	34	0.466667	8.86911E-001	5.99826E-003	0.00000E+000	5.31992E-003	3.59960E-001	-1.15754E+000	3.57780E+000	10	...........
	35	0.48	8.93239E-001	5.99238E-003	0.00000E+000	5.35263E-003	3.59960E-001	-1.15892E+000	3.57780E+000	10	...........
	36	0.493333	8.99529E-001	5.98890E-003	0.00000E+000	5.38719E-003	3.59960E-001	-1.16805E+000	3.57780E+000	10	...........
	37	0.506667	9.05825E-001	5.99059E-003	0.00000E+000	5.42643E-003	3.59960E-001	-1.15773E+000	3.57780E+000	10	...........
	38	0.52	9.12016E-001	5.99536E-003	0.00000E+000	5.46786E-003	3.59960E-001	-1.15919E+000	3.57780E+000	10	...........
	39	0.533333	9.18216E-001	5.98975E-003	0.00000E+000	5.49989E-003	3.59960E-001	-1.16808E+000	3.57780E+000	10	...........
	40	0.546667	9.24404E-001	5.99196E-003	0.00000E+000	5.53899E-003	3.59960E-001	-1.15747E+000	3.57780E+000	10	...........
	41	0.56	9.30467E-001	5.99466E-003	0.00000E+000	5.57783E-003	3.59960E-001	-1.15919E+000	3.57780E+000	10	...........
	42	0.573333	9.36548E-001	5.99424E-003	0.00000E+000	5.61389E-003	3.59960E-001	-1.16832E+000	3.57780E+000	10	...........
	43	0.586667	9.42520E-001	5.98937E-003	0.00000E+000	5.64510E-003	3.59960E-001	-1.15769E+000	3.57780E+000	10	...........
	44	0.6	9.48496E-001	5.99846E-003	0.00000E+000	5.68952E-003	3.59960E-001	-1.15940E+000	3.57780E+000	10	...........
	45	0.613333	9.54403E-001	5.99286E-003	0.00000E+000	5.71961E-003	3.59960E-001	-1.16823E+000	3.57780E+000	10	...........
	46	0.626667	9.60245E-001	5.98673E-003	0.00000E+000	5.74873E-003	3.59960E-001	-1.15762E+000	3.57780E+000	10	...........
	47	0.64	9.66083E-001	5.99491E-003	0.00000E+000	5.79158E-003	3.59960E-001	-1.15960E+000	3.57780E+000	10	...........
	48	0.653333	9.71864E-001	5.99189E-003	0.00000E+000	5.82330E-003	3.59960E-001	-1.16841E+000	3.57780E+000	10	...........
	49	0.666667	9.77611E-001	5.99110E-003	0.00000E+000	5.85696E-003	3.59960E-001	-1.15776E+000	3.57780E+000	10	...........
	50	0.68	9.83244E-001	5.99208E-003	0.00000E+000	5.89168E-003	3.59960E-001	-1.15969E+000	3.57780E+000	10	...........
	51	0.693333	9.88866E-001	5.99470E-003	0.00000E+000	5.92795E-003	3.59960E-001	-1.16846E+000	3.57780E+000	10	...........
	52	0.706667	9.94401E-001	5.99340E-003	0.00000E+000	5.95984E-003	3.59960E-001	-1.15799E+000	3.57780E+000	10	...........
	53	0.715	9.98880E-001	5.99146E-003	0.00000E+000	5.98474E-003	3.59960E-001	-1.16799E+000	3.57780E+000	10	...........
STARTTIMEOFFSET	QUANT	1355.544	Start Time Offset (s)