File: Data/CV_CRGO300517_1/PWRCCD_CRGO300517_1/CHARGE_DISCHARGE/CHARGE_#814.DTA
EXPLAIN
TAG	PWR800_CHARGE
TITLE	LABEL	PWR Cyclic Charge Discharge (Cell) - Charge Step	Test &Identifier
DATE	LABEL	22-6-2017	Date
TIME	LABEL	16:07:48	Time
NOTES	NOTES	3	&Notes...
	supercap test cell
	0.6mg
	6M KOH
PSTAT	PSTAT	IFC5000-01520	Potentiostat
CAPACITY	QUANT	1.00000E-003	Capacity (A-hr)
CELLTYPE	SELECTOR	1	&Cell Type
WORKINGCONNECTION	SELECTOR	0	&Working Lead
MAXCHARGETIME	VARIABLEANDUNITS	1.00000E+002	s	1.00000E+002	second(s)	Max &Charge Time
CHARGECURRENT	QUANT	6.00000E-003	&Charge Current (A)
VOLTAGEFINISH	TWOPARAM	F	1.00000E-003	3.60000E+003	&Voltage Finish	 I (A) < 	Max Time(s)
SAMPLETIME	QUANT	1.00000E-002	Sa&mple Period (s)
CHARGESTOPAT1	MULTIPARAM	4	1.00000E+000	Charge Stop At &1	Voltage > Limit	V
CHARGESTOPAT2	MULTIPARAM	0	0.00000E+000	Charge Stop At &2	None	N/A
AESBHCSELECTOR	TOGGLE	F	Save Both Half Cells
IRCOMP	TOGGLE	F	IR &Measure
EOC	QUANT	0	Open Circuit (V)
SEQUENCER	TOGGLE	TRUE	Run as Sequence
PSTATMODEL	IQUANT	53	Pstat Model
PSTATSECTION	LABEL	IFC5000-01520	Pstat Section
PSTATSERIALNO	LABEL	01520	Pstat Serial Number
CTRLMODE	IQUANT	0	Control Mode
ELECTROMETER	IQUANT	1	RE=0 or CS=1
IESTAB	IQUANT	0	I/E Stability
CASPEED	IQUANT	4	Control Amp Speed
CONVENTION	IQUANT	1	Current Convention
ICHRANGE	IQUANT	2	Ich Range
ICHRANGEMODE	TOGGLE	T	Ich Auto Range
ICHOFFSETENABLE	TOGGLE	F	Ich Offset Enable
ICHOFFSET	QUANT	0	Ich Offset (V)
ICHFILTER	IQUANT	1	Ich Filter
VCHRANGE	IQUANT	2	Vch Range
VCHRANGEMODE	TOGGLE	T	Vch Auto Range
VCHOFFSETENABLE	TOGGLE	F	Vch Offset Enable
VCHOFFSET	QUANT	0	Vch Offset (V)
VCHFILTER	IQUANT	1	Vch Filter
IERANGELOWERLIMIT	IQUANT	9	I/E Range Lower Limit
IERANGEMODE	TOGGLE	F	I/E AutoRange
IERANGE	IQUANT	10	I/E Range
ACHSELECT	IQUANT	1	Ach Select
ACHRANGE	IQUANT	2	Ach Range
ACHOFFSETENABLE	TOGGLE	F	Ach Offset Enable
ACHOFFSET	QUANT	0	Ach Offset (V)
ACHFILTER	IQUANT	1	Ach Filter
CABLEID	IQUANT	14	Cable ID
DCCALDATE	LABEL	20-10-2016	DC Calibration Date
ACCALDATE	LABEL	12/3/2015	AC Calibration Date
FRAMEWORKVERSION	QUANT	7.01	Framework Version
INSTRUMENTVERSION	LABEL	4.00	Instrument Version
CURVE	TABLE	54
	Pt	T	Vf	Im	Vu	Pwr	Sig	Ach	Temp	IERange	Over
	#	s	V	A	V	W	V	V	deg C	#	bits
	0	0.013333	6.49213E-001	5.99609E-003	0.00000E+000	3.89274E-003	3.59960E-001	-1.16972E+000	3.57780E+000	10	...........
	1	0.026667	6.58358E-001	5.99272E-003	0.00000E+000	3.94535E-003	3.59960E-001	-1.16775E+000	3.57780E+000	10	...........
	2	0.04	6.66822E-001	5.98724E-003	0.00000E+000	3.99242E-003	3.59960E-001	-1.16146E+000	3.57780E+000	10	...........
	3	0.053333	6.74868E-001	5.99045E-003	0.00000E+000	4.04276E-003	3.59960E-001	-1.16963E+000	3.57780E+000	10	...........
	4	0.066667	6.82604E-001	5.99523E-003	0.00000E+000	4.09237E-003	3.59960E-001	-1.16793E+000	3.57780E+000	10	...........
	5	0.08	6.90119E-001	5.99603E-003	0.00000E+000	4.13798E-003	3.59960E-001	-1.16149E+000	3.57780E+000	10	...........
	6	0.093333	6.97506E-001	5.99866E-003	0.00000E+000	4.18410E-003	3.59960E-001	-1.16944E+000	3.57780E+000	10	...........
	7	0.106667	7.04800E-001	5.99510E-003	0.00000E+000	4.22534E-003	3.59960E-001	-1.16751E+000	3.57780E+000	10	...........
	8	0.12	7.11975E-001	5.98931E-003	0.00000E+000	4.26424E-003	3.59960E-001	-1.16143E+000	3.57780E+000	10	...........
	9	0.133333	7.19114E-001	5.99093E-003	0.00000E+000	4.30816E-003	3.59960E-001	-1.16963E+000	3.57780E+000	10	...........
	10	0.146667	7.26135E-001	5.99599E-003	0.00000E+000	4.35390E-003	3.59960E-001	-1.16721E+000	3.57780E+000	10	...........
	11	0.16	7.33112E-001	5.99880E-003	0.00000E+000	4.39779E-003	3.59960E-001	-1.16096E+000	3.57780E+000	10	...........
	12	0.173333	7.40038E-001	5.99802E-003	0.00000E+000	4.43876E-003	3.59960E-001	-1.16886E+000	3.57780E+000	10	...........
	13	0.186667	7.46933E-001	5.99629E-003	0.00000E+000	4.47883E-003	3.59960E-001	-1.16699E+000	3.57780E+000	10	...........
	14	0.2	7.53768E-001	5.99258E-003	0.00000E+000	4.51702E-003	3.59960E-001	-1.16082E+000	3.57780E+000	10	...........
	15	0.213333	7.60585E-001	5.99311E-003	0.00000E+000	4.55827E-003	3.59960E-001	-1.16890E+000	3.57780E+000	10	...........
	16	0.226667	7.67364E-001	5.99470E-003	0.00000E+000	4.60012E-003	3.59960E-001	-1.16667E+000	3.57780E+000	10	...........
	17	0.24	7.74187E-001	5.99435E-003	0.00000E+000	4.64075E-003	3.59960E-001	-1.16043E+000	3.57780E+000	10	...........
	18	0.253333	7.80899E-001	5.99313E-003	0.00000E+000	4.68003E-003	3.59960E-001	-1.16874E+000	3.57780E+000	10	...........
	19	0.266667	7.87565E-001	5.99506E-003	0.00000E+000	4.72151E-003	3.59960E-001	-1.16670E+000	3.57780E+000	10	...........
	20	0.28	7.94323E-001	5.99236E-003	0.00000E+000	4.75987E-003	3.59960E-001	-1.16053E+000	3.57780E+000	10	...........
	21	0.293333	8.00989E-001	5.99119E-003	0.00000E+000	4.79888E-003	3.59960E-001	-1.16847E+000	3.57780E+000	10	...........
	22	0.306667	8.07647E-001	5.99541E-003	0.00000E+000	4.84217E-003	3.59960E-001	-1.16614E+000	3.57780E+000	10	...........
	23	0.32	8.14272E-001	5.99430E-003	0.00000E+000	4.88099E-003	3.59960E-001	-1.16018E+000	3.57780E+000	10	...........
	24	0.333333	8.20870E-001	5.99111E-003	0.00000E+000	4.91793E-003	3.59960E-001	-1.16850E+000	3.57780E+000	10	...........
	25	0.346667	8.27420E-001	5.99273E-003	0.00000E+000	4.95850E-003	3.59960E-001	-1.16626E+000	3.57780E+000	10	...........
	26	0.36	8.33999E-001	5.99208E-003	0.00000E+000	4.99739E-003	3.59960E-001	-1.15999E+000	3.57780E+000	10	...........
	27	0.373333	8.40511E-001	5.99601E-003	0.00000E+000	5.03972E-003	3.59960E-001	-1.16815E+000	3.57780E+000	10	...........
	28	0.386667	8.47056E-001	5.99307E-003	0.00000E+000	5.07647E-003	3.59960E-001	-1.16623E+000	3.57780E+000	10	...........
	29	0.4	8.53522E-001	5.99207E-003	0.00000E+000	5.11437E-003	3.59960E-001	-1.16014E+000	3.57780E+000	10	...........
	30	0.413333	8.60005E-001	5.99702E-003	0.00000E+000	5.15747E-003	3.59960E-001	-1.16852E+000	3.57780E+000	10	...........
	31	0.426667	8.66418E-001	5.99123E-003	0.00000E+000	5.19091E-003	3.59960E-001	-1.16594E+000	3.57780E+000	10	...........
	32	0.44	8.72818E-001	5.99159E-003	0.00000E+000	5.22957E-003	3.59960E-001	-1.16002E+000	3.57780E+000	10	...........
	33	0.453333	8.79214E-001	5.99046E-003	0.00000E+000	5.26690E-003	3.59960E-001	-1.16830E+000	3.57780E+000	10	...........
	34	0.466667	8.85573E-001	5.99619E-003	0.00000E+000	5.31006E-003	3.59960E-001	-1.16586E+000	3.57780E+000	10	...........
	35	0.48	8.91869E-001	5.99331E-003	0.00000E+000	5.34525E-003	3.59960E-001	-1.15935E+000	3.57780E+000	10	...........
	36	0.493333	8.98189E-001	5.98919E-003	0.00000E+000	5.37942E-003	3.59960E-001	-1.16749E+000	3.57780E+000	10	...........
	37	0.506667	9.04414E-001	5.99421E-003	0.00000E+000	5.42124E-003	3.59960E-001	-1.16523E+000	3.57780E+000	10	...........
	38	0.52	9.10628E-001	5.99558E-003	0.00000E+000	5.45974E-003	3.59960E-001	-1.15937E+000	3.57780E+000	10	...........
	39	0.533333	9.16792E-001	5.99493E-003	0.00000E+000	5.49610E-003	3.59960E-001	-1.16783E+000	3.57780E+000	10	...........
	40	0.546667	9.23054E-001	5.99103E-003	0.00000E+000	5.53004E-003	3.59960E-001	-1.16533E+000	3.57780E+000	10	...........
	41	0.56	9.29148E-001	5.99271E-003	0.00000E+000	5.56811E-003	3.59960E-001	-1.15867E+000	3.57780E+000	10	...........
	42	0.573333	9.35210E-001	5.99627E-003	0.00000E+000	5.60778E-003	3.59960E-001	-1.16709E+000	3.57780E+000	10	...........
	43	0.586667	9.41185E-001	5.99391E-003	0.00000E+000	5.64137E-003	3.59960E-001	-1.16493E+000	3.57761E+000	10	...........
	44	0.6	9.47211E-001	5.99718E-003	0.00000E+000	5.68059E-003	3.59960E-001	-1.15898E+000	3.57730E+000	10	...........
	45	0.613333	9.53157E-001	5.99623E-003	0.00000E+000	5.71535E-003	3.59960E-001	-1.16714E+000	3.57730E+000	10	...........
	46	0.626667	9.58978E-001	5.99737E-003	0.00000E+000	5.75134E-003	3.59960E-001	-1.16451E+000	3.57730E+000	10	...........
	47	0.64	9.64778E-001	5.99593E-003	0.00000E+000	5.78474E-003	3.59960E-001	-1.15827E+000	3.57730E+000	10	...........
	48	0.653333	9.70559E-001	5.99159E-003	0.00000E+000	5.81519E-003	3.59960E-001	-1.16709E+000	3.57730E+000	10	...........
	49	0.666667	9.76309E-001	5.99474E-003	0.00000E+000	5.85272E-003	3.59960E-001	-1.16485E+000	3.57730E+000	10	...........
	50	0.68	9.81966E-001	5.99107E-003	0.00000E+000	5.88303E-003	3.59960E-001	-1.15856E+000	3.57730E+000	10	...........
	51	0.693333	9.87589E-001	5.99272E-003	0.00000E+000	5.91834E-003	3.59960E-001	-1.16674E+000	3.57730E+000	10	...........
	52	0.706667	9.93155E-001	5.99553E-003	0.00000E+000	5.95450E-003	3.59960E-001	-1.16454E+000	3.57730E+000	10	...........
	53	0.718333	9.98386E-001	5.99210E-003	0.00000E+000	5.98243E-003	3.59960E-001	-1.15687E+000	3.57730E+000	10	...........
STARTTIMEOFFSET	QUANT	1324.169	Start Time Offset (s)