File: Data/CV_CRGO300517_1/PWRCCD_CRGO300517_1/CHARGE_DISCHARGE/CHARGE_#620.DTA
EXPLAIN
TAG	PWR800_CHARGE
TITLE	LABEL	PWR Cyclic Charge Discharge (Cell) - Charge Step	Test &Identifier
DATE	LABEL	22-6-2017	Date
TIME	LABEL	16:00:32	Time
NOTES	NOTES	3	&Notes...
	supercap test cell
	0.6mg
	6M KOH
PSTAT	PSTAT	IFC5000-01520	Potentiostat
CAPACITY	QUANT	1.00000E-003	Capacity (A-hr)
CELLTYPE	SELECTOR	1	&Cell Type
WORKINGCONNECTION	SELECTOR	0	&Working Lead
MAXCHARGETIME	VARIABLEANDUNITS	1.00000E+002	s	1.00000E+002	second(s)	Max &Charge Time
CHARGECURRENT	QUANT	6.00000E-003	&Charge Current (A)
VOLTAGEFINISH	TWOPARAM	F	1.00000E-003	3.60000E+003	&Voltage Finish	 I (A) < 	Max Time(s)
SAMPLETIME	QUANT	1.00000E-002	Sa&mple Period (s)
CHARGESTOPAT1	MULTIPARAM	4	1.00000E+000	Charge Stop At &1	Voltage > Limit	V
CHARGESTOPAT2	MULTIPARAM	0	0.00000E+000	Charge Stop At &2	None	N/A
AESBHCSELECTOR	TOGGLE	F	Save Both Half Cells
IRCOMP	TOGGLE	F	IR &Measure
EOC	QUANT	0	Open Circuit (V)
SEQUENCER	TOGGLE	TRUE	Run as Sequence
PSTATMODEL	IQUANT	53	Pstat Model
PSTATSECTION	LABEL	IFC5000-01520	Pstat Section
PSTATSERIALNO	LABEL	01520	Pstat Serial Number
CTRLMODE	IQUANT	0	Control Mode
ELECTROMETER	IQUANT	1	RE=0 or CS=1
IESTAB	IQUANT	0	I/E Stability
CASPEED	IQUANT	4	Control Amp Speed
CONVENTION	IQUANT	1	Current Convention
ICHRANGE	IQUANT	2	Ich Range
ICHRANGEMODE	TOGGLE	T	Ich Auto Range
ICHOFFSETENABLE	TOGGLE	F	Ich Offset Enable
ICHOFFSET	QUANT	0	Ich Offset (V)
ICHFILTER	IQUANT	1	Ich Filter
VCHRANGE	IQUANT	2	Vch Range
VCHRANGEMODE	TOGGLE	T	Vch Auto Range
VCHOFFSETENABLE	TOGGLE	F	Vch Offset Enable
VCHOFFSET	QUANT	0	Vch Offset (V)
VCHFILTER	IQUANT	1	Vch Filter
IERANGELOWERLIMIT	IQUANT	9	I/E Range Lower Limit
IERANGEMODE	TOGGLE	F	I/E AutoRange
IERANGE	IQUANT	10	I/E Range
ACHSELECT	IQUANT	1	Ach Select
ACHRANGE	IQUANT	2	Ach Range
ACHOFFSETENABLE	TOGGLE	F	Ach Offset Enable
ACHOFFSET	QUANT	0	Ach Offset (V)
ACHFILTER	IQUANT	1	Ach Filter
CABLEID	IQUANT	14	Cable ID
DCCALDATE	LABEL	20-10-2016	DC Calibration Date
ACCALDATE	LABEL	12/3/2015	AC Calibration Date
FRAMEWORKVERSION	QUANT	7.01	Framework Version
INSTRUMENTVERSION	LABEL	4.00	Instrument Version
CURVE	TABLE	57
	Pt	T	Vf	Im	Vu	Pwr	Sig	Ach	Temp	IERange	Over
	#	s	V	A	V	W	V	V	deg C	#	bits
	0	0.013333	6.39687E-001	5.99842E-003	0.00000E+000	3.83711E-003	3.59960E-001	-1.15506E+000	3.57640E+000	10	...........
	1	0.026667	6.48670E-001	5.99558E-003	0.00000E+000	3.88915E-003	3.59960E-001	-1.14865E+000	3.57640E+000	10	...........
	2	0.04	6.56931E-001	5.99470E-003	0.00000E+000	3.93810E-003	3.59960E-001	-1.15695E+000	3.57640E+000	10	...........
	3	0.053333	6.64739E-001	5.99360E-003	0.00000E+000	3.98418E-003	3.59960E-001	-1.15466E+000	3.57640E+000	10	...........
	4	0.066667	6.72315E-001	5.99335E-003	0.00000E+000	4.02942E-003	3.59960E-001	-1.14868E+000	3.57640E+000	10	...........
	5	0.08	6.79698E-001	5.99400E-003	0.00000E+000	4.07411E-003	3.59960E-001	-1.15698E+000	3.57640E+000	10	...........
	6	0.093333	6.86847E-001	5.99450E-003	0.00000E+000	4.11730E-003	3.59960E-001	-1.15462E+000	3.57640E+000	10	...........
	7	0.106667	6.94020E-001	5.99975E-003	0.00000E+000	4.16394E-003	3.59960E-001	-1.14854E+000	3.57640E+000	10	...........
	8	0.12	7.01010E-001	5.99321E-003	0.00000E+000	4.20130E-003	3.59960E-001	-1.15681E+000	3.57640E+000	10	...........
	9	0.133333	7.07950E-001	5.99408E-003	0.00000E+000	4.24351E-003	3.59960E-001	-1.15441E+000	3.57640E+000	10	...........
	10	0.146667	7.14844E-001	5.99290E-003	0.00000E+000	4.28399E-003	3.59960E-001	-1.14863E+000	3.57640E+000	10	...........
	11	0.16	7.21742E-001	5.99688E-003	0.00000E+000	4.32820E-003	3.59960E-001	-1.15673E+000	3.57640E+000	10	...........
	12	0.173333	7.28522E-001	5.99302E-003	0.00000E+000	4.36605E-003	3.59960E-001	-1.15437E+000	3.57643E+000	10	...........
	13	0.186667	7.35217E-001	5.99545E-003	0.00000E+000	4.40796E-003	3.59960E-001	-1.14846E+000	3.57660E+000	10	...........
	14	0.2	7.42005E-001	5.99314E-003	0.00000E+000	4.44694E-003	3.59960E-001	-1.15673E+000	3.57660E+000	10	...........
	15	0.213333	7.48699E-001	5.99721E-003	0.00000E+000	4.49010E-003	3.59960E-001	-1.15438E+000	3.57660E+000	10	...........
	16	0.226667	7.55407E-001	5.99505E-003	0.00000E+000	4.52871E-003	3.59960E-001	-1.14838E+000	3.57660E+000	10	...........
	17	0.24	7.62040E-001	5.99412E-003	0.00000E+000	4.56775E-003	3.59960E-001	-1.15661E+000	3.57660E+000	10	...........
	18	0.253333	7.68660E-001	5.98979E-003	0.00000E+000	4.60411E-003	3.59960E-001	-1.15432E+000	3.57660E+000	10	...........
	19	0.266667	7.75298E-001	5.99297E-003	0.00000E+000	4.64634E-003	3.59960E-001	-1.14858E+000	3.57660E+000	10	...........
	20	0.28	7.81901E-001	5.99701E-003	0.00000E+000	4.68907E-003	3.59960E-001	-1.15701E+000	3.57660E+000	10	...........
	21	0.293333	7.88442E-001	5.99389E-003	0.00000E+000	4.72583E-003	3.59960E-001	-1.15429E+000	3.57660E+000	10	...........
	22	0.306667	7.95012E-001	5.99345E-003	0.00000E+000	4.76486E-003	3.59960E-001	-1.14847E+000	3.57660E+000	10	...........
	23	0.32	8.01523E-001	5.99169E-003	0.00000E+000	4.80248E-003	3.59960E-001	-1.15685E+000	3.57660E+000	10	...........
	24	0.333333	8.08042E-001	5.99611E-003	0.00000E+000	4.84511E-003	3.59960E-001	-1.15416E+000	3.57660E+000	10	...........
	25	0.346667	8.14543E-001	5.99329E-003	0.00000E+000	4.88179E-003	3.59960E-001	-1.14814E+000	3.57660E+000	10	...........
	26	0.36	8.21044E-001	5.99495E-003	0.00000E+000	4.92212E-003	3.59960E-001	-1.15654E+000	3.57660E+000	10	...........
	27	0.373333	8.27463E-001	5.99705E-003	0.00000E+000	4.96233E-003	3.59960E-001	-1.15384E+000	3.57660E+000	10	...........
	28	0.386667	8.33884E-001	5.99841E-003	0.00000E+000	5.00198E-003	3.59960E-001	-1.14807E+000	3.57660E+000	10	...........
	29	0.4	8.40312E-001	5.98920E-003	0.00000E+000	5.03280E-003	3.59960E-001	-1.15660E+000	3.57660E+000	10	...........
	30	0.413333	8.46759E-001	5.99360E-003	0.00000E+000	5.07514E-003	3.59960E-001	-1.15399E+000	3.57660E+000	10	...........
	31	0.426667	8.53146E-001	5.99308E-003	0.00000E+000	5.11297E-003	3.59960E-001	-1.14802E+000	3.57660E+000	10	...........
	32	0.44	8.59518E-001	5.99714E-003	0.00000E+000	5.15465E-003	3.59960E-001	-1.15627E+000	3.57660E+000	10	...........
	33	0.453333	8.65826E-001	5.99045E-003	0.00000E+000	5.18669E-003	3.59960E-001	-1.15365E+000	3.57660E+000	10	...........
	34	0.466667	8.72143E-001	5.99501E-003	0.00000E+000	5.22851E-003	3.59960E-001	-1.14785E+000	3.57660E+000	10	...........
	35	0.48	8.78415E-001	5.98839E-003	0.00000E+000	5.26029E-003	3.59960E-001	-1.15621E+000	3.57660E+000	10	...........
	36	0.493333	8.84699E-001	5.99497E-003	0.00000E+000	5.30374E-003	3.59960E-001	-1.15371E+000	3.57660E+000	10	...........
	37	0.506667	8.90909E-001	5.98984E-003	0.00000E+000	5.33640E-003	3.59960E-001	-1.14782E+000	3.57660E+000	10	...........
	38	0.52	8.97123E-001	5.99318E-003	0.00000E+000	5.37662E-003	3.59960E-001	-1.15629E+000	3.57660E+000	10	...........
	39	0.533333	9.03284E-001	5.99528E-003	0.00000E+000	5.41545E-003	3.59960E-001	-1.15375E+000	3.57660E+000	10	...........
	40	0.546667	9.09429E-001	5.99050E-003	0.00000E+000	5.44793E-003	3.59960E-001	-1.14812E+000	3.57660E+000	10	...........
	41	0.56	9.15532E-001	5.98804E-003	0.00000E+000	5.48224E-003	3.59960E-001	-1.15643E+000	3.57660E+000	10	...........
	42	0.573333	9.21630E-001	5.99675E-003	0.00000E+000	5.52679E-003	3.59960E-001	-1.15369E+000	3.57660E+000	10	...........
	43	0.586667	9.27680E-001	5.99512E-003	0.00000E+000	5.56155E-003	3.59960E-001	-1.14785E+000	3.57660E+000	10	...........
	44	0.6	9.33627E-001	5.99141E-003	0.00000E+000	5.59375E-003	3.59960E-001	-1.15646E+000	3.57660E+000	10	...........
	45	0.613333	9.39609E-001	5.99764E-003	0.00000E+000	5.63544E-003	3.59960E-001	-1.15383E+000	3.57660E+000	10	...........
	46	0.626667	9.45495E-001	5.99354E-003	0.00000E+000	5.66686E-003	3.59960E-001	-1.14790E+000	3.57660E+000	10	...........
	47	0.64	9.51407E-001	5.99248E-003	0.00000E+000	5.70129E-003	3.59960E-001	-1.15642E+000	3.57660E+000	10	...........
	48	0.653333	9.57268E-001	5.99699E-003	0.00000E+000	5.74073E-003	3.59960E-001	-1.15371E+000	3.57660E+000	10	...........
	49	0.666667	9.63027E-001	5.99856E-003	0.00000E+000	5.77677E-003	3.59960E-001	-1.14762E+000	3.57660E+000	10	...........
	50	0.68	9.68735E-001	5.99409E-003	0.00000E+000	5.80669E-003	3.59960E-001	-1.15611E+000	3.57660E+000	10	...........
	51	0.693333	9.74533E-001	5.99520E-003	0.00000E+000	5.84252E-003	3.59960E-001	-1.15340E+000	3.57660E+000	10	...........
	52	0.706667	9.80168E-001	5.99129E-003	0.00000E+000	5.87247E-003	3.59960E-001	-1.14750E+000	3.57660E+000	10	...........
	53	0.72	9.85764E-001	5.99394E-003	0.00000E+000	5.90861E-003	3.59960E-001	-1.15597E+000	3.57660E+000	10	...........
	54	0.733333	9.91283E-001	5.99406E-003	0.00000E+000	5.94181E-003	3.59960E-001	-1.15337E+000	3.57660E+000	10	...........
	55	0.746667	9.96800E-001	5.99376E-003	0.00000E+000	5.97458E-003	3.59960E-001	-1.14747E+000	3.57660E+000	10	...........
	56	0.75	1.00021E+000	5.99317E-003	0.00000E+000	5.99442E-003	3.59960E-001	-1.16205E+000	3.57660E+000	10	...........
STARTTIMEOFFSET	QUANT	1040.854	Start Time Offset (s)