File: Data/CV_CRGO300517_1/PWRCCD_CRGO300517_1/CHARGE_DISCHARGE/CHARGE_#283.DTA
EXPLAIN
TAG	PWR800_CHARGE
TITLE	LABEL	PWR Cyclic Charge Discharge (Cell) - Charge Step	Test &Identifier
DATE	LABEL	22-6-2017	Date
TIME	LABEL	15:47:14	Time
NOTES	NOTES	3	&Notes...
	supercap test cell
	0.6mg
	6M KOH
PSTAT	PSTAT	IFC5000-01520	Potentiostat
CAPACITY	QUANT	1.00000E-003	Capacity (A-hr)
CELLTYPE	SELECTOR	1	&Cell Type
WORKINGCONNECTION	SELECTOR	0	&Working Lead
MAXCHARGETIME	VARIABLEANDUNITS	1.00000E+002	s	1.00000E+002	second(s)	Max &Charge Time
CHARGECURRENT	QUANT	6.00000E-003	&Charge Current (A)
VOLTAGEFINISH	TWOPARAM	F	1.00000E-003	3.60000E+003	&Voltage Finish	 I (A) < 	Max Time(s)
SAMPLETIME	QUANT	1.00000E-002	Sa&mple Period (s)
CHARGESTOPAT1	MULTIPARAM	4	1.00000E+000	Charge Stop At &1	Voltage > Limit	V
CHARGESTOPAT2	MULTIPARAM	0	0.00000E+000	Charge Stop At &2	None	N/A
AESBHCSELECTOR	TOGGLE	F	Save Both Half Cells
IRCOMP	TOGGLE	F	IR &Measure
EOC	QUANT	0	Open Circuit (V)
SEQUENCER	TOGGLE	TRUE	Run as Sequence
PSTATMODEL	IQUANT	53	Pstat Model
PSTATSECTION	LABEL	IFC5000-01520	Pstat Section
PSTATSERIALNO	LABEL	01520	Pstat Serial Number
CTRLMODE	IQUANT	0	Control Mode
ELECTROMETER	IQUANT	1	RE=0 or CS=1
IESTAB	IQUANT	0	I/E Stability
CASPEED	IQUANT	4	Control Amp Speed
CONVENTION	IQUANT	1	Current Convention
ICHRANGE	IQUANT	2	Ich Range
ICHRANGEMODE	TOGGLE	T	Ich Auto Range
ICHOFFSETENABLE	TOGGLE	F	Ich Offset Enable
ICHOFFSET	QUANT	0	Ich Offset (V)
ICHFILTER	IQUANT	1	Ich Filter
VCHRANGE	IQUANT	2	Vch Range
VCHRANGEMODE	TOGGLE	T	Vch Auto Range
VCHOFFSETENABLE	TOGGLE	F	Vch Offset Enable
VCHOFFSET	QUANT	0	Vch Offset (V)
VCHFILTER	IQUANT	1	Vch Filter
IERANGELOWERLIMIT	IQUANT	9	I/E Range Lower Limit
IERANGEMODE	TOGGLE	F	I/E AutoRange
IERANGE	IQUANT	10	I/E Range
ACHSELECT	IQUANT	1	Ach Select
ACHRANGE	IQUANT	2	Ach Range
ACHOFFSETENABLE	TOGGLE	F	Ach Offset Enable
ACHOFFSET	QUANT	0	Ach Offset (V)
ACHFILTER	IQUANT	1	Ach Filter
CABLEID	IQUANT	14	Cable ID
DCCALDATE	LABEL	20-10-2016	DC Calibration Date
ACCALDATE	LABEL	12/3/2015	AC Calibration Date
FRAMEWORKVERSION	QUANT	7.01	Framework Version
INSTRUMENTVERSION	LABEL	4.00	Instrument Version
CURVE	TABLE	63
	Pt	T	Vf	Im	Vu	Pwr	Sig	Ach	Temp	IERange	Over
	#	s	V	A	V	W	V	V	deg C	#	bits
	0	0.013333	6.14150E-001	5.99300E-003	0.00000E+000	3.68060E-003	3.59960E-001	-1.10460E+000	3.57810E+000	10	...........
	1	0.026667	6.22773E-001	5.99563E-003	0.00000E+000	3.73392E-003	3.59960E-001	-1.11072E+000	3.57810E+000	10	...........
	2	0.04	6.30657E-001	5.99369E-003	0.00000E+000	3.77996E-003	3.59960E-001	-1.10161E+000	3.57810E+000	10	...........
	3	0.053333	6.38164E-001	6.00206E-003	0.00000E+000	3.83030E-003	3.59960E-001	-1.10479E+000	3.57810E+000	10	...........
	4	0.066667	6.45407E-001	5.99512E-003	0.00000E+000	3.86929E-003	3.59960E-001	-1.11066E+000	3.57810E+000	10	...........
	5	0.08	6.52489E-001	5.99513E-003	0.00000E+000	3.91176E-003	3.59960E-001	-1.10174E+000	3.57810E+000	10	...........
	6	0.093333	6.59328E-001	5.99335E-003	0.00000E+000	3.95159E-003	3.59960E-001	-1.10472E+000	3.57810E+000	10	...........
	7	0.106667	6.66111E-001	5.99659E-003	0.00000E+000	3.99439E-003	3.59960E-001	-1.11090E+000	3.57810E+000	10	...........
	8	0.12	6.72817E-001	5.99290E-003	0.00000E+000	4.03213E-003	3.59960E-001	-1.10139E+000	3.57810E+000	10	...........
	9	0.133333	6.79438E-001	5.99341E-003	0.00000E+000	4.07215E-003	3.59960E-001	-1.10439E+000	3.57810E+000	10	...........
	10	0.146667	6.85995E-001	5.99651E-003	0.00000E+000	4.11358E-003	3.59960E-001	-1.11029E+000	3.57810E+000	10	...........
	11	0.16	6.92542E-001	5.99420E-003	0.00000E+000	4.15123E-003	3.59960E-001	-1.10140E+000	3.57810E+000	10	...........
	12	0.173333	6.98940E-001	5.99196E-003	0.00000E+000	4.18802E-003	3.59960E-001	-1.10439E+000	3.57810E+000	10	...........
	13	0.186667	7.05384E-001	5.99071E-003	0.00000E+000	4.22575E-003	3.59960E-001	-1.11065E+000	3.57810E+000	10	...........
	14	0.2	7.11794E-001	5.99328E-003	0.00000E+000	4.26598E-003	3.59960E-001	-1.10118E+000	3.57810E+000	10	...........
	15	0.213333	7.18186E-001	5.99327E-003	0.00000E+000	4.30428E-003	3.59960E-001	-1.10435E+000	3.57810E+000	10	...........
	16	0.226667	7.24558E-001	5.99938E-003	0.00000E+000	4.34690E-003	3.59960E-001	-1.11090E+000	3.57810E+000	10	...........
	17	0.24	7.30898E-001	5.99598E-003	0.00000E+000	4.38245E-003	3.59960E-001	-1.10165E+000	3.57810E+000	10	...........
	18	0.253333	7.37214E-001	5.99510E-003	0.00000E+000	4.41967E-003	3.59960E-001	-1.10439E+000	3.57810E+000	10	...........
	19	0.266667	7.43553E-001	5.99286E-003	0.00000E+000	4.45601E-003	3.59960E-001	-1.11054E+000	3.57810E+000	10	...........
	20	0.28	7.49823E-001	5.99417E-003	0.00000E+000	4.49456E-003	3.59960E-001	-1.10135E+000	3.57810E+000	10	...........
	21	0.293333	7.56139E-001	5.99713E-003	0.00000E+000	4.53466E-003	3.59960E-001	-1.10450E+000	3.57810E+000	10	...........
	22	0.306667	7.62384E-001	5.98935E-003	0.00000E+000	4.56618E-003	3.59960E-001	-1.11092E+000	3.57810E+000	10	...........
	23	0.32	7.68621E-001	5.99254E-003	0.00000E+000	4.60599E-003	3.59960E-001	-1.10140E+000	3.57810E+000	10	...........
	24	0.333333	7.74896E-001	5.99731E-003	0.00000E+000	4.64729E-003	3.59960E-001	-1.10434E+000	3.57810E+000	10	...........
	25	0.346667	7.81148E-001	5.99247E-003	0.00000E+000	4.68100E-003	3.59960E-001	-1.11068E+000	3.57810E+000	10	...........
	26	0.36	7.87350E-001	5.99434E-003	0.00000E+000	4.71965E-003	3.59960E-001	-1.10168E+000	3.57810E+000	10	...........
	27	0.373333	7.93576E-001	5.99091E-003	0.00000E+000	4.75425E-003	3.59960E-001	-1.10439E+000	3.57810E+000	10	...........
	28	0.386667	7.99806E-001	5.99745E-003	0.00000E+000	4.79680E-003	3.59960E-001	-1.11068E+000	3.57810E+000	10	...........
	29	0.4	8.05954E-001	5.99477E-003	0.00000E+000	4.83151E-003	3.59960E-001	-1.10137E+000	3.57810E+000	10	...........
	30	0.413333	8.12129E-001	5.99792E-003	0.00000E+000	4.87109E-003	3.59960E-001	-1.10411E+000	3.57810E+000	10	...........
	31	0.426667	8.18326E-001	5.99562E-003	0.00000E+000	4.90637E-003	3.59960E-001	-1.11072E+000	3.57810E+000	10	...........
	32	0.44	8.24554E-001	5.99117E-003	0.00000E+000	4.94005E-003	3.59960E-001	-1.10088E+000	3.57810E+000	10	...........
	33	0.453333	8.30695E-001	5.99265E-003	0.00000E+000	4.97807E-003	3.59960E-001	-1.10336E+000	3.57810E+000	10	...........
	34	0.466667	8.36809E-001	5.99358E-003	0.00000E+000	5.01548E-003	3.59960E-001	-1.10971E+000	3.57810E+000	10	...........
	35	0.48	8.42936E-001	5.99036E-003	0.00000E+000	5.04949E-003	3.59960E-001	-1.10036E+000	3.57810E+000	10	...........
	36	0.493333	8.49104E-001	5.99281E-003	0.00000E+000	5.08852E-003	3.59960E-001	-1.10305E+000	3.57810E+000	10	...........
	37	0.506667	8.55202E-001	5.99680E-003	0.00000E+000	5.12847E-003	3.59960E-001	-1.10930E+000	3.57810E+000	10	...........
	38	0.52	8.61286E-001	5.99576E-003	0.00000E+000	5.16407E-003	3.59960E-001	-1.09970E+000	3.57810E+000	10	...........
	39	0.533333	8.67399E-001	5.99320E-003	0.00000E+000	5.19849E-003	3.59960E-001	-1.10224E+000	3.57810E+000	10	...........
	40	0.546667	8.73455E-001	5.99536E-003	0.00000E+000	5.23667E-003	3.59960E-001	-1.10885E+000	3.57810E+000	10	...........
	41	0.56	8.79471E-001	5.99268E-003	0.00000E+000	5.27038E-003	3.59960E-001	-1.09963E+000	3.57810E+000	10	...........
	42	0.573333	8.85563E-001	5.99185E-003	0.00000E+000	5.30616E-003	3.59960E-001	-1.10224E+000	3.57810E+000	10	...........
	43	0.586667	8.91581E-001	5.99680E-003	0.00000E+000	5.34663E-003	3.59960E-001	-1.10888E+000	3.57810E+000	10	...........
	44	0.6	8.97590E-001	5.99164E-003	0.00000E+000	5.37804E-003	3.59960E-001	-1.09963E+000	3.57810E+000	10	...........
	45	0.613333	9.03606E-001	5.99831E-003	0.00000E+000	5.42011E-003	3.59960E-001	-1.10263E+000	3.57810E+000	10	...........
	46	0.626667	9.09505E-001	5.99681E-003	0.00000E+000	5.45413E-003	3.59960E-001	-1.10956E+000	3.57810E+000	10	...........
	47	0.64	9.15451E-001	5.99586E-003	0.00000E+000	5.48892E-003	3.59960E-001	-1.10017E+000	3.57810E+000	10	...........
	48	0.653333	9.21379E-001	5.99058E-003	0.00000E+000	5.51959E-003	3.59960E-001	-1.10284E+000	3.57810E+000	10	...........
	49	0.666667	9.27267E-001	5.99738E-003	0.00000E+000	5.56117E-003	3.59960E-001	-1.10976E+000	3.57810E+000	10	...........
	50	0.68	9.33075E-001	5.99528E-003	0.00000E+000	5.59405E-003	3.59960E-001	-1.10054E+000	3.57810E+000	10	...........
	51	0.693333	9.38834E-001	5.99266E-003	0.00000E+000	5.62612E-003	3.59960E-001	-1.10327E+000	3.57810E+000	10	...........
	52	0.706667	9.44624E-001	5.99418E-003	0.00000E+000	5.66224E-003	3.59960E-001	-1.11007E+000	3.57810E+000	10	...........
	53	0.72	9.50401E-001	5.99351E-003	0.00000E+000	5.69624E-003	3.59960E-001	-1.10047E+000	3.57810E+000	10	...........
	54	0.733333	9.56069E-001	5.99487E-003	0.00000E+000	5.73151E-003	3.59960E-001	-1.10336E+000	3.57810E+000	10	...........
	55	0.746667	9.61729E-001	5.99462E-003	0.00000E+000	5.76519E-003	3.59960E-001	-1.11021E+000	3.57810E+000	10	...........
	56	0.76	9.67332E-001	5.98938E-003	0.00000E+000	5.79372E-003	3.59960E-001	-1.10061E+000	3.57810E+000	10	...........
	57	0.773333	9.72953E-001	5.99521E-003	0.00000E+000	5.83306E-003	3.59960E-001	-1.10290E+000	3.57810E+000	10	...........
	58	0.786667	9.78527E-001	5.99238E-003	0.00000E+000	5.86371E-003	3.59960E-001	-1.10965E+000	3.57810E+000	10	...........
	59	0.8	9.84048E-001	5.99295E-003	0.00000E+000	5.89735E-003	3.59960E-001	-1.10056E+000	3.57810E+000	10	...........
	60	0.813333	9.89511E-001	5.99156E-003	0.00000E+000	5.92872E-003	3.59960E-001	-1.10331E+000	3.57810E+000	10	...........
	61	0.826667	9.94937E-001	5.99446E-003	0.00000E+000	5.96411E-003	3.59960E-001	-1.11018E+000	3.57810E+000	10	...........
	62	0.833333	9.99046E-001	5.99202E-003	0.00000E+000	5.98630E-003	3.59960E-001	-1.09381E+000	3.57810E+000	10	...........
STARTTIMEOFFSET	QUANT	513.0518	Start Time Offset (s)