File: Data/CV_CRGO300517_1/PWRCCD_CRGO300517_1/CHARGE_DISCHARGE/CHARGE_#614.DTA
EXPLAIN
TAG	PWR800_CHARGE
TITLE	LABEL	PWR Cyclic Charge Discharge (Cell) - Charge Step	Test &Identifier
DATE	LABEL	22-6-2017	Date
TIME	LABEL	16:00:18	Time
NOTES	NOTES	3	&Notes...
	supercap test cell
	0.6mg
	6M KOH
PSTAT	PSTAT	IFC5000-01520	Potentiostat
CAPACITY	QUANT	1.00000E-003	Capacity (A-hr)
CELLTYPE	SELECTOR	1	&Cell Type
WORKINGCONNECTION	SELECTOR	0	&Working Lead
MAXCHARGETIME	VARIABLEANDUNITS	1.00000E+002	s	1.00000E+002	second(s)	Max &Charge Time
CHARGECURRENT	QUANT	6.00000E-003	&Charge Current (A)
VOLTAGEFINISH	TWOPARAM	F	1.00000E-003	3.60000E+003	&Voltage Finish	 I (A) < 	Max Time(s)
SAMPLETIME	QUANT	1.00000E-002	Sa&mple Period (s)
CHARGESTOPAT1	MULTIPARAM	4	1.00000E+000	Charge Stop At &1	Voltage > Limit	V
CHARGESTOPAT2	MULTIPARAM	0	0.00000E+000	Charge Stop At &2	None	N/A
AESBHCSELECTOR	TOGGLE	F	Save Both Half Cells
IRCOMP	TOGGLE	F	IR &Measure
EOC	QUANT	0	Open Circuit (V)
SEQUENCER	TOGGLE	TRUE	Run as Sequence
PSTATMODEL	IQUANT	53	Pstat Model
PSTATSECTION	LABEL	IFC5000-01520	Pstat Section
PSTATSERIALNO	LABEL	01520	Pstat Serial Number
CTRLMODE	IQUANT	0	Control Mode
ELECTROMETER	IQUANT	1	RE=0 or CS=1
IESTAB	IQUANT	0	I/E Stability
CASPEED	IQUANT	4	Control Amp Speed
CONVENTION	IQUANT	1	Current Convention
ICHRANGE	IQUANT	2	Ich Range
ICHRANGEMODE	TOGGLE	T	Ich Auto Range
ICHOFFSETENABLE	TOGGLE	F	Ich Offset Enable
ICHOFFSET	QUANT	0	Ich Offset (V)
ICHFILTER	IQUANT	1	Ich Filter
VCHRANGE	IQUANT	2	Vch Range
VCHRANGEMODE	TOGGLE	T	Vch Auto Range
VCHOFFSETENABLE	TOGGLE	F	Vch Offset Enable
VCHOFFSET	QUANT	0	Vch Offset (V)
VCHFILTER	IQUANT	1	Vch Filter
IERANGELOWERLIMIT	IQUANT	9	I/E Range Lower Limit
IERANGEMODE	TOGGLE	F	I/E AutoRange
IERANGE	IQUANT	10	I/E Range
ACHSELECT	IQUANT	1	Ach Select
ACHRANGE	IQUANT	2	Ach Range
ACHOFFSETENABLE	TOGGLE	F	Ach Offset Enable
ACHOFFSET	QUANT	0	Ach Offset (V)
ACHFILTER	IQUANT	1	Ach Filter
CABLEID	IQUANT	14	Cable ID
DCCALDATE	LABEL	20-10-2016	DC Calibration Date
ACCALDATE	LABEL	12/3/2015	AC Calibration Date
FRAMEWORKVERSION	QUANT	7.01	Framework Version
INSTRUMENTVERSION	LABEL	4.00	Instrument Version
CURVE	TABLE	57
	Pt	T	Vf	Im	Vu	Pwr	Sig	Ach	Temp	IERange	Over
	#	s	V	A	V	W	V	V	deg C	#	bits
	0	0.013333	6.39052E-001	5.99698E-003	0.00000E+000	3.83238E-003	3.59960E-001	-1.14799E+000	3.57670E+000	10	...........
	1	0.026667	6.48071E-001	5.99365E-003	0.00000E+000	3.88431E-003	3.59960E-001	-1.15019E+000	3.57670E+000	10	...........
	2	0.04	6.56383E-001	5.99793E-003	0.00000E+000	3.93694E-003	3.59960E-001	-1.15823E+000	3.57670E+000	10	...........
	3	0.053333	6.64216E-001	5.99454E-003	0.00000E+000	3.98167E-003	3.59960E-001	-1.14773E+000	3.57670E+000	10	...........
	4	0.066667	6.71804E-001	5.99867E-003	0.00000E+000	4.02993E-003	3.59960E-001	-1.15038E+000	3.57670E+000	10	...........
	5	0.08	6.79150E-001	5.99199E-003	0.00000E+000	4.06946E-003	3.59960E-001	-1.15804E+000	3.57670E+000	10	...........
	6	0.093333	6.86338E-001	5.99534E-003	0.00000E+000	4.11483E-003	3.59960E-001	-1.14772E+000	3.57670E+000	10	...........
	7	0.106667	6.93422E-001	5.99076E-003	0.00000E+000	4.15412E-003	3.59960E-001	-1.15037E+000	3.57670E+000	10	...........
	8	0.12	7.00443E-001	6.00150E-003	0.00000E+000	4.20371E-003	3.59960E-001	-1.15805E+000	3.57670E+000	10	...........
	9	0.133333	7.07400E-001	5.99690E-003	0.00000E+000	4.24220E-003	3.59960E-001	-1.14766E+000	3.57670E+000	10	...........
	10	0.146667	7.14278E-001	5.99359E-003	0.00000E+000	4.28109E-003	3.59960E-001	-1.15045E+000	3.57670E+000	10	...........
	11	0.16	7.21133E-001	5.99241E-003	0.00000E+000	4.32133E-003	3.59960E-001	-1.15815E+000	3.57670E+000	10	...........
	12	0.173333	7.27936E-001	5.99241E-003	0.00000E+000	4.36209E-003	3.59960E-001	-1.14772E+000	3.57670E+000	10	...........
	13	0.186667	7.34736E-001	5.99186E-003	0.00000E+000	4.40244E-003	3.59960E-001	-1.15044E+000	3.57670E+000	10	...........
	14	0.2	7.41455E-001	5.99197E-003	0.00000E+000	4.44277E-003	3.59960E-001	-1.15801E+000	3.57670E+000	10	...........
	15	0.213333	7.48178E-001	5.99513E-003	0.00000E+000	4.48542E-003	3.59960E-001	-1.14773E+000	3.57670E+000	10	...........
	16	0.226667	7.54822E-001	5.99538E-003	0.00000E+000	4.52544E-003	3.59960E-001	-1.15039E+000	3.57670E+000	10	...........
	17	0.24	7.61461E-001	5.99380E-003	0.00000E+000	4.56404E-003	3.59960E-001	-1.15767E+000	3.57670E+000	10	...........
	18	0.253333	7.68049E-001	5.98883E-003	0.00000E+000	4.59972E-003	3.59960E-001	-1.14718E+000	3.57670E+000	10	...........
	19	0.266667	7.74647E-001	5.98898E-003	0.00000E+000	4.63935E-003	3.59960E-001	-1.15018E+000	3.57670E+000	10	...........
	20	0.28	7.81242E-001	5.99004E-003	0.00000E+000	4.67967E-003	3.59960E-001	-1.15749E+000	3.57670E+000	10	...........
	21	0.293333	7.87822E-001	5.99726E-003	0.00000E+000	4.72478E-003	3.59960E-001	-1.14737E+000	3.57670E+000	10	...........
	22	0.306667	7.94364E-001	5.99126E-003	0.00000E+000	4.75924E-003	3.59960E-001	-1.15002E+000	3.57670E+000	10	...........
	23	0.32	8.00872E-001	5.98834E-003	0.00000E+000	4.79589E-003	3.59960E-001	-1.15729E+000	3.57670E+000	10	...........
	24	0.333333	8.07384E-001	5.99423E-003	0.00000E+000	4.83965E-003	3.59960E-001	-1.14723E+000	3.57670E+000	10	...........
	25	0.346667	8.13885E-001	5.99248E-003	0.00000E+000	4.87719E-003	3.59960E-001	-1.15042E+000	3.57670E+000	10	...........
	26	0.36	8.20376E-001	5.99069E-003	0.00000E+000	4.91462E-003	3.59960E-001	-1.15731E+000	3.57670E+000	10	...........
	27	0.373333	8.26853E-001	5.99715E-003	0.00000E+000	4.95876E-003	3.59960E-001	-1.14708E+000	3.57670E+000	10	...........
	28	0.386667	8.33235E-001	5.99120E-003	0.00000E+000	4.99208E-003	3.59960E-001	-1.14999E+000	3.57670E+000	10	...........
	29	0.4	8.39627E-001	5.99502E-003	0.00000E+000	5.03358E-003	3.59960E-001	-1.15725E+000	3.57670E+000	10	...........
	30	0.413333	8.46088E-001	5.99402E-003	0.00000E+000	5.07147E-003	3.59960E-001	-1.14738E+000	3.57670E+000	10	...........
	31	0.426667	8.52429E-001	5.99083E-003	0.00000E+000	5.10676E-003	3.59960E-001	-1.15015E+000	3.57670E+000	10	...........
	32	0.44	8.58764E-001	5.99310E-003	0.00000E+000	5.14666E-003	3.59960E-001	-1.15716E+000	3.57670E+000	10	...........
	33	0.453333	8.65097E-001	5.99482E-003	0.00000E+000	5.18610E-003	3.59960E-001	-1.14702E+000	3.57670E+000	10	...........
	34	0.466667	8.71453E-001	5.99498E-003	0.00000E+000	5.22434E-003	3.59960E-001	-1.15032E+000	3.57670E+000	10	...........
	35	0.48	8.77740E-001	5.99381E-003	0.00000E+000	5.26101E-003	3.59960E-001	-1.15731E+000	3.57670E+000	10	...........
	36	0.493333	8.83984E-001	5.99636E-003	0.00000E+000	5.30068E-003	3.59960E-001	-1.14704E+000	3.57670E+000	10	...........
	37	0.506667	8.90216E-001	5.99511E-003	0.00000E+000	5.33694E-003	3.59960E-001	-1.15012E+000	3.57670E+000	10	...........
	38	0.52	8.96436E-001	5.99116E-003	0.00000E+000	5.37069E-003	3.59960E-001	-1.15712E+000	3.57670E+000	10	...........
	39	0.533333	9.02627E-001	5.99607E-003	0.00000E+000	5.41221E-003	3.59960E-001	-1.14696E+000	3.57670E+000	10	...........
	40	0.546667	9.08739E-001	5.99802E-003	0.00000E+000	5.45063E-003	3.59960E-001	-1.15038E+000	3.57670E+000	10	...........
	41	0.56	9.14830E-001	5.99255E-003	0.00000E+000	5.48216E-003	3.59960E-001	-1.15697E+000	3.57670E+000	10	...........
	42	0.573333	9.20949E-001	5.99664E-003	0.00000E+000	5.52260E-003	3.59960E-001	-1.14672E+000	3.57670E+000	10	...........
	43	0.586667	9.27002E-001	5.98722E-003	0.00000E+000	5.55017E-003	3.59960E-001	-1.14973E+000	3.57670E+000	10	...........
	44	0.6	9.32999E-001	5.99003E-003	0.00000E+000	5.58869E-003	3.59960E-001	-1.15668E+000	3.57670E+000	10	...........
	45	0.613333	9.38908E-001	5.99247E-003	0.00000E+000	5.62637E-003	3.59960E-001	-1.14676E+000	3.57670E+000	10	...........
	46	0.626667	9.44852E-001	5.99479E-003	0.00000E+000	5.66419E-003	3.59960E-001	-1.14983E+000	3.57670E+000	10	...........
	47	0.64	9.50743E-001	5.99173E-003	0.00000E+000	5.69659E-003	3.59960E-001	-1.15663E+000	3.57670E+000	10	...........
	48	0.653333	9.56577E-001	5.99915E-003	0.00000E+000	5.73865E-003	3.59960E-001	-1.14645E+000	3.57670E+000	10	...........
	49	0.666667	9.62376E-001	5.98986E-003	0.00000E+000	5.76450E-003	3.59960E-001	-1.15002E+000	3.57670E+000	10	...........
	50	0.68	9.68125E-001	5.98908E-003	0.00000E+000	5.79817E-003	3.59960E-001	-1.15669E+000	3.57670E+000	10	...........
	51	0.693333	9.73878E-001	5.99227E-003	0.00000E+000	5.83574E-003	3.59960E-001	-1.14666E+000	3.57670E+000	10	...........
	52	0.706667	9.79533E-001	5.98908E-003	0.00000E+000	5.86650E-003	3.59960E-001	-1.14987E+000	3.57670E+000	10	...........
	53	0.72	9.85120E-001	5.99282E-003	0.00000E+000	5.90365E-003	3.59960E-001	-1.15644E+000	3.57670E+000	10	...........
	54	0.733333	9.90710E-001	5.99346E-003	0.00000E+000	5.93778E-003	3.59960E-001	-1.14622E+000	3.57670E+000	10	...........
	55	0.746667	9.96250E-001	5.99660E-003	0.00000E+000	5.97411E-003	3.59960E-001	-1.15004E+000	3.57670E+000	10	...........
	56	0.75	9.99664E-001	5.99016E-003	0.00000E+000	5.98815E-003	3.59960E-001	-1.14573E+000	3.57670E+000	10	...........
STARTTIMEOFFSET	QUANT	1031.892	Start Time Offset (s)