File: Data/CV_CRGO300517_1/PWRCCD_CRGO300517_1/CHARGE_DISCHARGE/CHARGE_#832.DTA
EXPLAIN
TAG	PWR800_CHARGE
TITLE	LABEL	PWR Cyclic Charge Discharge (Cell) - Charge Step	Test &Identifier
DATE	LABEL	22-6-2017	Date
TIME	LABEL	16:08:28	Time
NOTES	NOTES	3	&Notes...
	supercap test cell
	0.6mg
	6M KOH
PSTAT	PSTAT	IFC5000-01520	Potentiostat
CAPACITY	QUANT	1.00000E-003	Capacity (A-hr)
CELLTYPE	SELECTOR	1	&Cell Type
WORKINGCONNECTION	SELECTOR	0	&Working Lead
MAXCHARGETIME	VARIABLEANDUNITS	1.00000E+002	s	1.00000E+002	second(s)	Max &Charge Time
CHARGECURRENT	QUANT	6.00000E-003	&Charge Current (A)
VOLTAGEFINISH	TWOPARAM	F	1.00000E-003	3.60000E+003	&Voltage Finish	 I (A) < 	Max Time(s)
SAMPLETIME	QUANT	1.00000E-002	Sa&mple Period (s)
CHARGESTOPAT1	MULTIPARAM	4	1.00000E+000	Charge Stop At &1	Voltage > Limit	V
CHARGESTOPAT2	MULTIPARAM	0	0.00000E+000	Charge Stop At &2	None	N/A
AESBHCSELECTOR	TOGGLE	F	Save Both Half Cells
IRCOMP	TOGGLE	F	IR &Measure
EOC	QUANT	0	Open Circuit (V)
SEQUENCER	TOGGLE	TRUE	Run as Sequence
PSTATMODEL	IQUANT	53	Pstat Model
PSTATSECTION	LABEL	IFC5000-01520	Pstat Section
PSTATSERIALNO	LABEL	01520	Pstat Serial Number
CTRLMODE	IQUANT	0	Control Mode
ELECTROMETER	IQUANT	1	RE=0 or CS=1
IESTAB	IQUANT	0	I/E Stability
CASPEED	IQUANT	4	Control Amp Speed
CONVENTION	IQUANT	1	Current Convention
ICHRANGE	IQUANT	2	Ich Range
ICHRANGEMODE	TOGGLE	T	Ich Auto Range
ICHOFFSETENABLE	TOGGLE	F	Ich Offset Enable
ICHOFFSET	QUANT	0	Ich Offset (V)
ICHFILTER	IQUANT	1	Ich Filter
VCHRANGE	IQUANT	2	Vch Range
VCHRANGEMODE	TOGGLE	T	Vch Auto Range
VCHOFFSETENABLE	TOGGLE	F	Vch Offset Enable
VCHOFFSET	QUANT	0	Vch Offset (V)
VCHFILTER	IQUANT	1	Vch Filter
IERANGELOWERLIMIT	IQUANT	9	I/E Range Lower Limit
IERANGEMODE	TOGGLE	F	I/E AutoRange
IERANGE	IQUANT	10	I/E Range
ACHSELECT	IQUANT	1	Ach Select
ACHRANGE	IQUANT	2	Ach Range
ACHOFFSETENABLE	TOGGLE	F	Ach Offset Enable
ACHOFFSET	QUANT	0	Ach Offset (V)
ACHFILTER	IQUANT	1	Ach Filter
CABLEID	IQUANT	14	Cable ID
DCCALDATE	LABEL	20-10-2016	DC Calibration Date
ACCALDATE	LABEL	12/3/2015	AC Calibration Date
FRAMEWORKVERSION	QUANT	7.01	Framework Version
INSTRUMENTVERSION	LABEL	4.00	Instrument Version
CURVE	TABLE	54
	Pt	T	Vf	Im	Vu	Pwr	Sig	Ach	Temp	IERange	Over
	#	s	V	A	V	W	V	V	deg C	#	bits
	0	0.013333	6.50451E-001	5.99637E-003	0.00000E+000	3.90034E-003	3.59960E-001	-1.16277E+000	3.57780E+000	10	...........
	1	0.026667	6.59646E-001	5.98939E-003	0.00000E+000	3.95087E-003	3.59960E-001	-1.17362E+000	3.57780E+000	10	...........
	2	0.04	6.68114E-001	5.99587E-003	0.00000E+000	4.00592E-003	3.59960E-001	-1.16323E+000	3.57780E+000	10	...........
	3	0.053333	6.76121E-001	5.99354E-003	0.00000E+000	4.05236E-003	3.59960E-001	-1.16251E+000	3.57780E+000	10	...........
	4	0.066667	6.83911E-001	5.99239E-003	0.00000E+000	4.09826E-003	3.59960E-001	-1.17365E+000	3.57780E+000	10	...........
	5	0.08	6.91432E-001	5.99294E-003	0.00000E+000	4.14371E-003	3.59960E-001	-1.16335E+000	3.57780E+000	10	...........
	6	0.093333	6.98865E-001	5.99512E-003	0.00000E+000	4.18978E-003	3.59960E-001	-1.16244E+000	3.57780E+000	10	...........
	7	0.106667	7.06142E-001	5.99430E-003	0.00000E+000	4.23283E-003	3.59960E-001	-1.17335E+000	3.57780E+000	10	...........
	8	0.12	7.13302E-001	5.99342E-003	0.00000E+000	4.27511E-003	3.59960E-001	-1.16296E+000	3.57780E+000	10	...........
	9	0.133333	7.20473E-001	5.99496E-003	0.00000E+000	4.31921E-003	3.59960E-001	-1.16237E+000	3.57780E+000	10	...........
	10	0.146667	7.27496E-001	5.99720E-003	0.00000E+000	4.36294E-003	3.59960E-001	-1.17348E+000	3.57780E+000	10	...........
	11	0.16	7.34453E-001	5.99284E-003	0.00000E+000	4.40146E-003	3.59960E-001	-1.16319E+000	3.57780E+000	10	...........
	12	0.173333	7.41413E-001	5.99690E-003	0.00000E+000	4.44618E-003	3.59960E-001	-1.16249E+000	3.57780E+000	10	...........
	13	0.186667	7.48291E-001	5.99683E-003	0.00000E+000	4.48737E-003	3.59960E-001	-1.17333E+000	3.57780E+000	10	...........
	14	0.2	7.55191E-001	5.99523E-003	0.00000E+000	4.52754E-003	3.59960E-001	-1.16328E+000	3.57780E+000	10	...........
	15	0.213333	7.62040E-001	5.99489E-003	0.00000E+000	4.56834E-003	3.59960E-001	-1.16238E+000	3.57780E+000	10	...........
	16	0.226667	7.68841E-001	5.99376E-003	0.00000E+000	4.60825E-003	3.59960E-001	-1.17354E+000	3.57780E+000	10	...........
	17	0.24	7.75614E-001	5.99613E-003	0.00000E+000	4.65068E-003	3.59960E-001	-1.16320E+000	3.57780E+000	10	...........
	18	0.253333	7.82361E-001	5.99406E-003	0.00000E+000	4.68952E-003	3.59960E-001	-1.16221E+000	3.57780E+000	10	...........
	19	0.266667	7.89055E-001	5.99550E-003	0.00000E+000	4.73078E-003	3.59960E-001	-1.17324E+000	3.57780E+000	10	...........
	20	0.28	7.95816E-001	5.99472E-003	0.00000E+000	4.77069E-003	3.59960E-001	-1.16300E+000	3.57780E+000	10	...........
	21	0.293333	8.02473E-001	5.99152E-003	0.00000E+000	4.80803E-003	3.59960E-001	-1.16179E+000	3.57780E+000	10	...........
	22	0.306667	8.09083E-001	5.99168E-003	0.00000E+000	4.84777E-003	3.59960E-001	-1.17281E+000	3.57780E+000	10	...........
	23	0.32	8.15772E-001	5.99248E-003	0.00000E+000	4.88850E-003	3.59960E-001	-1.16270E+000	3.57780E+000	10	...........
	24	0.333333	8.22413E-001	5.99374E-003	0.00000E+000	4.92933E-003	3.59960E-001	-1.16193E+000	3.57780E+000	10	...........
	25	0.346667	8.29001E-001	5.99503E-003	0.00000E+000	4.96989E-003	3.59960E-001	-1.17291E+000	3.57780E+000	10	...........
	26	0.36	8.35563E-001	5.99326E-003	0.00000E+000	5.00775E-003	3.59960E-001	-1.16280E+000	3.57780E+000	10	...........
	27	0.373333	8.42057E-001	5.99028E-003	0.00000E+000	5.04415E-003	3.59960E-001	-1.16181E+000	3.57780E+000	10	...........
	28	0.386667	8.48593E-001	5.99401E-003	0.00000E+000	5.08648E-003	3.59960E-001	-1.17267E+000	3.57780E+000	10	...........
	29	0.4	8.55064E-001	5.99119E-003	0.00000E+000	5.12286E-003	3.59960E-001	-1.16270E+000	3.57780E+000	10	...........
	30	0.413333	8.61500E-001	5.99505E-003	0.00000E+000	5.16474E-003	3.59960E-001	-1.16168E+000	3.57780E+000	10	...........
	31	0.426667	8.67948E-001	5.99200E-003	0.00000E+000	5.20074E-003	3.59960E-001	-1.17288E+000	3.57780E+000	10	...........
	32	0.44	8.74385E-001	5.99252E-003	0.00000E+000	5.23977E-003	3.59960E-001	-1.16262E+000	3.57780E+000	10	...........
	33	0.453333	8.80750E-001	5.99125E-003	0.00000E+000	5.27679E-003	3.59960E-001	-1.16154E+000	3.57780E+000	10	...........
	34	0.466667	8.87154E-001	5.99275E-003	0.00000E+000	5.31649E-003	3.59960E-001	-1.17282E+000	3.57780E+000	10	...........
	35	0.48	8.93452E-001	5.99758E-003	0.00000E+000	5.35855E-003	3.59960E-001	-1.16288E+000	3.57780E+000	10	...........
	36	0.493333	8.99698E-001	5.99217E-003	0.00000E+000	5.39115E-003	3.59960E-001	-1.16188E+000	3.57780E+000	10	...........
	37	0.506667	9.05973E-001	5.98953E-003	0.00000E+000	5.42635E-003	3.59960E-001	-1.17279E+000	3.57780E+000	10	...........
	38	0.52	9.12179E-001	5.99295E-003	0.00000E+000	5.46664E-003	3.59960E-001	-1.16260E+000	3.57780E+000	10	...........
	39	0.533333	9.18341E-001	5.99406E-003	0.00000E+000	5.50460E-003	3.59960E-001	-1.16149E+000	3.57780E+000	10	...........
	40	0.546667	9.24547E-001	5.99512E-003	0.00000E+000	5.54277E-003	3.59960E-001	-1.17289E+000	3.57780E+000	10	...........
	41	0.56	9.30656E-001	5.99683E-003	0.00000E+000	5.58098E-003	3.59960E-001	-1.16303E+000	3.57780E+000	10	...........
	42	0.573333	9.36668E-001	6.00011E-003	0.00000E+000	5.62011E-003	3.59960E-001	-1.16180E+000	3.57780E+000	10	...........
	43	0.586667	9.42625E-001	5.99374E-003	0.00000E+000	5.64985E-003	3.59960E-001	-1.17276E+000	3.57780E+000	10	...........
	44	0.6	9.48651E-001	5.99222E-003	0.00000E+000	5.68452E-003	3.59960E-001	-1.16252E+000	3.57780E+000	10	...........
	45	0.613333	9.54612E-001	5.99595E-003	0.00000E+000	5.72381E-003	3.59960E-001	-1.16141E+000	3.57780E+000	10	...........
	46	0.626667	9.60466E-001	5.99682E-003	0.00000E+000	5.75974E-003	3.59960E-001	-1.17258E+000	3.57780E+000	10	...........
	47	0.64	9.66284E-001	5.99158E-003	0.00000E+000	5.78957E-003	3.59960E-001	-1.16247E+000	3.57780E+000	10	...........
	48	0.653333	9.72080E-001	5.99059E-003	0.00000E+000	5.82333E-003	3.59960E-001	-1.16126E+000	3.57786E+000	10	...........
	49	0.666667	9.77822E-001	5.99459E-003	0.00000E+000	5.86165E-003	3.59960E-001	-1.17245E+000	3.57790E+000	10	...........
	50	0.68	9.83518E-001	5.99132E-003	0.00000E+000	5.89257E-003	3.59960E-001	-1.16260E+000	3.57790E+000	10	...........
	51	0.693333	9.89132E-001	5.99419E-003	0.00000E+000	5.92905E-003	3.59960E-001	-1.16136E+000	3.57790E+000	10	...........
	52	0.706667	9.94688E-001	6.00077E-003	0.00000E+000	5.96889E-003	3.59960E-001	-1.17228E+000	3.57790E+000	10	...........
	53	0.715	9.99184E-001	5.99054E-003	0.00000E+000	5.98565E-003	3.59960E-001	-1.15462E+000	3.57790E+000	10	...........
STARTTIMEOFFSET	QUANT	1349.85	Start Time Offset (s)