File: Data/CV_CRGO300517_1/PWRCCD_CRGO300517_1/CHARGE_DISCHARGE/CHARGE_#336.DTA
EXPLAIN
TAG	PWR800_CHARGE
TITLE	LABEL	PWR Cyclic Charge Discharge (Cell) - Charge Step	Test &Identifier
DATE	LABEL	22-6-2017	Date
TIME	LABEL	15:49:23	Time
NOTES	NOTES	3	&Notes...
	supercap test cell
	0.6mg
	6M KOH
PSTAT	PSTAT	IFC5000-01520	Potentiostat
CAPACITY	QUANT	1.00000E-003	Capacity (A-hr)
CELLTYPE	SELECTOR	1	&Cell Type
WORKINGCONNECTION	SELECTOR	0	&Working Lead
MAXCHARGETIME	VARIABLEANDUNITS	1.00000E+002	s	1.00000E+002	second(s)	Max &Charge Time
CHARGECURRENT	QUANT	6.00000E-003	&Charge Current (A)
VOLTAGEFINISH	TWOPARAM	F	1.00000E-003	3.60000E+003	&Voltage Finish	 I (A) < 	Max Time(s)
SAMPLETIME	QUANT	1.00000E-002	Sa&mple Period (s)
CHARGESTOPAT1	MULTIPARAM	4	1.00000E+000	Charge Stop At &1	Voltage > Limit	V
CHARGESTOPAT2	MULTIPARAM	0	0.00000E+000	Charge Stop At &2	None	N/A
AESBHCSELECTOR	TOGGLE	F	Save Both Half Cells
IRCOMP	TOGGLE	F	IR &Measure
EOC	QUANT	0	Open Circuit (V)
SEQUENCER	TOGGLE	TRUE	Run as Sequence
PSTATMODEL	IQUANT	53	Pstat Model
PSTATSECTION	LABEL	IFC5000-01520	Pstat Section
PSTATSERIALNO	LABEL	01520	Pstat Serial Number
CTRLMODE	IQUANT	0	Control Mode
ELECTROMETER	IQUANT	1	RE=0 or CS=1
IESTAB	IQUANT	0	I/E Stability
CASPEED	IQUANT	4	Control Amp Speed
CONVENTION	IQUANT	1	Current Convention
ICHRANGE	IQUANT	2	Ich Range
ICHRANGEMODE	TOGGLE	T	Ich Auto Range
ICHOFFSETENABLE	TOGGLE	F	Ich Offset Enable
ICHOFFSET	QUANT	0	Ich Offset (V)
ICHFILTER	IQUANT	1	Ich Filter
VCHRANGE	IQUANT	2	Vch Range
VCHRANGEMODE	TOGGLE	T	Vch Auto Range
VCHOFFSETENABLE	TOGGLE	F	Vch Offset Enable
VCHOFFSET	QUANT	0	Vch Offset (V)
VCHFILTER	IQUANT	1	Vch Filter
IERANGELOWERLIMIT	IQUANT	9	I/E Range Lower Limit
IERANGEMODE	TOGGLE	F	I/E AutoRange
IERANGE	IQUANT	10	I/E Range
ACHSELECT	IQUANT	1	Ach Select
ACHRANGE	IQUANT	2	Ach Range
ACHOFFSETENABLE	TOGGLE	F	Ach Offset Enable
ACHOFFSET	QUANT	0	Ach Offset (V)
ACHFILTER	IQUANT	1	Ach Filter
CABLEID	IQUANT	14	Cable ID
DCCALDATE	LABEL	20-10-2016	DC Calibration Date
ACCALDATE	LABEL	12/3/2015	AC Calibration Date
FRAMEWORKVERSION	QUANT	7.01	Framework Version
INSTRUMENTVERSION	LABEL	4.00	Instrument Version
CURVE	TABLE	62
	Pt	T	Vf	Im	Vu	Pwr	Sig	Ach	Temp	IERange	Over
	#	s	V	A	V	W	V	V	deg C	#	bits
	0	0.013333	6.19738E-001	5.99250E-003	0.00000E+000	3.71378E-003	3.59960E-001	-1.11449E+000	3.57800E+000	10	...........
	1	0.026667	6.28329E-001	5.99079E-003	0.00000E+000	3.76419E-003	3.59960E-001	-1.12247E+000	3.57800E+000	10	...........
	2	0.04	6.36301E-001	5.99714E-003	0.00000E+000	3.81599E-003	3.59960E-001	-1.11975E+000	3.57800E+000	10	...........
	3	0.053333	6.43855E-001	5.99332E-003	0.00000E+000	3.85883E-003	3.59960E-001	-1.11432E+000	3.57800E+000	10	...........
	4	0.066667	6.51124E-001	5.99277E-003	0.00000E+000	3.90203E-003	3.59960E-001	-1.12237E+000	3.57800E+000	10	...........
	5	0.08	6.58203E-001	5.99758E-003	0.00000E+000	3.94762E-003	3.59960E-001	-1.12010E+000	3.57800E+000	10	...........
	6	0.093333	6.65203E-001	5.99553E-003	0.00000E+000	3.98825E-003	3.59960E-001	-1.11414E+000	3.57800E+000	10	...........
	7	0.106667	6.72045E-001	5.99467E-003	0.00000E+000	4.02869E-003	3.59960E-001	-1.12182E+000	3.57800E+000	10	...........
	8	0.12	6.78785E-001	6.00023E-003	0.00000E+000	4.07287E-003	3.59960E-001	-1.11978E+000	3.57800E+000	10	...........
	9	0.133333	6.85404E-001	5.99438E-003	0.00000E+000	4.10857E-003	3.59960E-001	-1.11403E+000	3.57800E+000	10	...........
	10	0.146667	6.92050E-001	5.99332E-003	0.00000E+000	4.14768E-003	3.59960E-001	-1.12216E+000	3.57800E+000	10	...........
	11	0.16	6.98643E-001	5.99503E-003	0.00000E+000	4.18838E-003	3.59960E-001	-1.12008E+000	3.57800E+000	10	...........
	12	0.173333	7.05202E-001	5.99251E-003	0.00000E+000	4.22593E-003	3.59960E-001	-1.11393E+000	3.57800E+000	10	...........
	13	0.186667	7.11634E-001	5.99419E-003	0.00000E+000	4.26567E-003	3.59960E-001	-1.12176E+000	3.57800E+000	10	...........
	14	0.2	7.18111E-001	5.99683E-003	0.00000E+000	4.30639E-003	3.59960E-001	-1.12010E+000	3.57800E+000	10	...........
	15	0.213333	7.24592E-001	5.99555E-003	0.00000E+000	4.34433E-003	3.59960E-001	-1.11396E+000	3.57800E+000	10	...........
	16	0.226667	7.30943E-001	5.99768E-003	0.00000E+000	4.38397E-003	3.59960E-001	-1.12186E+000	3.57800E+000	10	...........
	17	0.24	7.37367E-001	5.99426E-003	0.00000E+000	4.41997E-003	3.59960E-001	-1.12023E+000	3.57800E+000	10	...........
	18	0.253333	7.43798E-001	5.99502E-003	0.00000E+000	4.45909E-003	3.59960E-001	-1.11396E+000	3.57800E+000	10	...........
	19	0.266667	7.50190E-001	5.99557E-003	0.00000E+000	4.49782E-003	3.59960E-001	-1.12171E+000	3.57800E+000	10	...........
	20	0.28	7.56504E-001	5.99441E-003	0.00000E+000	4.53479E-003	3.59960E-001	-1.12041E+000	3.57800E+000	10	...........
	21	0.293333	7.62841E-001	5.99971E-003	0.00000E+000	4.57682E-003	3.59960E-001	-1.11409E+000	3.57800E+000	10	...........
	22	0.306667	7.69151E-001	5.99295E-003	0.00000E+000	4.60948E-003	3.59960E-001	-1.12141E+000	3.57800E+000	10	...........
	23	0.32	7.75473E-001	5.99497E-003	0.00000E+000	4.64894E-003	3.59960E-001	-1.12010E+000	3.57800E+000	10	...........
	24	0.333333	7.81772E-001	5.99523E-003	0.00000E+000	4.68690E-003	3.59960E-001	-1.11379E+000	3.57800E+000	10	...........
	25	0.346667	7.88046E-001	5.99105E-003	0.00000E+000	4.72122E-003	3.59960E-001	-1.12131E+000	3.57800E+000	10	...........
	26	0.36	7.94370E-001	5.99489E-003	0.00000E+000	4.76216E-003	3.59960E-001	-1.12011E+000	3.57800E+000	10	...........
	27	0.373333	8.00618E-001	5.99284E-003	0.00000E+000	4.79798E-003	3.59960E-001	-1.11316E+000	3.57800E+000	10	...........
	28	0.386667	8.06869E-001	5.99605E-003	0.00000E+000	4.83803E-003	3.59960E-001	-1.12007E+000	3.57800E+000	10	...........
	29	0.4	8.13110E-001	5.99379E-003	0.00000E+000	4.87361E-003	3.59960E-001	-1.11891E+000	3.57800E+000	10	...........
	30	0.413333	8.19385E-001	5.99681E-003	0.00000E+000	4.91369E-003	3.59960E-001	-1.11254E+000	3.57800E+000	10	...........
	31	0.426667	8.25607E-001	5.99559E-003	0.00000E+000	4.95000E-003	3.59960E-001	-1.11917E+000	3.57800E+000	10	...........
	32	0.44	8.31789E-001	5.99617E-003	0.00000E+000	4.98755E-003	3.59960E-001	-1.11867E+000	3.57800E+000	10	...........
	33	0.453333	8.37970E-001	5.99500E-003	0.00000E+000	5.02363E-003	3.59960E-001	-1.11226E+000	3.57800E+000	10	...........
	34	0.466667	8.44186E-001	5.98846E-003	0.00000E+000	5.05538E-003	3.59960E-001	-1.11897E+000	3.57680E+000	10	...........
	35	0.48	8.50365E-001	5.99740E-003	0.00000E+000	5.09998E-003	3.59960E-001	-1.11874E+000	3.57680E+000	10	...........
	36	0.493333	8.56507E-001	5.99842E-003	0.00000E+000	5.13769E-003	3.59960E-001	-1.11187E+000	3.57680E+000	10	...........
	37	0.506667	8.62594E-001	5.99498E-003	0.00000E+000	5.17124E-003	3.59960E-001	-1.11894E+000	3.57680E+000	10	...........
	38	0.52	8.68713E-001	5.99325E-003	0.00000E+000	5.20641E-003	3.59960E-001	-1.11868E+000	3.57680E+000	10	...........
	39	0.533333	8.74866E-001	5.99129E-003	0.00000E+000	5.24158E-003	3.59960E-001	-1.11178E+000	3.57680E+000	10	...........
	40	0.546667	8.80960E-001	5.99608E-003	0.00000E+000	5.28230E-003	3.59960E-001	-1.11912E+000	3.57680E+000	10	...........
	41	0.56	8.87013E-001	5.99449E-003	0.00000E+000	5.31719E-003	3.59960E-001	-1.11916E+000	3.57680E+000	10	...........
	42	0.573333	8.93038E-001	5.98965E-003	0.00000E+000	5.34899E-003	3.59960E-001	-1.11203E+000	3.57680E+000	10	...........
	43	0.586667	8.99089E-001	5.98984E-003	0.00000E+000	5.38540E-003	3.59960E-001	-1.11880E+000	3.57680E+000	10	...........
	44	0.6	9.05103E-001	5.99564E-003	0.00000E+000	5.42667E-003	3.59960E-001	-1.11898E+000	3.57680E+000	10	...........
	45	0.613333	9.11086E-001	5.99843E-003	0.00000E+000	5.46509E-003	3.59960E-001	-1.11210E+000	3.57680E+000	10	...........
	46	0.626667	9.17090E-001	5.99627E-003	0.00000E+000	5.49912E-003	3.59960E-001	-1.11910E+000	3.57680E+000	10	...........
	47	0.64	9.23053E-001	5.99227E-003	0.00000E+000	5.53118E-003	3.59960E-001	-1.11932E+000	3.57680E+000	10	...........
	48	0.653333	9.28940E-001	5.99069E-003	0.00000E+000	5.56500E-003	3.59960E-001	-1.11198E+000	3.57680E+000	10	...........
	49	0.666667	9.34792E-001	5.99316E-003	0.00000E+000	5.60236E-003	3.59960E-001	-1.11874E+000	3.57680E+000	10	...........
	50	0.68	9.40621E-001	5.98959E-003	0.00000E+000	5.63393E-003	3.59960E-001	-1.11945E+000	3.57680E+000	10	...........
	51	0.693333	9.46449E-001	5.99559E-003	0.00000E+000	5.67452E-003	3.59960E-001	-1.11214E+000	3.57680E+000	10	...........
	52	0.706667	9.52226E-001	5.98892E-003	0.00000E+000	5.70281E-003	3.59960E-001	-1.11853E+000	3.57680E+000	10	...........
	53	0.72	9.57947E-001	5.99466E-003	0.00000E+000	5.74256E-003	3.59960E-001	-1.11908E+000	3.57680E+000	10	...........
	54	0.733333	9.63603E-001	5.99411E-003	0.00000E+000	5.77595E-003	3.59960E-001	-1.11165E+000	3.57680E+000	10	...........
	55	0.746667	9.69234E-001	5.99586E-003	0.00000E+000	5.81139E-003	3.59960E-001	-1.11805E+000	3.57680E+000	10	...........
	56	0.76	9.74903E-001	5.99320E-003	0.00000E+000	5.84279E-003	3.59960E-001	-1.11893E+000	3.57680E+000	10	...........
	57	0.773333	9.80494E-001	5.99526E-003	0.00000E+000	5.87832E-003	3.59960E-001	-1.11143E+000	3.57680E+000	10	...........
	58	0.786667	9.85978E-001	5.99148E-003	0.00000E+000	5.90746E-003	3.59960E-001	-1.11775E+000	3.57680E+000	10	...........
	59	0.8	9.91482E-001	5.99275E-003	0.00000E+000	5.94170E-003	3.59960E-001	-1.11895E+000	3.57680E+000	10	...........
	60	0.813333	9.96943E-001	5.99688E-003	0.00000E+000	5.97855E-003	3.59960E-001	-1.11163E+000	3.57680E+000	10	...........
	61	0.816667	1.00030E+000	5.98887E-003	0.00000E+000	5.99066E-003	3.59960E-001	-1.12587E+000	3.57680E+000	10	...........
STARTTIMEOFFSET	QUANT	599.9881	Start Time Offset (s)