File: Data/CV_CRGO300517_1/PWRCCD_CRGO300517_1/CHARGE_DISCHARGE/CHARGE_#42.DTA
EXPLAIN
TAG	PWR800_CHARGE
TITLE	LABEL	PWR Cyclic Charge Discharge (Cell) - Charge Step	Test &Identifier
DATE	LABEL	22-6-2017	Date
TIME	LABEL	15:36:54	Time
NOTES	NOTES	3	&Notes...
	supercap test cell
	0.6mg
	6M KOH
PSTAT	PSTAT	IFC5000-01520	Potentiostat
CAPACITY	QUANT	1.00000E-003	Capacity (A-hr)
CELLTYPE	SELECTOR	1	&Cell Type
WORKINGCONNECTION	SELECTOR	0	&Working Lead
MAXCHARGETIME	VARIABLEANDUNITS	1.00000E+002	s	1.00000E+002	second(s)	Max &Charge Time
CHARGECURRENT	QUANT	6.00000E-003	&Charge Current (A)
VOLTAGEFINISH	TWOPARAM	F	1.00000E-003	3.60000E+003	&Voltage Finish	 I (A) < 	Max Time(s)
SAMPLETIME	QUANT	1.00000E-002	Sa&mple Period (s)
CHARGESTOPAT1	MULTIPARAM	4	1.00000E+000	Charge Stop At &1	Voltage > Limit	V
CHARGESTOPAT2	MULTIPARAM	0	0.00000E+000	Charge Stop At &2	None	N/A
AESBHCSELECTOR	TOGGLE	F	Save Both Half Cells
IRCOMP	TOGGLE	F	IR &Measure
EOC	QUANT	0	Open Circuit (V)
SEQUENCER	TOGGLE	TRUE	Run as Sequence
PSTATMODEL	IQUANT	53	Pstat Model
PSTATSECTION	LABEL	IFC5000-01520	Pstat Section
PSTATSERIALNO	LABEL	01520	Pstat Serial Number
CTRLMODE	IQUANT	0	Control Mode
ELECTROMETER	IQUANT	1	RE=0 or CS=1
IESTAB	IQUANT	0	I/E Stability
CASPEED	IQUANT	4	Control Amp Speed
CONVENTION	IQUANT	1	Current Convention
ICHRANGE	IQUANT	2	Ich Range
ICHRANGEMODE	TOGGLE	T	Ich Auto Range
ICHOFFSETENABLE	TOGGLE	F	Ich Offset Enable
ICHOFFSET	QUANT	0	Ich Offset (V)
ICHFILTER	IQUANT	1	Ich Filter
VCHRANGE	IQUANT	2	Vch Range
VCHRANGEMODE	TOGGLE	T	Vch Auto Range
VCHOFFSETENABLE	TOGGLE	F	Vch Offset Enable
VCHOFFSET	QUANT	0	Vch Offset (V)
VCHFILTER	IQUANT	1	Vch Filter
IERANGELOWERLIMIT	IQUANT	9	I/E Range Lower Limit
IERANGEMODE	TOGGLE	F	I/E AutoRange
IERANGE	IQUANT	10	I/E Range
ACHSELECT	IQUANT	1	Ach Select
ACHRANGE	IQUANT	2	Ach Range
ACHOFFSETENABLE	TOGGLE	F	Ach Offset Enable
ACHOFFSET	QUANT	0	Ach Offset (V)
ACHFILTER	IQUANT	1	Ach Filter
CABLEID	IQUANT	14	Cable ID
DCCALDATE	LABEL	20-10-2016	DC Calibration Date
ACCALDATE	LABEL	12/3/2015	AC Calibration Date
FRAMEWORKVERSION	QUANT	7.01	Framework Version
INSTRUMENTVERSION	LABEL	4.00	Instrument Version
CURVE	TABLE	75
	Pt	T	Vf	Im	Vu	Pwr	Sig	Ach	Temp	IERange	Over
	#	s	V	A	V	W	V	V	deg C	#	bits
	0	0.013333	5.71433E-001	5.99570E-003	0.00000E+000	3.42614E-003	3.59960E-001	-1.03946E+000	3.57740E+000	10	...........
	1	0.026667	5.79521E-001	5.99302E-003	0.00000E+000	3.47308E-003	3.59960E-001	-1.02994E+000	3.57740E+000	10	...........
	2	0.04	5.86968E-001	5.99252E-003	0.00000E+000	3.51741E-003	3.59960E-001	-1.03523E+000	3.57740E+000	10	...........
	3	0.053333	5.94014E-001	5.99700E-003	0.00000E+000	3.56230E-003	3.59960E-001	-1.03926E+000	3.57740E+000	10	...........
	4	0.066667	6.00754E-001	5.99397E-003	0.00000E+000	3.60090E-003	3.59960E-001	-1.02960E+000	3.57740E+000	10	...........
	5	0.08	6.07236E-001	5.99228E-003	0.00000E+000	3.63873E-003	3.59960E-001	-1.03519E+000	3.57740E+000	10	...........
	6	0.093333	6.13626E-001	5.99394E-003	0.00000E+000	3.67804E-003	3.59960E-001	-1.03883E+000	3.57740E+000	10	...........
	7	0.106667	6.19957E-001	5.99280E-003	0.00000E+000	3.71528E-003	3.59960E-001	-1.02922E+000	3.57740E+000	10	...........
	8	0.12	6.26136E-001	5.99052E-003	0.00000E+000	3.75088E-003	3.59960E-001	-1.03438E+000	3.57740E+000	10	...........
	9	0.133333	6.32249E-001	5.99302E-003	0.00000E+000	3.78908E-003	3.59960E-001	-1.03873E+000	3.57740E+000	10	...........
	10	0.146667	6.38314E-001	5.99363E-003	0.00000E+000	3.82582E-003	3.59960E-001	-1.02935E+000	3.57740E+000	10	...........
	11	0.16	6.44346E-001	5.99397E-003	0.00000E+000	3.86219E-003	3.59960E-001	-1.03476E+000	3.57740E+000	10	...........
	12	0.173333	6.50312E-001	5.99365E-003	0.00000E+000	3.89774E-003	3.59960E-001	-1.03897E+000	3.57740E+000	10	...........
	13	0.186667	6.56241E-001	5.99600E-003	0.00000E+000	3.93482E-003	3.59960E-001	-1.02893E+000	3.57740E+000	10	...........
	14	0.2	6.62149E-001	5.99233E-003	0.00000E+000	3.96782E-003	3.59960E-001	-1.03425E+000	3.57740E+000	10	...........
	15	0.213333	6.68024E-001	5.99637E-003	0.00000E+000	4.00572E-003	3.59960E-001	-1.03902E+000	3.57740E+000	10	...........
	16	0.226667	6.73863E-001	5.99810E-003	0.00000E+000	4.04190E-003	3.59960E-001	-1.02918E+000	3.57740E+000	10	...........
	17	0.24	6.79703E-001	5.99543E-003	0.00000E+000	4.07511E-003	3.59960E-001	-1.03443E+000	3.57740E+000	10	...........
	18	0.253333	6.85476E-001	5.99611E-003	0.00000E+000	4.11019E-003	3.59960E-001	-1.03887E+000	3.57740E+000	10	...........
	19	0.266667	6.91275E-001	5.99627E-003	0.00000E+000	4.14507E-003	3.59960E-001	-1.02888E+000	3.57740E+000	10	...........
	20	0.28	6.97038E-001	5.99477E-003	0.00000E+000	4.17859E-003	3.59960E-001	-1.03423E+000	3.57740E+000	10	...........
	21	0.293333	7.02813E-001	5.99534E-003	0.00000E+000	4.21360E-003	3.59960E-001	-1.03897E+000	3.57740E+000	10	...........
	22	0.306667	7.08531E-001	5.99254E-003	0.00000E+000	4.24590E-003	3.59960E-001	-1.02918E+000	3.57740E+000	10	...........
	23	0.32	7.14260E-001	5.99232E-003	0.00000E+000	4.28007E-003	3.59960E-001	-1.03417E+000	3.57740E+000	10	...........
	24	0.333333	7.20053E-001	5.98957E-003	0.00000E+000	4.31281E-003	3.59960E-001	-1.03910E+000	3.57740E+000	10	...........
	25	0.346667	7.25809E-001	6.00073E-003	0.00000E+000	4.35538E-003	3.59960E-001	-1.02921E+000	3.57740E+000	10	...........
	26	0.36	7.31503E-001	5.99311E-003	0.00000E+000	4.38398E-003	3.59960E-001	-1.03434E+000	3.57740E+000	10	...........
	27	0.373333	7.37188E-001	5.99462E-003	0.00000E+000	4.41916E-003	3.59960E-001	-1.03910E+000	3.57740E+000	10	...........
	28	0.386667	7.42926E-001	5.99386E-003	0.00000E+000	4.45300E-003	3.59960E-001	-1.02903E+000	3.57740E+000	10	...........
	29	0.4	7.48586E-001	5.99427E-003	0.00000E+000	4.48723E-003	3.59960E-001	-1.03371E+000	3.57740E+000	10	...........
	30	0.413333	7.54309E-001	5.99438E-003	0.00000E+000	4.52161E-003	3.59960E-001	-1.03881E+000	3.57740E+000	10	...........
	31	0.426667	7.59994E-001	5.99238E-003	0.00000E+000	4.55418E-003	3.59960E-001	-1.02873E+000	3.57740E+000	10	...........
	32	0.44	7.65737E-001	5.99653E-003	0.00000E+000	4.59177E-003	3.59960E-001	-1.03347E+000	3.57740E+000	10	...........
	33	0.453333	7.71474E-001	5.99232E-003	0.00000E+000	4.62292E-003	3.59960E-001	-1.03879E+000	3.57740E+000	10	...........
	34	0.466667	7.77180E-001	5.99816E-003	0.00000E+000	4.66165E-003	3.59960E-001	-1.02846E+000	3.57740E+000	10	...........
	35	0.48	7.82866E-001	5.99458E-003	0.00000E+000	4.69296E-003	3.59960E-001	-1.03337E+000	3.57740E+000	10	...........
	36	0.493333	7.88577E-001	5.99578E-003	0.00000E+000	4.72814E-003	3.59960E-001	-1.03906E+000	3.57740E+000	10	...........
	37	0.506667	7.94352E-001	5.99704E-003	0.00000E+000	4.76376E-003	3.59960E-001	-1.02851E+000	3.57740E+000	10	...........
	38	0.52	8.00019E-001	5.99499E-003	0.00000E+000	4.79611E-003	3.59960E-001	-1.03319E+000	3.57740E+000	10	...........
	39	0.533333	8.05688E-001	5.99301E-003	0.00000E+000	4.82850E-003	3.59960E-001	-1.03873E+000	3.57740E+000	10	...........
	40	0.546667	8.11369E-001	5.99342E-003	0.00000E+000	4.86287E-003	3.59960E-001	-1.02846E+000	3.57740E+000	10	...........
	41	0.56	8.17080E-001	5.99762E-003	0.00000E+000	4.90054E-003	3.59960E-001	-1.03337E+000	3.57740E+000	10	...........
	42	0.573333	8.22782E-001	5.99667E-003	0.00000E+000	4.93395E-003	3.59960E-001	-1.03904E+000	3.57740E+000	10	...........
	43	0.586667	8.28457E-001	5.99264E-003	0.00000E+000	4.96465E-003	3.59960E-001	-1.02840E+000	3.57740E+000	10	...........
	44	0.6	8.34141E-001	5.99188E-003	0.00000E+000	4.99808E-003	3.59960E-001	-1.03287E+000	3.57740E+000	10	...........
	45	0.613333	8.39823E-001	5.99247E-003	0.00000E+000	5.03261E-003	3.59960E-001	-1.03889E+000	3.57740E+000	10	...........
	46	0.626667	8.45539E-001	5.99618E-003	0.00000E+000	5.07001E-003	3.59960E-001	-1.02842E+000	3.57740E+000	10	...........
	47	0.64	8.51209E-001	5.99393E-003	0.00000E+000	5.10208E-003	3.59960E-001	-1.03321E+000	3.57740E+000	10	...........
	48	0.653333	8.56894E-001	5.99311E-003	0.00000E+000	5.13546E-003	3.59960E-001	-1.03901E+000	3.57740E+000	10	...........
	49	0.666667	8.62552E-001	5.99203E-003	0.00000E+000	5.16844E-003	3.59960E-001	-1.02829E+000	3.57740E+000	10	...........
	50	0.68	8.68259E-001	5.99536E-003	0.00000E+000	5.20552E-003	3.59960E-001	-1.03314E+000	3.57740E+000	10	...........
	51	0.693333	8.73961E-001	5.99409E-003	0.00000E+000	5.23861E-003	3.59960E-001	-1.03922E+000	3.57740E+000	10	...........
	52	0.706667	8.79583E-001	5.99454E-003	0.00000E+000	5.27270E-003	3.59960E-001	-1.02834E+000	3.57740E+000	10	...........
	53	0.72	8.85273E-001	5.99670E-003	0.00000E+000	5.30872E-003	3.59960E-001	-1.03285E+000	3.57740E+000	10	...........
	54	0.733333	8.90875E-001	5.99230E-003	0.00000E+000	5.33839E-003	3.59960E-001	-1.03871E+000	3.57740E+000	10	...........
	55	0.746667	8.96533E-001	5.99318E-003	0.00000E+000	5.37308E-003	3.59960E-001	-1.02787E+000	3.57740E+000	10	...........
	56	0.76	9.02189E-001	5.99486E-003	0.00000E+000	5.40849E-003	3.59960E-001	-1.03242E+000	3.57740E+000	10	...........
	57	0.773333	9.07787E-001	5.99639E-003	0.00000E+000	5.44345E-003	3.59960E-001	-1.03865E+000	3.57740E+000	10	...........
	58	0.786667	9.13366E-001	5.99269E-003	0.00000E+000	5.47351E-003	3.59960E-001	-1.02799E+000	3.57845E+000	10	...........
	59	0.8	9.19035E-001	5.99627E-003	0.00000E+000	5.51079E-003	3.59960E-001	-1.03239E+000	3.57860E+000	10	...........
	60	0.813333	9.24630E-001	5.99377E-003	0.00000E+000	5.54202E-003	3.59960E-001	-1.03886E+000	3.57860E+000	10	...........
	61	0.826667	9.30199E-001	5.99124E-003	0.00000E+000	5.57304E-003	3.59960E-001	-1.02806E+000	3.57860E+000	10	...........
	62	0.84	9.35749E-001	5.99573E-003	0.00000E+000	5.61050E-003	3.59960E-001	-1.03232E+000	3.57860E+000	10	...........
	63	0.853333	9.41257E-001	5.99202E-003	0.00000E+000	5.64003E-003	3.59960E-001	-1.03878E+000	3.57860E+000	10	...........
	64	0.866667	9.46767E-001	5.99564E-003	0.00000E+000	5.67647E-003	3.59960E-001	-1.02792E+000	3.57860E+000	10	...........
	65	0.88	9.52258E-001	5.99405E-003	0.00000E+000	5.70788E-003	3.59960E-001	-1.03226E+000	3.57860E+000	10	...........
	66	0.893333	9.57725E-001	5.99462E-003	0.00000E+000	5.74119E-003	3.59960E-001	-1.03883E+000	3.57860E+000	10	...........
	67	0.906667	9.63148E-001	5.99283E-003	0.00000E+000	5.77198E-003	3.59960E-001	-1.02806E+000	3.57860E+000	10	...........
	68	0.92	9.68584E-001	5.99299E-003	0.00000E+000	5.80471E-003	3.59960E-001	-1.03206E+000	3.57860E+000	10	...........
	69	0.933333	9.74039E-001	5.99693E-003	0.00000E+000	5.84125E-003	3.59960E-001	-1.03884E+000	3.57860E+000	10	...........
	70	0.946667	9.79409E-001	5.99793E-003	0.00000E+000	5.87443E-003	3.59960E-001	-1.02811E+000	3.57860E+000	10	...........
	71	0.96	9.84716E-001	5.99032E-003	0.00000E+000	5.89876E-003	3.59960E-001	-1.03237E+000	3.57860E+000	10	...........
	72	0.97333	9.90030E-001	5.98992E-003	0.00000E+000	5.93020E-003	3.59960E-001	-1.03916E+000	3.57860E+000	10	...........
	73	0.98667	9.95323E-001	5.99477E-003	0.00000E+000	5.96674E-003	3.59960E-001	-1.02804E+000	3.57860E+000	10	...........
	74	0.99333	9.99291E-001	5.99486E-003	0.00000E+000	5.99061E-003	3.59960E-001	-1.04321E+000	3.57860E+000	10	...........
STARTTIMEOFFSET	QUANT	84.835	Start Time Offset (s)