File: Data/CV_CRGO300517_1/PWRCCD_CRGO300517_1/CHARGE_DISCHARGE/CHARGE_#891.DTA
EXPLAIN
TAG	PWR800_CHARGE
TITLE	LABEL	PWR Cyclic Charge Discharge (Cell) - Charge Step	Test &Identifier
DATE	LABEL	22-6-2017	Date
TIME	LABEL	16:10:39	Time
NOTES	NOTES	3	&Notes...
	supercap test cell
	0.6mg
	6M KOH
PSTAT	PSTAT	IFC5000-01520	Potentiostat
CAPACITY	QUANT	1.00000E-003	Capacity (A-hr)
CELLTYPE	SELECTOR	1	&Cell Type
WORKINGCONNECTION	SELECTOR	0	&Working Lead
MAXCHARGETIME	VARIABLEANDUNITS	1.00000E+002	s	1.00000E+002	second(s)	Max &Charge Time
CHARGECURRENT	QUANT	6.00000E-003	&Charge Current (A)
VOLTAGEFINISH	TWOPARAM	F	1.00000E-003	3.60000E+003	&Voltage Finish	 I (A) < 	Max Time(s)
SAMPLETIME	QUANT	1.00000E-002	Sa&mple Period (s)
CHARGESTOPAT1	MULTIPARAM	4	1.00000E+000	Charge Stop At &1	Voltage > Limit	V
CHARGESTOPAT2	MULTIPARAM	0	0.00000E+000	Charge Stop At &2	None	N/A
AESBHCSELECTOR	TOGGLE	F	Save Both Half Cells
IRCOMP	TOGGLE	F	IR &Measure
EOC	QUANT	0	Open Circuit (V)
SEQUENCER	TOGGLE	TRUE	Run as Sequence
PSTATMODEL	IQUANT	53	Pstat Model
PSTATSECTION	LABEL	IFC5000-01520	Pstat Section
PSTATSERIALNO	LABEL	01520	Pstat Serial Number
CTRLMODE	IQUANT	0	Control Mode
ELECTROMETER	IQUANT	1	RE=0 or CS=1
IESTAB	IQUANT	0	I/E Stability
CASPEED	IQUANT	4	Control Amp Speed
CONVENTION	IQUANT	1	Current Convention
ICHRANGE	IQUANT	2	Ich Range
ICHRANGEMODE	TOGGLE	T	Ich Auto Range
ICHOFFSETENABLE	TOGGLE	F	Ich Offset Enable
ICHOFFSET	QUANT	0	Ich Offset (V)
ICHFILTER	IQUANT	1	Ich Filter
VCHRANGE	IQUANT	2	Vch Range
VCHRANGEMODE	TOGGLE	T	Vch Auto Range
VCHOFFSETENABLE	TOGGLE	F	Vch Offset Enable
VCHOFFSET	QUANT	0	Vch Offset (V)
VCHFILTER	IQUANT	1	Vch Filter
IERANGELOWERLIMIT	IQUANT	9	I/E Range Lower Limit
IERANGEMODE	TOGGLE	F	I/E AutoRange
IERANGE	IQUANT	10	I/E Range
ACHSELECT	IQUANT	1	Ach Select
ACHRANGE	IQUANT	2	Ach Range
ACHOFFSETENABLE	TOGGLE	F	Ach Offset Enable
ACHOFFSET	QUANT	0	Ach Offset (V)
ACHFILTER	IQUANT	1	Ach Filter
CABLEID	IQUANT	14	Cable ID
DCCALDATE	LABEL	20-10-2016	DC Calibration Date
ACCALDATE	LABEL	12/3/2015	AC Calibration Date
FRAMEWORKVERSION	QUANT	7.01	Framework Version
INSTRUMENTVERSION	LABEL	4.00	Instrument Version
CURVE	TABLE	53
	Pt	T	Vf	Im	Vu	Pwr	Sig	Ach	Temp	IERange	Over
	#	s	V	A	V	W	V	V	deg C	#	bits
	0	0.013333	6.60290E-001	5.99222E-003	0.00000E+000	3.95660E-003	3.59960E-001	-1.16514E+000	3.57660E+000	10	...........
	1	0.026667	6.69364E-001	5.99211E-003	0.00000E+000	4.01091E-003	3.59960E-001	-1.17626E+000	3.57660E+000	10	...........
	2	0.04	6.77666E-001	5.99782E-003	0.00000E+000	4.06452E-003	3.59960E-001	-1.16584E+000	3.57660E+000	10	...........
	3	0.053333	6.85619E-001	5.99081E-003	0.00000E+000	4.10741E-003	3.59960E-001	-1.16509E+000	3.57660E+000	10	...........
	4	0.066667	6.93271E-001	5.99669E-003	0.00000E+000	4.15733E-003	3.59960E-001	-1.17612E+000	3.57660E+000	10	...........
	5	0.08	7.00703E-001	6.00006E-003	0.00000E+000	4.20426E-003	3.59960E-001	-1.16597E+000	3.57660E+000	10	...........
	6	0.093333	7.07983E-001	5.99050E-003	0.00000E+000	4.24117E-003	3.59960E-001	-1.16524E+000	3.57660E+000	10	...........
	7	0.106667	7.15189E-001	6.00131E-003	0.00000E+000	4.29207E-003	3.59960E-001	-1.17604E+000	3.57660E+000	10	...........
	8	0.12	7.22320E-001	5.99471E-003	0.00000E+000	4.33010E-003	3.59960E-001	-1.16572E+000	3.57660E+000	10	...........
	9	0.133333	7.29303E-001	5.99410E-003	0.00000E+000	4.37152E-003	3.59960E-001	-1.16488E+000	3.57660E+000	10	...........
	10	0.146667	7.36269E-001	5.99876E-003	0.00000E+000	4.41670E-003	3.59960E-001	-1.17594E+000	3.57660E+000	10	...........
	11	0.16	7.43173E-001	5.99567E-003	0.00000E+000	4.45582E-003	3.59960E-001	-1.16577E+000	3.57660E+000	10	...........
	12	0.173333	7.50060E-001	5.99354E-003	0.00000E+000	4.49552E-003	3.59960E-001	-1.16514E+000	3.57660E+000	10	...........
	13	0.186667	7.56877E-001	5.99622E-003	0.00000E+000	4.53840E-003	3.59960E-001	-1.17580E+000	3.57660E+000	10	...........
	14	0.2	7.63652E-001	5.99102E-003	0.00000E+000	4.57505E-003	3.59960E-001	-1.16562E+000	3.57660E+000	10	...........
	15	0.213333	7.70444E-001	5.99743E-003	0.00000E+000	4.62069E-003	3.59960E-001	-1.16532E+000	3.57660E+000	10	...........
	16	0.226667	7.77157E-001	5.99624E-003	0.00000E+000	4.66002E-003	3.59960E-001	-1.17606E+000	3.57660E+000	10	...........
	17	0.24	7.83830E-001	5.99428E-003	0.00000E+000	4.69850E-003	3.59960E-001	-1.16586E+000	3.57660E+000	10	...........
	18	0.253333	7.90503E-001	5.99243E-003	0.00000E+000	4.73703E-003	3.59960E-001	-1.16524E+000	3.57660E+000	10	...........
	19	0.266667	7.97152E-001	5.99187E-003	0.00000E+000	4.77643E-003	3.59960E-001	-1.17593E+000	3.57660E+000	10	...........
	20	0.28	8.03785E-001	5.99292E-003	0.00000E+000	4.81702E-003	3.59960E-001	-1.16546E+000	3.57660E+000	10	...........
	21	0.293333	8.10343E-001	5.98984E-003	0.00000E+000	4.85382E-003	3.59960E-001	-1.16518E+000	3.57660E+000	10	...........
	22	0.306667	8.16923E-001	5.99163E-003	0.00000E+000	4.89470E-003	3.59960E-001	-1.17571E+000	3.57660E+000	10	...........
	23	0.32	8.23490E-001	5.99335E-003	0.00000E+000	4.93547E-003	3.59960E-001	-1.16525E+000	3.57660E+000	10	...........
	24	0.333333	8.30002E-001	5.99342E-003	0.00000E+000	4.97455E-003	3.59960E-001	-1.16495E+000	3.57660E+000	10	...........
	25	0.346667	8.36504E-001	5.99531E-003	0.00000E+000	5.01510E-003	3.59960E-001	-1.17565E+000	3.57660E+000	10	...........
	26	0.36	8.42980E-001	5.98959E-003	0.00000E+000	5.04910E-003	3.59960E-001	-1.16533E+000	3.57660E+000	10	...........
	27	0.373333	8.49476E-001	5.99384E-003	0.00000E+000	5.09163E-003	3.59960E-001	-1.16484E+000	3.57660E+000	10	...........
	28	0.386667	8.55877E-001	5.99507E-003	0.00000E+000	5.13105E-003	3.59960E-001	-1.17558E+000	3.57660E+000	10	...........
	29	0.4	8.62291E-001	5.99425E-003	0.00000E+000	5.16879E-003	3.59960E-001	-1.16502E+000	3.57660E+000	10	...........
	30	0.413333	8.68687E-001	5.99448E-003	0.00000E+000	5.20732E-003	3.59960E-001	-1.16513E+000	3.57660E+000	10	...........
	31	0.426667	8.75062E-001	5.99392E-003	0.00000E+000	5.24505E-003	3.59960E-001	-1.17581E+000	3.57660E+000	10	...........
	32	0.44	8.81398E-001	5.99911E-003	0.00000E+000	5.28760E-003	3.59960E-001	-1.16517E+000	3.57660E+000	10	...........
	33	0.453333	8.87691E-001	5.99198E-003	0.00000E+000	5.31902E-003	3.59960E-001	-1.16479E+000	3.57660E+000	10	...........
	34	0.466667	8.93921E-001	5.99354E-003	0.00000E+000	5.35775E-003	3.59960E-001	-1.17552E+000	3.57660E+000	10	...........
	35	0.48	9.00158E-001	5.99270E-003	0.00000E+000	5.39437E-003	3.59960E-001	-1.16511E+000	3.57660E+000	10	...........
	36	0.493333	9.06331E-001	5.99006E-003	0.00000E+000	5.42897E-003	3.59960E-001	-1.16509E+000	3.57660E+000	10	...........
	37	0.506667	9.12447E-001	5.99460E-003	0.00000E+000	5.46976E-003	3.59960E-001	-1.17561E+000	3.57660E+000	10	...........
	38	0.52	9.18608E-001	5.99292E-003	0.00000E+000	5.50514E-003	3.59960E-001	-1.16501E+000	3.57660E+000	10	...........
	39	0.533333	9.24701E-001	5.99370E-003	0.00000E+000	5.54238E-003	3.59960E-001	-1.16512E+000	3.57966E+000	10	...........
	40	0.546667	9.30723E-001	5.99770E-003	0.00000E+000	5.58220E-003	3.59960E-001	-1.17573E+000	3.58010E+000	10	...........
	41	0.56	9.36682E-001	5.99326E-003	0.00000E+000	5.61378E-003	3.59960E-001	-1.16492E+000	3.58010E+000	10	...........
	42	0.573333	9.42699E-001	5.99288E-003	0.00000E+000	5.64949E-003	3.59960E-001	-1.16527E+000	3.58010E+000	10	...........
	43	0.586667	9.48594E-001	5.99395E-003	0.00000E+000	5.68582E-003	3.59960E-001	-1.17558E+000	3.58010E+000	10	...........
	44	0.6	9.54417E-001	5.99456E-003	0.00000E+000	5.72131E-003	3.59960E-001	-1.16499E+000	3.58010E+000	10	...........
	45	0.613333	9.60253E-001	5.99165E-003	0.00000E+000	5.75350E-003	3.59960E-001	-1.16508E+000	3.58010E+000	10	...........
	46	0.626667	9.66045E-001	5.98888E-003	0.00000E+000	5.78553E-003	3.59960E-001	-1.17544E+000	3.58010E+000	10	...........
	47	0.64	9.71772E-001	5.99134E-003	0.00000E+000	5.82222E-003	3.59960E-001	-1.16483E+000	3.58010E+000	10	...........
	48	0.653333	9.77507E-001	5.99350E-003	0.00000E+000	5.85869E-003	3.59960E-001	-1.16482E+000	3.58010E+000	10	...........
	49	0.666667	9.83105E-001	5.99704E-003	0.00000E+000	5.89572E-003	3.59960E-001	-1.17527E+000	3.58010E+000	10	...........
	50	0.68	9.88642E-001	5.98812E-003	0.00000E+000	5.92011E-003	3.59960E-001	-1.16463E+000	3.58010E+000	10	...........
	51	0.693333	9.94171E-001	5.99379E-003	0.00000E+000	5.95885E-003	3.59960E-001	-1.16500E+000	3.58010E+000	10	...........
	52	0.701667	9.98663E-001	6.00053E-003	0.00000E+000	5.99251E-003	3.59960E-001	-1.17602E+000	3.58010E+000	10	...........
STARTTIMEOFFSET	QUANT	1433.408	Start Time Offset (s)