File: Data/CV_CRGO300517_1/PWRCCD_CRGO300517_1/CHARGE_DISCHARGE/CHARGE_#729.DTA
EXPLAIN
TAG	PWR800_CHARGE
TITLE	LABEL	PWR Cyclic Charge Discharge (Cell) - Charge Step	Test &Identifier
DATE	LABEL	22-6-2017	Date
TIME	LABEL	16:04:38	Time
NOTES	NOTES	3	&Notes...
	supercap test cell
	0.6mg
	6M KOH
PSTAT	PSTAT	IFC5000-01520	Potentiostat
CAPACITY	QUANT	1.00000E-003	Capacity (A-hr)
CELLTYPE	SELECTOR	1	&Cell Type
WORKINGCONNECTION	SELECTOR	0	&Working Lead
MAXCHARGETIME	VARIABLEANDUNITS	1.00000E+002	s	1.00000E+002	second(s)	Max &Charge Time
CHARGECURRENT	QUANT	6.00000E-003	&Charge Current (A)
VOLTAGEFINISH	TWOPARAM	F	1.00000E-003	3.60000E+003	&Voltage Finish	 I (A) < 	Max Time(s)
SAMPLETIME	QUANT	1.00000E-002	Sa&mple Period (s)
CHARGESTOPAT1	MULTIPARAM	4	1.00000E+000	Charge Stop At &1	Voltage > Limit	V
CHARGESTOPAT2	MULTIPARAM	0	0.00000E+000	Charge Stop At &2	None	N/A
AESBHCSELECTOR	TOGGLE	F	Save Both Half Cells
IRCOMP	TOGGLE	F	IR &Measure
EOC	QUANT	0	Open Circuit (V)
SEQUENCER	TOGGLE	TRUE	Run as Sequence
PSTATMODEL	IQUANT	53	Pstat Model
PSTATSECTION	LABEL	IFC5000-01520	Pstat Section
PSTATSERIALNO	LABEL	01520	Pstat Serial Number
CTRLMODE	IQUANT	0	Control Mode
ELECTROMETER	IQUANT	1	RE=0 or CS=1
IESTAB	IQUANT	0	I/E Stability
CASPEED	IQUANT	4	Control Amp Speed
CONVENTION	IQUANT	1	Current Convention
ICHRANGE	IQUANT	2	Ich Range
ICHRANGEMODE	TOGGLE	T	Ich Auto Range
ICHOFFSETENABLE	TOGGLE	F	Ich Offset Enable
ICHOFFSET	QUANT	0	Ich Offset (V)
ICHFILTER	IQUANT	1	Ich Filter
VCHRANGE	IQUANT	2	Vch Range
VCHRANGEMODE	TOGGLE	T	Vch Auto Range
VCHOFFSETENABLE	TOGGLE	F	Vch Offset Enable
VCHOFFSET	QUANT	0	Vch Offset (V)
VCHFILTER	IQUANT	1	Vch Filter
IERANGELOWERLIMIT	IQUANT	9	I/E Range Lower Limit
IERANGEMODE	TOGGLE	F	I/E AutoRange
IERANGE	IQUANT	10	I/E Range
ACHSELECT	IQUANT	1	Ach Select
ACHRANGE	IQUANT	2	Ach Range
ACHOFFSETENABLE	TOGGLE	F	Ach Offset Enable
ACHOFFSET	QUANT	0	Ach Offset (V)
ACHFILTER	IQUANT	1	Ach Filter
CABLEID	IQUANT	14	Cable ID
DCCALDATE	LABEL	20-10-2016	DC Calibration Date
ACCALDATE	LABEL	12/3/2015	AC Calibration Date
FRAMEWORKVERSION	QUANT	7.01	Framework Version
INSTRUMENTVERSION	LABEL	4.00	Instrument Version
CURVE	TABLE	55
	Pt	T	Vf	Im	Vu	Pwr	Sig	Ach	Temp	IERange	Over
	#	s	V	A	V	W	V	V	deg C	#	bits
	0	0.013333	6.44463E-001	5.98931E-003	0.00000E+000	3.85988E-003	3.59960E-001	-1.15521E+000	3.57630E+000	10	...........
	1	0.026667	6.53565E-001	5.99223E-003	0.00000E+000	3.91631E-003	3.59960E-001	-1.16137E+000	3.57630E+000	10	...........
	2	0.04	6.61915E-001	5.99265E-003	0.00000E+000	3.96663E-003	3.59960E-001	-1.16332E+000	3.57630E+000	10	...........
	3	0.053333	6.69879E-001	5.99469E-003	0.00000E+000	4.01572E-003	3.59960E-001	-1.15520E+000	3.57630E+000	10	...........
	4	0.066667	6.77561E-001	5.99765E-003	0.00000E+000	4.06377E-003	3.59960E-001	-1.16110E+000	3.57630E+000	10	...........
	5	0.08	6.85063E-001	5.99217E-003	0.00000E+000	4.10501E-003	3.59960E-001	-1.16328E+000	3.57630E+000	10	...........
	6	0.093333	6.92412E-001	5.99265E-003	0.00000E+000	4.14938E-003	3.59960E-001	-1.15534E+000	3.57630E+000	10	...........
	7	0.106667	6.99650E-001	5.99002E-003	0.00000E+000	4.19092E-003	3.59960E-001	-1.16144E+000	3.57630E+000	10	...........
	8	0.12	7.06738E-001	5.99029E-003	0.00000E+000	4.23356E-003	3.59960E-001	-1.16341E+000	3.57630E+000	10	...........
	9	0.133333	7.13796E-001	5.99275E-003	0.00000E+000	4.27760E-003	3.59960E-001	-1.15514E+000	3.57630E+000	10	...........
	10	0.146667	7.20818E-001	5.99360E-003	0.00000E+000	4.32030E-003	3.59960E-001	-1.16130E+000	3.57630E+000	10	...........
	11	0.16	7.27700E-001	5.99278E-003	0.00000E+000	4.36094E-003	3.59960E-001	-1.16337E+000	3.57630E+000	10	...........
	12	0.173333	7.34576E-001	5.99544E-003	0.00000E+000	4.40411E-003	3.59960E-001	-1.15520E+000	3.57630E+000	10	...........
	13	0.186667	7.41417E-001	5.99382E-003	0.00000E+000	4.44392E-003	3.59960E-001	-1.16096E+000	3.57630E+000	10	...........
	14	0.2	7.48268E-001	5.99840E-003	0.00000E+000	4.48841E-003	3.59960E-001	-1.16269E+000	3.57630E+000	10	...........
	15	0.213333	7.55081E-001	5.99365E-003	0.00000E+000	4.52569E-003	3.59960E-001	-1.15451E+000	3.57630E+000	10	...........
	16	0.226667	7.61827E-001	5.99257E-003	0.00000E+000	4.56530E-003	3.59960E-001	-1.16094E+000	3.57630E+000	10	...........
	17	0.24	7.68513E-001	5.99572E-003	0.00000E+000	4.60779E-003	3.59960E-001	-1.16279E+000	3.57630E+000	10	...........
	18	0.253333	7.75276E-001	5.99378E-003	0.00000E+000	4.64683E-003	3.59960E-001	-1.15454E+000	3.57630E+000	10	...........
	19	0.266667	7.81933E-001	5.99984E-003	0.00000E+000	4.69148E-003	3.59960E-001	-1.16074E+000	3.57630E+000	10	...........
	20	0.28	7.88547E-001	5.99243E-003	0.00000E+000	4.72531E-003	3.59960E-001	-1.16264E+000	3.57630E+000	10	...........
	21	0.293333	7.95224E-001	5.99459E-003	0.00000E+000	4.76705E-003	3.59960E-001	-1.15445E+000	3.57630E+000	10	...........
	22	0.306667	8.01834E-001	5.99396E-003	0.00000E+000	4.80616E-003	3.59960E-001	-1.16077E+000	3.57630E+000	10	...........
	23	0.32	8.08378E-001	5.99449E-003	0.00000E+000	4.84582E-003	3.59960E-001	-1.16238E+000	3.57630E+000	10	...........
	24	0.333333	8.14941E-001	5.99819E-003	0.00000E+000	4.88817E-003	3.59960E-001	-1.15426E+000	3.57630E+000	10	...........
	25	0.346667	8.21536E-001	5.99298E-003	0.00000E+000	4.92344E-003	3.59960E-001	-1.16068E+000	3.57630E+000	10	...........
	26	0.36	8.28083E-001	5.99582E-003	0.00000E+000	4.96503E-003	3.59960E-001	-1.16250E+000	3.57630E+000	10	...........
	27	0.373333	8.34589E-001	5.99051E-003	0.00000E+000	4.99961E-003	3.59960E-001	-1.15453E+000	3.57630E+000	10	...........
	28	0.386667	8.41074E-001	5.99257E-003	0.00000E+000	5.04020E-003	3.59960E-001	-1.16077E+000	3.57630E+000	10	...........
	29	0.4	8.47565E-001	5.99568E-003	0.00000E+000	5.08173E-003	3.59960E-001	-1.16242E+000	3.57630E+000	10	...........
	30	0.413333	8.54025E-001	5.99059E-003	0.00000E+000	5.11611E-003	3.59960E-001	-1.15471E+000	3.57630E+000	10	...........
	31	0.426667	8.60467E-001	5.99392E-003	0.00000E+000	5.15757E-003	3.59960E-001	-1.16076E+000	3.57630E+000	10	...........
	32	0.44	8.66839E-001	5.99124E-003	0.00000E+000	5.19343E-003	3.59960E-001	-1.16246E+000	3.57630E+000	10	...........
	33	0.453333	8.73243E-001	5.99798E-003	0.00000E+000	5.23770E-003	3.59960E-001	-1.15434E+000	3.57630E+000	10	...........
	34	0.466667	8.79544E-001	5.99666E-003	0.00000E+000	5.27433E-003	3.59960E-001	-1.16064E+000	3.57652E+000	10	...........
	35	0.48	8.85836E-001	5.99402E-003	0.00000E+000	5.30972E-003	3.59960E-001	-1.16216E+000	3.57660E+000	10	...........
	36	0.493333	8.92112E-001	5.99359E-003	0.00000E+000	5.34695E-003	3.59960E-001	-1.15430E+000	3.57660E+000	10	...........
	37	0.506667	8.98329E-001	5.99512E-003	0.00000E+000	5.38559E-003	3.59960E-001	-1.16072E+000	3.57660E+000	10	...........
	38	0.52	9.04559E-001	5.99293E-003	0.00000E+000	5.42095E-003	3.59960E-001	-1.16184E+000	3.57660E+000	10	...........
	39	0.533333	9.10767E-001	5.99317E-003	0.00000E+000	5.45838E-003	3.59960E-001	-1.15358E+000	3.57660E+000	10	...........
	40	0.546667	9.16911E-001	5.99496E-003	0.00000E+000	5.49684E-003	3.59960E-001	-1.16033E+000	3.57660E+000	10	...........
	41	0.56	9.23064E-001	5.99415E-003	0.00000E+000	5.53298E-003	3.59960E-001	-1.16185E+000	3.57660E+000	10	...........
	42	0.573333	9.29123E-001	5.98973E-003	0.00000E+000	5.56520E-003	3.59960E-001	-1.15389E+000	3.57660E+000	10	...........
	43	0.586667	9.35165E-001	5.99050E-003	0.00000E+000	5.60210E-003	3.59960E-001	-1.16026E+000	3.57660E+000	10	...........
	44	0.6	9.41175E-001	5.99342E-003	0.00000E+000	5.64085E-003	3.59960E-001	-1.16164E+000	3.57660E+000	10	...........
	45	0.613333	9.47178E-001	5.99652E-003	0.00000E+000	5.67978E-003	3.59960E-001	-1.15381E+000	3.57660E+000	10	...........
	46	0.626667	9.53047E-001	5.99750E-003	0.00000E+000	5.71590E-003	3.59960E-001	-1.16035E+000	3.57660E+000	10	...........
	47	0.64	9.58889E-001	5.99576E-003	0.00000E+000	5.74927E-003	3.59960E-001	-1.16169E+000	3.57660E+000	10	...........
	48	0.653333	9.64720E-001	5.99173E-003	0.00000E+000	5.78034E-003	3.59960E-001	-1.15383E+000	3.57660E+000	10	...........
	49	0.666667	9.70527E-001	5.98906E-003	0.00000E+000	5.81254E-003	3.59960E-001	-1.16032E+000	3.57660E+000	10	...........
	50	0.68	9.76270E-001	5.98853E-003	0.00000E+000	5.84643E-003	3.59960E-001	-1.16179E+000	3.57660E+000	10	...........
	51	0.693333	9.81946E-001	5.99370E-003	0.00000E+000	5.88549E-003	3.59960E-001	-1.15383E+000	3.57660E+000	10	...........
	52	0.706667	9.87537E-001	5.99307E-003	0.00000E+000	5.91838E-003	3.59960E-001	-1.16049E+000	3.57660E+000	10	...........
	53	0.72	9.93078E-001	5.99252E-003	0.00000E+000	5.95104E-003	3.59960E-001	-1.16190E+000	3.57660E+000	10	...........
	54	0.731667	9.98276E-001	5.99144E-003	0.00000E+000	5.98111E-003	3.59960E-001	-1.15196E+000	3.57660E+000	10	...........
STARTTIMEOFFSET	QUANT	1201.584	Start Time Offset (s)