File: Data/CV_CRGO300517_1/PWRCCD_CRGO300517_1/CHARGE_DISCHARGE/CHARGE_#451.DTA
EXPLAIN
TAG	PWR800_CHARGE
TITLE	LABEL	PWR Cyclic Charge Discharge (Cell) - Charge Step	Test &Identifier
DATE	LABEL	22-6-2017	Date
TIME	LABEL	15:53:59	Time
NOTES	NOTES	3	&Notes...
	supercap test cell
	0.6mg
	6M KOH
PSTAT	PSTAT	IFC5000-01520	Potentiostat
CAPACITY	QUANT	1.00000E-003	Capacity (A-hr)
CELLTYPE	SELECTOR	1	&Cell Type
WORKINGCONNECTION	SELECTOR	0	&Working Lead
MAXCHARGETIME	VARIABLEANDUNITS	1.00000E+002	s	1.00000E+002	second(s)	Max &Charge Time
CHARGECURRENT	QUANT	6.00000E-003	&Charge Current (A)
VOLTAGEFINISH	TWOPARAM	F	1.00000E-003	3.60000E+003	&Voltage Finish	 I (A) < 	Max Time(s)
SAMPLETIME	QUANT	1.00000E-002	Sa&mple Period (s)
CHARGESTOPAT1	MULTIPARAM	4	1.00000E+000	Charge Stop At &1	Voltage > Limit	V
CHARGESTOPAT2	MULTIPARAM	0	0.00000E+000	Charge Stop At &2	None	N/A
AESBHCSELECTOR	TOGGLE	F	Save Both Half Cells
IRCOMP	TOGGLE	F	IR &Measure
EOC	QUANT	0	Open Circuit (V)
SEQUENCER	TOGGLE	TRUE	Run as Sequence
PSTATMODEL	IQUANT	53	Pstat Model
PSTATSECTION	LABEL	IFC5000-01520	Pstat Section
PSTATSERIALNO	LABEL	01520	Pstat Serial Number
CTRLMODE	IQUANT	0	Control Mode
ELECTROMETER	IQUANT	1	RE=0 or CS=1
IESTAB	IQUANT	0	I/E Stability
CASPEED	IQUANT	4	Control Amp Speed
CONVENTION	IQUANT	1	Current Convention
ICHRANGE	IQUANT	2	Ich Range
ICHRANGEMODE	TOGGLE	T	Ich Auto Range
ICHOFFSETENABLE	TOGGLE	F	Ich Offset Enable
ICHOFFSET	QUANT	0	Ich Offset (V)
ICHFILTER	IQUANT	1	Ich Filter
VCHRANGE	IQUANT	2	Vch Range
VCHRANGEMODE	TOGGLE	T	Vch Auto Range
VCHOFFSETENABLE	TOGGLE	F	Vch Offset Enable
VCHOFFSET	QUANT	0	Vch Offset (V)
VCHFILTER	IQUANT	1	Vch Filter
IERANGELOWERLIMIT	IQUANT	9	I/E Range Lower Limit
IERANGEMODE	TOGGLE	F	I/E AutoRange
IERANGE	IQUANT	10	I/E Range
ACHSELECT	IQUANT	1	Ach Select
ACHRANGE	IQUANT	2	Ach Range
ACHOFFSETENABLE	TOGGLE	F	Ach Offset Enable
ACHOFFSET	QUANT	0	Ach Offset (V)
ACHFILTER	IQUANT	1	Ach Filter
CABLEID	IQUANT	14	Cable ID
DCCALDATE	LABEL	20-10-2016	DC Calibration Date
ACCALDATE	LABEL	12/3/2015	AC Calibration Date
FRAMEWORKVERSION	QUANT	7.01	Framework Version
INSTRUMENTVERSION	LABEL	4.00	Instrument Version
CURVE	TABLE	59
	Pt	T	Vf	Im	Vu	Pwr	Sig	Ach	Temp	IERange	Over
	#	s	V	A	V	W	V	V	deg C	#	bits
	0	0.013333	6.27876E-001	5.99515E-003	0.00000E+000	3.76421E-003	3.59960E-001	-1.14026E+000	3.57720E+000	10	...........
	1	0.026667	6.36713E-001	5.99286E-003	0.00000E+000	3.81574E-003	3.59960E-001	-1.13318E+000	3.57720E+000	10	...........
	2	0.04	6.44843E-001	5.99045E-003	0.00000E+000	3.86290E-003	3.59960E-001	-1.14065E+000	3.57720E+000	10	...........
	3	0.053333	6.52528E-001	5.99135E-003	0.00000E+000	3.90952E-003	3.59960E-001	-1.14031E+000	3.57720E+000	10	...........
	4	0.066667	6.59920E-001	5.99764E-003	0.00000E+000	3.95796E-003	3.59960E-001	-1.13329E+000	3.57720E+000	10	...........
	5	0.08	6.67191E-001	5.99683E-003	0.00000E+000	4.00103E-003	3.59960E-001	-1.14045E+000	3.57720E+000	10	...........
	6	0.093333	6.74274E-001	5.99578E-003	0.00000E+000	4.04280E-003	3.59960E-001	-1.14012E+000	3.57720E+000	10	...........
	7	0.106667	6.81227E-001	5.99367E-003	0.00000E+000	4.08305E-003	3.59960E-001	-1.13300E+000	3.57720E+000	10	...........
	8	0.12	6.88129E-001	5.99238E-003	0.00000E+000	4.12353E-003	3.59960E-001	-1.14046E+000	3.57720E+000	10	...........
	9	0.133333	6.94907E-001	5.99186E-003	0.00000E+000	4.16379E-003	3.59960E-001	-1.14013E+000	3.57720E+000	10	...........
	10	0.146667	7.01670E-001	5.99175E-003	0.00000E+000	4.20423E-003	3.59960E-001	-1.13291E+000	3.57720E+000	10	...........
	11	0.16	7.08362E-001	5.99497E-003	0.00000E+000	4.24661E-003	3.59960E-001	-1.14021E+000	3.57720E+000	10	...........
	12	0.173333	7.14999E-001	5.99434E-003	0.00000E+000	4.28595E-003	3.59960E-001	-1.13987E+000	3.57720E+000	10	...........
	13	0.186667	7.21654E-001	5.99255E-003	0.00000E+000	4.32455E-003	3.59960E-001	-1.13259E+000	3.57720E+000	10	...........
	14	0.2	7.28213E-001	5.99772E-003	0.00000E+000	4.36762E-003	3.59960E-001	-1.14019E+000	3.57720E+000	10	...........
	15	0.213333	7.34757E-001	5.99405E-003	0.00000E+000	4.40417E-003	3.59960E-001	-1.13954E+000	3.57720E+000	10	...........
	16	0.226667	7.41308E-001	5.99151E-003	0.00000E+000	4.44155E-003	3.59960E-001	-1.13222E+000	3.57720E+000	10	...........
	17	0.24	7.47872E-001	5.99384E-003	0.00000E+000	4.48263E-003	3.59960E-001	-1.13997E+000	3.57720E+000	10	...........
	18	0.253333	7.54354E-001	5.99444E-003	0.00000E+000	4.52193E-003	3.59960E-001	-1.13941E+000	3.57720E+000	10	...........
	19	0.266667	7.60842E-001	5.99490E-003	0.00000E+000	4.56117E-003	3.59960E-001	-1.13260E+000	3.57720E+000	10	...........
	20	0.28	7.67307E-001	5.99228E-003	0.00000E+000	4.59792E-003	3.59960E-001	-1.13990E+000	3.57720E+000	10	...........
	21	0.293333	7.73784E-001	5.99114E-003	0.00000E+000	4.63585E-003	3.59960E-001	-1.13910E+000	3.57720E+000	10	...........
	22	0.306667	7.80228E-001	5.99135E-003	0.00000E+000	4.67462E-003	3.59960E-001	-1.13208E+000	3.57720E+000	10	...........
	23	0.32	7.86634E-001	5.99565E-003	0.00000E+000	4.71638E-003	3.59960E-001	-1.13997E+000	3.57720E+000	10	...........
	24	0.333333	7.93022E-001	5.99352E-003	0.00000E+000	4.75300E-003	3.59960E-001	-1.13918E+000	3.57720E+000	10	...........
	25	0.346667	7.99419E-001	5.99269E-003	0.00000E+000	4.79066E-003	3.59960E-001	-1.13211E+000	3.57720E+000	10	...........
	26	0.36	8.05791E-001	5.99496E-003	0.00000E+000	4.83068E-003	3.59960E-001	-1.13970E+000	3.57720E+000	10	...........
	27	0.373333	8.12151E-001	5.99457E-003	0.00000E+000	4.86850E-003	3.59960E-001	-1.13937E+000	3.57720E+000	10	...........
	28	0.386667	8.18522E-001	5.99298E-003	0.00000E+000	4.90538E-003	3.59960E-001	-1.13233E+000	3.57720E+000	10	...........
	29	0.4	8.24852E-001	5.99514E-003	0.00000E+000	4.94510E-003	3.59960E-001	-1.14001E+000	3.57720E+000	10	...........
	30	0.413333	8.31194E-001	5.99555E-003	0.00000E+000	4.98347E-003	3.59960E-001	-1.13906E+000	3.57720E+000	10	...........
	31	0.426667	8.37486E-001	5.99529E-003	0.00000E+000	5.02098E-003	3.59960E-001	-1.13210E+000	3.57720E+000	10	...........
	32	0.44	8.43796E-001	5.99697E-003	0.00000E+000	5.06022E-003	3.59960E-001	-1.13994E+000	3.57720E+000	10	...........
	33	0.453333	8.50086E-001	5.99400E-003	0.00000E+000	5.09542E-003	3.59960E-001	-1.13940E+000	3.57720E+000	10	...........
	34	0.466667	8.56326E-001	5.99849E-003	0.00000E+000	5.13666E-003	3.59960E-001	-1.13232E+000	3.57720E+000	10	...........
	35	0.48	8.62548E-001	5.99467E-003	0.00000E+000	5.17069E-003	3.59960E-001	-1.14000E+000	3.57720E+000	10	...........
	36	0.493333	8.68785E-001	5.99797E-003	0.00000E+000	5.21095E-003	3.59960E-001	-1.13883E+000	3.57720E+000	10	...........
	37	0.506667	8.75004E-001	5.99345E-003	0.00000E+000	5.24429E-003	3.59960E-001	-1.13175E+000	3.57720E+000	10	...........
	38	0.52	8.81213E-001	5.99514E-003	0.00000E+000	5.28299E-003	3.59960E-001	-1.13974E+000	3.57720E+000	10	...........
	39	0.533333	8.87354E-001	5.99589E-003	0.00000E+000	5.32047E-003	3.59960E-001	-1.13882E+000	3.57720E+000	10	...........
	40	0.546667	8.93517E-001	5.99787E-003	0.00000E+000	5.35920E-003	3.59960E-001	-1.13187E+000	3.57720E+000	10	...........
	41	0.56	8.99603E-001	5.99258E-003	0.00000E+000	5.39094E-003	3.59960E-001	-1.13933E+000	3.57720E+000	10	...........
	42	0.573333	9.05660E-001	5.99903E-003	0.00000E+000	5.43308E-003	3.59960E-001	-1.13855E+000	3.57720E+000	10	...........
	43	0.586667	9.11683E-001	5.99570E-003	0.00000E+000	5.46618E-003	3.59960E-001	-1.13201E+000	3.57720E+000	10	...........
	44	0.6	9.17671E-001	5.99399E-003	0.00000E+000	5.50051E-003	3.59960E-001	-1.13966E+000	3.57720E+000	10	...........
	45	0.613333	9.23766E-001	5.99103E-003	0.00000E+000	5.53431E-003	3.59960E-001	-1.13862E+000	3.57720E+000	10	...........
	46	0.626667	9.29739E-001	5.99496E-003	0.00000E+000	5.57375E-003	3.59960E-001	-1.13182E+000	3.57720E+000	10	...........
	47	0.64	9.35644E-001	5.99617E-003	0.00000E+000	5.61028E-003	3.59960E-001	-1.13965E+000	3.57720E+000	10	...........
	48	0.653333	9.41524E-001	5.99060E-003	0.00000E+000	5.64029E-003	3.59960E-001	-1.13862E+000	3.57720E+000	10	...........
	49	0.666667	9.47392E-001	5.99617E-003	0.00000E+000	5.68072E-003	3.59960E-001	-1.13180E+000	3.57720E+000	10	...........
	50	0.68	9.53190E-001	5.99100E-003	0.00000E+000	5.71056E-003	3.59960E-001	-1.13934E+000	3.57720E+000	10	...........
	51	0.693333	9.58961E-001	5.99125E-003	0.00000E+000	5.74537E-003	3.59960E-001	-1.13839E+000	3.57720E+000	10	...........
	52	0.706667	9.64643E-001	5.99176E-003	0.00000E+000	5.77991E-003	3.59960E-001	-1.13188E+000	3.57720E+000	10	...........
	53	0.72	9.70340E-001	5.99381E-003	0.00000E+000	5.81604E-003	3.59960E-001	-1.13977E+000	3.57720E+000	10	...........
	54	0.733333	9.76060E-001	5.99853E-003	0.00000E+000	5.85492E-003	3.59960E-001	-1.13846E+000	3.57720E+000	10	...........
	55	0.746667	9.81638E-001	5.99490E-003	0.00000E+000	5.88482E-003	3.59960E-001	-1.13178E+000	3.57720E+000	10	...........
	56	0.76	9.87230E-001	5.99682E-003	0.00000E+000	5.92024E-003	3.59960E-001	-1.13963E+000	3.57720E+000	10	...........
	57	0.773333	9.92740E-001	5.99605E-003	0.00000E+000	5.95252E-003	3.59960E-001	-1.13840E+000	3.57720E+000	10	...........
	58	0.786667	9.98207E-001	5.99272E-003	0.00000E+000	5.98197E-003	3.59960E-001	-1.13188E+000	3.57746E+000	10	...........
STARTTIMEOFFSET	QUANT	783.0135	Start Time Offset (s)