File: Data/CV_CRGO300517_1/PWRCCD_CRGO300517_1/CHARGE_DISCHARGE/CHARGE_#709.DTA
EXPLAIN
TAG	PWR800_CHARGE
TITLE	LABEL	PWR Cyclic Charge Discharge (Cell) - Charge Step	Test &Identifier
DATE	LABEL	22-6-2017	Date
TIME	LABEL	16:03:53	Time
NOTES	NOTES	3	&Notes...
	supercap test cell
	0.6mg
	6M KOH
PSTAT	PSTAT	IFC5000-01520	Potentiostat
CAPACITY	QUANT	1.00000E-003	Capacity (A-hr)
CELLTYPE	SELECTOR	1	&Cell Type
WORKINGCONNECTION	SELECTOR	0	&Working Lead
MAXCHARGETIME	VARIABLEANDUNITS	1.00000E+002	s	1.00000E+002	second(s)	Max &Charge Time
CHARGECURRENT	QUANT	6.00000E-003	&Charge Current (A)
VOLTAGEFINISH	TWOPARAM	F	1.00000E-003	3.60000E+003	&Voltage Finish	 I (A) < 	Max Time(s)
SAMPLETIME	QUANT	1.00000E-002	Sa&mple Period (s)
CHARGESTOPAT1	MULTIPARAM	4	1.00000E+000	Charge Stop At &1	Voltage > Limit	V
CHARGESTOPAT2	MULTIPARAM	0	0.00000E+000	Charge Stop At &2	None	N/A
AESBHCSELECTOR	TOGGLE	F	Save Both Half Cells
IRCOMP	TOGGLE	F	IR &Measure
EOC	QUANT	0	Open Circuit (V)
SEQUENCER	TOGGLE	TRUE	Run as Sequence
PSTATMODEL	IQUANT	53	Pstat Model
PSTATSECTION	LABEL	IFC5000-01520	Pstat Section
PSTATSERIALNO	LABEL	01520	Pstat Serial Number
CTRLMODE	IQUANT	0	Control Mode
ELECTROMETER	IQUANT	1	RE=0 or CS=1
IESTAB	IQUANT	0	I/E Stability
CASPEED	IQUANT	4	Control Amp Speed
CONVENTION	IQUANT	1	Current Convention
ICHRANGE	IQUANT	2	Ich Range
ICHRANGEMODE	TOGGLE	T	Ich Auto Range
ICHOFFSETENABLE	TOGGLE	F	Ich Offset Enable
ICHOFFSET	QUANT	0	Ich Offset (V)
ICHFILTER	IQUANT	1	Ich Filter
VCHRANGE	IQUANT	2	Vch Range
VCHRANGEMODE	TOGGLE	T	Vch Auto Range
VCHOFFSETENABLE	TOGGLE	F	Vch Offset Enable
VCHOFFSET	QUANT	0	Vch Offset (V)
VCHFILTER	IQUANT	1	Vch Filter
IERANGELOWERLIMIT	IQUANT	9	I/E Range Lower Limit
IERANGEMODE	TOGGLE	F	I/E AutoRange
IERANGE	IQUANT	10	I/E Range
ACHSELECT	IQUANT	1	Ach Select
ACHRANGE	IQUANT	2	Ach Range
ACHOFFSETENABLE	TOGGLE	F	Ach Offset Enable
ACHOFFSET	QUANT	0	Ach Offset (V)
ACHFILTER	IQUANT	1	Ach Filter
CABLEID	IQUANT	14	Cable ID
DCCALDATE	LABEL	20-10-2016	DC Calibration Date
ACCALDATE	LABEL	12/3/2015	AC Calibration Date
FRAMEWORKVERSION	QUANT	7.01	Framework Version
INSTRUMENTVERSION	LABEL	4.00	Instrument Version
CURVE	TABLE	56
	Pt	T	Vf	Im	Vu	Pwr	Sig	Ach	Temp	IERange	Over
	#	s	V	A	V	W	V	V	deg C	#	bits
	0	0.013333	6.43341E-001	5.99332E-003	0.00000E+000	3.85575E-003	3.59960E-001	-1.14516E+000	3.57640E+000	10	...........
	1	0.026667	6.52459E-001	5.99346E-003	0.00000E+000	3.91049E-003	3.59960E-001	-1.14510E+000	3.57640E+000	10	...........
	2	0.04	6.60830E-001	5.99541E-003	0.00000E+000	3.96194E-003	3.59960E-001	-1.15546E+000	3.57640E+000	10	...........
	3	0.053333	6.68768E-001	5.98696E-003	0.00000E+000	4.00389E-003	3.59960E-001	-1.14530E+000	3.57640E+000	10	...........
	4	0.066667	6.76424E-001	5.99529E-003	0.00000E+000	4.05536E-003	3.59960E-001	-1.14552E+000	3.57640E+000	10	...........
	5	0.08	6.83865E-001	5.99109E-003	0.00000E+000	4.09709E-003	3.59960E-001	-1.15585E+000	3.57640E+000	10	...........
	6	0.093333	6.91175E-001	5.99388E-003	0.00000E+000	4.14282E-003	3.59960E-001	-1.14537E+000	3.57640E+000	10	...........
	7	0.106667	6.98355E-001	5.99040E-003	0.00000E+000	4.18343E-003	3.59960E-001	-1.14539E+000	3.57640E+000	10	...........
	8	0.12	7.05489E-001	5.99413E-003	0.00000E+000	4.22879E-003	3.59960E-001	-1.15581E+000	3.57640E+000	10	...........
	9	0.133333	7.12499E-001	5.99589E-003	0.00000E+000	4.27206E-003	3.59960E-001	-1.14546E+000	3.57640E+000	10	...........
	10	0.146667	7.19517E-001	5.99096E-003	0.00000E+000	4.31060E-003	3.59960E-001	-1.14574E+000	3.57640E+000	10	...........
	11	0.16	7.26433E-001	5.99005E-003	0.00000E+000	4.35137E-003	3.59960E-001	-1.15600E+000	3.57640E+000	10	...........
	12	0.173333	7.33282E-001	5.98960E-003	0.00000E+000	4.39206E-003	3.59960E-001	-1.14528E+000	3.57640E+000	10	...........
	13	0.186667	7.40100E-001	5.99308E-003	0.00000E+000	4.43548E-003	3.59960E-001	-1.14608E+000	3.57640E+000	10	...........
	14	0.2	7.46902E-001	5.99413E-003	0.00000E+000	4.47702E-003	3.59960E-001	-1.15637E+000	3.57640E+000	10	...........
	15	0.213333	7.53687E-001	5.99604E-003	0.00000E+000	4.51914E-003	3.59960E-001	-1.14565E+000	3.57640E+000	10	...........
	16	0.226667	7.60395E-001	5.99078E-003	0.00000E+000	4.55536E-003	3.59960E-001	-1.14611E+000	3.57640E+000	10	...........
	17	0.24	7.67062E-001	5.99531E-003	0.00000E+000	4.59877E-003	3.59960E-001	-1.15639E+000	3.57640E+000	10	...........
	18	0.253333	7.73784E-001	5.99683E-003	0.00000E+000	4.64025E-003	3.59960E-001	-1.14545E+000	3.57640E+000	10	...........
	19	0.266667	7.80493E-001	5.99408E-003	0.00000E+000	4.67834E-003	3.59960E-001	-1.14618E+000	3.57650E+000	10	...........
	20	0.28	7.87122E-001	5.99499E-003	0.00000E+000	4.71879E-003	3.59960E-001	-1.15600E+000	3.57660E+000	10	...........
	21	0.293333	7.93779E-001	5.99689E-003	0.00000E+000	4.76020E-003	3.59960E-001	-1.14517E+000	3.57660E+000	10	...........
	22	0.306667	8.00359E-001	5.99899E-003	0.00000E+000	4.80134E-003	3.59960E-001	-1.14623E+000	3.57660E+000	10	...........
	23	0.32	8.06926E-001	5.99375E-003	0.00000E+000	4.83652E-003	3.59960E-001	-1.15630E+000	3.57660E+000	10	...........
	24	0.333333	8.13481E-001	5.99304E-003	0.00000E+000	4.87523E-003	3.59960E-001	-1.14579E+000	3.57660E+000	10	...........
	25	0.346667	8.20014E-001	5.99367E-003	0.00000E+000	4.91489E-003	3.59960E-001	-1.14683E+000	3.57660E+000	10	...........
	26	0.36	8.26535E-001	5.99175E-003	0.00000E+000	4.95239E-003	3.59960E-001	-1.15657E+000	3.57660E+000	10	...........
	27	0.373333	8.33021E-001	5.99123E-003	0.00000E+000	4.99082E-003	3.59960E-001	-1.14569E+000	3.57660E+000	10	...........
	28	0.386667	8.39455E-001	5.99467E-003	0.00000E+000	5.03225E-003	3.59960E-001	-1.14700E+000	3.57660E+000	10	...........
	29	0.4	8.45995E-001	5.99223E-003	0.00000E+000	5.06939E-003	3.59960E-001	-1.15647E+000	3.57660E+000	10	...........
	30	0.413333	8.52436E-001	5.98808E-003	0.00000E+000	5.10445E-003	3.59960E-001	-1.14570E+000	3.57660E+000	10	...........
	31	0.426667	8.58851E-001	5.99456E-003	0.00000E+000	5.14843E-003	3.59960E-001	-1.14700E+000	3.57660E+000	10	...........
	32	0.44	8.65212E-001	5.99694E-003	0.00000E+000	5.18862E-003	3.59960E-001	-1.15618E+000	3.57660E+000	10	...........
	33	0.453333	8.71568E-001	5.99438E-003	0.00000E+000	5.22450E-003	3.59960E-001	-1.14557E+000	3.57660E+000	10	...........
	34	0.466667	8.77905E-001	5.99051E-003	0.00000E+000	5.25910E-003	3.59960E-001	-1.14702E+000	3.57660E+000	10	...........
	35	0.48	8.84236E-001	5.99861E-003	0.00000E+000	5.30419E-003	3.59960E-001	-1.15637E+000	3.57660E+000	10	...........
	36	0.493333	8.90490E-001	5.99369E-003	0.00000E+000	5.33732E-003	3.59960E-001	-1.14549E+000	3.57660E+000	10	...........
	37	0.506667	8.96743E-001	5.98936E-003	0.00000E+000	5.37092E-003	3.59960E-001	-1.14699E+000	3.57660E+000	10	...........
	38	0.52	9.02943E-001	5.98941E-003	0.00000E+000	5.40810E-003	3.59960E-001	-1.15634E+000	3.57660E+000	10	...........
	39	0.533333	9.09128E-001	5.98981E-003	0.00000E+000	5.44550E-003	3.59960E-001	-1.14567E+000	3.57660E+000	10	...........
	40	0.546667	9.15304E-001	5.99327E-003	0.00000E+000	5.48566E-003	3.59960E-001	-1.14726E+000	3.57660E+000	10	...........
	41	0.56	9.21504E-001	5.99008E-003	0.00000E+000	5.51988E-003	3.59960E-001	-1.15623E+000	3.57660E+000	10	...........
	42	0.573333	9.27548E-001	5.98930E-003	0.00000E+000	5.55536E-003	3.59960E-001	-1.14563E+000	3.57660E+000	10	...........
	43	0.586667	9.33566E-001	5.99559E-003	0.00000E+000	5.59727E-003	3.59960E-001	-1.14756E+000	3.57660E+000	10	...........
	44	0.6	9.39563E-001	5.99200E-003	0.00000E+000	5.62986E-003	3.59960E-001	-1.15629E+000	3.57660E+000	10	...........
	45	0.613333	9.45499E-001	5.99612E-003	0.00000E+000	5.66932E-003	3.59960E-001	-1.14579E+000	3.57660E+000	10	...........
	46	0.626667	9.51430E-001	5.99276E-003	0.00000E+000	5.70169E-003	3.59960E-001	-1.14761E+000	3.57660E+000	10	...........
	47	0.64	9.57307E-001	5.99395E-003	0.00000E+000	5.73805E-003	3.59960E-001	-1.15635E+000	3.57660E+000	10	...........
	48	0.653333	9.63157E-001	5.99772E-003	0.00000E+000	5.77675E-003	3.59960E-001	-1.14566E+000	3.57660E+000	10	...........
	49	0.666667	9.68906E-001	5.99268E-003	0.00000E+000	5.80634E-003	3.59960E-001	-1.14807E+000	3.57660E+000	10	...........
	50	0.68	9.74665E-001	5.99592E-003	0.00000E+000	5.84401E-003	3.59960E-001	-1.15654E+000	3.57660E+000	10	...........
	51	0.693333	9.80345E-001	5.99664E-003	0.00000E+000	5.87878E-003	3.59960E-001	-1.14594E+000	3.57660E+000	10	...........
	52	0.706667	9.85937E-001	5.99384E-003	0.00000E+000	5.90956E-003	3.59960E-001	-1.14834E+000	3.57660E+000	10	...........
	53	0.72	9.91500E-001	5.99646E-003	0.00000E+000	5.94549E-003	3.59960E-001	-1.15658E+000	3.57660E+000	10	...........
	54	0.733333	9.97063E-001	5.99803E-003	0.00000E+000	5.98041E-003	3.59960E-001	-1.14617E+000	3.57660E+000	10	...........
	55	0.735	1.00015E+000	5.99304E-003	0.00000E+000	5.99396E-003	3.59960E-001	-1.16048E+000	3.57660E+000	10	...........
STARTTIMEOFFSET	QUANT	1172.412	Start Time Offset (s)