File: Data/CV_CRGO300517_1/PWRCCD_CRGO300517_1/CHARGE_DISCHARGE/CHARGE_#103.DTA
EXPLAIN
TAG	PWR800_CHARGE
TITLE	LABEL	PWR Cyclic Charge Discharge (Cell) - Charge Step	Test &Identifier
DATE	LABEL	22-6-2017	Date
TIME	LABEL	15:39:38	Time
NOTES	NOTES	3	&Notes...
	supercap test cell
	0.6mg
	6M KOH
PSTAT	PSTAT	IFC5000-01520	Potentiostat
CAPACITY	QUANT	1.00000E-003	Capacity (A-hr)
CELLTYPE	SELECTOR	1	&Cell Type
WORKINGCONNECTION	SELECTOR	0	&Working Lead
MAXCHARGETIME	VARIABLEANDUNITS	1.00000E+002	s	1.00000E+002	second(s)	Max &Charge Time
CHARGECURRENT	QUANT	6.00000E-003	&Charge Current (A)
VOLTAGEFINISH	TWOPARAM	F	1.00000E-003	3.60000E+003	&Voltage Finish	 I (A) < 	Max Time(s)
SAMPLETIME	QUANT	1.00000E-002	Sa&mple Period (s)
CHARGESTOPAT1	MULTIPARAM	4	1.00000E+000	Charge Stop At &1	Voltage > Limit	V
CHARGESTOPAT2	MULTIPARAM	0	0.00000E+000	Charge Stop At &2	None	N/A
AESBHCSELECTOR	TOGGLE	F	Save Both Half Cells
IRCOMP	TOGGLE	F	IR &Measure
EOC	QUANT	0	Open Circuit (V)
SEQUENCER	TOGGLE	TRUE	Run as Sequence
PSTATMODEL	IQUANT	53	Pstat Model
PSTATSECTION	LABEL	IFC5000-01520	Pstat Section
PSTATSERIALNO	LABEL	01520	Pstat Serial Number
CTRLMODE	IQUANT	0	Control Mode
ELECTROMETER	IQUANT	1	RE=0 or CS=1
IESTAB	IQUANT	0	I/E Stability
CASPEED	IQUANT	4	Control Amp Speed
CONVENTION	IQUANT	1	Current Convention
ICHRANGE	IQUANT	2	Ich Range
ICHRANGEMODE	TOGGLE	T	Ich Auto Range
ICHOFFSETENABLE	TOGGLE	F	Ich Offset Enable
ICHOFFSET	QUANT	0	Ich Offset (V)
ICHFILTER	IQUANT	1	Ich Filter
VCHRANGE	IQUANT	2	Vch Range
VCHRANGEMODE	TOGGLE	T	Vch Auto Range
VCHOFFSETENABLE	TOGGLE	F	Vch Offset Enable
VCHOFFSET	QUANT	0	Vch Offset (V)
VCHFILTER	IQUANT	1	Vch Filter
IERANGELOWERLIMIT	IQUANT	9	I/E Range Lower Limit
IERANGEMODE	TOGGLE	F	I/E AutoRange
IERANGE	IQUANT	10	I/E Range
ACHSELECT	IQUANT	1	Ach Select
ACHRANGE	IQUANT	2	Ach Range
ACHOFFSETENABLE	TOGGLE	F	Ach Offset Enable
ACHOFFSET	QUANT	0	Ach Offset (V)
ACHFILTER	IQUANT	1	Ach Filter
CABLEID	IQUANT	14	Cable ID
DCCALDATE	LABEL	20-10-2016	DC Calibration Date
ACCALDATE	LABEL	12/3/2015	AC Calibration Date
FRAMEWORKVERSION	QUANT	7.01	Framework Version
INSTRUMENTVERSION	LABEL	4.00	Instrument Version
CURVE	TABLE	70
	Pt	T	Vf	Im	Vu	Pwr	Sig	Ach	Temp	IERange	Over
	#	s	V	A	V	W	V	V	deg C	#	bits
	0	0.013333	5.88953E-001	5.99333E-003	0.00000E+000	3.52979E-003	3.59960E-001	-1.05567E+000	3.57730E+000	10	...........
	1	0.026667	5.97263E-001	5.99325E-003	0.00000E+000	3.57954E-003	3.59960E-001	-1.05875E+000	3.57730E+000	10	...........
	2	0.04	6.04819E-001	6.00011E-003	0.00000E+000	3.62898E-003	3.59960E-001	-1.06486E+000	3.57730E+000	10	...........
	3	0.053333	6.11991E-001	5.99369E-003	0.00000E+000	3.66808E-003	3.59960E-001	-1.05588E+000	3.57730E+000	10	...........
	4	0.066667	6.18996E-001	5.99689E-003	0.00000E+000	3.71205E-003	3.59960E-001	-1.05866E+000	3.57730E+000	10	...........
	5	0.08	6.25691E-001	5.99050E-003	0.00000E+000	3.74820E-003	3.59960E-001	-1.06451E+000	3.57730E+000	10	...........
	6	0.093333	6.32278E-001	5.99456E-003	0.00000E+000	3.79023E-003	3.59960E-001	-1.05578E+000	3.57730E+000	10	...........
	7	0.106667	6.38738E-001	5.99505E-003	0.00000E+000	3.82927E-003	3.59960E-001	-1.05887E+000	3.57730E+000	10	...........
	8	0.12	6.45153E-001	5.99560E-003	0.00000E+000	3.86808E-003	3.59960E-001	-1.06501E+000	3.57730E+000	10	...........
	9	0.133333	6.51444E-001	5.99489E-003	0.00000E+000	3.90533E-003	3.59960E-001	-1.05550E+000	3.57730E+000	10	...........
	10	0.146667	6.57680E-001	5.99551E-003	0.00000E+000	3.94313E-003	3.59960E-001	-1.05837E+000	3.57730E+000	10	...........
	11	0.16	6.63880E-001	5.99708E-003	0.00000E+000	3.98134E-003	3.59960E-001	-1.06470E+000	3.57730E+000	10	...........
	12	0.173333	6.70065E-001	5.99402E-003	0.00000E+000	4.01638E-003	3.59960E-001	-1.05576E+000	3.57730E+000	10	...........
	13	0.186667	6.76183E-001	5.99241E-003	0.00000E+000	4.05197E-003	3.59960E-001	-1.05859E+000	3.57730E+000	10	...........
	14	0.2	6.82284E-001	5.99322E-003	0.00000E+000	4.08908E-003	3.59960E-001	-1.06458E+000	3.57730E+000	10	...........
	15	0.213333	6.88341E-001	5.99193E-003	0.00000E+000	4.12450E-003	3.59960E-001	-1.05522E+000	3.57730E+000	10	...........
	16	0.226667	6.94426E-001	5.99311E-003	0.00000E+000	4.16177E-003	3.59960E-001	-1.05844E+000	3.57730E+000	10	...........
	17	0.24	7.00456E-001	5.99287E-003	0.00000E+000	4.19774E-003	3.59960E-001	-1.06470E+000	3.57730E+000	10	...........
	18	0.253333	7.06477E-001	5.99351E-003	0.00000E+000	4.23427E-003	3.59960E-001	-1.05553E+000	3.57730E+000	10	...........
	19	0.266667	7.12453E-001	5.99450E-003	0.00000E+000	4.27080E-003	3.59960E-001	-1.05801E+000	3.57730E+000	10	...........
	20	0.28	7.18509E-001	5.99117E-003	0.00000E+000	4.30471E-003	3.59960E-001	-1.06402E+000	3.57730E+000	10	...........
	21	0.293333	7.24455E-001	5.99484E-003	0.00000E+000	4.34299E-003	3.59960E-001	-1.05528E+000	3.57730E+000	10	...........
	22	0.306667	7.30389E-001	5.99453E-003	0.00000E+000	4.37834E-003	3.59960E-001	-1.05805E+000	3.57730E+000	10	...........
	23	0.32	7.36356E-001	5.99535E-003	0.00000E+000	4.41471E-003	3.59960E-001	-1.06426E+000	3.57730E+000	10	...........
	24	0.333333	7.42324E-001	5.99647E-003	0.00000E+000	4.45132E-003	3.59960E-001	-1.05496E+000	3.57730E+000	10	...........
	25	0.346667	7.48266E-001	5.99230E-003	0.00000E+000	4.48383E-003	3.59960E-001	-1.05776E+000	3.57730E+000	10	...........
	26	0.36	7.54192E-001	5.99708E-003	0.00000E+000	4.52295E-003	3.59960E-001	-1.06419E+000	3.57730E+000	10	...........
	27	0.373333	7.60118E-001	5.99515E-003	0.00000E+000	4.55702E-003	3.59960E-001	-1.05532E+000	3.57730E+000	10	...........
	28	0.386667	7.66049E-001	5.99642E-003	0.00000E+000	4.59355E-003	3.59960E-001	-1.05794E+000	3.57730E+000	10	...........
	29	0.4	7.72028E-001	5.99090E-003	0.00000E+000	4.62515E-003	3.59960E-001	-1.06402E+000	3.57730E+000	10	...........
	30	0.413333	7.77911E-001	5.99182E-003	0.00000E+000	4.66110E-003	3.59960E-001	-1.05489E+000	3.57730E+000	10	...........
	31	0.426667	7.83843E-001	5.99652E-003	0.00000E+000	4.70033E-003	3.59960E-001	-1.05778E+000	3.57730E+000	10	...........
	32	0.44	7.89711E-001	5.99288E-003	0.00000E+000	4.73265E-003	3.59960E-001	-1.06440E+000	3.57730E+000	10	...........
	33	0.453333	7.95668E-001	5.99040E-003	0.00000E+000	4.76637E-003	3.59960E-001	-1.05496E+000	3.57730E+000	10	...........
	34	0.466667	8.01551E-001	5.99632E-003	0.00000E+000	4.80635E-003	3.59960E-001	-1.05754E+000	3.57730E+000	10	...........
	35	0.48	8.07403E-001	5.99832E-003	0.00000E+000	4.84306E-003	3.59960E-001	-1.06430E+000	3.57730E+000	10	...........
	36	0.493333	8.13314E-001	5.99374E-003	0.00000E+000	4.87479E-003	3.59960E-001	-1.05525E+000	3.57730E+000	10	...........
	37	0.506667	8.19207E-001	5.99928E-003	0.00000E+000	4.91465E-003	3.59960E-001	-1.05795E+000	3.57730E+000	10	...........
	38	0.52	8.25116E-001	5.99718E-003	0.00000E+000	4.94837E-003	3.59960E-001	-1.06455E+000	3.57730E+000	10	...........
	39	0.533333	8.30971E-001	5.99686E-003	0.00000E+000	4.98322E-003	3.59960E-001	-1.05521E+000	3.57730E+000	10	...........
	40	0.546667	8.36829E-001	5.98999E-003	0.00000E+000	5.01260E-003	3.59960E-001	-1.05755E+000	3.57730E+000	10	...........
	41	0.56	8.42721E-001	5.99473E-003	0.00000E+000	5.05188E-003	3.59960E-001	-1.06406E+000	3.57730E+000	10	...........
	42	0.573333	8.48607E-001	5.99470E-003	0.00000E+000	5.08714E-003	3.59960E-001	-1.05541E+000	3.57730E+000	10	...........
	43	0.586667	8.54455E-001	5.99780E-003	0.00000E+000	5.12485E-003	3.59960E-001	-1.05763E+000	3.57730E+000	10	...........
	44	0.6	8.60290E-001	5.99700E-003	0.00000E+000	5.15916E-003	3.59960E-001	-1.06396E+000	3.57730E+000	10	...........
	45	0.613333	8.66102E-001	5.99377E-003	0.00000E+000	5.19122E-003	3.59960E-001	-1.05460E+000	3.57730E+000	10	...........
	46	0.626667	8.71965E-001	5.99428E-003	0.00000E+000	5.22681E-003	3.59960E-001	-1.05706E+000	3.57730E+000	10	...........
	47	0.64	8.77774E-001	5.99762E-003	0.00000E+000	5.26455E-003	3.59960E-001	-1.06403E+000	3.57730E+000	10	...........
	48	0.653333	8.83585E-001	5.99214E-003	0.00000E+000	5.29457E-003	3.59960E-001	-1.05475E+000	3.57730E+000	10	...........
	49	0.666667	8.89398E-001	5.99362E-003	0.00000E+000	5.33072E-003	3.59960E-001	-1.05718E+000	3.57730E+000	10	...........
	50	0.68	8.95138E-001	5.99571E-003	0.00000E+000	5.36699E-003	3.59960E-001	-1.06389E+000	3.57730E+000	10	...........
	51	0.693333	9.00906E-001	5.99203E-003	0.00000E+000	5.39826E-003	3.59960E-001	-1.05461E+000	3.57730E+000	10	...........
	52	0.706667	9.06648E-001	5.99694E-003	0.00000E+000	5.43712E-003	3.59960E-001	-1.05729E+000	3.57730E+000	10	...........
	53	0.72	9.12390E-001	5.99430E-003	0.00000E+000	5.46914E-003	3.59960E-001	-1.06416E+000	3.57730E+000	10	...........
	54	0.733333	9.18084E-001	5.99278E-003	0.00000E+000	5.50187E-003	3.59960E-001	-1.05481E+000	3.57730E+000	10	...........
	55	0.746667	9.23873E-001	5.99277E-003	0.00000E+000	5.53656E-003	3.59960E-001	-1.05702E+000	3.57730E+000	10	...........
	56	0.76	9.29505E-001	5.99562E-003	0.00000E+000	5.57296E-003	3.59960E-001	-1.06401E+000	3.57730E+000	10	...........
	57	0.773333	9.35194E-001	5.99704E-003	0.00000E+000	5.60839E-003	3.59960E-001	-1.05462E+000	3.57730E+000	10	...........
	58	0.786667	9.40826E-001	5.99196E-003	0.00000E+000	5.63739E-003	3.59960E-001	-1.05697E+000	3.57826E+000	10	...........
	59	0.8	9.46442E-001	5.99412E-003	0.00000E+000	5.67308E-003	3.59960E-001	-1.06399E+000	3.57840E+000	10	...........
	60	0.813333	9.52031E-001	5.99538E-003	0.00000E+000	5.70779E-003	3.59960E-001	-1.05444E+000	3.57840E+000	10	...........
	61	0.826667	9.57566E-001	5.99673E-003	0.00000E+000	5.74227E-003	3.59960E-001	-1.05710E+000	3.57840E+000	10	...........
	62	0.84	9.63090E-001	5.99326E-003	0.00000E+000	5.77205E-003	3.59960E-001	-1.06409E+000	3.57840E+000	10	...........
	63	0.853333	9.68609E-001	5.99392E-003	0.00000E+000	5.80576E-003	3.59960E-001	-1.05452E+000	3.57840E+000	10	...........
	64	0.866667	9.74147E-001	5.99146E-003	0.00000E+000	5.83656E-003	3.59960E-001	-1.05699E+000	3.57840E+000	10	...........
	65	0.88	9.79598E-001	5.99762E-003	0.00000E+000	5.87525E-003	3.59960E-001	-1.06377E+000	3.57840E+000	10	...........
	66	0.893333	9.84971E-001	5.99292E-003	0.00000E+000	5.90285E-003	3.59960E-001	-1.05468E+000	3.57840E+000	10	...........
	67	0.906667	9.90310E-001	5.99599E-003	0.00000E+000	5.93789E-003	3.59960E-001	-1.05686E+000	3.57840E+000	10	...........
	68	0.92	9.95670E-001	5.99286E-003	0.00000E+000	5.96691E-003	3.59960E-001	-1.06342E+000	3.57840E+000	10	...........
	69	0.926667	9.99641E-001	5.98956E-003	0.00000E+000	5.98741E-003	3.59960E-001	-1.04704E+000	3.57840E+000	10	...........
STARTTIMEOFFSET	QUANT	200.7416	Start Time Offset (s)