File: Data/CV_CRGO300517_1/PWRCCD_CRGO300517_1/CHARGE_DISCHARGE/CHARGE_#242.DTA
EXPLAIN
TAG	PWR800_CHARGE
TITLE	LABEL	PWR Cyclic Charge Discharge (Cell) - Charge Step	Test &Identifier
DATE	LABEL	22-6-2017	Date
TIME	LABEL	15:45:33	Time
NOTES	NOTES	3	&Notes...
	supercap test cell
	0.6mg
	6M KOH
PSTAT	PSTAT	IFC5000-01520	Potentiostat
CAPACITY	QUANT	1.00000E-003	Capacity (A-hr)
CELLTYPE	SELECTOR	1	&Cell Type
WORKINGCONNECTION	SELECTOR	0	&Working Lead
MAXCHARGETIME	VARIABLEANDUNITS	1.00000E+002	s	1.00000E+002	second(s)	Max &Charge Time
CHARGECURRENT	QUANT	6.00000E-003	&Charge Current (A)
VOLTAGEFINISH	TWOPARAM	F	1.00000E-003	3.60000E+003	&Voltage Finish	 I (A) < 	Max Time(s)
SAMPLETIME	QUANT	1.00000E-002	Sa&mple Period (s)
CHARGESTOPAT1	MULTIPARAM	4	1.00000E+000	Charge Stop At &1	Voltage > Limit	V
CHARGESTOPAT2	MULTIPARAM	0	0.00000E+000	Charge Stop At &2	None	N/A
AESBHCSELECTOR	TOGGLE	F	Save Both Half Cells
IRCOMP	TOGGLE	F	IR &Measure
EOC	QUANT	0	Open Circuit (V)
SEQUENCER	TOGGLE	TRUE	Run as Sequence
PSTATMODEL	IQUANT	53	Pstat Model
PSTATSECTION	LABEL	IFC5000-01520	Pstat Section
PSTATSERIALNO	LABEL	01520	Pstat Serial Number
CTRLMODE	IQUANT	0	Control Mode
ELECTROMETER	IQUANT	1	RE=0 or CS=1
IESTAB	IQUANT	0	I/E Stability
CASPEED	IQUANT	4	Control Amp Speed
CONVENTION	IQUANT	1	Current Convention
ICHRANGE	IQUANT	2	Ich Range
ICHRANGEMODE	TOGGLE	T	Ich Auto Range
ICHOFFSETENABLE	TOGGLE	F	Ich Offset Enable
ICHOFFSET	QUANT	0	Ich Offset (V)
ICHFILTER	IQUANT	1	Ich Filter
VCHRANGE	IQUANT	2	Vch Range
VCHRANGEMODE	TOGGLE	T	Vch Auto Range
VCHOFFSETENABLE	TOGGLE	F	Vch Offset Enable
VCHOFFSET	QUANT	0	Vch Offset (V)
VCHFILTER	IQUANT	1	Vch Filter
IERANGELOWERLIMIT	IQUANT	9	I/E Range Lower Limit
IERANGEMODE	TOGGLE	F	I/E AutoRange
IERANGE	IQUANT	10	I/E Range
ACHSELECT	IQUANT	1	Ach Select
ACHRANGE	IQUANT	2	Ach Range
ACHOFFSETENABLE	TOGGLE	F	Ach Offset Enable
ACHOFFSET	QUANT	0	Ach Offset (V)
ACHFILTER	IQUANT	1	Ach Filter
CABLEID	IQUANT	14	Cable ID
DCCALDATE	LABEL	20-10-2016	DC Calibration Date
ACCALDATE	LABEL	12/3/2015	AC Calibration Date
FRAMEWORKVERSION	QUANT	7.01	Framework Version
INSTRUMENTVERSION	LABEL	4.00	Instrument Version
CURVE	TABLE	64
	Pt	T	Vf	Im	Vu	Pwr	Sig	Ach	Temp	IERange	Over
	#	s	V	A	V	W	V	V	deg C	#	bits
	0	0.013333	6.10332E-001	5.99380E-003	0.00000E+000	3.65821E-003	3.59960E-001	-1.10204E+000	3.57690E+000	10	...........
	1	0.026667	6.18916E-001	5.99375E-003	0.00000E+000	3.70963E-003	3.59960E-001	-1.10472E+000	3.57690E+000	10	...........
	2	0.04	6.26737E-001	5.99101E-003	0.00000E+000	3.75479E-003	3.59960E-001	-1.09715E+000	3.57690E+000	10	...........
	3	0.053333	6.34159E-001	5.99056E-003	0.00000E+000	3.79896E-003	3.59960E-001	-1.10191E+000	3.57690E+000	10	...........
	4	0.066667	6.41364E-001	5.99229E-003	0.00000E+000	3.84324E-003	3.59960E-001	-1.10503E+000	3.57690E+000	10	...........
	5	0.08	6.48314E-001	5.99585E-003	0.00000E+000	3.88719E-003	3.59960E-001	-1.09756E+000	3.57690E+000	10	...........
	6	0.093333	6.55128E-001	5.99252E-003	0.00000E+000	3.92587E-003	3.59960E-001	-1.10238E+000	3.57690E+000	10	...........
	7	0.106667	6.61880E-001	5.99526E-003	0.00000E+000	3.96815E-003	3.59960E-001	-1.10535E+000	3.57690E+000	10	...........
	8	0.12	6.68483E-001	5.99597E-003	0.00000E+000	4.00820E-003	3.59960E-001	-1.09780E+000	3.57690E+000	10	...........
	9	0.133333	6.75055E-001	5.99684E-003	0.00000E+000	4.04820E-003	3.59960E-001	-1.10228E+000	3.57690E+000	10	...........
	10	0.146667	6.81527E-001	5.99671E-003	0.00000E+000	4.08692E-003	3.59960E-001	-1.10589E+000	3.57690E+000	10	...........
	11	0.16	6.88014E-001	5.99650E-003	0.00000E+000	4.12568E-003	3.59960E-001	-1.09807E+000	3.57690E+000	10	...........
	12	0.173333	6.94490E-001	5.99762E-003	0.00000E+000	4.16529E-003	3.59960E-001	-1.10244E+000	3.57690E+000	10	...........
	13	0.186667	7.00837E-001	5.99760E-003	0.00000E+000	4.20334E-003	3.59960E-001	-1.10588E+000	3.57690E+000	10	...........
	14	0.2	7.07199E-001	5.99263E-003	0.00000E+000	4.23799E-003	3.59960E-001	-1.09824E+000	3.57690E+000	10	...........
	15	0.213333	7.13526E-001	5.99060E-003	0.00000E+000	4.27445E-003	3.59960E-001	-1.10259E+000	3.57690E+000	10	...........
	16	0.226667	7.19878E-001	5.99571E-003	0.00000E+000	4.31618E-003	3.59960E-001	-1.10627E+000	3.57690E+000	10	...........
	17	0.24	7.26165E-001	5.99253E-003	0.00000E+000	4.35157E-003	3.59960E-001	-1.09851E+000	3.57690E+000	10	...........
	18	0.253333	7.32426E-001	5.99441E-003	0.00000E+000	4.39046E-003	3.59960E-001	-1.10274E+000	3.57690E+000	10	...........
	19	0.266667	7.38664E-001	5.99325E-003	0.00000E+000	4.42699E-003	3.59960E-001	-1.10656E+000	3.57690E+000	10	...........
	20	0.28	7.44938E-001	5.99396E-003	0.00000E+000	4.46513E-003	3.59960E-001	-1.09879E+000	3.57690E+000	10	...........
	21	0.293333	7.51117E-001	5.99743E-003	0.00000E+000	4.50477E-003	3.59960E-001	-1.10293E+000	3.57690E+000	10	...........
	22	0.306667	7.57363E-001	5.99430E-003	0.00000E+000	4.53986E-003	3.59960E-001	-1.10649E+000	3.57690E+000	10	...........
	23	0.32	7.63535E-001	5.99739E-003	0.00000E+000	4.57922E-003	3.59960E-001	-1.09866E+000	3.57690E+000	10	...........
	24	0.333333	7.69774E-001	5.99901E-003	0.00000E+000	4.61788E-003	3.59960E-001	-1.10282E+000	3.57690E+000	10	...........
	25	0.346667	7.75992E-001	5.99200E-003	0.00000E+000	4.64974E-003	3.59960E-001	-1.10653E+000	3.57690E+000	10	...........
	26	0.36	7.82173E-001	5.99232E-003	0.00000E+000	4.68703E-003	3.59960E-001	-1.09824E+000	3.57690E+000	10	...........
	27	0.373333	7.88313E-001	5.99286E-003	0.00000E+000	4.72425E-003	3.59960E-001	-1.10193E+000	3.57690E+000	10	...........
	28	0.386667	7.94475E-001	5.99310E-003	0.00000E+000	4.76137E-003	3.59960E-001	-1.10580E+000	3.57690E+000	10	...........
	29	0.4	8.00653E-001	5.99282E-003	0.00000E+000	4.79817E-003	3.59960E-001	-1.09801E+000	3.57690E+000	10	...........
	30	0.413333	8.06780E-001	5.99123E-003	0.00000E+000	4.83360E-003	3.59960E-001	-1.10192E+000	3.57690E+000	10	...........
	31	0.426667	8.12910E-001	5.99539E-003	0.00000E+000	4.87371E-003	3.59960E-001	-1.10603E+000	3.57690E+000	10	...........
	32	0.44	8.19112E-001	5.99358E-003	0.00000E+000	4.90942E-003	3.59960E-001	-1.09769E+000	3.57690E+000	10	...........
	33	0.453333	8.25241E-001	5.99661E-003	0.00000E+000	4.94864E-003	3.59960E-001	-1.10131E+000	3.57690E+000	10	...........
	34	0.466667	8.31328E-001	5.99717E-003	0.00000E+000	4.98562E-003	3.59960E-001	-1.10576E+000	3.57690E+000	10	...........
	35	0.48	8.37443E-001	5.99640E-003	0.00000E+000	5.02164E-003	3.59960E-001	-1.09777E+000	3.57690E+000	10	...........
	36	0.493333	8.43511E-001	5.99187E-003	0.00000E+000	5.05421E-003	3.59960E-001	-1.10138E+000	3.57690E+000	10	...........
	37	0.506667	8.49598E-001	5.99326E-003	0.00000E+000	5.09186E-003	3.59960E-001	-1.10579E+000	3.57690E+000	10	...........
	38	0.52	8.55654E-001	5.99419E-003	0.00000E+000	5.12895E-003	3.59960E-001	-1.09750E+000	3.57690E+000	10	...........
	39	0.533333	8.61699E-001	5.99704E-003	0.00000E+000	5.16764E-003	3.59960E-001	-1.10110E+000	3.57690E+000	10	...........
	40	0.546667	8.67750E-001	5.99691E-003	0.00000E+000	5.20382E-003	3.59960E-001	-1.10589E+000	3.57690E+000	10	...........
	41	0.56	8.73792E-001	5.99279E-003	0.00000E+000	5.23645E-003	3.59960E-001	-1.09741E+000	3.57690E+000	10	...........
	42	0.573333	8.79800E-001	5.99405E-003	0.00000E+000	5.27356E-003	3.59960E-001	-1.10090E+000	3.57690E+000	10	...........
	43	0.586667	8.85823E-001	5.99662E-003	0.00000E+000	5.31194E-003	3.59960E-001	-1.10553E+000	3.57690E+000	10	...........
	44	0.6	8.91785E-001	5.99036E-003	0.00000E+000	5.34211E-003	3.59960E-001	-1.09714E+000	3.57690E+000	10	...........
	45	0.613333	8.97695E-001	5.99035E-003	0.00000E+000	5.37751E-003	3.59960E-001	-1.10064E+000	3.57690E+000	10	...........
	46	0.626667	9.03597E-001	5.99391E-003	0.00000E+000	5.41608E-003	3.59960E-001	-1.10520E+000	3.57690E+000	10	...........
	47	0.64	9.09537E-001	5.99687E-003	0.00000E+000	5.45437E-003	3.59960E-001	-1.09633E+000	3.57690E+000	10	...........
	48	0.653333	9.15444E-001	5.99605E-003	0.00000E+000	5.48905E-003	3.59960E-001	-1.09955E+000	3.57690E+000	10	...........
	49	0.666667	9.21306E-001	5.99444E-003	0.00000E+000	5.52271E-003	3.59960E-001	-1.10448E+000	3.57690E+000	10	...........
	50	0.68	9.27162E-001	5.99515E-003	0.00000E+000	5.55847E-003	3.59960E-001	-1.09537E+000	3.57690E+000	10	...........
	51	0.693333	9.33000E-001	5.99322E-003	0.00000E+000	5.59167E-003	3.59960E-001	-1.09839E+000	3.57690E+000	10	...........
	52	0.706667	9.38761E-001	5.99232E-003	0.00000E+000	5.62536E-003	3.59960E-001	-1.10303E+000	3.57690E+000	10	...........
	53	0.72	9.44495E-001	5.99396E-003	0.00000E+000	5.66126E-003	3.59960E-001	-1.09420E+000	3.57690E+000	10	...........
	54	0.733333	9.50224E-001	5.99043E-003	0.00000E+000	5.69225E-003	3.59960E-001	-1.09716E+000	3.57690E+000	10	...........
	55	0.746667	9.55910E-001	5.99546E-003	0.00000E+000	5.73112E-003	3.59960E-001	-1.10186E+000	3.57690E+000	10	...........
	56	0.76	9.61527E-001	5.99474E-003	0.00000E+000	5.76411E-003	3.59960E-001	-1.09212E+000	3.57690E+000	10	...........
	57	0.773333	9.67153E-001	5.99307E-003	0.00000E+000	5.79622E-003	3.59960E-001	-1.09401E+000	3.57690E+000	10	...........
	58	0.786667	9.72750E-001	5.99124E-003	0.00000E+000	5.82798E-003	3.59960E-001	-1.09830E+000	3.57690E+000	10	...........
	59	0.8	9.78297E-001	5.99066E-003	0.00000E+000	5.86065E-003	3.59960E-001	-1.08820E+000	3.57690E+000	10	...........
	60	0.813333	9.83803E-001	5.99636E-003	0.00000E+000	5.89923E-003	3.59960E-001	-1.08968E+000	3.57690E+000	10	...........
	61	0.826667	9.89257E-001	5.99556E-003	0.00000E+000	5.93116E-003	3.59960E-001	-1.09348E+000	3.57690E+000	10	...........
	62	0.84	9.94672E-001	5.99438E-003	0.00000E+000	5.96244E-003	3.59960E-001	-1.08272E+000	3.57690E+000	10	...........
	63	0.848333	9.99052E-001	5.99307E-003	0.00000E+000	5.98739E-003	3.59960E-001	-1.09192E+000	3.57690E+000	10	...........
STARTTIMEOFFSET	QUANT	444.4951	Start Time Offset (s)