File: Data/CV_CRGO300517_1/PWRCCD_CRGO300517_1/CHARGE_DISCHARGE/CHARGE_#36.DTA
EXPLAIN
TAG	PWR800_CHARGE
TITLE	LABEL	PWR Cyclic Charge Discharge (Cell) - Charge Step	Test &Identifier
DATE	LABEL	22-6-2017	Date
TIME	LABEL	15:36:37	Time
NOTES	NOTES	3	&Notes...
	supercap test cell
	0.6mg
	6M KOH
PSTAT	PSTAT	IFC5000-01520	Potentiostat
CAPACITY	QUANT	1.00000E-003	Capacity (A-hr)
CELLTYPE	SELECTOR	1	&Cell Type
WORKINGCONNECTION	SELECTOR	0	&Working Lead
MAXCHARGETIME	VARIABLEANDUNITS	1.00000E+002	s	1.00000E+002	second(s)	Max &Charge Time
CHARGECURRENT	QUANT	6.00000E-003	&Charge Current (A)
VOLTAGEFINISH	TWOPARAM	F	1.00000E-003	3.60000E+003	&Voltage Finish	 I (A) < 	Max Time(s)
SAMPLETIME	QUANT	1.00000E-002	Sa&mple Period (s)
CHARGESTOPAT1	MULTIPARAM	4	1.00000E+000	Charge Stop At &1	Voltage > Limit	V
CHARGESTOPAT2	MULTIPARAM	0	0.00000E+000	Charge Stop At &2	None	N/A
AESBHCSELECTOR	TOGGLE	F	Save Both Half Cells
IRCOMP	TOGGLE	F	IR &Measure
EOC	QUANT	0	Open Circuit (V)
SEQUENCER	TOGGLE	TRUE	Run as Sequence
PSTATMODEL	IQUANT	53	Pstat Model
PSTATSECTION	LABEL	IFC5000-01520	Pstat Section
PSTATSERIALNO	LABEL	01520	Pstat Serial Number
CTRLMODE	IQUANT	0	Control Mode
ELECTROMETER	IQUANT	1	RE=0 or CS=1
IESTAB	IQUANT	0	I/E Stability
CASPEED	IQUANT	4	Control Amp Speed
CONVENTION	IQUANT	1	Current Convention
ICHRANGE	IQUANT	2	Ich Range
ICHRANGEMODE	TOGGLE	T	Ich Auto Range
ICHOFFSETENABLE	TOGGLE	F	Ich Offset Enable
ICHOFFSET	QUANT	0	Ich Offset (V)
ICHFILTER	IQUANT	1	Ich Filter
VCHRANGE	IQUANT	2	Vch Range
VCHRANGEMODE	TOGGLE	T	Vch Auto Range
VCHOFFSETENABLE	TOGGLE	F	Vch Offset Enable
VCHOFFSET	QUANT	0	Vch Offset (V)
VCHFILTER	IQUANT	1	Vch Filter
IERANGELOWERLIMIT	IQUANT	9	I/E Range Lower Limit
IERANGEMODE	TOGGLE	F	I/E AutoRange
IERANGE	IQUANT	10	I/E Range
ACHSELECT	IQUANT	1	Ach Select
ACHRANGE	IQUANT	2	Ach Range
ACHOFFSETENABLE	TOGGLE	F	Ach Offset Enable
ACHOFFSET	QUANT	0	Ach Offset (V)
ACHFILTER	IQUANT	1	Ach Filter
CABLEID	IQUANT	14	Cable ID
DCCALDATE	LABEL	20-10-2016	DC Calibration Date
ACCALDATE	LABEL	12/3/2015	AC Calibration Date
FRAMEWORKVERSION	QUANT	7.01	Framework Version
INSTRUMENTVERSION	LABEL	4.00	Instrument Version
CURVE	TABLE	76
	Pt	T	Vf	Im	Vu	Pwr	Sig	Ach	Temp	IERange	Over
	#	s	V	A	V	W	V	V	deg C	#	bits
	0	0.013333	5.69005E-001	5.99093E-003	0.00000E+000	3.40887E-003	3.59960E-001	-1.03383E+000	3.57860E+000	10	...........
	1	0.026667	5.77020E-001	5.99222E-003	0.00000E+000	3.45763E-003	3.59960E-001	-1.03224E+000	3.57860E+000	10	...........
	2	0.04	5.84433E-001	5.99519E-003	0.00000E+000	3.50379E-003	3.59960E-001	-1.02484E+000	3.57860E+000	10	...........
	3	0.053333	5.91455E-001	5.99627E-003	0.00000E+000	3.54653E-003	3.59960E-001	-1.03372E+000	3.57860E+000	10	...........
	4	0.066667	5.98140E-001	5.99284E-003	0.00000E+000	3.58456E-003	3.59960E-001	-1.03176E+000	3.57860E+000	10	...........
	5	0.08	6.04637E-001	5.99529E-003	0.00000E+000	3.62497E-003	3.59960E-001	-1.02465E+000	3.57860E+000	10	...........
	6	0.093333	6.11009E-001	5.99831E-003	0.00000E+000	3.66502E-003	3.59960E-001	-1.03344E+000	3.57860E+000	10	...........
	7	0.106667	6.17313E-001	5.99234E-003	0.00000E+000	3.69915E-003	3.59960E-001	-1.03171E+000	3.57860E+000	10	...........
	8	0.12	6.23470E-001	5.99690E-003	0.00000E+000	3.73889E-003	3.59960E-001	-1.02450E+000	3.57860E+000	10	...........
	9	0.133333	6.29561E-001	5.99451E-003	0.00000E+000	3.77391E-003	3.59960E-001	-1.03332E+000	3.57860E+000	10	...........
	10	0.146667	6.35556E-001	5.99663E-003	0.00000E+000	3.81119E-003	3.59960E-001	-1.03170E+000	3.57860E+000	10	...........
	11	0.16	6.41589E-001	5.99419E-003	0.00000E+000	3.84581E-003	3.59960E-001	-1.02437E+000	3.57860E+000	10	...........
	12	0.173333	6.47544E-001	5.99462E-003	0.00000E+000	3.88178E-003	3.59960E-001	-1.03314E+000	3.57860E+000	10	...........
	13	0.186667	6.53442E-001	5.99356E-003	0.00000E+000	3.91645E-003	3.59960E-001	-1.03135E+000	3.57860E+000	10	...........
	14	0.2	6.59283E-001	5.99356E-003	0.00000E+000	3.95145E-003	3.59960E-001	-1.02424E+000	3.57860E+000	10	...........
	15	0.213333	6.65104E-001	5.99086E-003	0.00000E+000	3.98454E-003	3.59960E-001	-1.03329E+000	3.57860E+000	10	...........
	16	0.226667	6.70991E-001	5.99697E-003	0.00000E+000	4.02392E-003	3.59960E-001	-1.03145E+000	3.57860E+000	10	...........
	17	0.24	6.76748E-001	5.99286E-003	0.00000E+000	4.05566E-003	3.59960E-001	-1.02427E+000	3.57860E+000	10	...........
	18	0.253333	6.82524E-001	5.99591E-003	0.00000E+000	4.09235E-003	3.59960E-001	-1.03312E+000	3.57860E+000	10	...........
	19	0.266667	6.88276E-001	5.99365E-003	0.00000E+000	4.12528E-003	3.59960E-001	-1.03133E+000	3.57860E+000	10	...........
	20	0.28	6.94038E-001	5.99277E-003	0.00000E+000	4.15921E-003	3.59960E-001	-1.02436E+000	3.57860E+000	10	...........
	21	0.293333	6.99745E-001	5.99295E-003	0.00000E+000	4.19354E-003	3.59960E-001	-1.03353E+000	3.57860E+000	10	...........
	22	0.306667	7.05445E-001	5.99282E-003	0.00000E+000	4.22761E-003	3.59960E-001	-1.03145E+000	3.57860E+000	10	...........
	23	0.32	7.11178E-001	5.99464E-003	0.00000E+000	4.26326E-003	3.59960E-001	-1.02428E+000	3.57860E+000	10	...........
	24	0.333333	7.16889E-001	5.99347E-003	0.00000E+000	4.29665E-003	3.59960E-001	-1.03335E+000	3.57860E+000	10	...........
	25	0.346667	7.22590E-001	5.99211E-003	0.00000E+000	4.32984E-003	3.59960E-001	-1.03139E+000	3.57860E+000	10	...........
	26	0.36	7.28295E-001	5.99695E-003	0.00000E+000	4.36755E-003	3.59960E-001	-1.02449E+000	3.57860E+000	10	...........
	27	0.373333	7.33964E-001	5.99233E-003	0.00000E+000	4.39816E-003	3.59960E-001	-1.03333E+000	3.57860E+000	10	...........
	28	0.386667	7.39655E-001	5.99417E-003	0.00000E+000	4.43362E-003	3.59960E-001	-1.03086E+000	3.57860E+000	10	...........
	29	0.4	7.45359E-001	5.99943E-003	0.00000E+000	4.47173E-003	3.59960E-001	-1.02380E+000	3.57860E+000	10	...........
	30	0.413333	7.51024E-001	5.99344E-003	0.00000E+000	4.50122E-003	3.59960E-001	-1.03304E+000	3.57860E+000	10	...........
	31	0.426667	7.56722E-001	5.99679E-003	0.00000E+000	4.53790E-003	3.59960E-001	-1.03071E+000	3.57860E+000	10	...........
	32	0.44	7.62379E-001	5.99588E-003	0.00000E+000	4.57113E-003	3.59960E-001	-1.02389E+000	3.57770E+000	10	...........
	33	0.453333	7.68034E-001	5.99369E-003	0.00000E+000	4.60336E-003	3.59960E-001	-1.03287E+000	3.57770E+000	10	...........
	34	0.466667	7.73728E-001	5.99343E-003	0.00000E+000	4.63728E-003	3.59960E-001	-1.03053E+000	3.57770E+000	10	...........
	35	0.48	7.79431E-001	5.99563E-003	0.00000E+000	4.67318E-003	3.59960E-001	-1.02391E+000	3.57770E+000	10	...........
	36	0.493333	7.85101E-001	5.99082E-003	0.00000E+000	4.70340E-003	3.59960E-001	-1.03289E+000	3.57770E+000	10	...........
	37	0.506667	7.90770E-001	5.99522E-003	0.00000E+000	4.74084E-003	3.59960E-001	-1.03062E+000	3.57770E+000	10	...........
	38	0.52	7.96455E-001	5.99692E-003	0.00000E+000	4.77628E-003	3.59960E-001	-1.02375E+000	3.57770E+000	10	...........
	39	0.533333	8.02067E-001	5.99190E-003	0.00000E+000	4.80591E-003	3.59960E-001	-1.03293E+000	3.57770E+000	10	...........
	40	0.546667	8.07745E-001	5.99452E-003	0.00000E+000	4.84205E-003	3.59960E-001	-1.03061E+000	3.57770E+000	10	...........
	41	0.56	8.13421E-001	5.99479E-003	0.00000E+000	4.87629E-003	3.59960E-001	-1.02391E+000	3.57770E+000	10	...........
	42	0.573333	8.19090E-001	5.99102E-003	0.00000E+000	4.90718E-003	3.59960E-001	-1.03295E+000	3.57770E+000	10	...........
	43	0.586667	8.24760E-001	5.99745E-003	0.00000E+000	4.94646E-003	3.59960E-001	-1.03043E+000	3.57770E+000	10	...........
	44	0.6	8.30419E-001	5.99518E-003	0.00000E+000	4.97851E-003	3.59960E-001	-1.02390E+000	3.57770E+000	10	...........
	45	0.613333	8.36066E-001	5.99255E-003	0.00000E+000	5.01017E-003	3.59960E-001	-1.03325E+000	3.57770E+000	10	...........
	46	0.626667	8.41723E-001	5.99613E-003	0.00000E+000	5.04708E-003	3.59960E-001	-1.03080E+000	3.57770E+000	10	...........
	47	0.64	8.47425E-001	5.99256E-003	0.00000E+000	5.07825E-003	3.59960E-001	-1.02407E+000	3.57770E+000	10	...........
	48	0.653333	8.53096E-001	5.99264E-003	0.00000E+000	5.11230E-003	3.59960E-001	-1.03320E+000	3.57770E+000	10	...........
	49	0.666667	8.58783E-001	5.99932E-003	0.00000E+000	5.15211E-003	3.59960E-001	-1.03058E+000	3.57770E+000	10	...........
	50	0.68	8.64413E-001	5.99156E-003	0.00000E+000	5.17918E-003	3.59960E-001	-1.02382E+000	3.57770E+000	10	...........
	51	0.693333	8.70073E-001	5.99470E-003	0.00000E+000	5.21583E-003	3.59960E-001	-1.03324E+000	3.57770E+000	10	...........
	52	0.706667	8.75707E-001	5.99425E-003	0.00000E+000	5.24921E-003	3.59960E-001	-1.03010E+000	3.57770E+000	10	...........
	53	0.72	8.81349E-001	5.99389E-003	0.00000E+000	5.28270E-003	3.59960E-001	-1.02331E+000	3.57770E+000	10	...........
	54	0.733333	8.86997E-001	5.99362E-003	0.00000E+000	5.31633E-003	3.59960E-001	-1.03290E+000	3.57770E+000	10	...........
	55	0.746667	8.92579E-001	5.99400E-003	0.00000E+000	5.35012E-003	3.59960E-001	-1.03012E+000	3.57770E+000	10	...........
	56	0.76	8.98219E-001	5.99227E-003	0.00000E+000	5.38237E-003	3.59960E-001	-1.02367E+000	3.57770E+000	10	...........
	57	0.773333	9.03787E-001	5.99303E-003	0.00000E+000	5.41642E-003	3.59960E-001	-1.03286E+000	3.57770E+000	10	...........
	58	0.786667	9.09413E-001	5.99163E-003	0.00000E+000	5.44887E-003	3.59960E-001	-1.02997E+000	3.57770E+000	10	...........
	59	0.8	9.14985E-001	5.99299E-003	0.00000E+000	5.48350E-003	3.59960E-001	-1.02336E+000	3.57770E+000	10	...........
	60	0.813333	9.20573E-001	5.99599E-003	0.00000E+000	5.51975E-003	3.59960E-001	-1.03304E+000	3.57770E+000	10	...........
	61	0.826667	9.26129E-001	5.99583E-003	0.00000E+000	5.55291E-003	3.59960E-001	-1.03008E+000	3.57770E+000	10	...........
	62	0.84	9.31671E-001	5.99520E-003	0.00000E+000	5.58555E-003	3.59960E-001	-1.02340E+000	3.57770E+000	10	...........
	63	0.853333	9.37187E-001	5.99133E-003	0.00000E+000	5.61500E-003	3.59960E-001	-1.03285E+000	3.57770E+000	10	...........
	64	0.866667	9.42690E-001	5.99337E-003	0.00000E+000	5.64990E-003	3.59960E-001	-1.02982E+000	3.57770E+000	10	...........
	65	0.88	9.48232E-001	5.99156E-003	0.00000E+000	5.68139E-003	3.59960E-001	-1.02340E+000	3.57770E+000	10	...........
	66	0.893333	9.53657E-001	5.99319E-003	0.00000E+000	5.71544E-003	3.59960E-001	-1.03300E+000	3.57770E+000	10	...........
	67	0.906667	9.59114E-001	5.99560E-003	0.00000E+000	5.75046E-003	3.59960E-001	-1.02977E+000	3.57770E+000	10	...........
	68	0.92	9.64517E-001	5.99293E-003	0.00000E+000	5.78028E-003	3.59960E-001	-1.02341E+000	3.57770E+000	10	...........
	69	0.933333	9.69932E-001	5.99465E-003	0.00000E+000	5.81440E-003	3.59960E-001	-1.03289E+000	3.57770E+000	10	...........
	70	0.946667	9.75355E-001	5.99265E-003	0.00000E+000	5.84496E-003	3.59960E-001	-1.02996E+000	3.57770E+000	10	...........
	71	0.96	9.80734E-001	5.99308E-003	0.00000E+000	5.87762E-003	3.59960E-001	-1.02358E+000	3.57770E+000	10	...........
	72	0.97333	9.86025E-001	5.99431E-003	0.00000E+000	5.91054E-003	3.59960E-001	-1.03312E+000	3.57770E+000	10	...........
	73	0.98667	9.91328E-001	5.99728E-003	0.00000E+000	5.94527E-003	3.59960E-001	-1.02965E+000	3.57770E+000	10	...........
	74	1	9.96581E-001	5.99598E-003	0.00000E+000	5.97548E-003	3.59960E-001	-1.02332E+000	3.57770E+000	10	...........
	75	1.00333	9.99894E-001	5.98995E-003	0.00000E+000	5.98932E-003	3.59960E-001	-1.03941E+000	3.57770E+000	10	...........
STARTTIMEOFFSET	QUANT	72.93166	Start Time Offset (s)