File: Data/CV_CRGO300517_1/PWRCCD_CRGO300517_1/CHARGE_DISCHARGE/CHARGE_#668.DTA
EXPLAIN
TAG	PWR800_CHARGE
TITLE	LABEL	PWR Cyclic Charge Discharge (Cell) - Charge Step	Test &Identifier
DATE	LABEL	22-6-2017	Date
TIME	LABEL	16:02:21	Time
NOTES	NOTES	3	&Notes...
	supercap test cell
	0.6mg
	6M KOH
PSTAT	PSTAT	IFC5000-01520	Potentiostat
CAPACITY	QUANT	1.00000E-003	Capacity (A-hr)
CELLTYPE	SELECTOR	1	&Cell Type
WORKINGCONNECTION	SELECTOR	0	&Working Lead
MAXCHARGETIME	VARIABLEANDUNITS	1.00000E+002	s	1.00000E+002	second(s)	Max &Charge Time
CHARGECURRENT	QUANT	6.00000E-003	&Charge Current (A)
VOLTAGEFINISH	TWOPARAM	F	1.00000E-003	3.60000E+003	&Voltage Finish	 I (A) < 	Max Time(s)
SAMPLETIME	QUANT	1.00000E-002	Sa&mple Period (s)
CHARGESTOPAT1	MULTIPARAM	4	1.00000E+000	Charge Stop At &1	Voltage > Limit	V
CHARGESTOPAT2	MULTIPARAM	0	0.00000E+000	Charge Stop At &2	None	N/A
AESBHCSELECTOR	TOGGLE	F	Save Both Half Cells
IRCOMP	TOGGLE	F	IR &Measure
EOC	QUANT	0	Open Circuit (V)
SEQUENCER	TOGGLE	TRUE	Run as Sequence
PSTATMODEL	IQUANT	53	Pstat Model
PSTATSECTION	LABEL	IFC5000-01520	Pstat Section
PSTATSERIALNO	LABEL	01520	Pstat Serial Number
CTRLMODE	IQUANT	0	Control Mode
ELECTROMETER	IQUANT	1	RE=0 or CS=1
IESTAB	IQUANT	0	I/E Stability
CASPEED	IQUANT	4	Control Amp Speed
CONVENTION	IQUANT	1	Current Convention
ICHRANGE	IQUANT	2	Ich Range
ICHRANGEMODE	TOGGLE	T	Ich Auto Range
ICHOFFSETENABLE	TOGGLE	F	Ich Offset Enable
ICHOFFSET	QUANT	0	Ich Offset (V)
ICHFILTER	IQUANT	1	Ich Filter
VCHRANGE	IQUANT	2	Vch Range
VCHRANGEMODE	TOGGLE	T	Vch Auto Range
VCHOFFSETENABLE	TOGGLE	F	Vch Offset Enable
VCHOFFSET	QUANT	0	Vch Offset (V)
VCHFILTER	IQUANT	1	Vch Filter
IERANGELOWERLIMIT	IQUANT	9	I/E Range Lower Limit
IERANGEMODE	TOGGLE	F	I/E AutoRange
IERANGE	IQUANT	10	I/E Range
ACHSELECT	IQUANT	1	Ach Select
ACHRANGE	IQUANT	2	Ach Range
ACHOFFSETENABLE	TOGGLE	F	Ach Offset Enable
ACHOFFSET	QUANT	0	Ach Offset (V)
ACHFILTER	IQUANT	1	Ach Filter
CABLEID	IQUANT	14	Cable ID
DCCALDATE	LABEL	20-10-2016	DC Calibration Date
ACCALDATE	LABEL	12/3/2015	AC Calibration Date
FRAMEWORKVERSION	QUANT	7.01	Framework Version
INSTRUMENTVERSION	LABEL	4.00	Instrument Version
CURVE	TABLE	56
	Pt	T	Vf	Im	Vu	Pwr	Sig	Ach	Temp	IERange	Over
	#	s	V	A	V	W	V	V	deg C	#	bits
	0	0.013333	6.41610E-001	5.99840E-003	0.00000E+000	3.84864E-003	3.59960E-001	-1.15360E+000	3.57790E+000	10	...........
	1	0.026667	6.50646E-001	5.99212E-003	0.00000E+000	3.89875E-003	3.59960E-001	-1.16093E+000	3.57790E+000	10	...........
	2	0.04	6.58959E-001	5.99029E-003	0.00000E+000	3.94735E-003	3.59960E-001	-1.15027E+000	3.57790E+000	10	...........
	3	0.053333	6.66907E-001	5.99292E-003	0.00000E+000	3.99672E-003	3.59960E-001	-1.15324E+000	3.57790E+000	10	...........
	4	0.066667	6.74557E-001	5.99372E-003	0.00000E+000	4.04311E-003	3.59960E-001	-1.16071E+000	3.57790E+000	10	...........
	5	0.08	6.81979E-001	5.99228E-003	0.00000E+000	4.08661E-003	3.59960E-001	-1.15031E+000	3.57790E+000	10	...........
	6	0.093333	6.89244E-001	5.99168E-003	0.00000E+000	4.12973E-003	3.59960E-001	-1.15335E+000	3.57790E+000	10	...........
	7	0.106667	6.96432E-001	5.99603E-003	0.00000E+000	4.17583E-003	3.59960E-001	-1.16072E+000	3.57790E+000	10	...........
	8	0.12	7.03486E-001	5.99189E-003	0.00000E+000	4.21521E-003	3.59960E-001	-1.15012E+000	3.57790E+000	10	...........
	9	0.133333	7.10453E-001	5.99212E-003	0.00000E+000	4.25712E-003	3.59960E-001	-1.15315E+000	3.57790E+000	10	...........
	10	0.146667	7.17396E-001	5.99375E-003	0.00000E+000	4.29989E-003	3.59960E-001	-1.16057E+000	3.57790E+000	10	...........
	11	0.16	7.24278E-001	5.99303E-003	0.00000E+000	4.34062E-003	3.59960E-001	-1.15038E+000	3.57790E+000	10	...........
	12	0.173333	7.31121E-001	5.99156E-003	0.00000E+000	4.38055E-003	3.59960E-001	-1.15323E+000	3.57790E+000	10	...........
	13	0.186667	7.37930E-001	5.99497E-003	0.00000E+000	4.42387E-003	3.59960E-001	-1.16058E+000	3.57790E+000	10	...........
	14	0.2	7.44711E-001	5.99598E-003	0.00000E+000	4.46527E-003	3.59960E-001	-1.15009E+000	3.57790E+000	10	...........
	15	0.213333	7.51460E-001	5.99172E-003	0.00000E+000	4.50253E-003	3.59960E-001	-1.15317E+000	3.57790E+000	10	...........
	16	0.226667	7.58170E-001	5.99405E-003	0.00000E+000	4.54451E-003	3.59960E-001	-1.16066E+000	3.57790E+000	10	...........
	17	0.24	7.64821E-001	5.99692E-003	0.00000E+000	4.58657E-003	3.59960E-001	-1.15028E+000	3.57790E+000	10	...........
	18	0.253333	7.71502E-001	5.98737E-003	0.00000E+000	4.61926E-003	3.59960E-001	-1.15269E+000	3.57790E+000	10	...........
	19	0.266667	7.78097E-001	5.99433E-003	0.00000E+000	4.66417E-003	3.59960E-001	-1.16040E+000	3.57790E+000	10	...........
	20	0.28	7.84742E-001	5.99830E-003	0.00000E+000	4.70712E-003	3.59960E-001	-1.15000E+000	3.57790E+000	10	...........
	21	0.293333	7.91332E-001	5.99424E-003	0.00000E+000	4.74343E-003	3.59960E-001	-1.15257E+000	3.57790E+000	10	...........
	22	0.306667	7.97933E-001	5.99327E-003	0.00000E+000	4.78223E-003	3.59960E-001	-1.16002E+000	3.57790E+000	10	...........
	23	0.32	8.04499E-001	5.99764E-003	0.00000E+000	4.82510E-003	3.59960E-001	-1.14962E+000	3.57790E+000	10	...........
	24	0.333333	8.11025E-001	5.99094E-003	0.00000E+000	4.85881E-003	3.59960E-001	-1.15244E+000	3.57790E+000	10	...........
	25	0.346667	8.17522E-001	5.99845E-003	0.00000E+000	4.90387E-003	3.59960E-001	-1.16017E+000	3.57790E+000	10	...........
	26	0.36	8.24041E-001	5.99307E-003	0.00000E+000	4.93854E-003	3.59960E-001	-1.14996E+000	3.57790E+000	10	...........
	27	0.373333	8.30491E-001	5.99500E-003	0.00000E+000	4.97880E-003	3.59960E-001	-1.15241E+000	3.57790E+000	10	...........
	28	0.386667	8.36964E-001	5.99554E-003	0.00000E+000	5.01805E-003	3.59960E-001	-1.15978E+000	3.57790E+000	10	...........
	29	0.4	8.43422E-001	5.99257E-003	0.00000E+000	5.05427E-003	3.59960E-001	-1.14968E+000	3.57790E+000	10	...........
	30	0.413333	8.49853E-001	5.99377E-003	0.00000E+000	5.09383E-003	3.59960E-001	-1.15251E+000	3.57790E+000	10	...........
	31	0.426667	8.56221E-001	5.99341E-003	0.00000E+000	5.13168E-003	3.59960E-001	-1.16009E+000	3.57790E+000	10	...........
	32	0.44	8.62621E-001	5.99806E-003	0.00000E+000	5.17405E-003	3.59960E-001	-1.14961E+000	3.57790E+000	10	...........
	33	0.453333	8.68966E-001	5.99774E-003	0.00000E+000	5.21183E-003	3.59960E-001	-1.15204E+000	3.57790E+000	10	...........
	34	0.466667	8.75294E-001	5.99490E-003	0.00000E+000	5.24730E-003	3.59960E-001	-1.15992E+000	3.57790E+000	10	...........
	35	0.48	8.81603E-001	5.99215E-003	0.00000E+000	5.28270E-003	3.59960E-001	-1.14955E+000	3.57790E+000	10	...........
	36	0.493333	8.87874E-001	5.99286E-003	0.00000E+000	5.32091E-003	3.59960E-001	-1.15231E+000	3.57790E+000	10	...........
	37	0.506667	8.94099E-001	5.99198E-003	0.00000E+000	5.35742E-003	3.59960E-001	-1.16015E+000	3.57790E+000	10	...........
	38	0.52	9.00272E-001	5.99244E-003	0.00000E+000	5.39482E-003	3.59960E-001	-1.14968E+000	3.57790E+000	10	...........
	39	0.533333	9.06517E-001	5.98929E-003	0.00000E+000	5.42939E-003	3.59960E-001	-1.15215E+000	3.57790E+000	10	...........
	40	0.546667	9.12690E-001	5.99710E-003	0.00000E+000	5.47349E-003	3.59960E-001	-1.16028E+000	3.57790E+000	10	...........
	41	0.56	9.18788E-001	5.99212E-003	0.00000E+000	5.50549E-003	3.59960E-001	-1.14976E+000	3.57790E+000	10	...........
	42	0.573333	9.24917E-001	5.99949E-003	0.00000E+000	5.54903E-003	3.59960E-001	-1.15236E+000	3.57790E+000	10	...........
	43	0.586667	9.30940E-001	5.99349E-003	0.00000E+000	5.57958E-003	3.59960E-001	-1.15997E+000	3.57790E+000	10	...........
	44	0.6	9.36906E-001	5.99146E-003	0.00000E+000	5.61343E-003	3.59960E-001	-1.14949E+000	3.57790E+000	10	...........
	45	0.613333	9.42824E-001	5.99621E-003	0.00000E+000	5.65337E-003	3.59960E-001	-1.15182E+000	3.57790E+000	10	...........
	46	0.626667	9.48781E-001	5.99701E-003	0.00000E+000	5.68986E-003	3.59960E-001	-1.15981E+000	3.57790E+000	10	...........
	47	0.64	9.54641E-001	5.99450E-003	0.00000E+000	5.72260E-003	3.59960E-001	-1.14930E+000	3.57790E+000	10	...........
	48	0.653333	9.60458E-001	5.99769E-003	0.00000E+000	5.76053E-003	3.59960E-001	-1.15187E+000	3.57790E+000	10	...........
	49	0.666667	9.66246E-001	5.99412E-003	0.00000E+000	5.79179E-003	3.59960E-001	-1.15973E+000	3.57790E+000	10	...........
	50	0.68	9.71974E-001	5.99231E-003	0.00000E+000	5.82437E-003	3.59960E-001	-1.14953E+000	3.57790E+000	10	...........
	51	0.693333	9.77692E-001	5.99534E-003	0.00000E+000	5.86159E-003	3.59960E-001	-1.15197E+000	3.57790E+000	10	...........
	52	0.706667	9.83297E-001	5.98887E-003	0.00000E+000	5.88883E-003	3.59960E-001	-1.15986E+000	3.57790E+000	10	...........
	53	0.72	9.88901E-001	5.99668E-003	0.00000E+000	5.93012E-003	3.59960E-001	-1.14932E+000	3.57790E+000	10	...........
	54	0.733333	9.94386E-001	5.99298E-003	0.00000E+000	5.95933E-003	3.59960E-001	-1.15176E+000	3.57790E+000	10	...........
	55	0.741667	9.98910E-001	5.99743E-003	0.00000E+000	5.99089E-003	3.59960E-001	-1.15880E+000	3.57790E+000	10	...........
STARTTIMEOFFSET	QUANT	1112.108	Start Time Offset (s)