File: Data/CV_CRGO300517_1/PWRCCD_CRGO300517_1/CHARGE_DISCHARGE/CHARGE_#358.DTA
EXPLAIN
TAG	PWR800_CHARGE
TITLE	LABEL	PWR Cyclic Charge Discharge (Cell) - Charge Step	Test &Identifier
DATE	LABEL	22-6-2017	Date
TIME	LABEL	15:50:18	Time
NOTES	NOTES	3	&Notes...
	supercap test cell
	0.6mg
	6M KOH
PSTAT	PSTAT	IFC5000-01520	Potentiostat
CAPACITY	QUANT	1.00000E-003	Capacity (A-hr)
CELLTYPE	SELECTOR	1	&Cell Type
WORKINGCONNECTION	SELECTOR	0	&Working Lead
MAXCHARGETIME	VARIABLEANDUNITS	1.00000E+002	s	1.00000E+002	second(s)	Max &Charge Time
CHARGECURRENT	QUANT	6.00000E-003	&Charge Current (A)
VOLTAGEFINISH	TWOPARAM	F	1.00000E-003	3.60000E+003	&Voltage Finish	 I (A) < 	Max Time(s)
SAMPLETIME	QUANT	1.00000E-002	Sa&mple Period (s)
CHARGESTOPAT1	MULTIPARAM	4	1.00000E+000	Charge Stop At &1	Voltage > Limit	V
CHARGESTOPAT2	MULTIPARAM	0	0.00000E+000	Charge Stop At &2	None	N/A
AESBHCSELECTOR	TOGGLE	F	Save Both Half Cells
IRCOMP	TOGGLE	F	IR &Measure
EOC	QUANT	0	Open Circuit (V)
SEQUENCER	TOGGLE	TRUE	Run as Sequence
PSTATMODEL	IQUANT	53	Pstat Model
PSTATSECTION	LABEL	IFC5000-01520	Pstat Section
PSTATSERIALNO	LABEL	01520	Pstat Serial Number
CTRLMODE	IQUANT	0	Control Mode
ELECTROMETER	IQUANT	1	RE=0 or CS=1
IESTAB	IQUANT	0	I/E Stability
CASPEED	IQUANT	4	Control Amp Speed
CONVENTION	IQUANT	1	Current Convention
ICHRANGE	IQUANT	2	Ich Range
ICHRANGEMODE	TOGGLE	T	Ich Auto Range
ICHOFFSETENABLE	TOGGLE	F	Ich Offset Enable
ICHOFFSET	QUANT	0	Ich Offset (V)
ICHFILTER	IQUANT	1	Ich Filter
VCHRANGE	IQUANT	2	Vch Range
VCHRANGEMODE	TOGGLE	T	Vch Auto Range
VCHOFFSETENABLE	TOGGLE	F	Vch Offset Enable
VCHOFFSET	QUANT	0	Vch Offset (V)
VCHFILTER	IQUANT	1	Vch Filter
IERANGELOWERLIMIT	IQUANT	9	I/E Range Lower Limit
IERANGEMODE	TOGGLE	F	I/E AutoRange
IERANGE	IQUANT	10	I/E Range
ACHSELECT	IQUANT	1	Ach Select
ACHRANGE	IQUANT	2	Ach Range
ACHOFFSETENABLE	TOGGLE	F	Ach Offset Enable
ACHOFFSET	QUANT	0	Ach Offset (V)
ACHFILTER	IQUANT	1	Ach Filter
CABLEID	IQUANT	14	Cable ID
DCCALDATE	LABEL	20-10-2016	DC Calibration Date
ACCALDATE	LABEL	12/3/2015	AC Calibration Date
FRAMEWORKVERSION	QUANT	7.01	Framework Version
INSTRUMENTVERSION	LABEL	4.00	Instrument Version
CURVE	TABLE	61
	Pt	T	Vf	Im	Vu	Pwr	Sig	Ach	Temp	IERange	Over
	#	s	V	A	V	W	V	V	deg C	#	bits
	0	0.013333	6.21155E-001	5.99584E-003	0.00000E+000	3.72434E-003	3.59960E-001	-1.12307E+000	3.57650E+000	10	...........
	1	0.026667	6.29861E-001	5.99398E-003	0.00000E+000	3.77537E-003	3.59960E-001	-1.12885E+000	3.57650E+000	10	...........
	2	0.04	6.37804E-001	5.99363E-003	0.00000E+000	3.82276E-003	3.59960E-001	-1.11858E+000	3.57650E+000	10	...........
	3	0.053333	6.45419E-001	5.99141E-003	0.00000E+000	3.86697E-003	3.59960E-001	-1.12282E+000	3.57671E+000	10	...........
	4	0.066667	6.52731E-001	5.99238E-003	0.00000E+000	3.91141E-003	3.59960E-001	-1.12911E+000	3.57680E+000	10	...........
	5	0.08	6.59835E-001	5.99762E-003	0.00000E+000	3.95744E-003	3.59960E-001	-1.11882E+000	3.57680E+000	10	...........
	6	0.093333	6.66803E-001	5.99522E-003	0.00000E+000	3.99763E-003	3.59960E-001	-1.12243E+000	3.57680E+000	10	...........
	7	0.106667	6.73665E-001	5.99230E-003	0.00000E+000	4.03680E-003	3.59960E-001	-1.12899E+000	3.57680E+000	10	...........
	8	0.12	6.80473E-001	6.00019E-003	0.00000E+000	4.08297E-003	3.59960E-001	-1.11897E+000	3.57680E+000	10	...........
	9	0.133333	6.87162E-001	5.99494E-003	0.00000E+000	4.11949E-003	3.59960E-001	-1.12248E+000	3.57680E+000	10	...........
	10	0.146667	6.93808E-001	5.99093E-003	0.00000E+000	4.15656E-003	3.59960E-001	-1.12895E+000	3.57680E+000	10	...........
	11	0.16	7.00449E-001	5.99167E-003	0.00000E+000	4.19687E-003	3.59960E-001	-1.11838E+000	3.57680E+000	10	...........
	12	0.173333	7.07009E-001	5.99506E-003	0.00000E+000	4.23857E-003	3.59960E-001	-1.12215E+000	3.57680E+000	10	...........
	13	0.186667	7.13522E-001	5.99709E-003	0.00000E+000	4.27905E-003	3.59960E-001	-1.12901E+000	3.57680E+000	10	...........
	14	0.2	7.20062E-001	5.99379E-003	0.00000E+000	4.31590E-003	3.59960E-001	-1.11841E+000	3.57680E+000	10	...........
	15	0.213333	7.26505E-001	5.99313E-003	0.00000E+000	4.35404E-003	3.59960E-001	-1.12186E+000	3.57680E+000	10	...........
	16	0.226667	7.32934E-001	5.99857E-003	0.00000E+000	4.39656E-003	3.59960E-001	-1.12862E+000	3.57680E+000	10	...........
	17	0.24	7.39353E-001	5.99475E-003	0.00000E+000	4.43223E-003	3.59960E-001	-1.11822E+000	3.57680E+000	10	...........
	18	0.253333	7.45770E-001	5.99345E-003	0.00000E+000	4.46973E-003	3.59960E-001	-1.12170E+000	3.57680E+000	10	...........
	19	0.266667	7.52180E-001	5.99477E-003	0.00000E+000	4.50915E-003	3.59960E-001	-1.12900E+000	3.57680E+000	10	...........
	20	0.28	7.58562E-001	5.99265E-003	0.00000E+000	4.54580E-003	3.59960E-001	-1.11823E+000	3.57680E+000	10	...........
	21	0.293333	7.64903E-001	5.99451E-003	0.00000E+000	4.58522E-003	3.59960E-001	-1.12120E+000	3.57680E+000	10	...........
	22	0.306667	7.71258E-001	5.99015E-003	0.00000E+000	4.61995E-003	3.59960E-001	-1.12874E+000	3.57680E+000	10	...........
	23	0.32	7.77606E-001	5.99579E-003	0.00000E+000	4.66236E-003	3.59960E-001	-1.11836E+000	3.57680E+000	10	...........
	24	0.333333	7.83923E-001	5.99162E-003	0.00000E+000	4.69697E-003	3.59960E-001	-1.12133E+000	3.57680E+000	10	...........
	25	0.346667	7.90251E-001	5.99424E-003	0.00000E+000	4.73696E-003	3.59960E-001	-1.12896E+000	3.57680E+000	10	...........
	26	0.36	7.96593E-001	5.99333E-003	0.00000E+000	4.77424E-003	3.59960E-001	-1.11787E+000	3.57680E+000	10	...........
	27	0.373333	8.02866E-001	5.99030E-003	0.00000E+000	4.80941E-003	3.59960E-001	-1.12084E+000	3.57680E+000	10	...........
	28	0.386667	8.09108E-001	5.99682E-003	0.00000E+000	4.85207E-003	3.59960E-001	-1.12900E+000	3.57680E+000	10	...........
	29	0.4	8.15384E-001	5.99336E-003	0.00000E+000	4.88690E-003	3.59960E-001	-1.11837E+000	3.57680E+000	10	...........
	30	0.413333	8.21642E-001	5.99282E-003	0.00000E+000	4.92395E-003	3.59960E-001	-1.12094E+000	3.57680E+000	10	...........
	31	0.426667	8.27904E-001	5.99299E-003	0.00000E+000	4.96162E-003	3.59960E-001	-1.12904E+000	3.57680E+000	10	...........
	32	0.44	8.34135E-001	5.99340E-003	0.00000E+000	4.99930E-003	3.59960E-001	-1.11823E+000	3.57680E+000	10	...........
	33	0.453333	8.40329E-001	5.99235E-003	0.00000E+000	5.03555E-003	3.59960E-001	-1.12093E+000	3.57680E+000	10	...........
	34	0.466667	8.46600E-001	5.99503E-003	0.00000E+000	5.07539E-003	3.59960E-001	-1.12923E+000	3.57680E+000	10	...........
	35	0.48	8.52780E-001	5.99615E-003	0.00000E+000	5.11339E-003	3.59960E-001	-1.11836E+000	3.57680E+000	10	...........
	36	0.493333	8.58934E-001	5.99639E-003	0.00000E+000	5.15050E-003	3.59960E-001	-1.12055E+000	3.57680E+000	10	...........
	37	0.506667	8.65079E-001	5.99356E-003	0.00000E+000	5.18490E-003	3.59960E-001	-1.12903E+000	3.57680E+000	10	...........
	38	0.52	8.71238E-001	5.99141E-003	0.00000E+000	5.21994E-003	3.59960E-001	-1.11802E+000	3.57680E+000	10	...........
	39	0.533333	8.77359E-001	5.99290E-003	0.00000E+000	5.25793E-003	3.59960E-001	-1.12019E+000	3.57680E+000	10	...........
	40	0.546667	8.83458E-001	5.99084E-003	0.00000E+000	5.29266E-003	3.59960E-001	-1.12889E+000	3.57680E+000	10	...........
	41	0.56	8.89513E-001	5.99428E-003	0.00000E+000	5.33199E-003	3.59960E-001	-1.11788E+000	3.57680E+000	10	...........
	42	0.573333	8.95582E-001	5.99747E-003	0.00000E+000	5.37123E-003	3.59960E-001	-1.12021E+000	3.57680E+000	10	...........
	43	0.586667	9.01641E-001	5.99539E-003	0.00000E+000	5.40569E-003	3.59960E-001	-1.12898E+000	3.57680E+000	10	...........
	44	0.6	9.07649E-001	5.99416E-003	0.00000E+000	5.44059E-003	3.59960E-001	-1.11825E+000	3.57680E+000	10	...........
	45	0.613333	9.13621E-001	5.99420E-003	0.00000E+000	5.47642E-003	3.59960E-001	-1.12004E+000	3.57680E+000	10	...........
	46	0.626667	9.19572E-001	5.99160E-003	0.00000E+000	5.50971E-003	3.59960E-001	-1.12906E+000	3.57680E+000	10	...........
	47	0.64	9.25500E-001	5.99415E-003	0.00000E+000	5.54758E-003	3.59960E-001	-1.11833E+000	3.57680E+000	10	...........
	48	0.653333	9.31379E-001	5.99054E-003	0.00000E+000	5.57946E-003	3.59960E-001	-1.11991E+000	3.57680E+000	10	...........
	49	0.666667	9.37241E-001	5.99164E-003	0.00000E+000	5.61561E-003	3.59960E-001	-1.12909E+000	3.57680E+000	10	...........
	50	0.68	9.43090E-001	5.99587E-003	0.00000E+000	5.65465E-003	3.59960E-001	-1.11823E+000	3.57680E+000	10	...........
	51	0.693333	9.48936E-001	5.99441E-003	0.00000E+000	5.68831E-003	3.59960E-001	-1.11968E+000	3.57680E+000	10	...........
	52	0.706667	9.54696E-001	5.99371E-003	0.00000E+000	5.72217E-003	3.59960E-001	-1.12926E+000	3.57680E+000	10	...........
	53	0.72	9.60417E-001	5.98968E-003	0.00000E+000	5.75259E-003	3.59960E-001	-1.11833E+000	3.57680E+000	10	...........
	54	0.733333	9.66130E-001	5.99577E-003	0.00000E+000	5.79270E-003	3.59960E-001	-1.12000E+000	3.57680E+000	10	...........
	55	0.746667	9.71825E-001	5.99744E-003	0.00000E+000	5.82846E-003	3.59960E-001	-1.12918E+000	3.57680E+000	10	...........
	56	0.76	9.77421E-001	5.99289E-003	0.00000E+000	5.85758E-003	3.59960E-001	-1.11836E+000	3.57680E+000	10	...........
	57	0.773333	9.82945E-001	5.99622E-003	0.00000E+000	5.89396E-003	3.59960E-001	-1.12000E+000	3.57680E+000	10	...........
	58	0.786667	9.88458E-001	5.99462E-003	0.00000E+000	5.92543E-003	3.59960E-001	-1.12964E+000	3.57680E+000	10	...........
	59	0.8	9.93893E-001	5.99183E-003	0.00000E+000	5.95524E-003	3.59960E-001	-1.11830E+000	3.57680E+000	10	...........
	60	0.81	9.98715E-001	5.99510E-003	0.00000E+000	5.98740E-003	3.59960E-001	-1.12418E+000	3.57680E+000	10	...........
STARTTIMEOFFSET	QUANT	635.5532	Start Time Offset (s)