File: Data/CV_CRGO300517_1/PWRCCD_CRGO300517_1/CHARGE_DISCHARGE/CHARGE_#698.DTA
EXPLAIN
TAG	PWR800_CHARGE
TITLE	LABEL	PWR Cyclic Charge Discharge (Cell) - Charge Step	Test &Identifier
DATE	LABEL	22-6-2017	Date
TIME	LABEL	16:03:29	Time
NOTES	NOTES	3	&Notes...
	supercap test cell
	0.6mg
	6M KOH
PSTAT	PSTAT	IFC5000-01520	Potentiostat
CAPACITY	QUANT	1.00000E-003	Capacity (A-hr)
CELLTYPE	SELECTOR	1	&Cell Type
WORKINGCONNECTION	SELECTOR	0	&Working Lead
MAXCHARGETIME	VARIABLEANDUNITS	1.00000E+002	s	1.00000E+002	second(s)	Max &Charge Time
CHARGECURRENT	QUANT	6.00000E-003	&Charge Current (A)
VOLTAGEFINISH	TWOPARAM	F	1.00000E-003	3.60000E+003	&Voltage Finish	 I (A) < 	Max Time(s)
SAMPLETIME	QUANT	1.00000E-002	Sa&mple Period (s)
CHARGESTOPAT1	MULTIPARAM	4	1.00000E+000	Charge Stop At &1	Voltage > Limit	V
CHARGESTOPAT2	MULTIPARAM	0	0.00000E+000	Charge Stop At &2	None	N/A
AESBHCSELECTOR	TOGGLE	F	Save Both Half Cells
IRCOMP	TOGGLE	F	IR &Measure
EOC	QUANT	0	Open Circuit (V)
SEQUENCER	TOGGLE	TRUE	Run as Sequence
PSTATMODEL	IQUANT	53	Pstat Model
PSTATSECTION	LABEL	IFC5000-01520	Pstat Section
PSTATSERIALNO	LABEL	01520	Pstat Serial Number
CTRLMODE	IQUANT	0	Control Mode
ELECTROMETER	IQUANT	1	RE=0 or CS=1
IESTAB	IQUANT	0	I/E Stability
CASPEED	IQUANT	4	Control Amp Speed
CONVENTION	IQUANT	1	Current Convention
ICHRANGE	IQUANT	2	Ich Range
ICHRANGEMODE	TOGGLE	T	Ich Auto Range
ICHOFFSETENABLE	TOGGLE	F	Ich Offset Enable
ICHOFFSET	QUANT	0	Ich Offset (V)
ICHFILTER	IQUANT	1	Ich Filter
VCHRANGE	IQUANT	2	Vch Range
VCHRANGEMODE	TOGGLE	T	Vch Auto Range
VCHOFFSETENABLE	TOGGLE	F	Vch Offset Enable
VCHOFFSET	QUANT	0	Vch Offset (V)
VCHFILTER	IQUANT	1	Vch Filter
IERANGELOWERLIMIT	IQUANT	9	I/E Range Lower Limit
IERANGEMODE	TOGGLE	F	I/E AutoRange
IERANGE	IQUANT	10	I/E Range
ACHSELECT	IQUANT	1	Ach Select
ACHRANGE	IQUANT	2	Ach Range
ACHOFFSETENABLE	TOGGLE	F	Ach Offset Enable
ACHOFFSET	QUANT	0	Ach Offset (V)
ACHFILTER	IQUANT	1	Ach Filter
CABLEID	IQUANT	14	Cable ID
DCCALDATE	LABEL	20-10-2016	DC Calibration Date
ACCALDATE	LABEL	12/3/2015	AC Calibration Date
FRAMEWORKVERSION	QUANT	7.01	Framework Version
INSTRUMENTVERSION	LABEL	4.00	Instrument Version
CURVE	TABLE	56
	Pt	T	Vf	Im	Vu	Pwr	Sig	Ach	Temp	IERange	Over
	#	s	V	A	V	W	V	V	deg C	#	bits
	0	0.013333	6.42177E-001	5.99353E-003	0.00000E+000	3.84891E-003	3.59960E-001	-1.15772E+000	3.57640E+000	10	...........
	1	0.026667	6.51276E-001	5.99550E-003	0.00000E+000	3.90473E-003	3.59960E-001	-1.15185E+000	3.57640E+000	10	...........
	2	0.04	6.59662E-001	5.99475E-003	0.00000E+000	3.95451E-003	3.59960E-001	-1.16059E+000	3.57640E+000	10	...........
	3	0.053333	6.67632E-001	5.99085E-003	0.00000E+000	3.99968E-003	3.59960E-001	-1.15761E+000	3.57640E+000	10	...........
	4	0.066667	6.75269E-001	5.99119E-003	0.00000E+000	4.04567E-003	3.59960E-001	-1.15186E+000	3.57640E+000	10	...........
	5	0.08	6.82689E-001	5.99587E-003	0.00000E+000	4.09331E-003	3.59960E-001	-1.16067E+000	3.57640E+000	10	...........
	6	0.093333	6.90009E-001	5.99119E-003	0.00000E+000	4.13398E-003	3.59960E-001	-1.15749E+000	3.57640E+000	10	...........
	7	0.106667	6.97228E-001	5.99407E-003	0.00000E+000	4.17924E-003	3.59960E-001	-1.15176E+000	3.57640E+000	10	...........
	8	0.12	7.04297E-001	5.99159E-003	0.00000E+000	4.21986E-003	3.59960E-001	-1.16065E+000	3.57640E+000	10	...........
	9	0.133333	7.11286E-001	5.99388E-003	0.00000E+000	4.26337E-003	3.59960E-001	-1.15746E+000	3.57649E+000	10	...........
	10	0.146667	7.18304E-001	5.99166E-003	0.00000E+000	4.30383E-003	3.59960E-001	-1.15170E+000	3.57660E+000	10	...........
	11	0.16	7.25230E-001	5.99071E-003	0.00000E+000	4.34465E-003	3.59960E-001	-1.16039E+000	3.57660E+000	10	...........
	12	0.173333	7.32107E-001	5.99610E-003	0.00000E+000	4.38979E-003	3.59960E-001	-1.15705E+000	3.57660E+000	10	...........
	13	0.186667	7.38954E-001	5.99221E-003	0.00000E+000	4.42796E-003	3.59960E-001	-1.15164E+000	3.57660E+000	10	...........
	14	0.2	7.45737E-001	5.99466E-003	0.00000E+000	4.47044E-003	3.59960E-001	-1.16047E+000	3.57660E+000	10	...........
	15	0.213333	7.52445E-001	5.99575E-003	0.00000E+000	4.51147E-003	3.59960E-001	-1.15712E+000	3.57660E+000	10	...........
	16	0.226667	7.59202E-001	5.99722E-003	0.00000E+000	4.55311E-003	3.59960E-001	-1.15148E+000	3.57660E+000	10	...........
	17	0.24	7.65879E-001	5.99518E-003	0.00000E+000	4.59158E-003	3.59960E-001	-1.16031E+000	3.57660E+000	10	...........
	18	0.253333	7.72574E-001	5.99317E-003	0.00000E+000	4.63016E-003	3.59960E-001	-1.15707E+000	3.57660E+000	10	...........
	19	0.266667	7.79226E-001	5.99299E-003	0.00000E+000	4.66989E-003	3.59960E-001	-1.15148E+000	3.57660E+000	10	...........
	20	0.28	7.85881E-001	5.99709E-003	0.00000E+000	4.71300E-003	3.59960E-001	-1.16023E+000	3.57660E+000	10	...........
	21	0.293333	7.92517E-001	5.99446E-003	0.00000E+000	4.75071E-003	3.59960E-001	-1.15657E+000	3.57660E+000	10	...........
	22	0.306667	7.99140E-001	5.99575E-003	0.00000E+000	4.79144E-003	3.59960E-001	-1.15089E+000	3.57660E+000	10	...........
	23	0.32	8.05707E-001	5.99433E-003	0.00000E+000	4.82968E-003	3.59960E-001	-1.16017E+000	3.57660E+000	10	...........
	24	0.333333	8.12233E-001	5.99442E-003	0.00000E+000	4.86887E-003	3.59960E-001	-1.15652E+000	3.57660E+000	10	...........
	25	0.346667	8.18744E-001	5.98863E-003	0.00000E+000	4.90316E-003	3.59960E-001	-1.15100E+000	3.57660E+000	10	...........
	26	0.36	8.25262E-001	5.99075E-003	0.00000E+000	4.94393E-003	3.59960E-001	-1.15981E+000	3.57660E+000	10	...........
	27	0.373333	8.31758E-001	5.98902E-003	0.00000E+000	4.98142E-003	3.59960E-001	-1.15647E+000	3.57660E+000	10	...........
	28	0.386667	8.38217E-001	5.99182E-003	0.00000E+000	5.02244E-003	3.59960E-001	-1.15098E+000	3.57660E+000	10	...........
	29	0.4	8.44684E-001	5.99680E-003	0.00000E+000	5.06540E-003	3.59960E-001	-1.16010E+000	3.57660E+000	10	...........
	30	0.413333	8.51108E-001	5.98639E-003	0.00000E+000	5.09506E-003	3.59960E-001	-1.15660E+000	3.57660E+000	10	...........
	31	0.426667	8.57525E-001	5.98956E-003	0.00000E+000	5.13619E-003	3.59960E-001	-1.15068E+000	3.57660E+000	10	...........
	32	0.44	8.63887E-001	5.99765E-003	0.00000E+000	5.18130E-003	3.59960E-001	-1.16001E+000	3.57660E+000	10	...........
	33	0.453333	8.70307E-001	5.99271E-003	0.00000E+000	5.21550E-003	3.59960E-001	-1.15625E+000	3.57660E+000	10	...........
	34	0.466667	8.76645E-001	5.99539E-003	0.00000E+000	5.25582E-003	3.59960E-001	-1.15084E+000	3.57660E+000	10	...........
	35	0.48	8.82948E-001	5.99381E-003	0.00000E+000	5.29223E-003	3.59960E-001	-1.16008E+000	3.57660E+000	10	...........
	36	0.493333	8.89218E-001	5.99337E-003	0.00000E+000	5.32942E-003	3.59960E-001	-1.15622E+000	3.57660E+000	10	...........
	37	0.506667	8.95459E-001	5.99511E-003	0.00000E+000	5.36837E-003	3.59960E-001	-1.15074E+000	3.57660E+000	10	...........
	38	0.52	9.01698E-001	5.99406E-003	0.00000E+000	5.40483E-003	3.59960E-001	-1.16015E+000	3.57660E+000	10	...........
	39	0.533333	9.07867E-001	5.99495E-003	0.00000E+000	5.44262E-003	3.59960E-001	-1.15616E+000	3.57660E+000	10	...........
	40	0.546667	9.14001E-001	5.99251E-003	0.00000E+000	5.47716E-003	3.59960E-001	-1.15107E+000	3.57660E+000	10	...........
	41	0.56	9.20144E-001	5.99483E-003	0.00000E+000	5.51611E-003	3.59960E-001	-1.16013E+000	3.57660E+000	10	...........
	42	0.573333	9.26244E-001	5.99781E-003	0.00000E+000	5.55543E-003	3.59960E-001	-1.15597E+000	3.57660E+000	10	...........
	43	0.586667	9.32268E-001	5.99132E-003	0.00000E+000	5.58551E-003	3.59960E-001	-1.15074E+000	3.57660E+000	10	...........
	44	0.6	9.38234E-001	5.99414E-003	0.00000E+000	5.62390E-003	3.59960E-001	-1.16003E+000	3.57660E+000	10	...........
	45	0.613333	9.44228E-001	5.99466E-003	0.00000E+000	5.66033E-003	3.59960E-001	-1.15562E+000	3.57660E+000	10	...........
	46	0.626667	9.50139E-001	5.99290E-003	0.00000E+000	5.69409E-003	3.59960E-001	-1.15034E+000	3.57660E+000	10	...........
	47	0.64	9.56019E-001	5.99253E-003	0.00000E+000	5.72897E-003	3.59960E-001	-1.15972E+000	3.57660E+000	10	...........
	48	0.653333	9.61786E-001	5.99499E-003	0.00000E+000	5.76590E-003	3.59960E-001	-1.15580E+000	3.57660E+000	10	...........
	49	0.666667	9.67566E-001	5.99441E-003	0.00000E+000	5.79998E-003	3.59960E-001	-1.15050E+000	3.57660E+000	10	...........
	50	0.68	9.73343E-001	5.99499E-003	0.00000E+000	5.83518E-003	3.59960E-001	-1.16003E+000	3.57660E+000	10	...........
	51	0.693333	9.79045E-001	5.99563E-003	0.00000E+000	5.86999E-003	3.59960E-001	-1.15576E+000	3.57660E+000	10	...........
	52	0.706667	9.84662E-001	5.99265E-003	0.00000E+000	5.90074E-003	3.59960E-001	-1.15048E+000	3.57660E+000	10	...........
	53	0.72	9.90265E-001	5.99438E-003	0.00000E+000	5.93602E-003	3.59960E-001	-1.15998E+000	3.57660E+000	10	...........
	54	0.733333	9.95794E-001	5.99597E-003	0.00000E+000	5.97075E-003	3.59960E-001	-1.15567E+000	3.57660E+000	10	...........
	55	0.738333	9.99570E-001	5.99988E-003	0.00000E+000	5.99731E-003	3.59960E-001	-1.15939E+000	3.57660E+000	10	...........
STARTTIMEOFFSET	QUANT	1156.287	Start Time Offset (s)