File: Data/CV_CRGO300517_1/PWRCCD_CRGO300517_1/CHARGE_DISCHARGE/CHARGE_#264.DTA
EXPLAIN
TAG	PWR800_CHARGE
TITLE	LABEL	PWR Cyclic Charge Discharge (Cell) - Charge Step	Test &Identifier
DATE	LABEL	22-6-2017	Date
TIME	LABEL	15:46:27	Time
NOTES	NOTES	3	&Notes...
	supercap test cell
	0.6mg
	6M KOH
PSTAT	PSTAT	IFC5000-01520	Potentiostat
CAPACITY	QUANT	1.00000E-003	Capacity (A-hr)
CELLTYPE	SELECTOR	1	&Cell Type
WORKINGCONNECTION	SELECTOR	0	&Working Lead
MAXCHARGETIME	VARIABLEANDUNITS	1.00000E+002	s	1.00000E+002	second(s)	Max &Charge Time
CHARGECURRENT	QUANT	6.00000E-003	&Charge Current (A)
VOLTAGEFINISH	TWOPARAM	F	1.00000E-003	3.60000E+003	&Voltage Finish	 I (A) < 	Max Time(s)
SAMPLETIME	QUANT	1.00000E-002	Sa&mple Period (s)
CHARGESTOPAT1	MULTIPARAM	4	1.00000E+000	Charge Stop At &1	Voltage > Limit	V
CHARGESTOPAT2	MULTIPARAM	0	0.00000E+000	Charge Stop At &2	None	N/A
AESBHCSELECTOR	TOGGLE	F	Save Both Half Cells
IRCOMP	TOGGLE	F	IR &Measure
EOC	QUANT	0	Open Circuit (V)
SEQUENCER	TOGGLE	TRUE	Run as Sequence
PSTATMODEL	IQUANT	53	Pstat Model
PSTATSECTION	LABEL	IFC5000-01520	Pstat Section
PSTATSERIALNO	LABEL	01520	Pstat Serial Number
CTRLMODE	IQUANT	0	Control Mode
ELECTROMETER	IQUANT	1	RE=0 or CS=1
IESTAB	IQUANT	0	I/E Stability
CASPEED	IQUANT	4	Control Amp Speed
CONVENTION	IQUANT	1	Current Convention
ICHRANGE	IQUANT	2	Ich Range
ICHRANGEMODE	TOGGLE	T	Ich Auto Range
ICHOFFSETENABLE	TOGGLE	F	Ich Offset Enable
ICHOFFSET	QUANT	0	Ich Offset (V)
ICHFILTER	IQUANT	1	Ich Filter
VCHRANGE	IQUANT	2	Vch Range
VCHRANGEMODE	TOGGLE	T	Vch Auto Range
VCHOFFSETENABLE	TOGGLE	F	Vch Offset Enable
VCHOFFSET	QUANT	0	Vch Offset (V)
VCHFILTER	IQUANT	1	Vch Filter
IERANGELOWERLIMIT	IQUANT	9	I/E Range Lower Limit
IERANGEMODE	TOGGLE	F	I/E AutoRange
IERANGE	IQUANT	10	I/E Range
ACHSELECT	IQUANT	1	Ach Select
ACHRANGE	IQUANT	2	Ach Range
ACHOFFSETENABLE	TOGGLE	F	Ach Offset Enable
ACHOFFSET	QUANT	0	Ach Offset (V)
ACHFILTER	IQUANT	1	Ach Filter
CABLEID	IQUANT	14	Cable ID
DCCALDATE	LABEL	20-10-2016	DC Calibration Date
ACCALDATE	LABEL	12/3/2015	AC Calibration Date
FRAMEWORKVERSION	QUANT	7.01	Framework Version
INSTRUMENTVERSION	LABEL	4.00	Instrument Version
CURVE	TABLE	63
	Pt	T	Vf	Im	Vu	Pwr	Sig	Ach	Temp	IERange	Over
	#	s	V	A	V	W	V	V	deg C	#	bits
	0	0.013333	6.12488E-001	5.99562E-003	0.00000E+000	3.67224E-003	3.59960E-001	-1.10032E+000	3.57810E+000	10	...........
	1	0.026667	6.21081E-001	5.98997E-003	0.00000E+000	3.72026E-003	3.59960E-001	-1.09948E+000	3.57810E+000	10	...........
	2	0.04	6.28934E-001	5.99526E-003	0.00000E+000	3.77063E-003	3.59960E-001	-1.10958E+000	3.57810E+000	10	...........
	3	0.053333	6.36396E-001	5.99813E-003	0.00000E+000	3.81719E-003	3.59960E-001	-1.10053E+000	3.57810E+000	10	...........
	4	0.066667	6.43575E-001	5.99221E-003	0.00000E+000	3.85643E-003	3.59960E-001	-1.09984E+000	3.57810E+000	10	...........
	5	0.08	6.50532E-001	5.99308E-003	0.00000E+000	3.89869E-003	3.59960E-001	-1.10953E+000	3.57810E+000	10	...........
	6	0.093333	6.57430E-001	5.99688E-003	0.00000E+000	3.94253E-003	3.59960E-001	-1.10031E+000	3.57810E+000	10	...........
	7	0.106667	6.64175E-001	5.99140E-003	0.00000E+000	3.97934E-003	3.59960E-001	-1.09965E+000	3.57810E+000	10	...........
	8	0.12	6.70869E-001	5.99225E-003	0.00000E+000	4.02001E-003	3.59960E-001	-1.10961E+000	3.57810E+000	10	...........
	9	0.133333	6.77452E-001	5.99500E-003	0.00000E+000	4.06133E-003	3.59960E-001	-1.10044E+000	3.57810E+000	10	...........
	10	0.146667	6.84000E-001	5.99491E-003	0.00000E+000	4.10051E-003	3.59960E-001	-1.09951E+000	3.57810E+000	10	...........
	11	0.16	6.90473E-001	5.99711E-003	0.00000E+000	4.14084E-003	3.59960E-001	-1.10936E+000	3.57810E+000	10	...........
	12	0.173333	6.96909E-001	5.99177E-003	0.00000E+000	4.17572E-003	3.59960E-001	-1.09999E+000	3.57810E+000	10	...........
	13	0.186667	7.03303E-001	5.99187E-003	0.00000E+000	4.21410E-003	3.59960E-001	-1.09927E+000	3.57810E+000	10	...........
	14	0.2	7.09703E-001	5.99561E-003	0.00000E+000	4.25510E-003	3.59960E-001	-1.10891E+000	3.57810E+000	10	...........
	15	0.213333	7.16029E-001	5.99677E-003	0.00000E+000	4.29386E-003	3.59960E-001	-1.09993E+000	3.57810E+000	10	...........
	16	0.226667	7.22369E-001	5.99416E-003	0.00000E+000	4.32999E-003	3.59960E-001	-1.09906E+000	3.57810E+000	10	...........
	17	0.24	7.28692E-001	5.99569E-003	0.00000E+000	4.36901E-003	3.59960E-001	-1.10899E+000	3.57810E+000	10	...........
	18	0.253333	7.34951E-001	5.99513E-003	0.00000E+000	4.40612E-003	3.59960E-001	-1.10000E+000	3.57810E+000	10	...........
	19	0.266667	7.41270E-001	5.99120E-003	0.00000E+000	4.44110E-003	3.59960E-001	-1.09890E+000	3.57810E+000	10	...........
	20	0.28	7.47567E-001	5.99578E-003	0.00000E+000	4.48225E-003	3.59960E-001	-1.10897E+000	3.57810E+000	10	...........
	21	0.293333	7.53823E-001	5.99575E-003	0.00000E+000	4.51974E-003	3.59960E-001	-1.09982E+000	3.57810E+000	10	...........
	22	0.306667	7.60094E-001	5.99721E-003	0.00000E+000	4.55845E-003	3.59960E-001	-1.09887E+000	3.57810E+000	10	...........
	23	0.32	7.66339E-001	5.99745E-003	0.00000E+000	4.59608E-003	3.59960E-001	-1.10897E+000	3.57810E+000	10	...........
	24	0.333333	7.72564E-001	5.99669E-003	0.00000E+000	4.63283E-003	3.59960E-001	-1.09984E+000	3.57810E+000	10	...........
	25	0.346667	7.78726E-001	5.99917E-003	0.00000E+000	4.67171E-003	3.59960E-001	-1.09872E+000	3.57810E+000	10	...........
	26	0.36	7.84923E-001	5.99788E-003	0.00000E+000	4.70788E-003	3.59960E-001	-1.10874E+000	3.57810E+000	10	...........
	27	0.373333	7.91121E-001	5.99504E-003	0.00000E+000	4.74280E-003	3.59960E-001	-1.09994E+000	3.57810E+000	10	...........
	28	0.386667	7.97333E-001	5.99320E-003	0.00000E+000	4.77857E-003	3.59960E-001	-1.09883E+000	3.57810E+000	10	...........
	29	0.4	8.03534E-001	5.99185E-003	0.00000E+000	4.81466E-003	3.59960E-001	-1.10878E+000	3.57810E+000	10	...........
	30	0.413333	8.09676E-001	5.99689E-003	0.00000E+000	4.85554E-003	3.59960E-001	-1.09986E+000	3.57810E+000	10	...........
	31	0.426667	8.15856E-001	5.99120E-003	0.00000E+000	4.88796E-003	3.59960E-001	-1.09884E+000	3.57810E+000	10	...........
	32	0.44	8.22037E-001	5.99282E-003	0.00000E+000	4.92632E-003	3.59960E-001	-1.10883E+000	3.57810E+000	10	...........
	33	0.453333	8.28130E-001	5.99610E-003	0.00000E+000	4.96555E-003	3.59960E-001	-1.10010E+000	3.57810E+000	10	...........
	34	0.466667	8.34233E-001	5.99036E-003	0.00000E+000	4.99735E-003	3.59960E-001	-1.09854E+000	3.57810E+000	10	...........
	35	0.48	8.40374E-001	5.99155E-003	0.00000E+000	5.03514E-003	3.59960E-001	-1.10861E+000	3.57810E+000	10	...........
	36	0.493333	8.46501E-001	5.98865E-003	0.00000E+000	5.06940E-003	3.59960E-001	-1.09990E+000	3.57810E+000	10	...........
	37	0.506667	8.52578E-001	5.99077E-003	0.00000E+000	5.10760E-003	3.59960E-001	-1.09839E+000	3.57810E+000	10	...........
	38	0.52	8.58694E-001	5.98979E-003	0.00000E+000	5.14339E-003	3.59960E-001	-1.10825E+000	3.57810E+000	10	...........
	39	0.533333	8.64743E-001	5.99611E-003	0.00000E+000	5.18509E-003	3.59960E-001	-1.09947E+000	3.57810E+000	10	...........
	40	0.546667	8.70812E-001	5.99178E-003	0.00000E+000	5.21772E-003	3.59960E-001	-1.09827E+000	3.57810E+000	10	...........
	41	0.56	8.76827E-001	5.99030E-003	0.00000E+000	5.25246E-003	3.59960E-001	-1.10858E+000	3.57741E+000	10	...........
	42	0.573333	8.82891E-001	5.99279E-003	0.00000E+000	5.29098E-003	3.59960E-001	-1.09987E+000	3.57700E+000	10	...........
	43	0.586667	8.88888E-001	5.99392E-003	0.00000E+000	5.32792E-003	3.59960E-001	-1.09819E+000	3.57700E+000	10	...........
	44	0.6	8.94859E-001	5.99527E-003	0.00000E+000	5.36492E-003	3.59960E-001	-1.10840E+000	3.57700E+000	10	...........
	45	0.613333	9.00787E-001	5.99155E-003	0.00000E+000	5.39711E-003	3.59960E-001	-1.09979E+000	3.57700E+000	10	...........
	46	0.626667	9.06748E-001	5.99176E-003	0.00000E+000	5.43302E-003	3.59960E-001	-1.09839E+000	3.57700E+000	10	...........
	47	0.64	9.12657E-001	5.99331E-003	0.00000E+000	5.46984E-003	3.59960E-001	-1.10838E+000	3.57700E+000	10	...........
	48	0.653333	9.18553E-001	5.99819E-003	0.00000E+000	5.50966E-003	3.59960E-001	-1.09982E+000	3.57700E+000	10	...........
	49	0.666667	9.24452E-001	5.99416E-003	0.00000E+000	5.54131E-003	3.59960E-001	-1.09822E+000	3.57700E+000	10	...........
	50	0.68	9.30293E-001	5.99057E-003	0.00000E+000	5.57299E-003	3.59960E-001	-1.10842E+000	3.57700E+000	10	...........
	51	0.693333	9.36074E-001	5.99236E-003	0.00000E+000	5.60929E-003	3.59960E-001	-1.09992E+000	3.57700E+000	10	...........
	52	0.706667	9.41839E-001	5.99223E-003	0.00000E+000	5.64371E-003	3.59960E-001	-1.09842E+000	3.57700E+000	10	...........
	53	0.72	9.47562E-001	5.99188E-003	0.00000E+000	5.67768E-003	3.59960E-001	-1.10869E+000	3.57700E+000	10	...........
	54	0.733333	9.53318E-001	5.99012E-003	0.00000E+000	5.71049E-003	3.59960E-001	-1.10024E+000	3.57700E+000	10	...........
	55	0.746667	9.58954E-001	5.99069E-003	0.00000E+000	5.74480E-003	3.59960E-001	-1.09862E+000	3.57700E+000	10	...........
	56	0.76	9.64602E-001	5.99699E-003	0.00000E+000	5.78471E-003	3.59960E-001	-1.10867E+000	3.57700E+000	10	...........
	57	0.773333	9.70259E-001	5.99485E-003	0.00000E+000	5.81655E-003	3.59960E-001	-1.10047E+000	3.57700E+000	10	...........
	58	0.786667	9.75875E-001	5.99135E-003	0.00000E+000	5.84681E-003	3.59960E-001	-1.09844E+000	3.57700E+000	10	...........
	59	0.8	9.81408E-001	5.99443E-003	0.00000E+000	5.88298E-003	3.59960E-001	-1.10866E+000	3.57700E+000	10	...........
	60	0.813333	9.86867E-001	5.99093E-003	0.00000E+000	5.91225E-003	3.59960E-001	-1.10019E+000	3.57700E+000	10	...........
	61	0.826667	9.92274E-001	5.99520E-003	0.00000E+000	5.94888E-003	3.59960E-001	-1.09834E+000	3.57700E+000	10	...........
	62	0.84	9.97681E-001	5.98967E-003	0.00000E+000	5.97578E-003	3.59960E-001	-1.10833E+000	3.57700E+000	10	...........
STARTTIMEOFFSET	QUANT	481.4234	Start Time Offset (s)