File: Data/CV_CRGO300517_1/PWRCCD_CRGO300517_1/CHARGE_DISCHARGE/CHARGE_#800.DTA
EXPLAIN
TAG	PWR800_CHARGE
TITLE	LABEL	PWR Cyclic Charge Discharge (Cell) - Charge Step	Test &Identifier
DATE	LABEL	22-6-2017	Date
TIME	LABEL	16:07:17	Time
NOTES	NOTES	3	&Notes...
	supercap test cell
	0.6mg
	6M KOH
PSTAT	PSTAT	IFC5000-01520	Potentiostat
CAPACITY	QUANT	1.00000E-003	Capacity (A-hr)
CELLTYPE	SELECTOR	1	&Cell Type
WORKINGCONNECTION	SELECTOR	0	&Working Lead
MAXCHARGETIME	VARIABLEANDUNITS	1.00000E+002	s	1.00000E+002	second(s)	Max &Charge Time
CHARGECURRENT	QUANT	6.00000E-003	&Charge Current (A)
VOLTAGEFINISH	TWOPARAM	F	1.00000E-003	3.60000E+003	&Voltage Finish	 I (A) < 	Max Time(s)
SAMPLETIME	QUANT	1.00000E-002	Sa&mple Period (s)
CHARGESTOPAT1	MULTIPARAM	4	1.00000E+000	Charge Stop At &1	Voltage > Limit	V
CHARGESTOPAT2	MULTIPARAM	0	0.00000E+000	Charge Stop At &2	None	N/A
AESBHCSELECTOR	TOGGLE	F	Save Both Half Cells
IRCOMP	TOGGLE	F	IR &Measure
EOC	QUANT	0	Open Circuit (V)
SEQUENCER	TOGGLE	TRUE	Run as Sequence
PSTATMODEL	IQUANT	53	Pstat Model
PSTATSECTION	LABEL	IFC5000-01520	Pstat Section
PSTATSERIALNO	LABEL	01520	Pstat Serial Number
CTRLMODE	IQUANT	0	Control Mode
ELECTROMETER	IQUANT	1	RE=0 or CS=1
IESTAB	IQUANT	0	I/E Stability
CASPEED	IQUANT	4	Control Amp Speed
CONVENTION	IQUANT	1	Current Convention
ICHRANGE	IQUANT	2	Ich Range
ICHRANGEMODE	TOGGLE	T	Ich Auto Range
ICHOFFSETENABLE	TOGGLE	F	Ich Offset Enable
ICHOFFSET	QUANT	0	Ich Offset (V)
ICHFILTER	IQUANT	1	Ich Filter
VCHRANGE	IQUANT	2	Vch Range
VCHRANGEMODE	TOGGLE	T	Vch Auto Range
VCHOFFSETENABLE	TOGGLE	F	Vch Offset Enable
VCHOFFSET	QUANT	0	Vch Offset (V)
VCHFILTER	IQUANT	1	Vch Filter
IERANGELOWERLIMIT	IQUANT	9	I/E Range Lower Limit
IERANGEMODE	TOGGLE	F	I/E AutoRange
IERANGE	IQUANT	10	I/E Range
ACHSELECT	IQUANT	1	Ach Select
ACHRANGE	IQUANT	2	Ach Range
ACHOFFSETENABLE	TOGGLE	F	Ach Offset Enable
ACHOFFSET	QUANT	0	Ach Offset (V)
ACHFILTER	IQUANT	1	Ach Filter
CABLEID	IQUANT	14	Cable ID
DCCALDATE	LABEL	20-10-2016	DC Calibration Date
ACCALDATE	LABEL	12/3/2015	AC Calibration Date
FRAMEWORKVERSION	QUANT	7.01	Framework Version
INSTRUMENTVERSION	LABEL	4.00	Instrument Version
CURVE	TABLE	54
	Pt	T	Vf	Im	Vu	Pwr	Sig	Ach	Temp	IERange	Over
	#	s	V	A	V	W	V	V	deg C	#	bits
	0	0.013333	6.48612E-001	5.99549E-003	0.00000E+000	3.88875E-003	3.59960E-001	-1.17061E+000	3.57780E+000	10	...........
	1	0.026667	6.57786E-001	5.99051E-003	0.00000E+000	3.94047E-003	3.59960E-001	-1.17262E+000	3.57780E+000	10	...........
	2	0.04	6.66276E-001	5.99237E-003	0.00000E+000	3.99257E-003	3.59960E-001	-1.16414E+000	3.57780E+000	10	...........
	3	0.053333	6.74276E-001	5.98905E-003	0.00000E+000	4.03827E-003	3.59960E-001	-1.17048E+000	3.57780E+000	10	...........
	4	0.066667	6.81985E-001	5.99223E-003	0.00000E+000	4.08661E-003	3.59960E-001	-1.17208E+000	3.57780E+000	10	...........
	5	0.08	6.89493E-001	5.99390E-003	0.00000E+000	4.13275E-003	3.59960E-001	-1.16409E+000	3.57780E+000	10	...........
	6	0.093333	6.96901E-001	5.98967E-003	0.00000E+000	4.17421E-003	3.59960E-001	-1.17066E+000	3.57780E+000	10	...........
	7	0.106667	7.04196E-001	5.99398E-003	0.00000E+000	4.22094E-003	3.59960E-001	-1.17219E+000	3.57780E+000	10	...........
	8	0.12	7.11332E-001	5.99472E-003	0.00000E+000	4.26424E-003	3.59960E-001	-1.16366E+000	3.57780E+000	10	...........
	9	0.133333	7.18475E-001	5.99203E-003	0.00000E+000	4.30512E-003	3.59960E-001	-1.16975E+000	3.57780E+000	10	...........
	10	0.146667	7.25485E-001	5.99491E-003	0.00000E+000	4.34922E-003	3.59960E-001	-1.17183E+000	3.57780E+000	10	...........
	11	0.16	7.32428E-001	5.99354E-003	0.00000E+000	4.38983E-003	3.59960E-001	-1.16385E+000	3.57780E+000	10	...........
	12	0.173333	7.39366E-001	5.99576E-003	0.00000E+000	4.43307E-003	3.59960E-001	-1.17004E+000	3.57780E+000	10	...........
	13	0.186667	7.46318E-001	5.99380E-003	0.00000E+000	4.47328E-003	3.59960E-001	-1.17169E+000	3.57780E+000	10	...........
	14	0.2	7.53180E-001	6.00000E-003	0.00000E+000	4.51908E-003	3.59960E-001	-1.16328E+000	3.57780E+000	10	...........
	15	0.213333	7.59963E-001	5.99330E-003	0.00000E+000	4.55469E-003	3.59960E-001	-1.16995E+000	3.57780E+000	10	...........
	16	0.226667	7.66740E-001	5.99690E-003	0.00000E+000	4.59806E-003	3.59960E-001	-1.17184E+000	3.57780E+000	10	...........
	17	0.24	7.73504E-001	5.99335E-003	0.00000E+000	4.63588E-003	3.59960E-001	-1.16367E+000	3.57780E+000	10	...........
	18	0.253333	7.80238E-001	5.99001E-003	0.00000E+000	4.67363E-003	3.59960E-001	-1.16962E+000	3.57780E+000	10	...........
	19	0.266667	7.86925E-001	5.99720E-003	0.00000E+000	4.71935E-003	3.59960E-001	-1.17127E+000	3.57780E+000	10	...........
	20	0.28	7.93599E-001	5.99412E-003	0.00000E+000	4.75692E-003	3.59960E-001	-1.16316E+000	3.57780E+000	10	...........
	21	0.293333	8.00271E-001	5.99312E-003	0.00000E+000	4.79613E-003	3.59960E-001	-1.16970E+000	3.57780E+000	10	...........
	22	0.306667	8.06910E-001	5.99910E-003	0.00000E+000	4.84073E-003	3.59960E-001	-1.17123E+000	3.57780E+000	10	...........
	23	0.32	8.13478E-001	5.99615E-003	0.00000E+000	4.87773E-003	3.59960E-001	-1.16312E+000	3.57780E+000	10	...........
	24	0.333333	8.20131E-001	5.99560E-003	0.00000E+000	4.91718E-003	3.59960E-001	-1.16919E+000	3.57780E+000	10	...........
	25	0.346667	8.26662E-001	5.99059E-003	0.00000E+000	4.95220E-003	3.59960E-001	-1.17132E+000	3.57780E+000	10	...........
	26	0.36	8.33252E-001	5.99418E-003	0.00000E+000	4.99466E-003	3.59960E-001	-1.16333E+000	3.57780E+000	10	...........
	27	0.373333	8.39777E-001	5.99208E-003	0.00000E+000	5.03201E-003	3.59960E-001	-1.16966E+000	3.57780E+000	10	...........
	28	0.386667	8.46271E-001	5.99366E-003	0.00000E+000	5.07226E-003	3.59960E-001	-1.17127E+000	3.57780E+000	10	...........
	29	0.4	8.52755E-001	5.98993E-003	0.00000E+000	5.10794E-003	3.59960E-001	-1.16297E+000	3.57780E+000	10	...........
	30	0.413333	8.59238E-001	6.00015E-003	0.00000E+000	5.15556E-003	3.59960E-001	-1.16929E+000	3.57780E+000	10	...........
	31	0.426667	8.65724E-001	5.99520E-003	0.00000E+000	5.19019E-003	3.59960E-001	-1.17112E+000	3.57780E+000	10	...........
	32	0.44	8.72134E-001	5.99266E-003	0.00000E+000	5.22641E-003	3.59960E-001	-1.16272E+000	3.57780E+000	10	...........
	33	0.453333	8.78474E-001	5.99849E-003	0.00000E+000	5.26951E-003	3.59960E-001	-1.16878E+000	3.57780E+000	10	...........
	34	0.466667	8.84821E-001	5.99470E-003	0.00000E+000	5.30424E-003	3.59960E-001	-1.17086E+000	3.57780E+000	10	...........
	35	0.48	8.91151E-001	5.99852E-003	0.00000E+000	5.34559E-003	3.59960E-001	-1.16279E+000	3.57780E+000	10	...........
	36	0.493333	8.97425E-001	5.99472E-003	0.00000E+000	5.37981E-003	3.59960E-001	-1.16916E+000	3.57780E+000	10	...........
	37	0.506667	9.03663E-001	5.99697E-003	0.00000E+000	5.41924E-003	3.59960E-001	-1.17083E+000	3.57780E+000	10	...........
	38	0.52	9.09868E-001	5.99452E-003	0.00000E+000	5.45422E-003	3.59960E-001	-1.16260E+000	3.57780E+000	10	...........
	39	0.533333	9.16042E-001	5.99420E-003	0.00000E+000	5.49093E-003	3.59960E-001	-1.16878E+000	3.57780E+000	10	...........
	40	0.546667	9.22179E-001	5.99341E-003	0.00000E+000	5.52699E-003	3.59960E-001	-1.17086E+000	3.57780E+000	10	...........
	41	0.56	9.28276E-001	5.99918E-003	0.00000E+000	5.56890E-003	3.59960E-001	-1.16297E+000	3.57780E+000	10	...........
	42	0.573333	9.34321E-001	5.99711E-003	0.00000E+000	5.60322E-003	3.59960E-001	-1.16906E+000	3.57780E+000	10	...........
	43	0.586667	9.40306E-001	5.99181E-003	0.00000E+000	5.63413E-003	3.59960E-001	-1.17067E+000	3.57780E+000	10	...........
	44	0.6	9.46335E-001	5.99366E-003	0.00000E+000	5.67201E-003	3.59960E-001	-1.16281E+000	3.57780E+000	10	...........
	45	0.613333	9.52255E-001	5.99443E-003	0.00000E+000	5.70822E-003	3.59960E-001	-1.16919E+000	3.57780E+000	10	...........
	46	0.626667	9.58130E-001	5.99506E-003	0.00000E+000	5.74405E-003	3.59960E-001	-1.17088E+000	3.57780E+000	10	...........
	47	0.64	9.63968E-001	5.99472E-003	0.00000E+000	5.77872E-003	3.59960E-001	-1.16263E+000	3.57780E+000	10	...........
	48	0.653333	9.69729E-001	5.99195E-003	0.00000E+000	5.81056E-003	3.59960E-001	-1.16906E+000	3.57780E+000	10	...........
	49	0.666667	9.75499E-001	5.99175E-003	0.00000E+000	5.84494E-003	3.59960E-001	-1.17126E+000	3.57780E+000	10	...........
	50	0.68	9.81134E-001	5.99141E-003	0.00000E+000	5.87838E-003	3.59960E-001	-1.16280E+000	3.57780E+000	10	...........
	51	0.693333	9.86800E-001	5.98983E-003	0.00000E+000	5.91076E-003	3.59960E-001	-1.16892E+000	3.57780E+000	10	...........
	52	0.706667	9.92384E-001	5.99394E-003	0.00000E+000	5.94829E-003	3.59960E-001	-1.17105E+000	3.57780E+000	10	...........
	53	0.72	9.97933E-001	5.99328E-003	0.00000E+000	5.98089E-003	3.59960E-001	-1.16284E+000	3.57780E+000	10	...........
STARTTIMEOFFSET	QUANT	1304.117	Start Time Offset (s)