File: Data/CV_CRGO300517_1/PWRCCD_CRGO300517_1/CHARGE_DISCHARGE/CHARGE_#328.DTA
EXPLAIN
TAG	PWR800_CHARGE
TITLE	LABEL	PWR Cyclic Charge Discharge (Cell) - Charge Step	Test &Identifier
DATE	LABEL	22-6-2017	Date
TIME	LABEL	15:49:04	Time
NOTES	NOTES	3	&Notes...
	supercap test cell
	0.6mg
	6M KOH
PSTAT	PSTAT	IFC5000-01520	Potentiostat
CAPACITY	QUANT	1.00000E-003	Capacity (A-hr)
CELLTYPE	SELECTOR	1	&Cell Type
WORKINGCONNECTION	SELECTOR	0	&Working Lead
MAXCHARGETIME	VARIABLEANDUNITS	1.00000E+002	s	1.00000E+002	second(s)	Max &Charge Time
CHARGECURRENT	QUANT	6.00000E-003	&Charge Current (A)
VOLTAGEFINISH	TWOPARAM	F	1.00000E-003	3.60000E+003	&Voltage Finish	 I (A) < 	Max Time(s)
SAMPLETIME	QUANT	1.00000E-002	Sa&mple Period (s)
CHARGESTOPAT1	MULTIPARAM	4	1.00000E+000	Charge Stop At &1	Voltage > Limit	V
CHARGESTOPAT2	MULTIPARAM	0	0.00000E+000	Charge Stop At &2	None	N/A
AESBHCSELECTOR	TOGGLE	F	Save Both Half Cells
IRCOMP	TOGGLE	F	IR &Measure
EOC	QUANT	0	Open Circuit (V)
SEQUENCER	TOGGLE	TRUE	Run as Sequence
PSTATMODEL	IQUANT	53	Pstat Model
PSTATSECTION	LABEL	IFC5000-01520	Pstat Section
PSTATSERIALNO	LABEL	01520	Pstat Serial Number
CTRLMODE	IQUANT	0	Control Mode
ELECTROMETER	IQUANT	1	RE=0 or CS=1
IESTAB	IQUANT	0	I/E Stability
CASPEED	IQUANT	4	Control Amp Speed
CONVENTION	IQUANT	1	Current Convention
ICHRANGE	IQUANT	2	Ich Range
ICHRANGEMODE	TOGGLE	T	Ich Auto Range
ICHOFFSETENABLE	TOGGLE	F	Ich Offset Enable
ICHOFFSET	QUANT	0	Ich Offset (V)
ICHFILTER	IQUANT	1	Ich Filter
VCHRANGE	IQUANT	2	Vch Range
VCHRANGEMODE	TOGGLE	T	Vch Auto Range
VCHOFFSETENABLE	TOGGLE	F	Vch Offset Enable
VCHOFFSET	QUANT	0	Vch Offset (V)
VCHFILTER	IQUANT	1	Vch Filter
IERANGELOWERLIMIT	IQUANT	9	I/E Range Lower Limit
IERANGEMODE	TOGGLE	F	I/E AutoRange
IERANGE	IQUANT	10	I/E Range
ACHSELECT	IQUANT	1	Ach Select
ACHRANGE	IQUANT	2	Ach Range
ACHOFFSETENABLE	TOGGLE	F	Ach Offset Enable
ACHOFFSET	QUANT	0	Ach Offset (V)
ACHFILTER	IQUANT	1	Ach Filter
CABLEID	IQUANT	14	Cable ID
DCCALDATE	LABEL	20-10-2016	DC Calibration Date
ACCALDATE	LABEL	12/3/2015	AC Calibration Date
FRAMEWORKVERSION	QUANT	7.01	Framework Version
INSTRUMENTVERSION	LABEL	4.00	Instrument Version
CURVE	TABLE	62
	Pt	T	Vf	Im	Vu	Pwr	Sig	Ach	Temp	IERange	Over
	#	s	V	A	V	W	V	V	deg C	#	bits
	0	0.013333	6.18759E-001	6.00018E-003	0.00000E+000	3.71266E-003	3.59960E-001	-1.12312E+000	3.57690E+000	10	...........
	1	0.026667	6.27425E-001	5.99736E-003	0.00000E+000	3.76289E-003	3.59960E-001	-1.11393E+000	3.57690E+000	10	...........
	2	0.04	6.35333E-001	5.99250E-003	0.00000E+000	3.80723E-003	3.59960E-001	-1.11275E+000	3.57690E+000	10	...........
	3	0.053333	6.42911E-001	5.99389E-003	0.00000E+000	3.85353E-003	3.59960E-001	-1.12337E+000	3.57690E+000	10	...........
	4	0.066667	6.50147E-001	5.99832E-003	0.00000E+000	3.89979E-003	3.59960E-001	-1.11347E+000	3.57690E+000	10	...........
	5	0.08	6.57189E-001	5.98874E-003	0.00000E+000	3.93573E-003	3.59960E-001	-1.11245E+000	3.57690E+000	10	...........
	6	0.093333	6.64117E-001	5.99711E-003	0.00000E+000	3.98278E-003	3.59960E-001	-1.12311E+000	3.57690E+000	10	...........
	7	0.106667	6.71010E-001	5.99799E-003	0.00000E+000	4.02471E-003	3.59960E-001	-1.11362E+000	3.57690E+000	10	...........
	8	0.12	6.77710E-001	5.99204E-003	0.00000E+000	4.06086E-003	3.59960E-001	-1.11228E+000	3.57690E+000	10	...........
	9	0.133333	6.84331E-001	5.99155E-003	0.00000E+000	4.10020E-003	3.59960E-001	-1.12222E+000	3.57690E+000	10	...........
	10	0.146667	6.90967E-001	5.99131E-003	0.00000E+000	4.13980E-003	3.59960E-001	-1.11304E+000	3.57690E+000	10	...........
	11	0.16	6.97557E-001	5.99740E-003	0.00000E+000	4.18353E-003	3.59960E-001	-1.11210E+000	3.57690E+000	10	...........
	12	0.173333	7.04073E-001	5.99657E-003	0.00000E+000	4.22202E-003	3.59960E-001	-1.12256E+000	3.57690E+000	10	...........
	13	0.186667	7.10551E-001	5.99444E-003	0.00000E+000	4.25935E-003	3.59960E-001	-1.11294E+000	3.57690E+000	10	...........
	14	0.2	7.17013E-001	5.99546E-003	0.00000E+000	4.29882E-003	3.59960E-001	-1.11151E+000	3.57690E+000	10	...........
	15	0.213333	7.23472E-001	5.99724E-003	0.00000E+000	4.33884E-003	3.59960E-001	-1.12208E+000	3.57690E+000	10	...........
	16	0.226667	7.29862E-001	5.99757E-003	0.00000E+000	4.37739E-003	3.59960E-001	-1.11286E+000	3.57690E+000	10	...........
	17	0.24	7.36225E-001	5.99347E-003	0.00000E+000	4.41254E-003	3.59960E-001	-1.11148E+000	3.57690E+000	10	...........
	18	0.253333	7.42560E-001	5.99054E-003	0.00000E+000	4.44833E-003	3.59960E-001	-1.12177E+000	3.57690E+000	10	...........
	19	0.266667	7.48935E-001	5.99553E-003	0.00000E+000	4.49026E-003	3.59960E-001	-1.11263E+000	3.57690E+000	10	...........
	20	0.28	7.55292E-001	5.99547E-003	0.00000E+000	4.52833E-003	3.59960E-001	-1.11121E+000	3.57690E+000	10	...........
	21	0.293333	7.61611E-001	5.99400E-003	0.00000E+000	4.56510E-003	3.59960E-001	-1.12174E+000	3.57690E+000	10	...........
	22	0.306667	7.67931E-001	5.99296E-003	0.00000E+000	4.60218E-003	3.59960E-001	-1.11241E+000	3.57690E+000	10	...........
	23	0.32	7.74224E-001	5.99413E-003	0.00000E+000	4.64080E-003	3.59960E-001	-1.11097E+000	3.57690E+000	10	...........
	24	0.333333	7.80543E-001	5.99169E-003	0.00000E+000	4.67677E-003	3.59960E-001	-1.12154E+000	3.57690E+000	10	...........
	25	0.346667	7.86825E-001	5.99394E-003	0.00000E+000	4.71618E-003	3.59960E-001	-1.11273E+000	3.57690E+000	10	...........
	26	0.36	7.93123E-001	5.98794E-003	0.00000E+000	4.74917E-003	3.59960E-001	-1.11126E+000	3.57690E+000	10	...........
	27	0.373333	7.99419E-001	5.99371E-003	0.00000E+000	4.79148E-003	3.59960E-001	-1.12203E+000	3.57690E+000	10	...........
	28	0.386667	8.05645E-001	5.99466E-003	0.00000E+000	4.82956E-003	3.59960E-001	-1.11285E+000	3.57690E+000	10	...........
	29	0.4	8.11916E-001	5.99817E-003	0.00000E+000	4.87001E-003	3.59960E-001	-1.11129E+000	3.57690E+000	10	...........
	30	0.413333	8.18104E-001	6.00064E-003	0.00000E+000	4.90915E-003	3.59960E-001	-1.12228E+000	3.57690E+000	10	...........
	31	0.426667	8.24353E-001	5.99815E-003	0.00000E+000	4.94459E-003	3.59960E-001	-1.11285E+000	3.57690E+000	10	...........
	32	0.44	8.30549E-001	5.99932E-003	0.00000E+000	4.98273E-003	3.59960E-001	-1.11132E+000	3.57690E+000	10	...........
	33	0.453333	8.36727E-001	5.99246E-003	0.00000E+000	5.01405E-003	3.59960E-001	-1.12186E+000	3.57690E+000	10	...........
	34	0.466667	8.42895E-001	5.99829E-003	0.00000E+000	5.05592E-003	3.59960E-001	-1.11287E+000	3.57690E+000	10	...........
	35	0.48	8.49099E-001	5.99799E-003	0.00000E+000	5.09289E-003	3.59960E-001	-1.11110E+000	3.57690E+000	10	...........
	36	0.493333	8.55213E-001	5.99113E-003	0.00000E+000	5.12369E-003	3.59960E-001	-1.12155E+000	3.57690E+000	10	...........
	37	0.506667	8.61360E-001	5.99349E-003	0.00000E+000	5.16255E-003	3.59960E-001	-1.11270E+000	3.57690E+000	10	...........
	38	0.52	8.67496E-001	5.99640E-003	0.00000E+000	5.20185E-003	3.59960E-001	-1.11095E+000	3.57690E+000	10	...........
	39	0.533333	8.73596E-001	5.99306E-003	0.00000E+000	5.23551E-003	3.59960E-001	-1.12142E+000	3.57690E+000	10	...........
	40	0.546667	8.79708E-001	5.99108E-003	0.00000E+000	5.27040E-003	3.59960E-001	-1.11245E+000	3.57690E+000	10	...........
	41	0.56	8.85783E-001	5.99439E-003	0.00000E+000	5.30973E-003	3.59960E-001	-1.11056E+000	3.57690E+000	10	...........
	42	0.573333	8.91848E-001	5.99268E-003	0.00000E+000	5.34455E-003	3.59960E-001	-1.12124E+000	3.57690E+000	10	...........
	43	0.586667	8.97869E-001	5.99717E-003	0.00000E+000	5.38467E-003	3.59960E-001	-1.11248E+000	3.57690E+000	10	...........
	44	0.6	9.03818E-001	5.99607E-003	0.00000E+000	5.41935E-003	3.59960E-001	-1.11039E+000	3.57690E+000	10	...........
	45	0.613333	9.09851E-001	5.99358E-003	0.00000E+000	5.45326E-003	3.59960E-001	-1.12110E+000	3.57690E+000	10	...........
	46	0.626667	9.15819E-001	5.99514E-003	0.00000E+000	5.49046E-003	3.59960E-001	-1.11208E+000	3.57690E+000	10	...........
	47	0.64	9.21795E-001	5.99476E-003	0.00000E+000	5.52594E-003	3.59960E-001	-1.11001E+000	3.57690E+000	10	...........
	48	0.653333	9.27709E-001	5.99340E-003	0.00000E+000	5.56012E-003	3.59960E-001	-1.12067E+000	3.57690E+000	10	...........
	49	0.666667	9.33576E-001	5.99122E-003	0.00000E+000	5.59325E-003	3.59960E-001	-1.11223E+000	3.57690E+000	10	...........
	50	0.68	9.39374E-001	5.99232E-003	0.00000E+000	5.62903E-003	3.59960E-001	-1.10996E+000	3.57690E+000	10	...........
	51	0.693333	9.45191E-001	5.99542E-003	0.00000E+000	5.66682E-003	3.59960E-001	-1.12066E+000	3.57690E+000	10	...........
	52	0.706667	9.50983E-001	5.99168E-003	0.00000E+000	5.69799E-003	3.59960E-001	-1.11235E+000	3.57690E+000	10	...........
	53	0.72	9.56682E-001	5.99629E-003	0.00000E+000	5.73655E-003	3.59960E-001	-1.11026E+000	3.57690E+000	10	...........
	54	0.733333	9.62393E-001	5.99232E-003	0.00000E+000	5.76696E-003	3.59960E-001	-1.12066E+000	3.57690E+000	10	...........
	55	0.746667	9.67975E-001	5.99774E-003	0.00000E+000	5.80566E-003	3.59960E-001	-1.11234E+000	3.57690E+000	10	...........
	56	0.76	9.73607E-001	5.99639E-003	0.00000E+000	5.83812E-003	3.59960E-001	-1.11023E+000	3.57690E+000	10	...........
	57	0.773333	9.79205E-001	5.99418E-003	0.00000E+000	5.86953E-003	3.59960E-001	-1.12074E+000	3.57690E+000	10	...........
	58	0.786667	9.84760E-001	5.99865E-003	0.00000E+000	5.90723E-003	3.59960E-001	-1.11217E+000	3.57690E+000	10	...........
	59	0.8	9.90252E-001	5.98687E-003	0.00000E+000	5.92850E-003	3.59960E-001	-1.10992E+000	3.57690E+000	10	...........
	60	0.813333	9.95676E-001	5.99216E-003	0.00000E+000	5.96625E-003	3.59960E-001	-1.12031E+000	3.57690E+000	10	...........
	61	0.818333	9.99414E-001	5.99340E-003	0.00000E+000	5.98989E-003	3.59960E-001	-1.09928E+000	3.57690E+000	10	...........
STARTTIMEOFFSET	QUANT	586.9881	Start Time Offset (s)