File: Data/CV_CRGO300517_1/PWRCCD_CRGO300517_1/CHARGE_DISCHARGE/CHARGE_#477.DTA
EXPLAIN
TAG	PWR800_CHARGE
TITLE	LABEL	PWR Cyclic Charge Discharge (Cell) - Charge Step	Test &Identifier
DATE	LABEL	22-6-2017	Date
TIME	LABEL	15:55:01	Time
NOTES	NOTES	3	&Notes...
	supercap test cell
	0.6mg
	6M KOH
PSTAT	PSTAT	IFC5000-01520	Potentiostat
CAPACITY	QUANT	1.00000E-003	Capacity (A-hr)
CELLTYPE	SELECTOR	1	&Cell Type
WORKINGCONNECTION	SELECTOR	0	&Working Lead
MAXCHARGETIME	VARIABLEANDUNITS	1.00000E+002	s	1.00000E+002	second(s)	Max &Charge Time
CHARGECURRENT	QUANT	6.00000E-003	&Charge Current (A)
VOLTAGEFINISH	TWOPARAM	F	1.00000E-003	3.60000E+003	&Voltage Finish	 I (A) < 	Max Time(s)
SAMPLETIME	QUANT	1.00000E-002	Sa&mple Period (s)
CHARGESTOPAT1	MULTIPARAM	4	1.00000E+000	Charge Stop At &1	Voltage > Limit	V
CHARGESTOPAT2	MULTIPARAM	0	0.00000E+000	Charge Stop At &2	None	N/A
AESBHCSELECTOR	TOGGLE	F	Save Both Half Cells
IRCOMP	TOGGLE	F	IR &Measure
EOC	QUANT	0	Open Circuit (V)
SEQUENCER	TOGGLE	TRUE	Run as Sequence
PSTATMODEL	IQUANT	53	Pstat Model
PSTATSECTION	LABEL	IFC5000-01520	Pstat Section
PSTATSERIALNO	LABEL	01520	Pstat Serial Number
CTRLMODE	IQUANT	0	Control Mode
ELECTROMETER	IQUANT	1	RE=0 or CS=1
IESTAB	IQUANT	0	I/E Stability
CASPEED	IQUANT	4	Control Amp Speed
CONVENTION	IQUANT	1	Current Convention
ICHRANGE	IQUANT	2	Ich Range
ICHRANGEMODE	TOGGLE	T	Ich Auto Range
ICHOFFSETENABLE	TOGGLE	F	Ich Offset Enable
ICHOFFSET	QUANT	0	Ich Offset (V)
ICHFILTER	IQUANT	1	Ich Filter
VCHRANGE	IQUANT	2	Vch Range
VCHRANGEMODE	TOGGLE	T	Vch Auto Range
VCHOFFSETENABLE	TOGGLE	F	Vch Offset Enable
VCHOFFSET	QUANT	0	Vch Offset (V)
VCHFILTER	IQUANT	1	Vch Filter
IERANGELOWERLIMIT	IQUANT	9	I/E Range Lower Limit
IERANGEMODE	TOGGLE	F	I/E AutoRange
IERANGE	IQUANT	10	I/E Range
ACHSELECT	IQUANT	1	Ach Select
ACHRANGE	IQUANT	2	Ach Range
ACHOFFSETENABLE	TOGGLE	F	Ach Offset Enable
ACHOFFSET	QUANT	0	Ach Offset (V)
ACHFILTER	IQUANT	1	Ach Filter
CABLEID	IQUANT	14	Cable ID
DCCALDATE	LABEL	20-10-2016	DC Calibration Date
ACCALDATE	LABEL	12/3/2015	AC Calibration Date
FRAMEWORKVERSION	QUANT	7.01	Framework Version
INSTRUMENTVERSION	LABEL	4.00	Instrument Version
CURVE	TABLE	59
	Pt	T	Vf	Im	Vu	Pwr	Sig	Ach	Temp	IERange	Over
	#	s	V	A	V	W	V	V	deg C	#	bits
	0	0.013333	6.30584E-001	5.98666E-003	0.00000E+000	3.77509E-003	3.59960E-001	-1.13872E+000	3.57670E+000	10	...........
	1	0.026667	6.39452E-001	5.99514E-003	0.00000E+000	3.83360E-003	3.59960E-001	-1.14547E+000	3.57670E+000	10	...........
	2	0.04	6.47572E-001	5.99662E-003	0.00000E+000	3.88324E-003	3.59960E-001	-1.14564E+000	3.57670E+000	10	...........
	3	0.053333	6.55260E-001	5.99131E-003	0.00000E+000	3.92587E-003	3.59960E-001	-1.13844E+000	3.57670E+000	10	...........
	4	0.066667	6.62691E-001	5.99480E-003	0.00000E+000	3.97270E-003	3.59960E-001	-1.14528E+000	3.57670E+000	10	...........
	5	0.08	6.69983E-001	5.99269E-003	0.00000E+000	4.01500E-003	3.59960E-001	-1.14533E+000	3.57670E+000	10	...........
	6	0.093333	6.77051E-001	5.99264E-003	0.00000E+000	4.05732E-003	3.59960E-001	-1.13797E+000	3.57670E+000	10	...........
	7	0.106667	6.84042E-001	5.99248E-003	0.00000E+000	4.09911E-003	3.59960E-001	-1.14489E+000	3.57670E+000	10	...........
	8	0.12	6.90990E-001	5.99822E-003	0.00000E+000	4.14471E-003	3.59960E-001	-1.14470E+000	3.57670E+000	10	...........
	9	0.133333	6.97862E-001	5.99165E-003	0.00000E+000	4.18135E-003	3.59960E-001	-1.13764E+000	3.57670E+000	10	...........
	10	0.146667	7.04631E-001	5.99613E-003	0.00000E+000	4.22506E-003	3.59960E-001	-1.14487E+000	3.57670E+000	10	...........
	11	0.16	7.11327E-001	5.99424E-003	0.00000E+000	4.26387E-003	3.59960E-001	-1.14458E+000	3.57670E+000	10	...........
	12	0.173333	7.17972E-001	5.99121E-003	0.00000E+000	4.30153E-003	3.59960E-001	-1.13756E+000	3.57670E+000	10	...........
	13	0.186667	7.24651E-001	5.99564E-003	0.00000E+000	4.34474E-003	3.59960E-001	-1.14493E+000	3.57670E+000	10	...........
	14	0.2	7.31283E-001	6.00126E-003	0.00000E+000	4.38862E-003	3.59960E-001	-1.14417E+000	3.57670E+000	10	...........
	15	0.213333	7.37867E-001	5.99292E-003	0.00000E+000	4.42197E-003	3.59960E-001	-1.13740E+000	3.57670E+000	10	...........
	16	0.226667	7.44413E-001	5.99550E-003	0.00000E+000	4.46313E-003	3.59960E-001	-1.14461E+000	3.57670E+000	10	...........
	17	0.24	7.50928E-001	5.99653E-003	0.00000E+000	4.50297E-003	3.59960E-001	-1.14353E+000	3.57670E+000	10	...........
	18	0.253333	7.57439E-001	5.99468E-003	0.00000E+000	4.54061E-003	3.59960E-001	-1.13701E+000	3.57670E+000	10	...........
	19	0.266667	7.63948E-001	5.99424E-003	0.00000E+000	4.57929E-003	3.59960E-001	-1.14422E+000	3.57670E+000	10	...........
	20	0.28	7.70438E-001	5.99233E-003	0.00000E+000	4.61672E-003	3.59960E-001	-1.14269E+000	3.57670E+000	10	...........
	21	0.293333	7.76893E-001	5.99331E-003	0.00000E+000	4.65616E-003	3.59960E-001	-1.13644E+000	3.57670E+000	10	...........
	22	0.306667	7.83353E-001	5.99113E-003	0.00000E+000	4.69317E-003	3.59960E-001	-1.14411E+000	3.57670E+000	10	...........
	23	0.32	7.89776E-001	5.99602E-003	0.00000E+000	4.73552E-003	3.59960E-001	-1.14260E+000	3.57670E+000	10	...........
	24	0.333333	7.96252E-001	6.00193E-003	0.00000E+000	4.77905E-003	3.59960E-001	-1.13621E+000	3.57670E+000	10	...........
	25	0.346667	8.02660E-001	5.99548E-003	0.00000E+000	4.81233E-003	3.59960E-001	-1.14385E+000	3.57670E+000	10	...........
	26	0.36	8.09063E-001	5.99605E-003	0.00000E+000	4.85119E-003	3.59960E-001	-1.14189E+000	3.57670E+000	10	...........
	27	0.373333	8.15443E-001	5.99032E-003	0.00000E+000	4.88476E-003	3.59960E-001	-1.13566E+000	3.57670E+000	10	...........
	28	0.386667	8.21853E-001	5.99226E-003	0.00000E+000	4.92476E-003	3.59960E-001	-1.14398E+000	3.57670E+000	10	...........
	29	0.4	8.28204E-001	5.99772E-003	0.00000E+000	4.96734E-003	3.59960E-001	-1.14193E+000	3.57670E+000	10	...........
	30	0.413333	8.34459E-001	5.99428E-003	0.00000E+000	5.00198E-003	3.59960E-001	-1.13574E+000	3.57670E+000	10	...........
	31	0.426667	8.40779E-001	5.99013E-003	0.00000E+000	5.03638E-003	3.59960E-001	-1.14376E+000	3.57670E+000	10	...........
	32	0.44	8.47102E-001	5.99340E-003	0.00000E+000	5.07702E-003	3.59960E-001	-1.14152E+000	3.57670E+000	10	...........
	33	0.453333	8.53390E-001	5.99230E-003	0.00000E+000	5.11377E-003	3.59960E-001	-1.13558E+000	3.57670E+000	10	...........
	34	0.466667	8.59612E-001	5.99495E-003	0.00000E+000	5.15333E-003	3.59960E-001	-1.14379E+000	3.57670E+000	10	...........
	35	0.48	8.65822E-001	5.99529E-003	0.00000E+000	5.19086E-003	3.59960E-001	-1.14107E+000	3.57670E+000	10	...........
	36	0.493333	8.72063E-001	5.99172E-003	0.00000E+000	5.22515E-003	3.59960E-001	-1.13533E+000	3.57670E+000	10	...........
	37	0.506667	8.78254E-001	5.99657E-003	0.00000E+000	5.26651E-003	3.59960E-001	-1.14399E+000	3.57670E+000	10	...........
	38	0.52	8.84449E-001	5.99683E-003	0.00000E+000	5.30389E-003	3.59960E-001	-1.14135E+000	3.57670E+000	10	...........
	39	0.533333	8.90594E-001	5.99419E-003	0.00000E+000	5.33838E-003	3.59960E-001	-1.13570E+000	3.57670E+000	10	...........
	40	0.546667	8.96738E-001	5.99823E-003	0.00000E+000	5.37885E-003	3.59960E-001	-1.14415E+000	3.57670E+000	10	...........
	41	0.56	9.02836E-001	5.99632E-003	0.00000E+000	5.41369E-003	3.59960E-001	-1.14115E+000	3.57670E+000	10	...........
	42	0.573333	9.08868E-001	5.99567E-003	0.00000E+000	5.44927E-003	3.59960E-001	-1.13580E+000	3.57670E+000	10	...........
	43	0.586667	9.14953E-001	5.99464E-003	0.00000E+000	5.48481E-003	3.59960E-001	-1.14424E+000	3.57670E+000	10	...........
	44	0.6	9.21015E-001	5.99889E-003	0.00000E+000	5.52507E-003	3.59960E-001	-1.14061E+000	3.57670E+000	10	...........
	45	0.613333	9.26976E-001	5.99127E-003	0.00000E+000	5.55376E-003	3.59960E-001	-1.13547E+000	3.57670E+000	10	...........
	46	0.626667	9.32924E-001	5.99090E-003	0.00000E+000	5.58906E-003	3.59960E-001	-1.14425E+000	3.57670E+000	10	...........
	47	0.64	9.38833E-001	5.99694E-003	0.00000E+000	5.63012E-003	3.59960E-001	-1.14074E+000	3.57670E+000	10	...........
	48	0.653333	9.44711E-001	5.99470E-003	0.00000E+000	5.66326E-003	3.59960E-001	-1.13553E+000	3.57670E+000	10	...........
	49	0.666667	9.50564E-001	5.99633E-003	0.00000E+000	5.69989E-003	3.59960E-001	-1.14457E+000	3.57670E+000	10	...........
	50	0.68	9.56378E-001	5.99557E-003	0.00000E+000	5.73404E-003	3.59960E-001	-1.14066E+000	3.57670E+000	10	...........
	51	0.693333	9.62112E-001	5.99894E-003	0.00000E+000	5.77166E-003	3.59960E-001	-1.13560E+000	3.57670E+000	10	...........
	52	0.706667	9.67805E-001	5.99444E-003	0.00000E+000	5.80144E-003	3.59960E-001	-1.14492E+000	3.57670E+000	10	...........
	53	0.72	9.73512E-001	5.99420E-003	0.00000E+000	5.83542E-003	3.59960E-001	-1.14071E+000	3.57670E+000	10	...........
	54	0.733333	9.79153E-001	5.99476E-003	0.00000E+000	5.86979E-003	3.59960E-001	-1.13587E+000	3.57670E+000	10	...........
	55	0.746667	9.84727E-001	5.99319E-003	0.00000E+000	5.90165E-003	3.59960E-001	-1.14524E+000	3.57670E+000	10	...........
	56	0.76	9.90249E-001	5.99220E-003	0.00000E+000	5.93377E-003	3.59960E-001	-1.14066E+000	3.57670E+000	10	...........
	57	0.773333	9.95714E-001	5.99335E-003	0.00000E+000	5.96766E-003	3.59960E-001	-1.13573E+000	3.57670E+000	10	...........
	58	0.778333	9.99520E-001	5.99351E-003	0.00000E+000	5.99064E-003	3.59960E-001	-1.15022E+000	3.57670E+000	10	...........
STARTTIMEOFFSET	QUANT	823.4902	Start Time Offset (s)