File: Data/CV_CRGO300517_1/PWRCCD_CRGO300517_1/CHARGE_DISCHARGE/CHARGE_#452.DTA
EXPLAIN
TAG	PWR800_CHARGE
TITLE	LABEL	PWR Cyclic Charge Discharge (Cell) - Charge Step	Test &Identifier
DATE	LABEL	22-6-2017	Date
TIME	LABEL	15:54:01	Time
NOTES	NOTES	3	&Notes...
	supercap test cell
	0.6mg
	6M KOH
PSTAT	PSTAT	IFC5000-01520	Potentiostat
CAPACITY	QUANT	1.00000E-003	Capacity (A-hr)
CELLTYPE	SELECTOR	1	&Cell Type
WORKINGCONNECTION	SELECTOR	0	&Working Lead
MAXCHARGETIME	VARIABLEANDUNITS	1.00000E+002	s	1.00000E+002	second(s)	Max &Charge Time
CHARGECURRENT	QUANT	6.00000E-003	&Charge Current (A)
VOLTAGEFINISH	TWOPARAM	F	1.00000E-003	3.60000E+003	&Voltage Finish	 I (A) < 	Max Time(s)
SAMPLETIME	QUANT	1.00000E-002	Sa&mple Period (s)
CHARGESTOPAT1	MULTIPARAM	4	1.00000E+000	Charge Stop At &1	Voltage > Limit	V
CHARGESTOPAT2	MULTIPARAM	0	0.00000E+000	Charge Stop At &2	None	N/A
AESBHCSELECTOR	TOGGLE	F	Save Both Half Cells
IRCOMP	TOGGLE	F	IR &Measure
EOC	QUANT	0	Open Circuit (V)
SEQUENCER	TOGGLE	TRUE	Run as Sequence
PSTATMODEL	IQUANT	53	Pstat Model
PSTATSECTION	LABEL	IFC5000-01520	Pstat Section
PSTATSERIALNO	LABEL	01520	Pstat Serial Number
CTRLMODE	IQUANT	0	Control Mode
ELECTROMETER	IQUANT	1	RE=0 or CS=1
IESTAB	IQUANT	0	I/E Stability
CASPEED	IQUANT	4	Control Amp Speed
CONVENTION	IQUANT	1	Current Convention
ICHRANGE	IQUANT	2	Ich Range
ICHRANGEMODE	TOGGLE	T	Ich Auto Range
ICHOFFSETENABLE	TOGGLE	F	Ich Offset Enable
ICHOFFSET	QUANT	0	Ich Offset (V)
ICHFILTER	IQUANT	1	Ich Filter
VCHRANGE	IQUANT	2	Vch Range
VCHRANGEMODE	TOGGLE	T	Vch Auto Range
VCHOFFSETENABLE	TOGGLE	F	Vch Offset Enable
VCHOFFSET	QUANT	0	Vch Offset (V)
VCHFILTER	IQUANT	1	Vch Filter
IERANGELOWERLIMIT	IQUANT	9	I/E Range Lower Limit
IERANGEMODE	TOGGLE	F	I/E AutoRange
IERANGE	IQUANT	10	I/E Range
ACHSELECT	IQUANT	1	Ach Select
ACHRANGE	IQUANT	2	Ach Range
ACHOFFSETENABLE	TOGGLE	F	Ach Offset Enable
ACHOFFSET	QUANT	0	Ach Offset (V)
ACHFILTER	IQUANT	1	Ach Filter
CABLEID	IQUANT	14	Cable ID
DCCALDATE	LABEL	20-10-2016	DC Calibration Date
ACCALDATE	LABEL	12/3/2015	AC Calibration Date
FRAMEWORKVERSION	QUANT	7.01	Framework Version
INSTRUMENTVERSION	LABEL	4.00	Instrument Version
CURVE	TABLE	59
	Pt	T	Vf	Im	Vu	Pwr	Sig	Ach	Temp	IERange	Over
	#	s	V	A	V	W	V	V	deg C	#	bits
	0	0.013333	6.28612E-001	5.99305E-003	0.00000E+000	3.76730E-003	3.59960E-001	-1.14441E+000	3.57740E+000	10	...........
	1	0.026667	6.37421E-001	5.99235E-003	0.00000E+000	3.81965E-003	3.59960E-001	-1.13404E+000	3.57740E+000	10	...........
	2	0.04	6.45554E-001	5.99366E-003	0.00000E+000	3.86923E-003	3.59960E-001	-1.13566E+000	3.57740E+000	10	...........
	3	0.053333	6.53237E-001	5.99318E-003	0.00000E+000	3.91496E-003	3.59960E-001	-1.14425E+000	3.57740E+000	10	...........
	4	0.066667	6.60635E-001	5.99261E-003	0.00000E+000	3.95893E-003	3.59960E-001	-1.13343E+000	3.57740E+000	10	...........
	5	0.08	6.67862E-001	5.99370E-003	0.00000E+000	4.00297E-003	3.59960E-001	-1.13512E+000	3.57740E+000	10	...........
	6	0.093333	6.74943E-001	5.99723E-003	0.00000E+000	4.04779E-003	3.59960E-001	-1.14421E+000	3.57740E+000	10	...........
	7	0.106667	6.81913E-001	5.99173E-003	0.00000E+000	4.08583E-003	3.59960E-001	-1.13343E+000	3.57740E+000	10	...........
	8	0.12	6.88791E-001	5.99418E-003	0.00000E+000	4.12874E-003	3.59960E-001	-1.13513E+000	3.57740E+000	10	...........
	9	0.133333	6.95569E-001	5.99137E-003	0.00000E+000	4.16741E-003	3.59960E-001	-1.14374E+000	3.57740E+000	10	...........
	10	0.146667	7.02298E-001	5.99005E-003	0.00000E+000	4.20680E-003	3.59960E-001	-1.13332E+000	3.57740E+000	10	...........
	11	0.16	7.09015E-001	5.99485E-003	0.00000E+000	4.25044E-003	3.59960E-001	-1.13506E+000	3.57740E+000	10	...........
	12	0.173333	7.15698E-001	5.99127E-003	0.00000E+000	4.28794E-003	3.59960E-001	-1.14369E+000	3.57740E+000	10	...........
	13	0.186667	7.22328E-001	5.99335E-003	0.00000E+000	4.32916E-003	3.59960E-001	-1.13321E+000	3.57740E+000	10	...........
	14	0.2	7.28912E-001	5.99265E-003	0.00000E+000	4.36812E-003	3.59960E-001	-1.13486E+000	3.57740E+000	10	...........
	15	0.213333	7.35445E-001	5.99801E-003	0.00000E+000	4.41120E-003	3.59960E-001	-1.14353E+000	3.57740E+000	10	...........
	16	0.226667	7.41991E-001	5.99294E-003	0.00000E+000	4.44671E-003	3.59960E-001	-1.13301E+000	3.57740E+000	10	...........
	17	0.24	7.48512E-001	5.99344E-003	0.00000E+000	4.48616E-003	3.59960E-001	-1.13489E+000	3.57740E+000	10	...........
	18	0.253333	7.54993E-001	5.99149E-003	0.00000E+000	4.52353E-003	3.59960E-001	-1.14340E+000	3.57740E+000	10	...........
	19	0.266667	7.61555E-001	5.99009E-003	0.00000E+000	4.56178E-003	3.59960E-001	-1.13298E+000	3.57740E+000	10	...........
	20	0.28	7.67987E-001	5.99321E-003	0.00000E+000	4.60271E-003	3.59960E-001	-1.13495E+000	3.57740E+000	10	...........
	21	0.293333	7.74416E-001	5.99311E-003	0.00000E+000	4.64116E-003	3.59960E-001	-1.14345E+000	3.57740E+000	10	...........
	22	0.306667	7.80872E-001	5.99626E-003	0.00000E+000	4.68231E-003	3.59960E-001	-1.13304E+000	3.57740E+000	10	...........
	23	0.32	7.87282E-001	5.99028E-003	0.00000E+000	4.71603E-003	3.59960E-001	-1.13487E+000	3.57740E+000	10	...........
	24	0.333333	7.93694E-001	5.99995E-003	0.00000E+000	4.76212E-003	3.59960E-001	-1.14364E+000	3.57740E+000	10	...........
	25	0.346667	8.00074E-001	5.99643E-003	0.00000E+000	4.79759E-003	3.59960E-001	-1.13319E+000	3.57740E+000	10	...........
	26	0.36	8.06421E-001	5.99826E-003	0.00000E+000	4.83712E-003	3.59960E-001	-1.13512E+000	3.57740E+000	10	...........
	27	0.373333	8.12780E-001	5.99229E-003	0.00000E+000	4.87041E-003	3.59960E-001	-1.14351E+000	3.57740E+000	10	...........
	28	0.386667	8.19113E-001	5.99360E-003	0.00000E+000	4.90944E-003	3.59960E-001	-1.13290E+000	3.57740E+000	10	...........
	29	0.4	8.25483E-001	5.99769E-003	0.00000E+000	4.95099E-003	3.59960E-001	-1.13467E+000	3.57740E+000	10	...........
	30	0.413333	8.31776E-001	5.99121E-003	0.00000E+000	4.98335E-003	3.59960E-001	-1.14307E+000	3.57740E+000	10	...........
	31	0.426667	8.38069E-001	5.99246E-003	0.00000E+000	5.02209E-003	3.59960E-001	-1.13271E+000	3.57696E+000	10	...........
	32	0.44	8.44378E-001	5.99248E-003	0.00000E+000	5.05991E-003	3.59960E-001	-1.13437E+000	3.57670E+000	10	...........
	33	0.453333	8.50663E-001	5.99240E-003	0.00000E+000	5.09751E-003	3.59960E-001	-1.14258E+000	3.57670E+000	10	...........
	34	0.466667	8.56939E-001	5.99833E-003	0.00000E+000	5.14020E-003	3.59960E-001	-1.13234E+000	3.57670E+000	10	...........
	35	0.48	8.63162E-001	5.99355E-003	0.00000E+000	5.17341E-003	3.59960E-001	-1.13414E+000	3.57670E+000	10	...........
	36	0.493333	8.69364E-001	5.98811E-003	0.00000E+000	5.20585E-003	3.59960E-001	-1.14213E+000	3.57670E+000	10	...........
	37	0.506667	8.75568E-001	5.99786E-003	0.00000E+000	5.25153E-003	3.59960E-001	-1.13178E+000	3.57670E+000	10	...........
	38	0.52	8.81741E-001	5.99195E-003	0.00000E+000	5.28335E-003	3.59960E-001	-1.13366E+000	3.57670E+000	10	...........
	39	0.533333	8.87916E-001	5.99600E-003	0.00000E+000	5.32395E-003	3.59960E-001	-1.14174E+000	3.57670E+000	10	...........
	40	0.546667	8.94025E-001	5.99306E-003	0.00000E+000	5.35795E-003	3.59960E-001	-1.13133E+000	3.57670E+000	10	...........
	41	0.56	9.00113E-001	5.99743E-003	0.00000E+000	5.39837E-003	3.59960E-001	-1.13313E+000	3.57670E+000	10	...........
	42	0.573333	9.06157E-001	5.99625E-003	0.00000E+000	5.43355E-003	3.59960E-001	-1.14133E+000	3.57670E+000	10	...........
	43	0.586667	9.12197E-001	5.99432E-003	0.00000E+000	5.46800E-003	3.59960E-001	-1.13068E+000	3.57670E+000	10	...........
	44	0.6	9.18234E-001	5.99330E-003	0.00000E+000	5.50325E-003	3.59960E-001	-1.13288E+000	3.57670E+000	10	...........
	45	0.613333	9.24268E-001	5.99423E-003	0.00000E+000	5.54028E-003	3.59960E-001	-1.14089E+000	3.57670E+000	10	...........
	46	0.626667	9.30216E-001	5.99794E-003	0.00000E+000	5.57938E-003	3.59960E-001	-1.13065E+000	3.57670E+000	10	...........
	47	0.64	9.36129E-001	5.99379E-003	0.00000E+000	5.61096E-003	3.59960E-001	-1.13273E+000	3.57670E+000	10	...........
	48	0.653333	9.41984E-001	5.99343E-003	0.00000E+000	5.64571E-003	3.59960E-001	-1.14074E+000	3.57670E+000	10	...........
	49	0.666667	9.47867E-001	5.99486E-003	0.00000E+000	5.68233E-003	3.59960E-001	-1.13046E+000	3.57670E+000	10	...........
	50	0.68	9.53706E-001	5.99499E-003	0.00000E+000	5.71746E-003	3.59960E-001	-1.13256E+000	3.57670E+000	10	...........
	51	0.693333	9.59478E-001	5.99834E-003	0.00000E+000	5.75527E-003	3.59960E-001	-1.14050E+000	3.57670E+000	10	...........
	52	0.706667	9.65176E-001	5.99338E-003	0.00000E+000	5.78467E-003	3.59960E-001	-1.13006E+000	3.57670E+000	10	...........
	53	0.72	9.70869E-001	5.99277E-003	0.00000E+000	5.81820E-003	3.59960E-001	-1.13223E+000	3.57670E+000	10	...........
	54	0.733333	9.76562E-001	5.99130E-003	0.00000E+000	5.85087E-003	3.59960E-001	-1.14028E+000	3.57670E+000	10	...........
	55	0.746667	9.82117E-001	5.99609E-003	0.00000E+000	5.88886E-003	3.59960E-001	-1.13003E+000	3.57670E+000	10	...........
	56	0.76	9.87679E-001	5.99747E-003	0.00000E+000	5.92358E-003	3.59960E-001	-1.13243E+000	3.57670E+000	10	...........
	57	0.773333	9.93184E-001	5.99243E-003	0.00000E+000	5.95158E-003	3.59960E-001	-1.14029E+000	3.57670E+000	10	...........
	58	0.785	9.98326E-001	5.99694E-003	0.00000E+000	5.98690E-003	3.59960E-001	-1.12813E+000	3.57670E+000	10	...........
STARTTIMEOFFSET	QUANT	784.5786	Start Time Offset (s)