File: Data/CV_CRGO300517_1/PWRCCD_CRGO300517_1/CHARGE_DISCHARGE/CHARGE_#33.DTA
EXPLAIN
TAG	PWR800_CHARGE
TITLE	LABEL	PWR Cyclic Charge Discharge (Cell) - Charge Step	Test &Identifier
DATE	LABEL	22-6-2017	Date
TIME	LABEL	15:36:29	Time
NOTES	NOTES	3	&Notes...
	supercap test cell
	0.6mg
	6M KOH
PSTAT	PSTAT	IFC5000-01520	Potentiostat
CAPACITY	QUANT	1.00000E-003	Capacity (A-hr)
CELLTYPE	SELECTOR	1	&Cell Type
WORKINGCONNECTION	SELECTOR	0	&Working Lead
MAXCHARGETIME	VARIABLEANDUNITS	1.00000E+002	s	1.00000E+002	second(s)	Max &Charge Time
CHARGECURRENT	QUANT	6.00000E-003	&Charge Current (A)
VOLTAGEFINISH	TWOPARAM	F	1.00000E-003	3.60000E+003	&Voltage Finish	 I (A) < 	Max Time(s)
SAMPLETIME	QUANT	1.00000E-002	Sa&mple Period (s)
CHARGESTOPAT1	MULTIPARAM	4	1.00000E+000	Charge Stop At &1	Voltage > Limit	V
CHARGESTOPAT2	MULTIPARAM	0	0.00000E+000	Charge Stop At &2	None	N/A
AESBHCSELECTOR	TOGGLE	F	Save Both Half Cells
IRCOMP	TOGGLE	F	IR &Measure
EOC	QUANT	0	Open Circuit (V)
SEQUENCER	TOGGLE	TRUE	Run as Sequence
PSTATMODEL	IQUANT	53	Pstat Model
PSTATSECTION	LABEL	IFC5000-01520	Pstat Section
PSTATSERIALNO	LABEL	01520	Pstat Serial Number
CTRLMODE	IQUANT	0	Control Mode
ELECTROMETER	IQUANT	1	RE=0 or CS=1
IESTAB	IQUANT	0	I/E Stability
CASPEED	IQUANT	4	Control Amp Speed
CONVENTION	IQUANT	1	Current Convention
ICHRANGE	IQUANT	2	Ich Range
ICHRANGEMODE	TOGGLE	T	Ich Auto Range
ICHOFFSETENABLE	TOGGLE	F	Ich Offset Enable
ICHOFFSET	QUANT	0	Ich Offset (V)
ICHFILTER	IQUANT	1	Ich Filter
VCHRANGE	IQUANT	2	Vch Range
VCHRANGEMODE	TOGGLE	T	Vch Auto Range
VCHOFFSETENABLE	TOGGLE	F	Vch Offset Enable
VCHOFFSET	QUANT	0	Vch Offset (V)
VCHFILTER	IQUANT	1	Vch Filter
IERANGELOWERLIMIT	IQUANT	9	I/E Range Lower Limit
IERANGEMODE	TOGGLE	F	I/E AutoRange
IERANGE	IQUANT	10	I/E Range
ACHSELECT	IQUANT	1	Ach Select
ACHRANGE	IQUANT	2	Ach Range
ACHOFFSETENABLE	TOGGLE	F	Ach Offset Enable
ACHOFFSET	QUANT	0	Ach Offset (V)
ACHFILTER	IQUANT	1	Ach Filter
CABLEID	IQUANT	14	Cable ID
DCCALDATE	LABEL	20-10-2016	DC Calibration Date
ACCALDATE	LABEL	12/3/2015	AC Calibration Date
FRAMEWORKVERSION	QUANT	7.01	Framework Version
INSTRUMENTVERSION	LABEL	4.00	Instrument Version
CURVE	TABLE	76
	Pt	T	Vf	Im	Vu	Pwr	Sig	Ach	Temp	IERange	Over
	#	s	V	A	V	W	V	V	deg C	#	bits
	0	0.013333	5.66838E-001	5.99428E-003	0.00000E+000	3.39778E-003	3.59960E-001	-1.03028E+000	3.57790E+000	10	...........
	1	0.026667	5.74919E-001	5.99701E-003	0.00000E+000	3.44780E-003	3.59960E-001	-1.02266E+000	3.57790E+000	10	...........
	2	0.04	5.82285E-001	5.99230E-003	0.00000E+000	3.48922E-003	3.59960E-001	-1.03151E+000	3.57790E+000	10	...........
	3	0.053333	5.89303E-001	5.99525E-003	0.00000E+000	3.53302E-003	3.59960E-001	-1.03019E+000	3.57790E+000	10	...........
	4	0.066667	5.96015E-001	5.99400E-003	0.00000E+000	3.57251E-003	3.59960E-001	-1.02277E+000	3.57790E+000	10	...........
	5	0.08	6.02480E-001	5.99453E-003	0.00000E+000	3.61158E-003	3.59960E-001	-1.03138E+000	3.57790E+000	10	...........
	6	0.093333	6.08859E-001	5.99406E-003	0.00000E+000	3.64954E-003	3.59960E-001	-1.02973E+000	3.57790E+000	10	...........
	7	0.106667	6.15185E-001	5.99358E-003	0.00000E+000	3.68717E-003	3.59960E-001	-1.02232E+000	3.57790E+000	10	...........
	8	0.12	6.21338E-001	5.99325E-003	0.00000E+000	3.72383E-003	3.59960E-001	-1.03120E+000	3.57790E+000	10	...........
	9	0.133333	6.27419E-001	5.99540E-003	0.00000E+000	3.76163E-003	3.59960E-001	-1.02963E+000	3.57790E+000	10	...........
	10	0.146667	6.33437E-001	5.99087E-003	0.00000E+000	3.79484E-003	3.59960E-001	-1.02205E+000	3.57790E+000	10	...........
	11	0.16	6.39413E-001	5.99417E-003	0.00000E+000	3.83275E-003	3.59960E-001	-1.03081E+000	3.57790E+000	10	...........
	12	0.173333	6.45324E-001	5.99350E-003	0.00000E+000	3.86775E-003	3.59960E-001	-1.02942E+000	3.57790E+000	10	...........
	13	0.186667	6.51213E-001	5.99365E-003	0.00000E+000	3.90314E-003	3.59960E-001	-1.02217E+000	3.57790E+000	10	...........
	14	0.2	6.57040E-001	5.99383E-003	0.00000E+000	3.93819E-003	3.59960E-001	-1.03080E+000	3.57790E+000	10	...........
	15	0.213333	6.62894E-001	5.99611E-003	0.00000E+000	3.97479E-003	3.59960E-001	-1.02953E+000	3.57790E+000	10	...........
	16	0.226667	6.68740E-001	5.99203E-003	0.00000E+000	4.00711E-003	3.59960E-001	-1.02185E+000	3.57790E+000	10	...........
	17	0.24	6.74490E-001	5.99293E-003	0.00000E+000	4.04217E-003	3.59960E-001	-1.03096E+000	3.57790E+000	10	...........
	18	0.253333	6.80242E-001	5.99549E-003	0.00000E+000	4.07838E-003	3.59960E-001	-1.02982E+000	3.57790E+000	10	...........
	19	0.266667	6.85979E-001	5.99655E-003	0.00000E+000	4.11351E-003	3.59960E-001	-1.02209E+000	3.57790E+000	10	...........
	20	0.28	6.91699E-001	5.99197E-003	0.00000E+000	4.14464E-003	3.59960E-001	-1.03073E+000	3.57790E+000	10	...........
	21	0.293333	6.97390E-001	5.99468E-003	0.00000E+000	4.18063E-003	3.59960E-001	-1.02926E+000	3.57790E+000	10	...........
	22	0.306667	7.03109E-001	5.99091E-003	0.00000E+000	4.21227E-003	3.59960E-001	-1.02197E+000	3.57790E+000	10	...........
	23	0.32	7.08784E-001	5.99384E-003	0.00000E+000	4.24834E-003	3.59960E-001	-1.03094E+000	3.57790E+000	10	...........
	24	0.333333	7.14470E-001	5.99423E-003	0.00000E+000	4.28270E-003	3.59960E-001	-1.02964E+000	3.57790E+000	10	...........
	25	0.346667	7.20199E-001	5.99476E-003	0.00000E+000	4.31742E-003	3.59960E-001	-1.02210E+000	3.57790E+000	10	...........
	26	0.36	7.25860E-001	5.99295E-003	0.00000E+000	4.35004E-003	3.59960E-001	-1.03075E+000	3.57790E+000	10	...........
	27	0.373333	7.31565E-001	5.99648E-003	0.00000E+000	4.38682E-003	3.59960E-001	-1.02942E+000	3.57790E+000	10	...........
	28	0.386667	7.37214E-001	5.99462E-003	0.00000E+000	4.41932E-003	3.59960E-001	-1.02223E+000	3.57790E+000	10	...........
	29	0.4	7.42895E-001	5.99399E-003	0.00000E+000	4.45291E-003	3.59960E-001	-1.03079E+000	3.57790E+000	10	...........
	30	0.413333	7.48586E-001	5.99580E-003	0.00000E+000	4.48838E-003	3.59960E-001	-1.02919E+000	3.57790E+000	10	...........
	31	0.426667	7.54241E-001	5.99152E-003	0.00000E+000	4.51905E-003	3.59960E-001	-1.02124E+000	3.57790E+000	10	...........
	32	0.44	7.59880E-001	5.99367E-003	0.00000E+000	4.55447E-003	3.59960E-001	-1.03027E+000	3.57790E+000	10	...........
	33	0.453333	7.65500E-001	5.99816E-003	0.00000E+000	4.59159E-003	3.59960E-001	-1.02904E+000	3.57790E+000	10	...........
	34	0.466667	7.71163E-001	5.99625E-003	0.00000E+000	4.62409E-003	3.59960E-001	-1.02140E+000	3.57790E+000	10	...........
	35	0.48	7.76811E-001	5.99426E-003	0.00000E+000	4.65641E-003	3.59960E-001	-1.03027E+000	3.57790E+000	10	...........
	36	0.493333	7.82480E-001	5.99351E-003	0.00000E+000	4.68980E-003	3.59960E-001	-1.02881E+000	3.57790E+000	10	...........
	37	0.506667	7.88122E-001	5.99648E-003	0.00000E+000	4.72596E-003	3.59960E-001	-1.02127E+000	3.57790E+000	10	...........
	38	0.52	7.93848E-001	5.99601E-003	0.00000E+000	4.75992E-003	3.59960E-001	-1.03031E+000	3.57790E+000	10	...........
	39	0.533333	7.99512E-001	5.99562E-003	0.00000E+000	4.79357E-003	3.59960E-001	-1.02887E+000	3.57790E+000	10	...........
	40	0.546667	8.05136E-001	5.99711E-003	0.00000E+000	4.82849E-003	3.59960E-001	-1.02136E+000	3.57790E+000	10	...........
	41	0.56	8.10757E-001	5.99301E-003	0.00000E+000	4.85887E-003	3.59960E-001	-1.03007E+000	3.57790E+000	10	...........
	42	0.573333	8.16400E-001	5.99448E-003	0.00000E+000	4.89389E-003	3.59960E-001	-1.02896E+000	3.57790E+000	10	...........
	43	0.586667	8.22114E-001	5.99612E-003	0.00000E+000	4.92950E-003	3.59960E-001	-1.02155E+000	3.57790E+000	10	...........
	44	0.6	8.27725E-001	5.99476E-003	0.00000E+000	4.96202E-003	3.59960E-001	-1.03027E+000	3.57790E+000	10	...........
	45	0.613333	8.33332E-001	5.99115E-003	0.00000E+000	4.99262E-003	3.59960E-001	-1.02866E+000	3.57790E+000	10	...........
	46	0.626667	8.38989E-001	5.99252E-003	0.00000E+000	5.02766E-003	3.59960E-001	-1.02130E+000	3.57790E+000	10	...........
	47	0.64	8.44675E-001	5.99430E-003	0.00000E+000	5.06324E-003	3.59960E-001	-1.03042E+000	3.57790E+000	10	...........
	48	0.653333	8.50340E-001	5.99209E-003	0.00000E+000	5.09531E-003	3.59960E-001	-1.02902E+000	3.57790E+000	10	...........
	49	0.666667	8.55944E-001	5.99435E-003	0.00000E+000	5.13083E-003	3.59960E-001	-1.02170E+000	3.57790E+000	10	...........
	50	0.68	8.61568E-001	5.99512E-003	0.00000E+000	5.16520E-003	3.59960E-001	-1.03027E+000	3.57790E+000	10	...........
	51	0.693333	8.67219E-001	5.99691E-003	0.00000E+000	5.20063E-003	3.59960E-001	-1.02857E+000	3.57790E+000	10	...........
	52	0.706667	8.72888E-001	5.99537E-003	0.00000E+000	5.23329E-003	3.59960E-001	-1.02147E+000	3.57790E+000	10	...........
	53	0.72	8.78482E-001	5.99610E-003	0.00000E+000	5.26746E-003	3.59960E-001	-1.03053E+000	3.57790E+000	10	...........
	54	0.733333	8.84140E-001	5.99449E-003	0.00000E+000	5.29997E-003	3.59960E-001	-1.02889E+000	3.57790E+000	10	...........
	55	0.746667	8.89744E-001	5.99185E-003	0.00000E+000	5.33122E-003	3.59960E-001	-1.02118E+000	3.57790E+000	10	...........
	56	0.76	8.95345E-001	5.99432E-003	0.00000E+000	5.36699E-003	3.59960E-001	-1.02993E+000	3.57790E+000	10	...........
	57	0.773333	9.00946E-001	5.99495E-003	0.00000E+000	5.40113E-003	3.59960E-001	-1.02862E+000	3.57790E+000	10	...........
	58	0.786667	9.06544E-001	5.99451E-003	0.00000E+000	5.43429E-003	3.59960E-001	-1.02137E+000	3.57790E+000	10	...........
	59	0.8	9.12075E-001	5.99209E-003	0.00000E+000	5.46524E-003	3.59960E-001	-1.03005E+000	3.57807E+000	10	...........
	60	0.813333	9.17619E-001	5.99622E-003	0.00000E+000	5.50224E-003	3.59960E-001	-1.02838E+000	3.57860E+000	10	...........
	61	0.826667	9.23272E-001	5.99345E-003	0.00000E+000	5.53358E-003	3.59960E-001	-1.02102E+000	3.57860E+000	10	...........
	62	0.84	9.28778E-001	5.99812E-003	0.00000E+000	5.57092E-003	3.59960E-001	-1.02993E+000	3.57860E+000	10	...........
	63	0.853333	9.34282E-001	5.99414E-003	0.00000E+000	5.60021E-003	3.59960E-001	-1.02855E+000	3.57860E+000	10	...........
	64	0.866667	9.39748E-001	5.99455E-003	0.00000E+000	5.63337E-003	3.59960E-001	-1.02115E+000	3.57860E+000	10	...........
	65	0.88	9.45244E-001	5.99244E-003	0.00000E+000	5.66431E-003	3.59960E-001	-1.02962E+000	3.57860E+000	10	...........
	66	0.893333	9.50717E-001	5.99310E-003	0.00000E+000	5.69775E-003	3.59960E-001	-1.02826E+000	3.57860E+000	10	...........
	67	0.906667	9.56182E-001	5.99294E-003	0.00000E+000	5.73034E-003	3.59960E-001	-1.02104E+000	3.57860E+000	10	...........
	68	0.92	9.61602E-001	5.99190E-003	0.00000E+000	5.76183E-003	3.59960E-001	-1.02998E+000	3.57860E+000	10	...........
	69	0.933333	9.67031E-001	5.99104E-003	0.00000E+000	5.79352E-003	3.59960E-001	-1.02845E+000	3.57860E+000	10	...........
	70	0.946667	9.72486E-001	5.99483E-003	0.00000E+000	5.82989E-003	3.59960E-001	-1.02093E+000	3.57860E+000	10	...........
	71	0.96	9.77868E-001	5.99334E-003	0.00000E+000	5.86070E-003	3.59960E-001	-1.02983E+000	3.57860E+000	10	...........
	72	0.97333	9.83184E-001	5.99266E-003	0.00000E+000	5.89189E-003	3.59960E-001	-1.02877E+000	3.57860E+000	10	...........
	73	0.98667	9.88465E-001	5.98955E-003	0.00000E+000	5.92046E-003	3.59960E-001	-1.02135E+000	3.57860E+000	10	...........
	74	1	9.93745E-001	5.99459E-003	0.00000E+000	5.95710E-003	3.59960E-001	-1.03006E+000	3.57860E+000	10	...........
	75	1.01167	9.98686E-001	5.99558E-003	0.00000E+000	5.98770E-003	3.59960E-001	-1.02759E+000	3.57860E+000	10	...........
STARTTIMEOFFSET	QUANT	66.92667	Start Time Offset (s)