File: Data/CV_CRGO300517_1/PWRCCD_CRGO300517_1/CHARGE_DISCHARGE/CHARGE_#872.DTA
EXPLAIN
TAG	PWR800_CHARGE
TITLE	LABEL	PWR Cyclic Charge Discharge (Cell) - Charge Step	Test &Identifier
DATE	LABEL	22-6-2017	Date
TIME	LABEL	16:09:57	Time
NOTES	NOTES	3	&Notes...
	supercap test cell
	0.6mg
	6M KOH
PSTAT	PSTAT	IFC5000-01520	Potentiostat
CAPACITY	QUANT	1.00000E-003	Capacity (A-hr)
CELLTYPE	SELECTOR	1	&Cell Type
WORKINGCONNECTION	SELECTOR	0	&Working Lead
MAXCHARGETIME	VARIABLEANDUNITS	1.00000E+002	s	1.00000E+002	second(s)	Max &Charge Time
CHARGECURRENT	QUANT	6.00000E-003	&Charge Current (A)
VOLTAGEFINISH	TWOPARAM	F	1.00000E-003	3.60000E+003	&Voltage Finish	 I (A) < 	Max Time(s)
SAMPLETIME	QUANT	1.00000E-002	Sa&mple Period (s)
CHARGESTOPAT1	MULTIPARAM	4	1.00000E+000	Charge Stop At &1	Voltage > Limit	V
CHARGESTOPAT2	MULTIPARAM	0	0.00000E+000	Charge Stop At &2	None	N/A
AESBHCSELECTOR	TOGGLE	F	Save Both Half Cells
IRCOMP	TOGGLE	F	IR &Measure
EOC	QUANT	0	Open Circuit (V)
SEQUENCER	TOGGLE	TRUE	Run as Sequence
PSTATMODEL	IQUANT	53	Pstat Model
PSTATSECTION	LABEL	IFC5000-01520	Pstat Section
PSTATSERIALNO	LABEL	01520	Pstat Serial Number
CTRLMODE	IQUANT	0	Control Mode
ELECTROMETER	IQUANT	1	RE=0 or CS=1
IESTAB	IQUANT	0	I/E Stability
CASPEED	IQUANT	4	Control Amp Speed
CONVENTION	IQUANT	1	Current Convention
ICHRANGE	IQUANT	2	Ich Range
ICHRANGEMODE	TOGGLE	T	Ich Auto Range
ICHOFFSETENABLE	TOGGLE	F	Ich Offset Enable
ICHOFFSET	QUANT	0	Ich Offset (V)
ICHFILTER	IQUANT	1	Ich Filter
VCHRANGE	IQUANT	2	Vch Range
VCHRANGEMODE	TOGGLE	T	Vch Auto Range
VCHOFFSETENABLE	TOGGLE	F	Vch Offset Enable
VCHOFFSET	QUANT	0	Vch Offset (V)
VCHFILTER	IQUANT	1	Vch Filter
IERANGELOWERLIMIT	IQUANT	9	I/E Range Lower Limit
IERANGEMODE	TOGGLE	F	I/E AutoRange
IERANGE	IQUANT	10	I/E Range
ACHSELECT	IQUANT	1	Ach Select
ACHRANGE	IQUANT	2	Ach Range
ACHOFFSETENABLE	TOGGLE	F	Ach Offset Enable
ACHOFFSET	QUANT	0	Ach Offset (V)
ACHFILTER	IQUANT	1	Ach Filter
CABLEID	IQUANT	14	Cable ID
DCCALDATE	LABEL	20-10-2016	DC Calibration Date
ACCALDATE	LABEL	12/3/2015	AC Calibration Date
FRAMEWORKVERSION	QUANT	7.01	Framework Version
INSTRUMENTVERSION	LABEL	4.00	Instrument Version
CURVE	TABLE	54
	Pt	T	Vf	Im	Vu	Pwr	Sig	Ach	Temp	IERange	Over
	#	s	V	A	V	W	V	V	deg C	#	bits
	0	0.013333	6.52172E-001	5.98958E-003	0.00000E+000	3.90623E-003	3.59960E-001	-1.16533E+000	3.57660E+000	10	...........
	1	0.026667	6.61433E-001	5.99568E-003	0.00000E+000	3.96574E-003	3.59960E-001	-1.17476E+000	3.57660E+000	10	...........
	2	0.04	6.69926E-001	5.99277E-003	0.00000E+000	4.01471E-003	3.59960E-001	-1.17015E+000	3.57660E+000	10	...........
	3	0.053333	6.78015E-001	5.99409E-003	0.00000E+000	4.06409E-003	3.59960E-001	-1.16519E+000	3.57660E+000	10	...........
	4	0.066667	6.85780E-001	5.99584E-003	0.00000E+000	4.11183E-003	3.59960E-001	-1.17478E+000	3.57660E+000	10	...........
	5	0.08	6.93321E-001	5.99062E-003	0.00000E+000	4.15342E-003	3.59960E-001	-1.17010E+000	3.57660E+000	10	...........
	6	0.093333	7.00732E-001	5.99469E-003	0.00000E+000	4.20067E-003	3.59960E-001	-1.16506E+000	3.57660E+000	10	...........
	7	0.106667	7.08032E-001	5.99308E-003	0.00000E+000	4.24330E-003	3.59960E-001	-1.17459E+000	3.57660E+000	10	...........
	8	0.12	7.15255E-001	5.99337E-003	0.00000E+000	4.28679E-003	3.59960E-001	-1.17000E+000	3.57660E+000	10	...........
	9	0.133333	7.22410E-001	5.99020E-003	0.00000E+000	4.32738E-003	3.59960E-001	-1.16524E+000	3.57660E+000	10	...........
	10	0.146667	7.29455E-001	5.99773E-003	0.00000E+000	4.37508E-003	3.59960E-001	-1.17446E+000	3.57665E+000	10	...........
	11	0.16	7.36468E-001	5.99407E-003	0.00000E+000	4.41444E-003	3.59960E-001	-1.16955E+000	3.57680E+000	10	...........
	12	0.173333	7.43452E-001	5.99238E-003	0.00000E+000	4.45505E-003	3.59960E-001	-1.16472E+000	3.57680E+000	10	...........
	13	0.186667	7.50377E-001	5.99265E-003	0.00000E+000	4.49675E-003	3.59960E-001	-1.17441E+000	3.57680E+000	10	...........
	14	0.2	7.57271E-001	5.98760E-003	0.00000E+000	4.53423E-003	3.59960E-001	-1.16967E+000	3.57680E+000	10	...........
	15	0.213333	7.64123E-001	5.99539E-003	0.00000E+000	4.58121E-003	3.59960E-001	-1.16491E+000	3.57680E+000	10	...........
	16	0.226667	7.70987E-001	5.99761E-003	0.00000E+000	4.62408E-003	3.59960E-001	-1.17406E+000	3.57680E+000	10	...........
	17	0.24	7.77792E-001	5.99568E-003	0.00000E+000	4.66339E-003	3.59960E-001	-1.16941E+000	3.57680E+000	10	...........
	18	0.253333	7.84546E-001	5.99120E-003	0.00000E+000	4.70037E-003	3.59960E-001	-1.16451E+000	3.57680E+000	10	...........
	19	0.266667	7.91286E-001	5.99499E-003	0.00000E+000	4.74375E-003	3.59960E-001	-1.17436E+000	3.57680E+000	10	...........
	20	0.28	7.98003E-001	5.99380E-003	0.00000E+000	4.78307E-003	3.59960E-001	-1.16931E+000	3.57680E+000	10	...........
	21	0.293333	8.04677E-001	5.99697E-003	0.00000E+000	4.82562E-003	3.59960E-001	-1.16420E+000	3.57680E+000	10	...........
	22	0.306667	8.11373E-001	5.99075E-003	0.00000E+000	4.86073E-003	3.59960E-001	-1.17354E+000	3.57680E+000	10	...........
	23	0.32	8.18023E-001	5.99128E-003	0.00000E+000	4.90100E-003	3.59960E-001	-1.16872E+000	3.57680E+000	10	...........
	24	0.333333	8.24685E-001	5.99431E-003	0.00000E+000	4.94342E-003	3.59960E-001	-1.16395E+000	3.57680E+000	10	...........
	25	0.346667	8.31279E-001	5.99338E-003	0.00000E+000	4.98218E-003	3.59960E-001	-1.17361E+000	3.57680E+000	10	...........
	26	0.36	8.37814E-001	5.99310E-003	0.00000E+000	5.02111E-003	3.59960E-001	-1.16847E+000	3.57680E+000	10	...........
	27	0.373333	8.44391E-001	5.99448E-003	0.00000E+000	5.06169E-003	3.59960E-001	-1.16356E+000	3.57680E+000	10	...........
	28	0.386667	8.50926E-001	5.99635E-003	0.00000E+000	5.10245E-003	3.59960E-001	-1.17329E+000	3.57680E+000	10	...........
	29	0.4	8.57430E-001	5.99549E-003	0.00000E+000	5.14071E-003	3.59960E-001	-1.16838E+000	3.57680E+000	10	...........
	30	0.413333	8.63889E-001	5.99583E-003	0.00000E+000	5.17973E-003	3.59960E-001	-1.16364E+000	3.57680E+000	10	...........
	31	0.426667	8.70371E-001	5.99488E-003	0.00000E+000	5.21777E-003	3.59960E-001	-1.17340E+000	3.57680E+000	10	...........
	32	0.44	8.76748E-001	5.98994E-003	0.00000E+000	5.25167E-003	3.59960E-001	-1.16774E+000	3.57680E+000	10	...........
	33	0.453333	8.83161E-001	5.99234E-003	0.00000E+000	5.29220E-003	3.59960E-001	-1.16334E+000	3.57680E+000	10	...........
	34	0.466667	8.89509E-001	5.99369E-003	0.00000E+000	5.33144E-003	3.59960E-001	-1.17346E+000	3.57680E+000	10	...........
	35	0.48	8.95843E-001	5.99836E-003	0.00000E+000	5.37359E-003	3.59960E-001	-1.16807E+000	3.57680E+000	10	...........
	36	0.493333	9.02129E-001	5.99791E-003	0.00000E+000	5.41089E-003	3.59960E-001	-1.16348E+000	3.57680E+000	10	...........
	37	0.506667	9.08335E-001	5.99452E-003	0.00000E+000	5.44503E-003	3.59960E-001	-1.17324E+000	3.57680E+000	10	...........
	38	0.52	9.14540E-001	6.00020E-003	0.00000E+000	5.48742E-003	3.59960E-001	-1.16798E+000	3.57680E+000	10	...........
	39	0.533333	9.20708E-001	5.99183E-003	0.00000E+000	5.51673E-003	3.59960E-001	-1.16360E+000	3.57680E+000	10	...........
	40	0.546667	9.26893E-001	5.99099E-003	0.00000E+000	5.55300E-003	3.59960E-001	-1.17364E+000	3.57680E+000	10	...........
	41	0.56	9.32943E-001	5.98828E-003	0.00000E+000	5.58673E-003	3.59960E-001	-1.16799E+000	3.57680E+000	10	...........
	42	0.573333	9.38993E-001	5.99750E-003	0.00000E+000	5.63161E-003	3.59960E-001	-1.16334E+000	3.57680E+000	10	...........
	43	0.586667	9.45006E-001	5.99463E-003	0.00000E+000	5.66496E-003	3.59960E-001	-1.17331E+000	3.57680E+000	10	...........
	44	0.6	9.50990E-001	5.98538E-003	0.00000E+000	5.69204E-003	3.59960E-001	-1.16761E+000	3.57680E+000	10	...........
	45	0.613333	9.56891E-001	5.99175E-003	0.00000E+000	5.73345E-003	3.59960E-001	-1.16335E+000	3.57680E+000	10	...........
	46	0.626667	9.62741E-001	5.99507E-003	0.00000E+000	5.77171E-003	3.59960E-001	-1.17314E+000	3.57680E+000	10	...........
	47	0.64	9.68517E-001	5.99517E-003	0.00000E+000	5.80642E-003	3.59960E-001	-1.16724E+000	3.57680E+000	10	...........
	48	0.653333	9.74338E-001	5.99155E-003	0.00000E+000	5.83779E-003	3.59960E-001	-1.16298E+000	3.57680E+000	10	...........
	49	0.666667	9.80012E-001	5.99397E-003	0.00000E+000	5.87416E-003	3.59960E-001	-1.17312E+000	3.57680E+000	10	...........
	50	0.68	9.85644E-001	5.99562E-003	0.00000E+000	5.90954E-003	3.59960E-001	-1.16738E+000	3.57680E+000	10	...........
	51	0.693333	9.91263E-001	5.99309E-003	0.00000E+000	5.94073E-003	3.59960E-001	-1.16285E+000	3.57680E+000	10	...........
	52	0.706667	9.96834E-001	5.99463E-003	0.00000E+000	5.97565E-003	3.59960E-001	-1.17271E+000	3.57680E+000	10	...........
	53	0.71	1.00022E+000	5.99358E-003	0.00000E+000	5.99493E-003	3.59960E-001	-1.15022E+000	3.57680E+000	10	...........
STARTTIMEOFFSET	QUANT	1406.604	Start Time Offset (s)