File: Data/CV_CRGO300517_1/PWRCCD_CRGO300517_1/CHARGE_DISCHARGE/CHARGE_#505.DTA
EXPLAIN
TAG	PWR800_CHARGE
TITLE	LABEL	PWR Cyclic Charge Discharge (Cell) - Charge Step	Test &Identifier
DATE	LABEL	22-6-2017	Date
TIME	LABEL	15:56:07	Time
NOTES	NOTES	3	&Notes...
	supercap test cell
	0.6mg
	6M KOH
PSTAT	PSTAT	IFC5000-01520	Potentiostat
CAPACITY	QUANT	1.00000E-003	Capacity (A-hr)
CELLTYPE	SELECTOR	1	&Cell Type
WORKINGCONNECTION	SELECTOR	0	&Working Lead
MAXCHARGETIME	VARIABLEANDUNITS	1.00000E+002	s	1.00000E+002	second(s)	Max &Charge Time
CHARGECURRENT	QUANT	6.00000E-003	&Charge Current (A)
VOLTAGEFINISH	TWOPARAM	F	1.00000E-003	3.60000E+003	&Voltage Finish	 I (A) < 	Max Time(s)
SAMPLETIME	QUANT	1.00000E-002	Sa&mple Period (s)
CHARGESTOPAT1	MULTIPARAM	4	1.00000E+000	Charge Stop At &1	Voltage > Limit	V
CHARGESTOPAT2	MULTIPARAM	0	0.00000E+000	Charge Stop At &2	None	N/A
AESBHCSELECTOR	TOGGLE	F	Save Both Half Cells
IRCOMP	TOGGLE	F	IR &Measure
EOC	QUANT	0	Open Circuit (V)
SEQUENCER	TOGGLE	TRUE	Run as Sequence
PSTATMODEL	IQUANT	53	Pstat Model
PSTATSECTION	LABEL	IFC5000-01520	Pstat Section
PSTATSERIALNO	LABEL	01520	Pstat Serial Number
CTRLMODE	IQUANT	0	Control Mode
ELECTROMETER	IQUANT	1	RE=0 or CS=1
IESTAB	IQUANT	0	I/E Stability
CASPEED	IQUANT	4	Control Amp Speed
CONVENTION	IQUANT	1	Current Convention
ICHRANGE	IQUANT	2	Ich Range
ICHRANGEMODE	TOGGLE	T	Ich Auto Range
ICHOFFSETENABLE	TOGGLE	F	Ich Offset Enable
ICHOFFSET	QUANT	0	Ich Offset (V)
ICHFILTER	IQUANT	1	Ich Filter
VCHRANGE	IQUANT	2	Vch Range
VCHRANGEMODE	TOGGLE	T	Vch Auto Range
VCHOFFSETENABLE	TOGGLE	F	Vch Offset Enable
VCHOFFSET	QUANT	0	Vch Offset (V)
VCHFILTER	IQUANT	1	Vch Filter
IERANGELOWERLIMIT	IQUANT	9	I/E Range Lower Limit
IERANGEMODE	TOGGLE	F	I/E AutoRange
IERANGE	IQUANT	10	I/E Range
ACHSELECT	IQUANT	1	Ach Select
ACHRANGE	IQUANT	2	Ach Range
ACHOFFSETENABLE	TOGGLE	F	Ach Offset Enable
ACHOFFSET	QUANT	0	Ach Offset (V)
ACHFILTER	IQUANT	1	Ach Filter
CABLEID	IQUANT	14	Cable ID
DCCALDATE	LABEL	20-10-2016	DC Calibration Date
ACCALDATE	LABEL	12/3/2015	AC Calibration Date
FRAMEWORKVERSION	QUANT	7.01	Framework Version
INSTRUMENTVERSION	LABEL	4.00	Instrument Version
CURVE	TABLE	58
	Pt	T	Vf	Im	Vu	Pwr	Sig	Ach	Temp	IERange	Over
	#	s	V	A	V	W	V	V	deg C	#	bits
	0	0.013333	6.32377E-001	5.99390E-003	0.00000E+000	3.79040E-003	3.59960E-001	-1.12165E+000	3.57670E+000	10	...........
	1	0.026667	6.41290E-001	6.00019E-003	0.00000E+000	3.84786E-003	3.59960E-001	-1.12890E+000	3.57670E+000	10	...........
	2	0.04	6.49417E-001	5.99711E-003	0.00000E+000	3.89462E-003	3.59960E-001	-1.12843E+000	3.57670E+000	10	...........
	3	0.053333	6.57145E-001	5.98973E-003	0.00000E+000	3.93612E-003	3.59960E-001	-1.12162E+000	3.57670E+000	10	...........
	4	0.066667	6.64648E-001	5.99555E-003	0.00000E+000	3.98493E-003	3.59960E-001	-1.12942E+000	3.57670E+000	10	...........
	5	0.08	6.71943E-001	5.99061E-003	0.00000E+000	4.02535E-003	3.59960E-001	-1.12899E+000	3.57670E+000	10	...........
	6	0.093333	6.79114E-001	5.99621E-003	0.00000E+000	4.07211E-003	3.59960E-001	-1.12188E+000	3.57670E+000	10	...........
	7	0.106667	6.86089E-001	5.99325E-003	0.00000E+000	4.11190E-003	3.59960E-001	-1.12959E+000	3.57670E+000	10	...........
	8	0.12	6.93033E-001	5.99906E-003	0.00000E+000	4.15755E-003	3.59960E-001	-1.12915E+000	3.57670E+000	10	...........
	9	0.133333	6.99857E-001	5.99501E-003	0.00000E+000	4.19565E-003	3.59960E-001	-1.12239E+000	3.57670E+000	10	...........
	10	0.146667	7.06652E-001	5.99262E-003	0.00000E+000	4.23470E-003	3.59960E-001	-1.12966E+000	3.57670E+000	10	...........
	11	0.16	7.13362E-001	5.99326E-003	0.00000E+000	4.27536E-003	3.59960E-001	-1.12877E+000	3.57670E+000	10	...........
	12	0.173333	7.20137E-001	5.99017E-003	0.00000E+000	4.31374E-003	3.59960E-001	-1.12187E+000	3.57670E+000	10	...........
	13	0.186667	7.26772E-001	5.99204E-003	0.00000E+000	4.35484E-003	3.59960E-001	-1.12962E+000	3.57670E+000	10	...........
	14	0.2	7.33387E-001	5.99064E-003	0.00000E+000	4.39346E-003	3.59960E-001	-1.12880E+000	3.57670E+000	10	...........
	15	0.213333	7.39995E-001	5.99823E-003	0.00000E+000	4.43867E-003	3.59960E-001	-1.12197E+000	3.57670E+000	10	...........
	16	0.226667	7.46567E-001	5.99226E-003	0.00000E+000	4.47362E-003	3.59960E-001	-1.12954E+000	3.57670E+000	10	...........
	17	0.24	7.53160E-001	5.99726E-003	0.00000E+000	4.51690E-003	3.59960E-001	-1.12833E+000	3.57670E+000	10	...........
	18	0.253333	7.59709E-001	5.99357E-003	0.00000E+000	4.55337E-003	3.59960E-001	-1.12201E+000	3.57670E+000	10	...........
	19	0.266667	7.66190E-001	5.99789E-003	0.00000E+000	4.59552E-003	3.59960E-001	-1.12963E+000	3.57670E+000	10	...........
	20	0.28	7.72709E-001	5.99269E-003	0.00000E+000	4.63060E-003	3.59960E-001	-1.12824E+000	3.57670E+000	10	...........
	21	0.293333	7.79204E-001	5.99442E-003	0.00000E+000	4.67087E-003	3.59960E-001	-1.12160E+000	3.57670E+000	10	...........
	22	0.306667	7.85693E-001	5.99700E-003	0.00000E+000	4.71181E-003	3.59960E-001	-1.12967E+000	3.57670E+000	10	...........
	23	0.32	7.92125E-001	5.99516E-003	0.00000E+000	4.74891E-003	3.59960E-001	-1.12832E+000	3.57670E+000	10	...........
	24	0.333333	7.98618E-001	5.99742E-003	0.00000E+000	4.78965E-003	3.59960E-001	-1.12217E+000	3.57670E+000	10	...........
	25	0.346667	8.04972E-001	5.99907E-003	0.00000E+000	4.82908E-003	3.59960E-001	-1.13014E+000	3.57670E+000	10	...........
	26	0.36	8.11393E-001	5.99309E-003	0.00000E+000	4.86275E-003	3.59960E-001	-1.12858E+000	3.57670E+000	10	...........
	27	0.373333	8.17780E-001	5.99418E-003	0.00000E+000	4.90192E-003	3.59960E-001	-1.12260E+000	3.57670E+000	10	...........
	28	0.386667	8.24176E-001	5.98985E-003	0.00000E+000	4.93669E-003	3.59960E-001	-1.13069E+000	3.57670E+000	10	...........
	29	0.4	8.30515E-001	5.99662E-003	0.00000E+000	4.98028E-003	3.59960E-001	-1.12872E+000	3.57670E+000	10	...........
	30	0.413333	8.36856E-001	5.99409E-003	0.00000E+000	5.01619E-003	3.59960E-001	-1.12250E+000	3.57670E+000	10	...........
	31	0.426667	8.43194E-001	5.98937E-003	0.00000E+000	5.05020E-003	3.59960E-001	-1.13060E+000	3.57670E+000	10	...........
	32	0.44	8.49503E-001	5.98907E-003	0.00000E+000	5.08773E-003	3.59960E-001	-1.12853E+000	3.57670E+000	10	...........
	33	0.453333	8.55819E-001	5.99657E-003	0.00000E+000	5.13198E-003	3.59960E-001	-1.12281E+000	3.57670E+000	10	...........
	34	0.466667	8.62062E-001	5.99652E-003	0.00000E+000	5.16937E-003	3.59960E-001	-1.13122E+000	3.57670E+000	10	...........
	35	0.48	8.68330E-001	5.99021E-003	0.00000E+000	5.20148E-003	3.59960E-001	-1.12894E+000	3.57670E+000	10	...........
	36	0.493333	8.74543E-001	5.99231E-003	0.00000E+000	5.24053E-003	3.59960E-001	-1.12312E+000	3.57670E+000	10	...........
	37	0.506667	8.80749E-001	5.99327E-003	0.00000E+000	5.27856E-003	3.59960E-001	-1.13134E+000	3.57670E+000	10	...........
	38	0.52	8.86936E-001	5.99121E-003	0.00000E+000	5.31382E-003	3.59960E-001	-1.12902E+000	3.57670E+000	10	...........
	39	0.533333	8.93066E-001	5.99465E-003	0.00000E+000	5.35361E-003	3.59960E-001	-1.12353E+000	3.57670E+000	10	...........
	40	0.546667	8.99199E-001	5.99804E-003	0.00000E+000	5.39343E-003	3.59960E-001	-1.13184E+000	3.57670E+000	10	...........
	41	0.56	9.05311E-001	5.99309E-003	0.00000E+000	5.42562E-003	3.59960E-001	-1.12886E+000	3.57670E+000	10	...........
	42	0.573333	9.11405E-001	5.99638E-003	0.00000E+000	5.46513E-003	3.59960E-001	-1.12307E+000	3.57670E+000	10	...........
	43	0.586667	9.17460E-001	5.99570E-003	0.00000E+000	5.50081E-003	3.59960E-001	-1.13166E+000	3.57670E+000	10	...........
	44	0.6	9.23496E-001	5.99582E-003	0.00000E+000	5.53711E-003	3.59960E-001	-1.12915E+000	3.57670E+000	10	...........
	45	0.613333	9.29454E-001	5.99329E-003	0.00000E+000	5.57049E-003	3.59960E-001	-1.12330E+000	3.57670E+000	10	...........
	46	0.626667	9.35370E-001	5.99490E-003	0.00000E+000	5.60745E-003	3.59960E-001	-1.13162E+000	3.57670E+000	10	...........
	47	0.64	9.41260E-001	5.99633E-003	0.00000E+000	5.64410E-003	3.59960E-001	-1.12875E+000	3.57670E+000	10	...........
	48	0.653333	9.47179E-001	5.99594E-003	0.00000E+000	5.67923E-003	3.59960E-001	-1.12334E+000	3.57670E+000	10	...........
	49	0.666667	9.53017E-001	5.99192E-003	0.00000E+000	5.71040E-003	3.59960E-001	-1.13169E+000	3.57670E+000	10	...........
	50	0.68	9.58853E-001	5.99476E-003	0.00000E+000	5.74809E-003	3.59960E-001	-1.12826E+000	3.57670E+000	10	...........
	51	0.693333	9.64591E-001	5.99128E-003	0.00000E+000	5.77913E-003	3.59960E-001	-1.12246E+000	3.57670E+000	10	...........
	52	0.706667	9.70295E-001	5.99412E-003	0.00000E+000	5.81606E-003	3.59960E-001	-1.13125E+000	3.57670E+000	10	...........
	53	0.72	9.76011E-001	5.99383E-003	0.00000E+000	5.85005E-003	3.59960E-001	-1.12786E+000	3.57670E+000	10	...........
	54	0.733333	9.81607E-001	5.99527E-003	0.00000E+000	5.88500E-003	3.59960E-001	-1.12256E+000	3.57670E+000	10	...........
	55	0.746667	9.87180E-001	5.99631E-003	0.00000E+000	5.91944E-003	3.59960E-001	-1.13101E+000	3.57670E+000	10	...........
	56	0.76	9.92699E-001	5.99886E-003	0.00000E+000	5.95506E-003	3.59960E-001	-1.12743E+000	3.57670E+000	10	...........
	57	0.773333	9.98225E-001	5.99844E-003	0.00000E+000	5.98779E-003	3.59960E-001	-1.12253E+000	3.57670E+000	10	...........
STARTTIMEOFFSET	QUANT	866.7236	Start Time Offset (s)