File: Data/CV_CRGO300517_1/PWRCCD_CRGO300517_1/CHARGE_DISCHARGE/CHARGE_#759.DTA
EXPLAIN
TAG	PWR800_CHARGE
TITLE	LABEL	PWR Cyclic Charge Discharge (Cell) - Charge Step	Test &Identifier
DATE	LABEL	22-6-2017	Date
TIME	LABEL	16:05:45	Time
NOTES	NOTES	3	&Notes...
	supercap test cell
	0.6mg
	6M KOH
PSTAT	PSTAT	IFC5000-01520	Potentiostat
CAPACITY	QUANT	1.00000E-003	Capacity (A-hr)
CELLTYPE	SELECTOR	1	&Cell Type
WORKINGCONNECTION	SELECTOR	0	&Working Lead
MAXCHARGETIME	VARIABLEANDUNITS	1.00000E+002	s	1.00000E+002	second(s)	Max &Charge Time
CHARGECURRENT	QUANT	6.00000E-003	&Charge Current (A)
VOLTAGEFINISH	TWOPARAM	F	1.00000E-003	3.60000E+003	&Voltage Finish	 I (A) < 	Max Time(s)
SAMPLETIME	QUANT	1.00000E-002	Sa&mple Period (s)
CHARGESTOPAT1	MULTIPARAM	4	1.00000E+000	Charge Stop At &1	Voltage > Limit	V
CHARGESTOPAT2	MULTIPARAM	0	0.00000E+000	Charge Stop At &2	None	N/A
AESBHCSELECTOR	TOGGLE	F	Save Both Half Cells
IRCOMP	TOGGLE	F	IR &Measure
EOC	QUANT	0	Open Circuit (V)
SEQUENCER	TOGGLE	TRUE	Run as Sequence
PSTATMODEL	IQUANT	53	Pstat Model
PSTATSECTION	LABEL	IFC5000-01520	Pstat Section
PSTATSERIALNO	LABEL	01520	Pstat Serial Number
CTRLMODE	IQUANT	0	Control Mode
ELECTROMETER	IQUANT	1	RE=0 or CS=1
IESTAB	IQUANT	0	I/E Stability
CASPEED	IQUANT	4	Control Amp Speed
CONVENTION	IQUANT	1	Current Convention
ICHRANGE	IQUANT	2	Ich Range
ICHRANGEMODE	TOGGLE	T	Ich Auto Range
ICHOFFSETENABLE	TOGGLE	F	Ich Offset Enable
ICHOFFSET	QUANT	0	Ich Offset (V)
ICHFILTER	IQUANT	1	Ich Filter
VCHRANGE	IQUANT	2	Vch Range
VCHRANGEMODE	TOGGLE	T	Vch Auto Range
VCHOFFSETENABLE	TOGGLE	F	Vch Offset Enable
VCHOFFSET	QUANT	0	Vch Offset (V)
VCHFILTER	IQUANT	1	Vch Filter
IERANGELOWERLIMIT	IQUANT	9	I/E Range Lower Limit
IERANGEMODE	TOGGLE	F	I/E AutoRange
IERANGE	IQUANT	10	I/E Range
ACHSELECT	IQUANT	1	Ach Select
ACHRANGE	IQUANT	2	Ach Range
ACHOFFSETENABLE	TOGGLE	F	Ach Offset Enable
ACHOFFSET	QUANT	0	Ach Offset (V)
ACHFILTER	IQUANT	1	Ach Filter
CABLEID	IQUANT	14	Cable ID
DCCALDATE	LABEL	20-10-2016	DC Calibration Date
ACCALDATE	LABEL	12/3/2015	AC Calibration Date
FRAMEWORKVERSION	QUANT	7.01	Framework Version
INSTRUMENTVERSION	LABEL	4.00	Instrument Version
CURVE	TABLE	55
	Pt	T	Vf	Im	Vu	Pwr	Sig	Ach	Temp	IERange	Over
	#	s	V	A	V	W	V	V	deg C	#	bits
	0	0.013333	6.46261E-001	5.99037E-003	0.00000E+000	3.87134E-003	3.59960E-001	-1.16822E+000	3.57630E+000	10	...........
	1	0.026667	6.55335E-001	5.99037E-003	0.00000E+000	3.92570E-003	3.59960E-001	-1.16501E+000	3.57630E+000	10	...........
	2	0.04	6.63768E-001	5.99446E-003	0.00000E+000	3.97893E-003	3.59960E-001	-1.15949E+000	3.57630E+000	10	...........
	3	0.053333	6.71790E-001	5.99565E-003	0.00000E+000	4.02782E-003	3.59960E-001	-1.16815E+000	3.57630E+000	10	...........
	4	0.066667	6.79483E-001	5.98999E-003	0.00000E+000	4.07010E-003	3.59960E-001	-1.16480E+000	3.57630E+000	10	...........
	5	0.08	6.87027E-001	5.99772E-003	0.00000E+000	4.12060E-003	3.59960E-001	-1.15922E+000	3.57630E+000	10	...........
	6	0.093333	6.94367E-001	5.99389E-003	0.00000E+000	4.16196E-003	3.59960E-001	-1.16847E+000	3.57630E+000	10	...........
	7	0.106667	7.01579E-001	5.99281E-003	0.00000E+000	4.20443E-003	3.59960E-001	-1.16474E+000	3.57630E+000	10	...........
	8	0.12	7.08669E-001	5.99307E-003	0.00000E+000	4.24710E-003	3.59960E-001	-1.15893E+000	3.57630E+000	10	...........
	9	0.133333	7.15754E-001	5.99204E-003	0.00000E+000	4.28883E-003	3.59960E-001	-1.16778E+000	3.57630E+000	10	...........
	10	0.146667	7.22789E-001	5.99748E-003	0.00000E+000	4.33491E-003	3.59960E-001	-1.16436E+000	3.57630E+000	10	...........
	11	0.16	7.29742E-001	5.98963E-003	0.00000E+000	4.37088E-003	3.59960E-001	-1.15890E+000	3.57630E+000	10	...........
	12	0.173333	7.36624E-001	5.99441E-003	0.00000E+000	4.41562E-003	3.59960E-001	-1.16797E+000	3.57630E+000	10	...........
	13	0.186667	7.43499E-001	5.99550E-003	0.00000E+000	4.45765E-003	3.59960E-001	-1.16404E+000	3.57630E+000	10	...........
	14	0.2	7.50318E-001	5.99414E-003	0.00000E+000	4.49751E-003	3.59960E-001	-1.15856E+000	3.57630E+000	10	...........
	15	0.213333	7.57133E-001	5.99295E-003	0.00000E+000	4.53746E-003	3.59960E-001	-1.16783E+000	3.57630E+000	10	...........
	16	0.226667	7.63873E-001	5.99442E-003	0.00000E+000	4.57897E-003	3.59960E-001	-1.16431E+000	3.57630E+000	10	...........
	17	0.24	7.70634E-001	5.99580E-003	0.00000E+000	4.62057E-003	3.59960E-001	-1.15869E+000	3.57630E+000	10	...........
	18	0.253333	7.77324E-001	5.99443E-003	0.00000E+000	4.65961E-003	3.59960E-001	-1.16776E+000	3.57630E+000	10	...........
	19	0.266667	7.84070E-001	5.99571E-003	0.00000E+000	4.70106E-003	3.59960E-001	-1.16383E+000	3.57630E+000	10	...........
	20	0.28	7.90710E-001	5.99280E-003	0.00000E+000	4.73857E-003	3.59960E-001	-1.15849E+000	3.57630E+000	10	...........
	21	0.293333	7.97394E-001	5.98869E-003	0.00000E+000	4.77535E-003	3.59960E-001	-1.16777E+000	3.57630E+000	10	...........
	22	0.306667	8.04005E-001	5.99343E-003	0.00000E+000	4.81875E-003	3.59960E-001	-1.16400E+000	3.57630E+000	10	...........
	23	0.32	8.10599E-001	5.99127E-003	0.00000E+000	4.85651E-003	3.59960E-001	-1.15837E+000	3.57630E+000	10	...........
	24	0.333333	8.17158E-001	5.99306E-003	0.00000E+000	4.89728E-003	3.59960E-001	-1.16763E+000	3.57630E+000	10	...........
	25	0.346667	8.23746E-001	5.99538E-003	0.00000E+000	4.93867E-003	3.59960E-001	-1.16410E+000	3.57630E+000	10	...........
	26	0.36	8.30265E-001	5.99706E-003	0.00000E+000	4.97915E-003	3.59960E-001	-1.15878E+000	3.57630E+000	10	...........
	27	0.373333	8.36780E-001	5.99786E-003	0.00000E+000	5.01889E-003	3.59960E-001	-1.16794E+000	3.57637E+000	10	...........
	28	0.386667	8.43284E-001	5.98713E-003	0.00000E+000	5.04884E-003	3.59960E-001	-1.16398E+000	3.57660E+000	10	...........
	29	0.4	8.49798E-001	5.99308E-003	0.00000E+000	5.09291E-003	3.59960E-001	-1.15834E+000	3.57660E+000	10	...........
	30	0.413333	8.56250E-001	5.99359E-003	0.00000E+000	5.13201E-003	3.59960E-001	-1.16775E+000	3.57660E+000	10	...........
	31	0.426667	8.62644E-001	5.99196E-003	0.00000E+000	5.16893E-003	3.59960E-001	-1.16401E+000	3.57660E+000	10	...........
	32	0.44	8.69064E-001	5.99783E-003	0.00000E+000	5.21250E-003	3.59960E-001	-1.15836E+000	3.57660E+000	10	...........
	33	0.453333	8.75412E-001	5.99278E-003	0.00000E+000	5.24615E-003	3.59960E-001	-1.16725E+000	3.57660E+000	10	...........
	34	0.466667	8.81763E-001	5.99765E-003	0.00000E+000	5.28850E-003	3.59960E-001	-1.16324E+000	3.57660E+000	10	...........
	35	0.48	8.88083E-001	5.99161E-003	0.00000E+000	5.32105E-003	3.59960E-001	-1.15804E+000	3.57660E+000	10	...........
	36	0.493333	8.94349E-001	5.98935E-003	0.00000E+000	5.35657E-003	3.59960E-001	-1.16752E+000	3.57660E+000	10	...........
	37	0.506667	9.00617E-001	5.99504E-003	0.00000E+000	5.39924E-003	3.59960E-001	-1.16334E+000	3.57660E+000	10	...........
	38	0.52	9.06820E-001	5.98960E-003	0.00000E+000	5.43148E-003	3.59960E-001	-1.15776E+000	3.57660E+000	10	...........
	39	0.533333	9.12981E-001	5.99127E-003	0.00000E+000	5.46991E-003	3.59960E-001	-1.16722E+000	3.57660E+000	10	...........
	40	0.546667	9.19168E-001	5.99471E-003	0.00000E+000	5.51014E-003	3.59960E-001	-1.16308E+000	3.57660E+000	10	...........
	41	0.56	9.25296E-001	5.99294E-003	0.00000E+000	5.54524E-003	3.59960E-001	-1.15823E+000	3.57660E+000	10	...........
	42	0.573333	9.31364E-001	5.99321E-003	0.00000E+000	5.58186E-003	3.59960E-001	-1.16751E+000	3.57660E+000	10	...........
	43	0.586667	9.37396E-001	5.99535E-003	0.00000E+000	5.62001E-003	3.59960E-001	-1.16318E+000	3.57660E+000	10	...........
	44	0.6	9.43401E-001	5.99569E-003	0.00000E+000	5.65634E-003	3.59960E-001	-1.15780E+000	3.57660E+000	10	...........
	45	0.613333	9.49381E-001	5.99691E-003	0.00000E+000	5.69336E-003	3.59960E-001	-1.16765E+000	3.57660E+000	10	...........
	46	0.626667	9.55264E-001	5.99726E-003	0.00000E+000	5.72897E-003	3.59960E-001	-1.16313E+000	3.57660E+000	10	...........
	47	0.64	9.61096E-001	5.99043E-003	0.00000E+000	5.75738E-003	3.59960E-001	-1.15796E+000	3.57660E+000	10	...........
	48	0.653333	9.66908E-001	5.99689E-003	0.00000E+000	5.79844E-003	3.59960E-001	-1.16756E+000	3.57660E+000	10	...........
	49	0.666667	9.72666E-001	5.99795E-003	0.00000E+000	5.83401E-003	3.59960E-001	-1.16315E+000	3.57660E+000	10	...........
	50	0.68	9.78367E-001	5.99151E-003	0.00000E+000	5.86189E-003	3.59960E-001	-1.15823E+000	3.57660E+000	10	...........
	51	0.693333	9.84029E-001	5.99722E-003	0.00000E+000	5.90144E-003	3.59960E-001	-1.16796E+000	3.57660E+000	10	...........
	52	0.706667	9.89646E-001	5.99666E-003	0.00000E+000	5.93457E-003	3.59960E-001	-1.16324E+000	3.57660E+000	10	...........
	53	0.72	9.95173E-001	5.98895E-003	0.00000E+000	5.96005E-003	3.59960E-001	-1.15791E+000	3.57660E+000	10	...........
	54	0.726667	9.99354E-001	5.99682E-003	0.00000E+000	5.99294E-003	3.59960E-001	-1.17284E+000	3.57660E+000	10	...........
STARTTIMEOFFSET	QUANT	1245.099	Start Time Offset (s)