File: Data/CV_CRGO300517_1/PWRCCD_CRGO300517_1/CHARGE_DISCHARGE/CHARGE_#524.DTA
EXPLAIN
TAG	PWR800_CHARGE
TITLE	LABEL	PWR Cyclic Charge Discharge (Cell) - Charge Step	Test &Identifier
DATE	LABEL	22-6-2017	Date
TIME	LABEL	15:56:51	Time
NOTES	NOTES	3	&Notes...
	supercap test cell
	0.6mg
	6M KOH
PSTAT	PSTAT	IFC5000-01520	Potentiostat
CAPACITY	QUANT	1.00000E-003	Capacity (A-hr)
CELLTYPE	SELECTOR	1	&Cell Type
WORKINGCONNECTION	SELECTOR	0	&Working Lead
MAXCHARGETIME	VARIABLEANDUNITS	1.00000E+002	s	1.00000E+002	second(s)	Max &Charge Time
CHARGECURRENT	QUANT	6.00000E-003	&Charge Current (A)
VOLTAGEFINISH	TWOPARAM	F	1.00000E-003	3.60000E+003	&Voltage Finish	 I (A) < 	Max Time(s)
SAMPLETIME	QUANT	1.00000E-002	Sa&mple Period (s)
CHARGESTOPAT1	MULTIPARAM	4	1.00000E+000	Charge Stop At &1	Voltage > Limit	V
CHARGESTOPAT2	MULTIPARAM	0	0.00000E+000	Charge Stop At &2	None	N/A
AESBHCSELECTOR	TOGGLE	F	Save Both Half Cells
IRCOMP	TOGGLE	F	IR &Measure
EOC	QUANT	0	Open Circuit (V)
SEQUENCER	TOGGLE	TRUE	Run as Sequence
PSTATMODEL	IQUANT	53	Pstat Model
PSTATSECTION	LABEL	IFC5000-01520	Pstat Section
PSTATSERIALNO	LABEL	01520	Pstat Serial Number
CTRLMODE	IQUANT	0	Control Mode
ELECTROMETER	IQUANT	1	RE=0 or CS=1
IESTAB	IQUANT	0	I/E Stability
CASPEED	IQUANT	4	Control Amp Speed
CONVENTION	IQUANT	1	Current Convention
ICHRANGE	IQUANT	2	Ich Range
ICHRANGEMODE	TOGGLE	T	Ich Auto Range
ICHOFFSETENABLE	TOGGLE	F	Ich Offset Enable
ICHOFFSET	QUANT	0	Ich Offset (V)
ICHFILTER	IQUANT	1	Ich Filter
VCHRANGE	IQUANT	2	Vch Range
VCHRANGEMODE	TOGGLE	T	Vch Auto Range
VCHOFFSETENABLE	TOGGLE	F	Vch Offset Enable
VCHOFFSET	QUANT	0	Vch Offset (V)
VCHFILTER	IQUANT	1	Vch Filter
IERANGELOWERLIMIT	IQUANT	9	I/E Range Lower Limit
IERANGEMODE	TOGGLE	F	I/E AutoRange
IERANGE	IQUANT	10	I/E Range
ACHSELECT	IQUANT	1	Ach Select
ACHRANGE	IQUANT	2	Ach Range
ACHOFFSETENABLE	TOGGLE	F	Ach Offset Enable
ACHOFFSET	QUANT	0	Ach Offset (V)
ACHFILTER	IQUANT	1	Ach Filter
CABLEID	IQUANT	14	Cable ID
DCCALDATE	LABEL	20-10-2016	DC Calibration Date
ACCALDATE	LABEL	12/3/2015	AC Calibration Date
FRAMEWORKVERSION	QUANT	7.01	Framework Version
INSTRUMENTVERSION	LABEL	4.00	Instrument Version
CURVE	TABLE	58
	Pt	T	Vf	Im	Vu	Pwr	Sig	Ach	Temp	IERange	Over
	#	s	V	A	V	W	V	V	deg C	#	bits
	0	0.013333	6.33921E-001	5.99686E-003	0.00000E+000	3.80154E-003	3.59960E-001	-1.13365E+000	3.57670E+000	10	...........
	1	0.026667	6.42773E-001	5.99024E-003	0.00000E+000	3.85037E-003	3.59960E-001	-1.12755E+000	3.57670E+000	10	...........
	2	0.04	6.50952E-001	5.99326E-003	0.00000E+000	3.90133E-003	3.59960E-001	-1.13591E+000	3.57670E+000	10	...........
	3	0.053333	6.58719E-001	5.99447E-003	0.00000E+000	3.94867E-003	3.59960E-001	-1.13344E+000	3.57670E+000	10	...........
	4	0.066667	6.66173E-001	5.98897E-003	0.00000E+000	3.98969E-003	3.59960E-001	-1.12753E+000	3.57670E+000	10	...........
	5	0.08	6.73462E-001	5.99341E-003	0.00000E+000	4.03633E-003	3.59960E-001	-1.13618E+000	3.57670E+000	10	...........
	6	0.093333	6.80587E-001	5.99160E-003	0.00000E+000	4.07781E-003	3.59960E-001	-1.13343E+000	3.57670E+000	10	...........
	7	0.106667	6.87634E-001	5.99421E-003	0.00000E+000	4.12182E-003	3.59960E-001	-1.12741E+000	3.57670E+000	10	...........
	8	0.12	6.94600E-001	5.99019E-003	0.00000E+000	4.16079E-003	3.59960E-001	-1.13564E+000	3.57670E+000	10	...........
	9	0.133333	7.01487E-001	5.99190E-003	0.00000E+000	4.20324E-003	3.59960E-001	-1.13362E+000	3.57670E+000	10	...........
	10	0.146667	7.08296E-001	5.99229E-003	0.00000E+000	4.24432E-003	3.59960E-001	-1.12760E+000	3.57670E+000	10	...........
	11	0.16	7.15034E-001	5.99363E-003	0.00000E+000	4.28565E-003	3.59960E-001	-1.13566E+000	3.57670E+000	10	...........
	12	0.173333	7.21799E-001	5.99577E-003	0.00000E+000	4.32774E-003	3.59960E-001	-1.13348E+000	3.57670E+000	10	...........
	13	0.186667	7.28520E-001	5.99236E-003	0.00000E+000	4.36556E-003	3.59960E-001	-1.12683E+000	3.57670E+000	10	...........
	14	0.2	7.35154E-001	5.99189E-003	0.00000E+000	4.40496E-003	3.59960E-001	-1.13516E+000	3.57670E+000	10	...........
	15	0.213333	7.41810E-001	5.99012E-003	0.00000E+000	4.44353E-003	3.59960E-001	-1.13329E+000	3.57670E+000	10	...........
	16	0.226667	7.48390E-001	5.99198E-003	0.00000E+000	4.48433E-003	3.59960E-001	-1.12696E+000	3.57670E+000	10	...........
	17	0.24	7.54976E-001	5.99709E-003	0.00000E+000	4.52766E-003	3.59960E-001	-1.13521E+000	3.57670E+000	10	...........
	18	0.253333	7.61522E-001	5.99698E-003	0.00000E+000	4.56684E-003	3.59960E-001	-1.13332E+000	3.57670E+000	10	...........
	19	0.266667	7.68048E-001	5.99505E-003	0.00000E+000	4.60449E-003	3.59960E-001	-1.12695E+000	3.57670E+000	10	...........
	20	0.28	7.74592E-001	5.99419E-003	0.00000E+000	4.64305E-003	3.59960E-001	-1.13509E+000	3.57670E+000	10	...........
	21	0.293333	7.81037E-001	5.99542E-003	0.00000E+000	4.68264E-003	3.59960E-001	-1.13342E+000	3.57670E+000	10	...........
	22	0.306667	7.87553E-001	5.99176E-003	0.00000E+000	4.71883E-003	3.59960E-001	-1.12661E+000	3.57670E+000	10	...........
	23	0.32	7.94033E-001	5.99518E-003	0.00000E+000	4.76037E-003	3.59960E-001	-1.13489E+000	3.57670E+000	10	...........
	24	0.333333	8.00495E-001	5.99372E-003	0.00000E+000	4.79794E-003	3.59960E-001	-1.13344E+000	3.57670E+000	10	...........
	25	0.346667	8.06950E-001	5.99323E-003	0.00000E+000	4.83624E-003	3.59960E-001	-1.12683E+000	3.57670E+000	10	...........
	26	0.36	8.13345E-001	5.99311E-003	0.00000E+000	4.87447E-003	3.59960E-001	-1.13476E+000	3.57670E+000	10	...........
	27	0.373333	8.19766E-001	5.99301E-003	0.00000E+000	4.91287E-003	3.59960E-001	-1.13334E+000	3.57670E+000	10	...........
	28	0.386667	8.26192E-001	5.99475E-003	0.00000E+000	4.95282E-003	3.59960E-001	-1.12658E+000	3.57670E+000	10	...........
	29	0.4	8.32567E-001	5.99224E-003	0.00000E+000	4.98894E-003	3.59960E-001	-1.13466E+000	3.57670E+000	10	...........
	30	0.413333	8.38883E-001	5.99362E-003	0.00000E+000	5.02795E-003	3.59960E-001	-1.13351E+000	3.57670E+000	10	...........
	31	0.426667	8.45238E-001	5.99333E-003	0.00000E+000	5.06579E-003	3.59960E-001	-1.12692E+000	3.57670E+000	10	...........
	32	0.44	8.51552E-001	5.99193E-003	0.00000E+000	5.10244E-003	3.59960E-001	-1.13446E+000	3.57670E+000	10	...........
	33	0.453333	8.57868E-001	5.99638E-003	0.00000E+000	5.14410E-003	3.59960E-001	-1.13339E+000	3.57670E+000	10	...........
	34	0.466667	8.64139E-001	5.99178E-003	0.00000E+000	5.17773E-003	3.59960E-001	-1.12673E+000	3.57670E+000	10	...........
	35	0.48	8.70422E-001	5.99777E-003	0.00000E+000	5.22059E-003	3.59960E-001	-1.13441E+000	3.57670E+000	10	...........
	36	0.493333	8.76665E-001	5.99539E-003	0.00000E+000	5.25594E-003	3.59960E-001	-1.13381E+000	3.57670E+000	10	...........
	37	0.506667	8.82878E-001	5.99706E-003	0.00000E+000	5.29467E-003	3.59960E-001	-1.12626E+000	3.57670E+000	10	...........
	38	0.52	8.89076E-001	5.99836E-003	0.00000E+000	5.33300E-003	3.59960E-001	-1.13383E+000	3.57670E+000	10	...........
	39	0.533333	8.95262E-001	5.99597E-003	0.00000E+000	5.36796E-003	3.59960E-001	-1.13344E+000	3.57670E+000	10	...........
	40	0.546667	9.01396E-001	5.99729E-003	0.00000E+000	5.40593E-003	3.59960E-001	-1.12641E+000	3.57670E+000	10	...........
	41	0.56	9.07487E-001	5.99410E-003	0.00000E+000	5.43957E-003	3.59960E-001	-1.13406E+000	3.57670E+000	10	...........
	42	0.573333	9.13606E-001	5.99676E-003	0.00000E+000	5.47868E-003	3.59960E-001	-1.13352E+000	3.57670E+000	10	...........
	43	0.586667	9.19628E-001	5.99426E-003	0.00000E+000	5.51249E-003	3.59960E-001	-1.12642E+000	3.57670E+000	10	...........
	44	0.6	9.25690E-001	5.99404E-003	0.00000E+000	5.54863E-003	3.59960E-001	-1.13390E+000	3.57670E+000	10	...........
	45	0.613333	9.31662E-001	5.99519E-003	0.00000E+000	5.58549E-003	3.59960E-001	-1.13380E+000	3.57670E+000	10	...........
	46	0.626667	9.37577E-001	5.99468E-003	0.00000E+000	5.62047E-003	3.59960E-001	-1.12642E+000	3.57670E+000	10	...........
	47	0.64	9.43452E-001	5.99432E-003	0.00000E+000	5.65536E-003	3.59960E-001	-1.13388E+000	3.57670E+000	10	...........
	48	0.653333	9.49388E-001	5.99792E-003	0.00000E+000	5.69435E-003	3.59960E-001	-1.13383E+000	3.57670E+000	10	...........
	49	0.666667	9.55195E-001	5.99780E-003	0.00000E+000	5.72907E-003	3.59960E-001	-1.12671E+000	3.57670E+000	10	...........
	50	0.68	9.60961E-001	5.99317E-003	0.00000E+000	5.75920E-003	3.59960E-001	-1.13395E+000	3.57670E+000	10	...........
	51	0.693333	9.66682E-001	5.99248E-003	0.00000E+000	5.79282E-003	3.59960E-001	-1.13406E+000	3.57670E+000	10	...........
	52	0.706667	9.72376E-001	5.99276E-003	0.00000E+000	5.82722E-003	3.59960E-001	-1.12657E+000	3.57670E+000	10	...........
	53	0.72	9.78102E-001	5.99348E-003	0.00000E+000	5.86223E-003	3.59960E-001	-1.13402E+000	3.57670E+000	10	...........
	54	0.733333	9.83665E-001	5.99573E-003	0.00000E+000	5.89779E-003	3.59960E-001	-1.13419E+000	3.57670E+000	10	...........
	55	0.746667	9.89213E-001	5.99058E-003	0.00000E+000	5.92596E-003	3.59960E-001	-1.12696E+000	3.57670E+000	10	...........
	56	0.76	9.94696E-001	5.99856E-003	0.00000E+000	5.96674E-003	3.59960E-001	-1.13424E+000	3.57670E+000	10	...........
	57	0.768333	9.99176E-001	5.99631E-003	0.00000E+000	5.99137E-003	3.59960E-001	-1.13037E+000	3.57670E+000	10	...........
STARTTIMEOFFSET	QUANT	895.8701	Start Time Offset (s)