File: Data/CV_CRGO300517_1/PWRCCD_CRGO300517_1/CHARGE_DISCHARGE/CHARGE_#993.DTA
EXPLAIN
TAG	PWR800_CHARGE
TITLE	LABEL	PWR Cyclic Charge Discharge (Cell) - Charge Step	Test &Identifier
DATE	LABEL	22-6-2017	Date
TIME	LABEL	16:14:23	Time
NOTES	NOTES	3	&Notes...
	supercap test cell
	0.6mg
	6M KOH
PSTAT	PSTAT	IFC5000-01520	Potentiostat
CAPACITY	QUANT	1.00000E-003	Capacity (A-hr)
CELLTYPE	SELECTOR	1	&Cell Type
WORKINGCONNECTION	SELECTOR	0	&Working Lead
MAXCHARGETIME	VARIABLEANDUNITS	1.00000E+002	s	1.00000E+002	second(s)	Max &Charge Time
CHARGECURRENT	QUANT	6.00000E-003	&Charge Current (A)
VOLTAGEFINISH	TWOPARAM	F	1.00000E-003	3.60000E+003	&Voltage Finish	 I (A) < 	Max Time(s)
SAMPLETIME	QUANT	1.00000E-002	Sa&mple Period (s)
CHARGESTOPAT1	MULTIPARAM	4	1.00000E+000	Charge Stop At &1	Voltage > Limit	V
CHARGESTOPAT2	MULTIPARAM	0	0.00000E+000	Charge Stop At &2	None	N/A
AESBHCSELECTOR	TOGGLE	F	Save Both Half Cells
IRCOMP	TOGGLE	F	IR &Measure
EOC	QUANT	0	Open Circuit (V)
SEQUENCER	TOGGLE	TRUE	Run as Sequence
PSTATMODEL	IQUANT	53	Pstat Model
PSTATSECTION	LABEL	IFC5000-01520	Pstat Section
PSTATSERIALNO	LABEL	01520	Pstat Serial Number
CTRLMODE	IQUANT	0	Control Mode
ELECTROMETER	IQUANT	1	RE=0 or CS=1
IESTAB	IQUANT	0	I/E Stability
CASPEED	IQUANT	4	Control Amp Speed
CONVENTION	IQUANT	1	Current Convention
ICHRANGE	IQUANT	2	Ich Range
ICHRANGEMODE	TOGGLE	T	Ich Auto Range
ICHOFFSETENABLE	TOGGLE	F	Ich Offset Enable
ICHOFFSET	QUANT	0	Ich Offset (V)
ICHFILTER	IQUANT	1	Ich Filter
VCHRANGE	IQUANT	2	Vch Range
VCHRANGEMODE	TOGGLE	T	Vch Auto Range
VCHOFFSETENABLE	TOGGLE	F	Vch Offset Enable
VCHOFFSET	QUANT	0	Vch Offset (V)
VCHFILTER	IQUANT	1	Vch Filter
IERANGELOWERLIMIT	IQUANT	9	I/E Range Lower Limit
IERANGEMODE	TOGGLE	F	I/E AutoRange
IERANGE	IQUANT	10	I/E Range
ACHSELECT	IQUANT	1	Ach Select
ACHRANGE	IQUANT	2	Ach Range
ACHOFFSETENABLE	TOGGLE	F	Ach Offset Enable
ACHOFFSET	QUANT	0	Ach Offset (V)
ACHFILTER	IQUANT	1	Ach Filter
CABLEID	IQUANT	14	Cable ID
DCCALDATE	LABEL	20-10-2016	DC Calibration Date
ACCALDATE	LABEL	12/3/2015	AC Calibration Date
FRAMEWORKVERSION	QUANT	7.01	Framework Version
INSTRUMENTVERSION	LABEL	4.00	Instrument Version
CURVE	TABLE	52
	Pt	T	Vf	Im	Vu	Pwr	Sig	Ach	Temp	IERange	Over
	#	s	V	A	V	W	V	V	deg C	#	bits
	0	0.013333	6.57250E-001	5.99362E-003	0.00000E+000	3.93931E-003	3.59960E-001	-1.17393E+000	3.57720E+000	10	...........
	1	0.026667	6.66627E-001	5.99642E-003	0.00000E+000	3.99738E-003	3.59960E-001	-1.18345E+000	3.57720E+000	10	...........
	2	0.04	6.75210E-001	5.99535E-003	0.00000E+000	4.04812E-003	3.59960E-001	-1.17982E+000	3.57720E+000	10	...........
	3	0.053333	6.83337E-001	5.99314E-003	0.00000E+000	4.09534E-003	3.59960E-001	-1.17409E+000	3.57720E+000	10	...........
	4	0.066667	6.91196E-001	5.99244E-003	0.00000E+000	4.14195E-003	3.59960E-001	-1.18336E+000	3.57720E+000	10	...........
	5	0.08	6.98835E-001	5.98712E-003	0.00000E+000	4.18401E-003	3.59960E-001	-1.17926E+000	3.57720E+000	10	...........
	6	0.093333	7.06352E-001	5.98716E-003	0.00000E+000	4.22904E-003	3.59960E-001	-1.17389E+000	3.57720E+000	10	...........
	7	0.106667	7.13691E-001	5.98881E-003	0.00000E+000	4.27415E-003	3.59960E-001	-1.18317E+000	3.57720E+000	10	...........
	8	0.12	7.21060E-001	5.99491E-003	0.00000E+000	4.32269E-003	3.59960E-001	-1.17831E+000	3.57720E+000	10	...........
	9	0.133333	7.28239E-001	5.98979E-003	0.00000E+000	4.36199E-003	3.59960E-001	-1.17256E+000	3.57720E+000	10	...........
	10	0.146667	7.35417E-001	5.99468E-003	0.00000E+000	4.40859E-003	3.59960E-001	-1.18203E+000	3.57720E+000	10	...........
	11	0.16	7.42506E-001	5.99382E-003	0.00000E+000	4.45045E-003	3.59960E-001	-1.17771E+000	3.57720E+000	10	...........
	12	0.173333	7.49560E-001	5.99143E-003	0.00000E+000	4.49094E-003	3.59960E-001	-1.17257E+000	3.57720E+000	10	...........
	13	0.186667	7.56594E-001	5.99305E-003	0.00000E+000	4.53431E-003	3.59960E-001	-1.18205E+000	3.57720E+000	10	...........
	14	0.2	7.63543E-001	5.99235E-003	0.00000E+000	4.57542E-003	3.59960E-001	-1.17772E+000	3.57720E+000	10	...........
	15	0.213333	7.70457E-001	5.99181E-003	0.00000E+000	4.61643E-003	3.59960E-001	-1.17298E+000	3.57720E+000	10	...........
	16	0.226667	7.77322E-001	5.99740E-003	0.00000E+000	4.66191E-003	3.59960E-001	-1.18307E+000	3.57720E+000	10	...........
	17	0.24	7.84160E-001	5.99082E-003	0.00000E+000	4.69776E-003	3.59960E-001	-1.17845E+000	3.57720E+000	10	...........
	18	0.253333	7.91030E-001	5.99223E-003	0.00000E+000	4.74003E-003	3.59960E-001	-1.17331E+000	3.57720E+000	10	...........
	19	0.266667	7.97868E-001	5.99319E-003	0.00000E+000	4.78177E-003	3.59960E-001	-1.18300E+000	3.57720E+000	10	...........
	20	0.28	8.04626E-001	5.99457E-003	0.00000E+000	4.82339E-003	3.59960E-001	-1.17794E+000	3.57720E+000	10	...........
	21	0.293333	8.11378E-001	5.99442E-003	0.00000E+000	4.86374E-003	3.59960E-001	-1.17289E+000	3.57720E+000	10	...........
	22	0.306667	8.18089E-001	5.99438E-003	0.00000E+000	4.90393E-003	3.59960E-001	-1.18282E+000	3.57720E+000	10	...........
	23	0.32	8.24795E-001	5.99587E-003	0.00000E+000	4.94536E-003	3.59960E-001	-1.17731E+000	3.57720E+000	10	...........
	24	0.333333	8.31439E-001	5.99584E-003	0.00000E+000	4.98517E-003	3.59960E-001	-1.17220E+000	3.57720E+000	10	...........
	25	0.346667	8.38088E-001	5.99931E-003	0.00000E+000	5.02795E-003	3.59960E-001	-1.18172E+000	3.57720E+000	10	...........
	26	0.36	8.44719E-001	5.99549E-003	0.00000E+000	5.06451E-003	3.59960E-001	-1.17664E+000	3.57720E+000	10	...........
	27	0.373333	8.51340E-001	5.99376E-003	0.00000E+000	5.10273E-003	3.59960E-001	-1.17181E+000	3.57720E+000	10	...........
	28	0.386667	8.57881E-001	5.99118E-003	0.00000E+000	5.13973E-003	3.59960E-001	-1.18197E+000	3.57720E+000	10	...........
	29	0.4	8.64420E-001	6.00118E-003	0.00000E+000	5.18754E-003	3.59960E-001	-1.17637E+000	3.57720E+000	10	...........
	30	0.413333	8.70940E-001	5.99538E-003	0.00000E+000	5.22161E-003	3.59960E-001	-1.17167E+000	3.57720E+000	10	...........
	31	0.426667	8.77416E-001	5.99293E-003	0.00000E+000	5.25829E-003	3.59960E-001	-1.18199E+000	3.57720E+000	10	...........
	32	0.44	8.83842E-001	5.99062E-003	0.00000E+000	5.29476E-003	3.59960E-001	-1.17626E+000	3.57720E+000	10	...........
	33	0.453333	8.90252E-001	5.99468E-003	0.00000E+000	5.33677E-003	3.59960E-001	-1.17166E+000	3.57720E+000	10	...........
	34	0.466667	8.96603E-001	5.99532E-003	0.00000E+000	5.37543E-003	3.59960E-001	-1.18202E+000	3.57720E+000	10	...........
	35	0.48	9.02927E-001	5.99057E-003	0.00000E+000	5.40905E-003	3.59960E-001	-1.17631E+000	3.57720E+000	10	...........
	36	0.493333	9.09208E-001	5.99146E-003	0.00000E+000	5.44748E-003	3.59960E-001	-1.17220E+000	3.57720E+000	10	...........
	37	0.506667	9.15460E-001	5.99354E-003	0.00000E+000	5.48685E-003	3.59960E-001	-1.18250E+000	3.57720E+000	10	...........
	38	0.52	9.21696E-001	5.98724E-003	0.00000E+000	5.51842E-003	3.59960E-001	-1.17648E+000	3.57720E+000	10	...........
	39	0.533333	9.27850E-001	5.99149E-003	0.00000E+000	5.55920E-003	3.59960E-001	-1.17218E+000	3.57720E+000	10	...........
	40	0.546667	9.33947E-001	5.99136E-003	0.00000E+000	5.59561E-003	3.59960E-001	-1.18249E+000	3.57720E+000	10	...........
	41	0.56	9.40004E-001	5.99270E-003	0.00000E+000	5.63316E-003	3.59960E-001	-1.17638E+000	3.57720E+000	10	...........
	42	0.573333	9.46075E-001	5.99176E-003	0.00000E+000	5.66865E-003	3.59960E-001	-1.17215E+000	3.57720E+000	10	...........
	43	0.586667	9.52058E-001	5.99596E-003	0.00000E+000	5.70850E-003	3.59960E-001	-1.18225E+000	3.57720E+000	10	...........
	44	0.6	9.57942E-001	5.99387E-003	0.00000E+000	5.74179E-003	3.59960E-001	-1.17551E+000	3.57720E+000	10	...........
	45	0.613333	9.63802E-001	5.99387E-003	0.00000E+000	5.77691E-003	3.59960E-001	-1.17148E+000	3.57720E+000	10	...........
	46	0.626667	9.69614E-001	5.99376E-003	0.00000E+000	5.81163E-003	3.59960E-001	-1.18207E+000	3.57720E+000	10	...........
	47	0.64	9.75412E-001	5.98883E-003	0.00000E+000	5.84158E-003	3.59960E-001	-1.17570E+000	3.57720E+000	10	...........
	48	0.653333	9.81123E-001	5.99438E-003	0.00000E+000	5.88122E-003	3.59960E-001	-1.17154E+000	3.57720E+000	10	...........
	49	0.666667	9.86787E-001	5.99448E-003	0.00000E+000	5.91527E-003	3.59960E-001	-1.18197E+000	3.57720E+000	10	...........
	50	0.68	9.92379E-001	5.99677E-003	0.00000E+000	5.95107E-003	3.59960E-001	-1.17566E+000	3.57720E+000	10	...........
	51	0.693333	9.97952E-001	5.99688E-003	0.00000E+000	5.98460E-003	3.59960E-001	-1.17177E+000	3.57720E+000	10	...........
STARTTIMEOFFSET	QUANT	1575.597	Start Time Offset (s)