File: Data/CV_CRGO300517_1/PWRCCD_CRGO300517_1/CHARGE_DISCHARGE/CHARGE_#825.DTA
EXPLAIN
TAG	PWR800_CHARGE
TITLE	LABEL	PWR Cyclic Charge Discharge (Cell) - Charge Step	Test &Identifier
DATE	LABEL	22-6-2017	Date
TIME	LABEL	16:08:13	Time
NOTES	NOTES	3	&Notes...
	supercap test cell
	0.6mg
	6M KOH
PSTAT	PSTAT	IFC5000-01520	Potentiostat
CAPACITY	QUANT	1.00000E-003	Capacity (A-hr)
CELLTYPE	SELECTOR	1	&Cell Type
WORKINGCONNECTION	SELECTOR	0	&Working Lead
MAXCHARGETIME	VARIABLEANDUNITS	1.00000E+002	s	1.00000E+002	second(s)	Max &Charge Time
CHARGECURRENT	QUANT	6.00000E-003	&Charge Current (A)
VOLTAGEFINISH	TWOPARAM	F	1.00000E-003	3.60000E+003	&Voltage Finish	 I (A) < 	Max Time(s)
SAMPLETIME	QUANT	1.00000E-002	Sa&mple Period (s)
CHARGESTOPAT1	MULTIPARAM	4	1.00000E+000	Charge Stop At &1	Voltage > Limit	V
CHARGESTOPAT2	MULTIPARAM	0	0.00000E+000	Charge Stop At &2	None	N/A
AESBHCSELECTOR	TOGGLE	F	Save Both Half Cells
IRCOMP	TOGGLE	F	IR &Measure
EOC	QUANT	0	Open Circuit (V)
SEQUENCER	TOGGLE	TRUE	Run as Sequence
PSTATMODEL	IQUANT	53	Pstat Model
PSTATSECTION	LABEL	IFC5000-01520	Pstat Section
PSTATSERIALNO	LABEL	01520	Pstat Serial Number
CTRLMODE	IQUANT	0	Control Mode
ELECTROMETER	IQUANT	1	RE=0 or CS=1
IESTAB	IQUANT	0	I/E Stability
CASPEED	IQUANT	4	Control Amp Speed
CONVENTION	IQUANT	1	Current Convention
ICHRANGE	IQUANT	2	Ich Range
ICHRANGEMODE	TOGGLE	T	Ich Auto Range
ICHOFFSETENABLE	TOGGLE	F	Ich Offset Enable
ICHOFFSET	QUANT	0	Ich Offset (V)
ICHFILTER	IQUANT	1	Ich Filter
VCHRANGE	IQUANT	2	Vch Range
VCHRANGEMODE	TOGGLE	T	Vch Auto Range
VCHOFFSETENABLE	TOGGLE	F	Vch Offset Enable
VCHOFFSET	QUANT	0	Vch Offset (V)
VCHFILTER	IQUANT	1	Vch Filter
IERANGELOWERLIMIT	IQUANT	9	I/E Range Lower Limit
IERANGEMODE	TOGGLE	F	I/E AutoRange
IERANGE	IQUANT	10	I/E Range
ACHSELECT	IQUANT	1	Ach Select
ACHRANGE	IQUANT	2	Ach Range
ACHOFFSETENABLE	TOGGLE	F	Ach Offset Enable
ACHOFFSET	QUANT	0	Ach Offset (V)
ACHFILTER	IQUANT	1	Ach Filter
CABLEID	IQUANT	14	Cable ID
DCCALDATE	LABEL	20-10-2016	DC Calibration Date
ACCALDATE	LABEL	12/3/2015	AC Calibration Date
FRAMEWORKVERSION	QUANT	7.01	Framework Version
INSTRUMENTVERSION	LABEL	4.00	Instrument Version
CURVE	TABLE	54
	Pt	T	Vf	Im	Vu	Pwr	Sig	Ach	Temp	IERange	Over
	#	s	V	A	V	W	V	V	deg C	#	bits
	0	0.013333	6.49734E-001	5.99716E-003	0.00000E+000	3.89656E-003	3.59960E-001	-1.16233E+000	3.57690E+000	10	...........
	1	0.026667	6.58925E-001	5.99739E-003	0.00000E+000	3.95183E-003	3.59960E-001	-1.16549E+000	3.57690E+000	10	...........
	2	0.04	6.67464E-001	5.98917E-003	0.00000E+000	3.99755E-003	3.59960E-001	-1.17276E+000	3.57690E+000	10	...........
	3	0.053333	6.75466E-001	5.99503E-003	0.00000E+000	4.04944E-003	3.59960E-001	-1.16264E+000	3.57690E+000	10	...........
	4	0.066667	6.83186E-001	5.98978E-003	0.00000E+000	4.09213E-003	3.59960E-001	-1.16563E+000	3.57690E+000	10	...........
	5	0.08	6.90733E-001	5.99530E-003	0.00000E+000	4.14116E-003	3.59960E-001	-1.17285E+000	3.57690E+000	10	...........
	6	0.093333	6.98121E-001	5.99394E-003	0.00000E+000	4.18449E-003	3.59960E-001	-1.16260E+000	3.57690E+000	10	...........
	7	0.106667	7.05390E-001	5.99376E-003	0.00000E+000	4.22794E-003	3.59960E-001	-1.16543E+000	3.57690E+000	10	...........
	8	0.12	7.12583E-001	5.99488E-003	0.00000E+000	4.27184E-003	3.59960E-001	-1.17234E+000	3.57690E+000	10	...........
	9	0.133333	7.19750E-001	5.99337E-003	0.00000E+000	4.31373E-003	3.59960E-001	-1.16201E+000	3.57690E+000	10	...........
	10	0.146667	7.26809E-001	5.99241E-003	0.00000E+000	4.35534E-003	3.59960E-001	-1.16524E+000	3.57690E+000	10	...........
	11	0.16	7.33809E-001	5.99285E-003	0.00000E+000	4.39761E-003	3.59960E-001	-1.17205E+000	3.57690E+000	10	...........
	12	0.173333	7.40753E-001	5.99259E-003	0.00000E+000	4.43903E-003	3.59960E-001	-1.16213E+000	3.57690E+000	10	...........
	13	0.186667	7.47683E-001	5.99611E-003	0.00000E+000	4.48319E-003	3.59960E-001	-1.16545E+000	3.57710E+000	10	...........
	14	0.2	7.54508E-001	5.98926E-003	0.00000E+000	4.51895E-003	3.59960E-001	-1.17210E+000	3.57730E+000	10	...........
	15	0.213333	7.61353E-001	5.99401E-003	0.00000E+000	4.56356E-003	3.59960E-001	-1.16173E+000	3.57730E+000	10	...........
	16	0.226667	7.68167E-001	5.99408E-003	0.00000E+000	4.60446E-003	3.59960E-001	-1.16524E+000	3.57730E+000	10	...........
	17	0.24	7.74970E-001	5.99570E-003	0.00000E+000	4.64648E-003	3.59960E-001	-1.17173E+000	3.57730E+000	10	...........
	18	0.253333	7.81714E-001	5.99202E-003	0.00000E+000	4.68405E-003	3.59960E-001	-1.16167E+000	3.57730E+000	10	...........
	19	0.266667	7.88427E-001	5.99637E-003	0.00000E+000	4.72770E-003	3.59960E-001	-1.16500E+000	3.57730E+000	10	...........
	20	0.28	7.95129E-001	5.99123E-003	0.00000E+000	4.76380E-003	3.59960E-001	-1.17137E+000	3.57730E+000	10	...........
	21	0.293333	8.01782E-001	5.99214E-003	0.00000E+000	4.80439E-003	3.59960E-001	-1.16150E+000	3.57730E+000	10	...........
	22	0.306667	8.08419E-001	5.99207E-003	0.00000E+000	4.84411E-003	3.59960E-001	-1.16521E+000	3.57730E+000	10	...........
	23	0.32	8.15023E-001	5.99418E-003	0.00000E+000	4.88539E-003	3.59960E-001	-1.17171E+000	3.57730E+000	10	...........
	24	0.333333	8.21656E-001	5.99514E-003	0.00000E+000	4.92594E-003	3.59960E-001	-1.16175E+000	3.57730E+000	10	...........
	25	0.346667	8.28230E-001	5.99369E-003	0.00000E+000	4.96415E-003	3.59960E-001	-1.16533E+000	3.57730E+000	10	...........
	26	0.36	8.34795E-001	5.99424E-003	0.00000E+000	5.00396E-003	3.59960E-001	-1.17142E+000	3.57730E+000	10	...........
	27	0.373333	8.41344E-001	5.99284E-003	0.00000E+000	5.04204E-003	3.59960E-001	-1.16173E+000	3.57730E+000	10	...........
	28	0.386667	8.47911E-001	5.99620E-003	0.00000E+000	5.08425E-003	3.59960E-001	-1.16547E+000	3.57730E+000	10	...........
	29	0.4	8.54369E-001	5.99788E-003	0.00000E+000	5.12440E-003	3.59960E-001	-1.17132E+000	3.57730E+000	10	...........
	30	0.413333	8.60822E-001	5.99352E-003	0.00000E+000	5.15936E-003	3.59960E-001	-1.16150E+000	3.57730E+000	10	...........
	31	0.426667	8.67286E-001	5.99236E-003	0.00000E+000	5.19709E-003	3.59960E-001	-1.16517E+000	3.57730E+000	10	...........
	32	0.44	8.73695E-001	5.99497E-003	0.00000E+000	5.23777E-003	3.59960E-001	-1.17108E+000	3.57730E+000	10	...........
	33	0.453333	8.80087E-001	5.98939E-003	0.00000E+000	5.27119E-003	3.59960E-001	-1.16124E+000	3.57730E+000	10	...........
	34	0.466667	8.86445E-001	5.99279E-003	0.00000E+000	5.31228E-003	3.59960E-001	-1.16515E+000	3.57730E+000	10	...........
	35	0.48	8.92759E-001	5.99628E-003	0.00000E+000	5.35324E-003	3.59960E-001	-1.17080E+000	3.57730E+000	10	...........
	36	0.493333	8.99050E-001	5.99295E-003	0.00000E+000	5.38796E-003	3.59960E-001	-1.16097E+000	3.57730E+000	10	...........
	37	0.506667	9.05280E-001	5.99599E-003	0.00000E+000	5.42805E-003	3.59960E-001	-1.16529E+000	3.57730E+000	10	...........
	38	0.52	9.11506E-001	5.99689E-003	0.00000E+000	5.46620E-003	3.59960E-001	-1.17067E+000	3.57730E+000	10	...........
	39	0.533333	9.17664E-001	5.99477E-003	0.00000E+000	5.50118E-003	3.59960E-001	-1.16115E+000	3.57730E+000	10	...........
	40	0.546667	9.23840E-001	5.99455E-003	0.00000E+000	5.53801E-003	3.59960E-001	-1.16500E+000	3.57730E+000	10	...........
	41	0.56	9.29937E-001	5.99361E-003	0.00000E+000	5.57368E-003	3.59960E-001	-1.17040E+000	3.57730E+000	10	...........
	42	0.573333	9.36024E-001	5.99354E-003	0.00000E+000	5.61010E-003	3.59960E-001	-1.16124E+000	3.57730E+000	10	...........
	43	0.586667	9.42010E-001	5.99188E-003	0.00000E+000	5.64441E-003	3.59960E-001	-1.16562E+000	3.57730E+000	10	...........
	44	0.6	9.47947E-001	5.99555E-003	0.00000E+000	5.68347E-003	3.59960E-001	-1.17061E+000	3.57730E+000	10	...........
	45	0.613333	9.53864E-001	5.98924E-003	0.00000E+000	5.71293E-003	3.59960E-001	-1.16099E+000	3.57730E+000	10	...........
	46	0.626667	9.59748E-001	5.99106E-003	0.00000E+000	5.74991E-003	3.59960E-001	-1.16552E+000	3.57730E+000	10	...........
	47	0.64	9.65546E-001	5.99172E-003	0.00000E+000	5.78528E-003	3.59960E-001	-1.17066E+000	3.57730E+000	10	...........
	48	0.653333	9.71321E-001	5.99034E-003	0.00000E+000	5.81854E-003	3.59960E-001	-1.16135E+000	3.57730E+000	10	...........
	49	0.666667	9.77112E-001	5.99517E-003	0.00000E+000	5.85795E-003	3.59960E-001	-1.16574E+000	3.57730E+000	10	...........
	50	0.68	9.82710E-001	5.98993E-003	0.00000E+000	5.88637E-003	3.59960E-001	-1.17051E+000	3.57730E+000	10	...........
	51	0.693333	9.88367E-001	5.99289E-003	0.00000E+000	5.92318E-003	3.59960E-001	-1.16147E+000	3.57730E+000	10	...........
	52	0.706667	9.93892E-001	5.99445E-003	0.00000E+000	5.95783E-003	3.59960E-001	-1.16607E+000	3.57730E+000	10	...........
	53	0.716667	9.98745E-001	5.99871E-003	0.00000E+000	5.99119E-003	3.59960E-001	-1.16951E+000	3.57730E+000	10	...........
STARTTIMEOFFSET	QUANT	1339.872	Start Time Offset (s)