File: Data/CV_CRGO300517_1/PWRCCD_CRGO300517_1/CHARGE_DISCHARGE/CHARGE_#941.DTA
EXPLAIN
TAG	PWR800_CHARGE
TITLE	LABEL	PWR Cyclic Charge Discharge (Cell) - Charge Step	Test &Identifier
DATE	LABEL	22-6-2017	Date
TIME	LABEL	16:12:29	Time
NOTES	NOTES	3	&Notes...
	supercap test cell
	0.6mg
	6M KOH
PSTAT	PSTAT	IFC5000-01520	Potentiostat
CAPACITY	QUANT	1.00000E-003	Capacity (A-hr)
CELLTYPE	SELECTOR	1	&Cell Type
WORKINGCONNECTION	SELECTOR	0	&Working Lead
MAXCHARGETIME	VARIABLEANDUNITS	1.00000E+002	s	1.00000E+002	second(s)	Max &Charge Time
CHARGECURRENT	QUANT	6.00000E-003	&Charge Current (A)
VOLTAGEFINISH	TWOPARAM	F	1.00000E-003	3.60000E+003	&Voltage Finish	 I (A) < 	Max Time(s)
SAMPLETIME	QUANT	1.00000E-002	Sa&mple Period (s)
CHARGESTOPAT1	MULTIPARAM	4	1.00000E+000	Charge Stop At &1	Voltage > Limit	V
CHARGESTOPAT2	MULTIPARAM	0	0.00000E+000	Charge Stop At &2	None	N/A
AESBHCSELECTOR	TOGGLE	F	Save Both Half Cells
IRCOMP	TOGGLE	F	IR &Measure
EOC	QUANT	0	Open Circuit (V)
SEQUENCER	TOGGLE	TRUE	Run as Sequence
PSTATMODEL	IQUANT	53	Pstat Model
PSTATSECTION	LABEL	IFC5000-01520	Pstat Section
PSTATSERIALNO	LABEL	01520	Pstat Serial Number
CTRLMODE	IQUANT	0	Control Mode
ELECTROMETER	IQUANT	1	RE=0 or CS=1
IESTAB	IQUANT	0	I/E Stability
CASPEED	IQUANT	4	Control Amp Speed
CONVENTION	IQUANT	1	Current Convention
ICHRANGE	IQUANT	2	Ich Range
ICHRANGEMODE	TOGGLE	T	Ich Auto Range
ICHOFFSETENABLE	TOGGLE	F	Ich Offset Enable
ICHOFFSET	QUANT	0	Ich Offset (V)
ICHFILTER	IQUANT	1	Ich Filter
VCHRANGE	IQUANT	2	Vch Range
VCHRANGEMODE	TOGGLE	T	Vch Auto Range
VCHOFFSETENABLE	TOGGLE	F	Vch Offset Enable
VCHOFFSET	QUANT	0	Vch Offset (V)
VCHFILTER	IQUANT	1	Vch Filter
IERANGELOWERLIMIT	IQUANT	9	I/E Range Lower Limit
IERANGEMODE	TOGGLE	F	I/E AutoRange
IERANGE	IQUANT	10	I/E Range
ACHSELECT	IQUANT	1	Ach Select
ACHRANGE	IQUANT	2	Ach Range
ACHOFFSETENABLE	TOGGLE	F	Ach Offset Enable
ACHOFFSET	QUANT	0	Ach Offset (V)
ACHFILTER	IQUANT	1	Ach Filter
CABLEID	IQUANT	14	Cable ID
DCCALDATE	LABEL	20-10-2016	DC Calibration Date
ACCALDATE	LABEL	12/3/2015	AC Calibration Date
FRAMEWORKVERSION	QUANT	7.01	Framework Version
INSTRUMENTVERSION	LABEL	4.00	Instrument Version
CURVE	TABLE	53
	Pt	T	Vf	Im	Vu	Pwr	Sig	Ach	Temp	IERange	Over
	#	s	V	A	V	W	V	V	deg C	#	bits
	0	0.013333	6.54959E-001	5.99380E-003	0.00000E+000	3.92569E-003	3.59960E-001	-1.18312E+000	3.57660E+000	10	...........
	1	0.026667	6.64240E-001	5.99429E-003	0.00000E+000	3.98165E-003	3.59960E-001	-1.17855E+000	3.57660E+000	10	...........
	2	0.04	6.72784E-001	5.99313E-003	0.00000E+000	4.03209E-003	3.59960E-001	-1.17357E+000	3.57660E+000	10	...........
	3	0.053333	6.80911E-001	5.99353E-003	0.00000E+000	4.08106E-003	3.59960E-001	-1.18271E+000	3.57660E+000	10	...........
	4	0.066667	6.88730E-001	5.98930E-003	0.00000E+000	4.12501E-003	3.59960E-001	-1.17844E+000	3.57660E+000	10	...........
	5	0.08	6.96364E-001	5.99444E-003	0.00000E+000	4.17431E-003	3.59960E-001	-1.17323E+000	3.57660E+000	10	...........
	6	0.093333	7.03801E-001	5.99136E-003	0.00000E+000	4.21672E-003	3.59960E-001	-1.18252E+000	3.57660E+000	10	...........
	7	0.106667	7.11145E-001	5.99048E-003	0.00000E+000	4.26010E-003	3.59960E-001	-1.17792E+000	3.57660E+000	10	...........
	8	0.12	7.18449E-001	5.99126E-003	0.00000E+000	4.30441E-003	3.59960E-001	-1.17275E+000	3.57660E+000	10	...........
	9	0.133333	7.25624E-001	5.99394E-003	0.00000E+000	4.34934E-003	3.59960E-001	-1.18237E+000	3.57660E+000	10	...........
	10	0.146667	7.32721E-001	5.99358E-003	0.00000E+000	4.39163E-003	3.59960E-001	-1.17821E+000	3.57660E+000	10	...........
	11	0.16	7.39770E-001	5.99051E-003	0.00000E+000	4.43160E-003	3.59960E-001	-1.17300E+000	3.57660E+000	10	...........
	12	0.173333	7.46817E-001	5.99322E-003	0.00000E+000	4.47583E-003	3.59960E-001	-1.18209E+000	3.57660E+000	10	...........
	13	0.186667	7.53797E-001	5.99664E-003	0.00000E+000	4.52025E-003	3.59960E-001	-1.17760E+000	3.57660E+000	10	...........
	14	0.2	7.60707E-001	5.99429E-003	0.00000E+000	4.55990E-003	3.59960E-001	-1.17270E+000	3.57660E+000	10	...........
	15	0.213333	7.67661E-001	5.99314E-003	0.00000E+000	4.60070E-003	3.59960E-001	-1.18217E+000	3.57660E+000	10	...........
	16	0.226667	7.74477E-001	5.99550E-003	0.00000E+000	4.64338E-003	3.59960E-001	-1.17787E+000	3.57660E+000	10	...........
	17	0.24	7.81347E-001	5.98952E-003	0.00000E+000	4.67989E-003	3.59960E-001	-1.17261E+000	3.57660E+000	10	...........
	18	0.253333	7.88151E-001	5.99131E-003	0.00000E+000	4.72205E-003	3.59960E-001	-1.18178E+000	3.57660E+000	10	...........
	19	0.266667	7.94918E-001	5.99318E-003	0.00000E+000	4.76408E-003	3.59960E-001	-1.17753E+000	3.57660E+000	10	...........
	20	0.28	8.01661E-001	5.99419E-003	0.00000E+000	4.80530E-003	3.59960E-001	-1.17264E+000	3.57660E+000	10	...........
	21	0.293333	8.08383E-001	5.99798E-003	0.00000E+000	4.84867E-003	3.59960E-001	-1.18186E+000	3.57660E+000	10	...........
	22	0.306667	8.15087E-001	6.00049E-003	0.00000E+000	4.89092E-003	3.59960E-001	-1.17740E+000	3.57660E+000	10	...........
	23	0.32	8.21753E-001	5.99143E-003	0.00000E+000	4.92348E-003	3.59960E-001	-1.17227E+000	3.57660E+000	10	...........
	24	0.333333	8.28428E-001	5.99532E-003	0.00000E+000	4.96670E-003	3.59960E-001	-1.18169E+000	3.57660E+000	10	...........
	25	0.346667	8.35012E-001	5.98916E-003	0.00000E+000	5.00102E-003	3.59960E-001	-1.17777E+000	3.57660E+000	10	...........
	26	0.36	8.41672E-001	5.99131E-003	0.00000E+000	5.04271E-003	3.59960E-001	-1.17242E+000	3.57660E+000	10	...........
	27	0.373333	8.48264E-001	5.99174E-003	0.00000E+000	5.08257E-003	3.59960E-001	-1.18136E+000	3.57660E+000	10	...........
	28	0.386667	8.54777E-001	5.99363E-003	0.00000E+000	5.12322E-003	3.59960E-001	-1.17710E+000	3.57660E+000	10	...........
	29	0.4	8.61300E-001	5.99101E-003	0.00000E+000	5.16006E-003	3.59960E-001	-1.17187E+000	3.57660E+000	10	...........
	30	0.413333	8.67771E-001	5.99052E-003	0.00000E+000	5.19840E-003	3.59960E-001	-1.18128E+000	3.57660E+000	10	...........
	31	0.426667	8.74234E-001	5.99463E-003	0.00000E+000	5.24070E-003	3.59960E-001	-1.17716E+000	3.57660E+000	10	...........
	32	0.44	8.80640E-001	5.99216E-003	0.00000E+000	5.27694E-003	3.59960E-001	-1.17175E+000	3.57660E+000	10	...........
	33	0.453333	8.87047E-001	5.99429E-003	0.00000E+000	5.31722E-003	3.59960E-001	-1.18100E+000	3.57660E+000	10	...........
	34	0.466667	8.93383E-001	5.99804E-003	0.00000E+000	5.35855E-003	3.59960E-001	-1.17702E+000	3.57660E+000	10	...........
	35	0.48	8.99733E-001	5.99507E-003	0.00000E+000	5.39397E-003	3.59960E-001	-1.17179E+000	3.57660E+000	10	...........
	36	0.493333	9.05992E-001	5.99681E-003	0.00000E+000	5.43306E-003	3.59960E-001	-1.18098E+000	3.57660E+000	10	...........
	37	0.506667	9.12242E-001	5.99327E-003	0.00000E+000	5.46731E-003	3.59960E-001	-1.17673E+000	3.57660E+000	10	...........
	38	0.52	9.18450E-001	5.98771E-003	0.00000E+000	5.49941E-003	3.59960E-001	-1.17158E+000	3.57660E+000	10	...........
	39	0.533333	9.24699E-001	5.99949E-003	0.00000E+000	5.54772E-003	3.59960E-001	-1.18075E+000	3.57660E+000	10	...........
	40	0.546667	9.30776E-001	5.99556E-003	0.00000E+000	5.58053E-003	3.59960E-001	-1.17711E+000	3.57660E+000	10	...........
	41	0.56	9.36799E-001	5.99037E-003	0.00000E+000	5.61177E-003	3.59960E-001	-1.17177E+000	3.57660E+000	10	...........
	42	0.573333	9.42824E-001	5.99383E-003	0.00000E+000	5.65113E-003	3.59960E-001	-1.18070E+000	3.57660E+000	10	...........
	43	0.586667	9.48884E-001	5.98941E-003	0.00000E+000	5.68325E-003	3.59960E-001	-1.17668E+000	3.57660E+000	10	...........
	44	0.6	9.54817E-001	5.99398E-003	0.00000E+000	5.72315E-003	3.59960E-001	-1.17170E+000	3.57660E+000	10	...........
	45	0.613333	9.60706E-001	5.99187E-003	0.00000E+000	5.75643E-003	3.59960E-001	-1.18075E+000	3.57660E+000	10	...........
	46	0.626667	9.66520E-001	5.99538E-003	0.00000E+000	5.79465E-003	3.59960E-001	-1.17709E+000	3.57660E+000	10	...........
	47	0.64	9.72337E-001	5.99599E-003	0.00000E+000	5.83013E-003	3.59960E-001	-1.17164E+000	3.57660E+000	10	...........
	48	0.653333	9.78076E-001	5.99117E-003	0.00000E+000	5.85982E-003	3.59960E-001	-1.18066E+000	3.57660E+000	10	...........
	49	0.666667	9.83722E-001	5.99169E-003	0.00000E+000	5.89416E-003	3.59960E-001	-1.17697E+000	3.57660E+000	10	...........
	50	0.68	9.89369E-001	5.99784E-003	0.00000E+000	5.93407E-003	3.59960E-001	-1.17176E+000	3.57660E+000	10	...........
	51	0.693333	9.95010E-001	5.99455E-003	0.00000E+000	5.96464E-003	3.59960E-001	-1.18080E+000	3.57660E+000	10	...........
	52	0.7	9.99199E-001	5.99350E-003	0.00000E+000	5.98870E-003	3.59960E-001	-1.16803E+000	3.57660E+000	10	...........
STARTTIMEOFFSET	QUANT	1503.427	Start Time Offset (s)