File: Data/CV_CRGO300517_1/PWRCCD_CRGO300517_1/CHARGE_DISCHARGE/CHARGE_#132.DTA
EXPLAIN
TAG	PWR800_CHARGE
TITLE	LABEL	PWR Cyclic Charge Discharge (Cell) - Charge Step	Test &Identifier
DATE	LABEL	22-6-2017	Date
TIME	LABEL	15:40:55	Time
NOTES	NOTES	3	&Notes...
	supercap test cell
	0.6mg
	6M KOH
PSTAT	PSTAT	IFC5000-01520	Potentiostat
CAPACITY	QUANT	1.00000E-003	Capacity (A-hr)
CELLTYPE	SELECTOR	1	&Cell Type
WORKINGCONNECTION	SELECTOR	0	&Working Lead
MAXCHARGETIME	VARIABLEANDUNITS	1.00000E+002	s	1.00000E+002	second(s)	Max &Charge Time
CHARGECURRENT	QUANT	6.00000E-003	&Charge Current (A)
VOLTAGEFINISH	TWOPARAM	F	1.00000E-003	3.60000E+003	&Voltage Finish	 I (A) < 	Max Time(s)
SAMPLETIME	QUANT	1.00000E-002	Sa&mple Period (s)
CHARGESTOPAT1	MULTIPARAM	4	1.00000E+000	Charge Stop At &1	Voltage > Limit	V
CHARGESTOPAT2	MULTIPARAM	0	0.00000E+000	Charge Stop At &2	None	N/A
AESBHCSELECTOR	TOGGLE	F	Save Both Half Cells
IRCOMP	TOGGLE	F	IR &Measure
EOC	QUANT	0	Open Circuit (V)
SEQUENCER	TOGGLE	TRUE	Run as Sequence
PSTATMODEL	IQUANT	53	Pstat Model
PSTATSECTION	LABEL	IFC5000-01520	Pstat Section
PSTATSERIALNO	LABEL	01520	Pstat Serial Number
CTRLMODE	IQUANT	0	Control Mode
ELECTROMETER	IQUANT	1	RE=0 or CS=1
IESTAB	IQUANT	0	I/E Stability
CASPEED	IQUANT	4	Control Amp Speed
CONVENTION	IQUANT	1	Current Convention
ICHRANGE	IQUANT	2	Ich Range
ICHRANGEMODE	TOGGLE	T	Ich Auto Range
ICHOFFSETENABLE	TOGGLE	F	Ich Offset Enable
ICHOFFSET	QUANT	0	Ich Offset (V)
ICHFILTER	IQUANT	1	Ich Filter
VCHRANGE	IQUANT	2	Vch Range
VCHRANGEMODE	TOGGLE	T	Vch Auto Range
VCHOFFSETENABLE	TOGGLE	F	Vch Offset Enable
VCHOFFSET	QUANT	0	Vch Offset (V)
VCHFILTER	IQUANT	1	Vch Filter
IERANGELOWERLIMIT	IQUANT	9	I/E Range Lower Limit
IERANGEMODE	TOGGLE	F	I/E AutoRange
IERANGE	IQUANT	10	I/E Range
ACHSELECT	IQUANT	1	Ach Select
ACHRANGE	IQUANT	2	Ach Range
ACHOFFSETENABLE	TOGGLE	F	Ach Offset Enable
ACHOFFSET	QUANT	0	Ach Offset (V)
ACHFILTER	IQUANT	1	Ach Filter
CABLEID	IQUANT	14	Cable ID
DCCALDATE	LABEL	20-10-2016	DC Calibration Date
ACCALDATE	LABEL	12/3/2015	AC Calibration Date
FRAMEWORKVERSION	QUANT	7.01	Framework Version
INSTRUMENTVERSION	LABEL	4.00	Instrument Version
CURVE	TABLE	68
	Pt	T	Vf	Im	Vu	Pwr	Sig	Ach	Temp	IERange	Over
	#	s	V	A	V	W	V	V	deg C	#	bits
	0	0.013333	5.94694E-001	5.99464E-003	0.00000E+000	3.56497E-003	3.59960E-001	-1.06036E+000	3.57703E+000	10	...........
	1	0.026667	6.02993E-001	5.99593E-003	0.00000E+000	3.61551E-003	3.59960E-001	-1.06422E+000	3.57740E+000	10	...........
	2	0.04	6.10623E-001	5.99519E-003	0.00000E+000	3.66080E-003	3.59960E-001	-1.05595E+000	3.57740E+000	10	...........
	3	0.053333	6.17950E-001	5.99156E-003	0.00000E+000	3.70249E-003	3.59960E-001	-1.06050E+000	3.57740E+000	10	...........
	4	0.066667	6.24922E-001	5.99296E-003	0.00000E+000	3.74513E-003	3.59960E-001	-1.06400E+000	3.57740E+000	10	...........
	5	0.08	6.31682E-001	5.99204E-003	0.00000E+000	3.78506E-003	3.59960E-001	-1.05564E+000	3.57740E+000	10	...........
	6	0.093333	6.38319E-001	5.99885E-003	0.00000E+000	3.82918E-003	3.59960E-001	-1.06054E+000	3.57740E+000	10	...........
	7	0.106667	6.44845E-001	5.99237E-003	0.00000E+000	3.86415E-003	3.59960E-001	-1.06426E+000	3.57740E+000	10	...........
	8	0.12	6.51248E-001	5.99434E-003	0.00000E+000	3.90380E-003	3.59960E-001	-1.05575E+000	3.57740E+000	10	...........
	9	0.133333	6.57656E-001	5.99249E-003	0.00000E+000	3.94100E-003	3.59960E-001	-1.05996E+000	3.57740E+000	10	...........
	10	0.146667	6.63979E-001	5.99295E-003	0.00000E+000	3.97919E-003	3.59960E-001	-1.06376E+000	3.57740E+000	10	...........
	11	0.16	6.70257E-001	5.99777E-003	0.00000E+000	4.02004E-003	3.59960E-001	-1.05546E+000	3.57740E+000	10	...........
	12	0.173333	6.76463E-001	5.98931E-003	0.00000E+000	4.05154E-003	3.59960E-001	-1.05974E+000	3.57740E+000	10	...........
	13	0.186667	6.82672E-001	5.99522E-003	0.00000E+000	4.09277E-003	3.59960E-001	-1.06385E+000	3.57740E+000	10	...........
	14	0.2	6.88810E-001	5.99749E-003	0.00000E+000	4.13114E-003	3.59960E-001	-1.05527E+000	3.57740E+000	10	...........
	15	0.213333	6.94901E-001	5.99463E-003	0.00000E+000	4.16567E-003	3.59960E-001	-1.05951E+000	3.57740E+000	10	...........
	16	0.226667	7.01013E-001	5.99310E-003	0.00000E+000	4.20125E-003	3.59960E-001	-1.06367E+000	3.57740E+000	10	...........
	17	0.24	7.07109E-001	5.99295E-003	0.00000E+000	4.23767E-003	3.59960E-001	-1.05519E+000	3.57740E+000	10	...........
	18	0.253333	7.13169E-001	5.99602E-003	0.00000E+000	4.27618E-003	3.59960E-001	-1.05950E+000	3.57740E+000	10	...........
	19	0.266667	7.19303E-001	5.99723E-003	0.00000E+000	4.31383E-003	3.59960E-001	-1.06377E+000	3.57740E+000	10	...........
	20	0.28	7.25356E-001	5.99516E-003	0.00000E+000	4.34862E-003	3.59960E-001	-1.05517E+000	3.57740E+000	10	...........
	21	0.293333	7.31401E-001	5.99664E-003	0.00000E+000	4.38595E-003	3.59960E-001	-1.05951E+000	3.57740E+000	10	...........
	22	0.306667	7.37412E-001	5.99584E-003	0.00000E+000	4.42140E-003	3.59960E-001	-1.06370E+000	3.57740E+000	10	...........
	23	0.32	7.43414E-001	5.99544E-003	0.00000E+000	4.45709E-003	3.59960E-001	-1.05504E+000	3.57740E+000	10	...........
	24	0.333333	7.49431E-001	5.99466E-003	0.00000E+000	4.49258E-003	3.59960E-001	-1.05936E+000	3.57740E+000	10	...........
	25	0.346667	7.55475E-001	5.99428E-003	0.00000E+000	4.52853E-003	3.59960E-001	-1.06382E+000	3.57740E+000	10	...........
	26	0.36	7.61466E-001	5.99433E-003	0.00000E+000	4.56448E-003	3.59960E-001	-1.05532E+000	3.57740E+000	10	...........
	27	0.373333	7.67434E-001	5.99373E-003	0.00000E+000	4.59979E-003	3.59960E-001	-1.05951E+000	3.57740E+000	10	...........
	28	0.386667	7.73424E-001	5.99301E-003	0.00000E+000	4.63514E-003	3.59960E-001	-1.06402E+000	3.57740E+000	10	...........
	29	0.4	7.79394E-001	5.99600E-003	0.00000E+000	4.67325E-003	3.59960E-001	-1.05517E+000	3.57740E+000	10	...........
	30	0.413333	7.85388E-001	5.99391E-003	0.00000E+000	4.70754E-003	3.59960E-001	-1.05928E+000	3.57740E+000	10	...........
	31	0.426667	7.91372E-001	5.99334E-003	0.00000E+000	4.74296E-003	3.59960E-001	-1.06412E+000	3.57740E+000	10	...........
	32	0.44	7.97352E-001	5.99294E-003	0.00000E+000	4.77848E-003	3.59960E-001	-1.05534E+000	3.57740E+000	10	...........
	33	0.453333	8.03308E-001	5.99502E-003	0.00000E+000	4.81585E-003	3.59960E-001	-1.05926E+000	3.57740E+000	10	...........
	34	0.466667	8.09247E-001	5.99421E-003	0.00000E+000	4.85080E-003	3.59960E-001	-1.06392E+000	3.57740E+000	10	...........
	35	0.48	8.15234E-001	5.99379E-003	0.00000E+000	4.88635E-003	3.59960E-001	-1.05509E+000	3.57740E+000	10	...........
	36	0.493333	8.21179E-001	5.99505E-003	0.00000E+000	4.92301E-003	3.59960E-001	-1.05909E+000	3.57740E+000	10	...........
	37	0.506667	8.27039E-001	5.99336E-003	0.00000E+000	4.95674E-003	3.59960E-001	-1.06388E+000	3.57740E+000	10	...........
	38	0.52	8.32988E-001	5.99166E-003	0.00000E+000	4.99099E-003	3.59960E-001	-1.05504E+000	3.57740E+000	10	...........
	39	0.533333	8.38911E-001	5.99212E-003	0.00000E+000	5.02686E-003	3.59960E-001	-1.05914E+000	3.57740E+000	10	...........
	40	0.546667	8.44847E-001	5.99540E-003	0.00000E+000	5.06519E-003	3.59960E-001	-1.06397E+000	3.57740E+000	10	...........
	41	0.56	8.50776E-001	5.99540E-003	0.00000E+000	5.10074E-003	3.59960E-001	-1.05536E+000	3.57740E+000	10	...........
	42	0.573333	8.56672E-001	5.99279E-003	0.00000E+000	5.13386E-003	3.59960E-001	-1.05916E+000	3.57740E+000	10	...........
	43	0.586667	8.62572E-001	5.99812E-003	0.00000E+000	5.17381E-003	3.59960E-001	-1.06411E+000	3.57740E+000	10	...........
	44	0.6	8.68478E-001	5.99519E-003	0.00000E+000	5.20669E-003	3.59960E-001	-1.05524E+000	3.57740E+000	10	...........
	45	0.613333	8.74364E-001	5.99169E-003	0.00000E+000	5.23892E-003	3.59960E-001	-1.05908E+000	3.57740E+000	10	...........
	46	0.626667	8.80210E-001	5.99384E-003	0.00000E+000	5.27584E-003	3.59960E-001	-1.06417E+000	3.57740E+000	10	...........
	47	0.64	8.86098E-001	5.99563E-003	0.00000E+000	5.31271E-003	3.59960E-001	-1.05509E+000	3.57740E+000	10	...........
	48	0.653333	8.91944E-001	5.99520E-003	0.00000E+000	5.34738E-003	3.59960E-001	-1.05888E+000	3.57740E+000	10	...........
	49	0.666667	8.97764E-001	5.99568E-003	0.00000E+000	5.38270E-003	3.59960E-001	-1.06397E+000	3.57740E+000	10	...........
	50	0.68	9.03570E-001	5.99586E-003	0.00000E+000	5.41767E-003	3.59960E-001	-1.05504E+000	3.57740E+000	10	...........
	51	0.693333	9.09348E-001	5.99189E-003	0.00000E+000	5.44872E-003	3.59960E-001	-1.05886E+000	3.57740E+000	10	...........
	52	0.706667	9.15115E-001	5.99544E-003	0.00000E+000	5.48652E-003	3.59960E-001	-1.06414E+000	3.57740E+000	10	...........
	53	0.72	9.20902E-001	5.99556E-003	0.00000E+000	5.52133E-003	3.59960E-001	-1.05476E+000	3.57740E+000	10	...........
	54	0.733333	9.26663E-001	5.99578E-003	0.00000E+000	5.55607E-003	3.59960E-001	-1.05816E+000	3.57740E+000	10	...........
	55	0.746667	9.32379E-001	5.99653E-003	0.00000E+000	5.59104E-003	3.59960E-001	-1.06327E+000	3.57740E+000	10	...........
	56	0.76	9.38026E-001	5.99336E-003	0.00000E+000	5.62193E-003	3.59960E-001	-1.05409E+000	3.57740E+000	10	...........
	57	0.773333	9.43662E-001	5.99591E-003	0.00000E+000	5.65811E-003	3.59960E-001	-1.05745E+000	3.57740E+000	10	...........
	58	0.786667	9.49395E-001	5.99682E-003	0.00000E+000	5.69335E-003	3.59960E-001	-1.06258E+000	3.57740E+000	10	...........
	59	0.8	9.54982E-001	5.99519E-003	0.00000E+000	5.72530E-003	3.59960E-001	-1.05367E+000	3.57740E+000	10	...........
	60	0.813333	9.60548E-001	5.99475E-003	0.00000E+000	5.75825E-003	3.59960E-001	-1.05740E+000	3.57740E+000	10	...........
	61	0.826667	9.66069E-001	5.99342E-003	0.00000E+000	5.79005E-003	3.59960E-001	-1.06294E+000	3.57740E+000	10	...........
	62	0.84	9.71581E-001	5.99591E-003	0.00000E+000	5.82551E-003	3.59960E-001	-1.05414E+000	3.57740E+000	10	...........
	63	0.853333	9.77032E-001	5.99805E-003	0.00000E+000	5.86028E-003	3.59960E-001	-1.05797E+000	3.57740E+000	10	...........
	64	0.866667	9.82466E-001	5.99334E-003	0.00000E+000	5.88826E-003	3.59960E-001	-1.06355E+000	3.57740E+000	10	...........
	65	0.88	9.87896E-001	5.99393E-003	0.00000E+000	5.92137E-003	3.59960E-001	-1.05479E+000	3.57740E+000	10	...........
	66	0.893333	9.93273E-001	5.99168E-003	0.00000E+000	5.95138E-003	3.59960E-001	-1.05908E+000	3.57740E+000	10	...........
	67	0.905	9.98311E-001	5.99670E-003	0.00000E+000	5.98657E-003	3.59960E-001	-1.06467E+000	3.57740E+000	10	...........
STARTTIMEOFFSET	QUANT	253.4467	Start Time Offset (s)