File: Data/CV_CRGO300517_1/PWRCCD_CRGO300517_1/CHARGE_DISCHARGE/CHARGE_#976.DTA
EXPLAIN
TAG	PWR800_CHARGE
TITLE	LABEL	PWR Cyclic Charge Discharge (Cell) - Charge Step	Test &Identifier
DATE	LABEL	22-6-2017	Date
TIME	LABEL	16:13:46	Time
NOTES	NOTES	3	&Notes...
	supercap test cell
	0.6mg
	6M KOH
PSTAT	PSTAT	IFC5000-01520	Potentiostat
CAPACITY	QUANT	1.00000E-003	Capacity (A-hr)
CELLTYPE	SELECTOR	1	&Cell Type
WORKINGCONNECTION	SELECTOR	0	&Working Lead
MAXCHARGETIME	VARIABLEANDUNITS	1.00000E+002	s	1.00000E+002	second(s)	Max &Charge Time
CHARGECURRENT	QUANT	6.00000E-003	&Charge Current (A)
VOLTAGEFINISH	TWOPARAM	F	1.00000E-003	3.60000E+003	&Voltage Finish	 I (A) < 	Max Time(s)
SAMPLETIME	QUANT	1.00000E-002	Sa&mple Period (s)
CHARGESTOPAT1	MULTIPARAM	4	1.00000E+000	Charge Stop At &1	Voltage > Limit	V
CHARGESTOPAT2	MULTIPARAM	0	0.00000E+000	Charge Stop At &2	None	N/A
AESBHCSELECTOR	TOGGLE	F	Save Both Half Cells
IRCOMP	TOGGLE	F	IR &Measure
EOC	QUANT	0	Open Circuit (V)
SEQUENCER	TOGGLE	TRUE	Run as Sequence
PSTATMODEL	IQUANT	53	Pstat Model
PSTATSECTION	LABEL	IFC5000-01520	Pstat Section
PSTATSERIALNO	LABEL	01520	Pstat Serial Number
CTRLMODE	IQUANT	0	Control Mode
ELECTROMETER	IQUANT	1	RE=0 or CS=1
IESTAB	IQUANT	0	I/E Stability
CASPEED	IQUANT	4	Control Amp Speed
CONVENTION	IQUANT	1	Current Convention
ICHRANGE	IQUANT	2	Ich Range
ICHRANGEMODE	TOGGLE	T	Ich Auto Range
ICHOFFSETENABLE	TOGGLE	F	Ich Offset Enable
ICHOFFSET	QUANT	0	Ich Offset (V)
ICHFILTER	IQUANT	1	Ich Filter
VCHRANGE	IQUANT	2	Vch Range
VCHRANGEMODE	TOGGLE	T	Vch Auto Range
VCHOFFSETENABLE	TOGGLE	F	Vch Offset Enable
VCHOFFSET	QUANT	0	Vch Offset (V)
VCHFILTER	IQUANT	1	Vch Filter
IERANGELOWERLIMIT	IQUANT	9	I/E Range Lower Limit
IERANGEMODE	TOGGLE	F	I/E AutoRange
IERANGE	IQUANT	10	I/E Range
ACHSELECT	IQUANT	1	Ach Select
ACHRANGE	IQUANT	2	Ach Range
ACHOFFSETENABLE	TOGGLE	F	Ach Offset Enable
ACHOFFSET	QUANT	0	Ach Offset (V)
ACHFILTER	IQUANT	1	Ach Filter
CABLEID	IQUANT	14	Cable ID
DCCALDATE	LABEL	20-10-2016	DC Calibration Date
ACCALDATE	LABEL	12/3/2015	AC Calibration Date
FRAMEWORKVERSION	QUANT	7.01	Framework Version
INSTRUMENTVERSION	LABEL	4.00	Instrument Version
CURVE	TABLE	53
	Pt	T	Vf	Im	Vu	Pwr	Sig	Ach	Temp	IERange	Over
	#	s	V	A	V	W	V	V	deg C	#	bits
	0	0.013333	6.56197E-001	5.99466E-003	0.00000E+000	3.93368E-003	3.59960E-001	-1.17876E+000	3.57660E+000	10	...........
	1	0.026667	6.65549E-001	5.99006E-003	0.00000E+000	3.98668E-003	3.59960E-001	-1.17009E+000	3.57660E+000	10	...........
	2	0.04	6.74138E-001	5.99669E-003	0.00000E+000	4.04260E-003	3.59960E-001	-1.17556E+000	3.57660E+000	10	...........
	3	0.053333	6.82285E-001	5.99501E-003	0.00000E+000	4.09031E-003	3.59960E-001	-1.17837E+000	3.57660E+000	10	...........
	4	0.066667	6.90154E-001	5.99239E-003	0.00000E+000	4.13568E-003	3.59960E-001	-1.17004E+000	3.57660E+000	10	...........
	5	0.08	6.97819E-001	5.99952E-003	0.00000E+000	4.18657E-003	3.59960E-001	-1.17515E+000	3.57660E+000	10	...........
	6	0.093333	7.05318E-001	5.99054E-003	0.00000E+000	4.22523E-003	3.59960E-001	-1.17777E+000	3.57660E+000	10	...........
	7	0.106667	7.12667E-001	5.99846E-003	0.00000E+000	4.27490E-003	3.59960E-001	-1.16937E+000	3.57660E+000	10	...........
	8	0.12	7.19984E-001	5.98751E-003	0.00000E+000	4.31091E-003	3.59960E-001	-1.17495E+000	3.57660E+000	10	...........
	9	0.133333	7.27192E-001	5.99473E-003	0.00000E+000	4.35932E-003	3.59960E-001	-1.17803E+000	3.57660E+000	10	...........
	10	0.146667	7.34323E-001	5.99404E-003	0.00000E+000	4.40156E-003	3.59960E-001	-1.16926E+000	3.57660E+000	10	...........
	11	0.16	7.41396E-001	5.99810E-003	0.00000E+000	4.44697E-003	3.59960E-001	-1.17453E+000	3.57660E+000	10	...........
	12	0.173333	7.48440E-001	5.99179E-003	0.00000E+000	4.48449E-003	3.59960E-001	-1.17766E+000	3.57660E+000	10	...........
	13	0.186667	7.55414E-001	5.99341E-003	0.00000E+000	4.52750E-003	3.59960E-001	-1.16932E+000	3.57660E+000	10	...........
	14	0.2	7.62392E-001	5.99095E-003	0.00000E+000	4.56746E-003	3.59960E-001	-1.17482E+000	3.57660E+000	10	...........
	15	0.213333	7.69309E-001	5.99255E-003	0.00000E+000	4.61012E-003	3.59960E-001	-1.17757E+000	3.57660E+000	10	...........
	16	0.226667	7.76170E-001	5.99695E-003	0.00000E+000	4.65465E-003	3.59960E-001	-1.16898E+000	3.57660E+000	10	...........
	17	0.24	7.83033E-001	5.99591E-003	0.00000E+000	4.69499E-003	3.59960E-001	-1.17434E+000	3.57660E+000	10	...........
	18	0.253333	7.89856E-001	5.99560E-003	0.00000E+000	4.73566E-003	3.59960E-001	-1.17752E+000	3.57660E+000	10	...........
	19	0.266667	7.96693E-001	5.99305E-003	0.00000E+000	4.77462E-003	3.59960E-001	-1.16924E+000	3.57660E+000	10	...........
	20	0.28	8.03448E-001	5.99351E-003	0.00000E+000	4.81547E-003	3.59960E-001	-1.17430E+000	3.57660E+000	10	...........
	21	0.293333	8.10211E-001	5.99265E-003	0.00000E+000	4.85532E-003	3.59960E-001	-1.17722E+000	3.57660E+000	10	...........
	22	0.306667	8.16916E-001	5.99469E-003	0.00000E+000	4.89716E-003	3.59960E-001	-1.16884E+000	3.57660E+000	10	...........
	23	0.32	8.23602E-001	5.99283E-003	0.00000E+000	4.93571E-003	3.59960E-001	-1.17449E+000	3.57660E+000	10	...........
	24	0.333333	8.30269E-001	5.99045E-003	0.00000E+000	4.97369E-003	3.59960E-001	-1.17721E+000	3.57660E+000	10	...........
	25	0.346667	8.36902E-001	5.99744E-003	0.00000E+000	5.01927E-003	3.59960E-001	-1.16877E+000	3.57660E+000	10	...........
	26	0.36	8.43551E-001	5.99494E-003	0.00000E+000	5.05704E-003	3.59960E-001	-1.17424E+000	3.57660E+000	10	...........
	27	0.373333	8.50124E-001	5.99418E-003	0.00000E+000	5.09579E-003	3.59960E-001	-1.17695E+000	3.57660E+000	10	...........
	28	0.386667	8.56720E-001	5.99536E-003	0.00000E+000	5.13634E-003	3.59960E-001	-1.16879E+000	3.57660E+000	10	...........
	29	0.4	8.63217E-001	5.99030E-003	0.00000E+000	5.17093E-003	3.59960E-001	-1.17425E+000	3.57660E+000	10	...........
	30	0.413333	8.69752E-001	5.99449E-003	0.00000E+000	5.21372E-003	3.59960E-001	-1.17661E+000	3.57660E+000	10	...........
	31	0.426667	8.76218E-001	5.99610E-003	0.00000E+000	5.25389E-003	3.59960E-001	-1.16815E+000	3.57660E+000	10	...........
	32	0.44	8.82684E-001	5.99426E-003	0.00000E+000	5.29104E-003	3.59960E-001	-1.17359E+000	3.57660E+000	10	...........
	33	0.453333	8.89094E-001	5.99137E-003	0.00000E+000	5.32689E-003	3.59960E-001	-1.17648E+000	3.57660E+000	10	...........
	34	0.466667	8.95447E-001	5.99526E-003	0.00000E+000	5.36844E-003	3.59960E-001	-1.16832E+000	3.57660E+000	10	...........
	35	0.48	9.01804E-001	5.99591E-003	0.00000E+000	5.40713E-003	3.59960E-001	-1.17369E+000	3.57660E+000	10	...........
	36	0.493333	9.08065E-001	5.99423E-003	0.00000E+000	5.44315E-003	3.59960E-001	-1.17653E+000	3.57660E+000	10	...........
	37	0.506667	9.14282E-001	5.99392E-003	0.00000E+000	5.48013E-003	3.59960E-001	-1.16812E+000	3.57660E+000	10	...........
	38	0.52	9.20540E-001	5.99514E-003	0.00000E+000	5.51876E-003	3.59960E-001	-1.17384E+000	3.57660E+000	10	...........
	39	0.533333	9.26742E-001	5.99425E-003	0.00000E+000	5.55512E-003	3.59960E-001	-1.17641E+000	3.57660E+000	10	...........
	40	0.546667	9.32815E-001	5.99011E-003	0.00000E+000	5.58767E-003	3.59960E-001	-1.16813E+000	3.57660E+000	10	...........
	41	0.56	9.38865E-001	5.99229E-003	0.00000E+000	5.62595E-003	3.59960E-001	-1.17376E+000	3.57660E+000	10	...........
	42	0.573333	9.44909E-001	5.99649E-003	0.00000E+000	5.66614E-003	3.59960E-001	-1.17621E+000	3.57660E+000	10	...........
	43	0.586667	9.50953E-001	5.99114E-003	0.00000E+000	5.69730E-003	3.59960E-001	-1.16797E+000	3.57660E+000	10	...........
	44	0.6	9.56831E-001	5.99481E-003	0.00000E+000	5.73602E-003	3.59960E-001	-1.17359E+000	3.57660E+000	10	...........
	45	0.613333	9.62680E-001	5.99810E-003	0.00000E+000	5.77425E-003	3.59960E-001	-1.17638E+000	3.57660E+000	10	...........
	46	0.626667	9.68500E-001	5.99502E-003	0.00000E+000	5.80618E-003	3.59960E-001	-1.16812E+000	3.57660E+000	10	...........
	47	0.64	9.74286E-001	5.98879E-003	0.00000E+000	5.83479E-003	3.59960E-001	-1.17364E+000	3.57660E+000	10	...........
	48	0.653333	9.80038E-001	5.99796E-003	0.00000E+000	5.87823E-003	3.59960E-001	-1.17645E+000	3.57660E+000	10	...........
	49	0.666667	9.85666E-001	5.99543E-003	0.00000E+000	5.90949E-003	3.59960E-001	-1.16828E+000	3.57660E+000	10	...........
	50	0.68	9.91284E-001	5.99006E-003	0.00000E+000	5.93785E-003	3.59960E-001	-1.17369E+000	3.57660E+000	10	...........
	51	0.693333	9.96907E-001	5.99521E-003	0.00000E+000	5.97666E-003	3.59960E-001	-1.17630E+000	3.57660E+000	10	...........
	52	0.696667	1.00035E+000	5.98732E-003	0.00000E+000	5.98941E-003	3.59960E-001	-1.17378E+000	3.57660E+000	10	...........
STARTTIMEOFFSET	QUANT	1552.089	Start Time Offset (s)