File: Data/CV_CRGO300517_1/PWRCCD_CRGO300517_1/CHARGE_DISCHARGE/CHARGE_#949.DTA
EXPLAIN
TAG	PWR800_CHARGE
TITLE	LABEL	PWR Cyclic Charge Discharge (Cell) - Charge Step	Test &Identifier
DATE	LABEL	22-6-2017	Date
TIME	LABEL	16:12:47	Time
NOTES	NOTES	3	&Notes...
	supercap test cell
	0.6mg
	6M KOH
PSTAT	PSTAT	IFC5000-01520	Potentiostat
CAPACITY	QUANT	1.00000E-003	Capacity (A-hr)
CELLTYPE	SELECTOR	1	&Cell Type
WORKINGCONNECTION	SELECTOR	0	&Working Lead
MAXCHARGETIME	VARIABLEANDUNITS	1.00000E+002	s	1.00000E+002	second(s)	Max &Charge Time
CHARGECURRENT	QUANT	6.00000E-003	&Charge Current (A)
VOLTAGEFINISH	TWOPARAM	F	1.00000E-003	3.60000E+003	&Voltage Finish	 I (A) < 	Max Time(s)
SAMPLETIME	QUANT	1.00000E-002	Sa&mple Period (s)
CHARGESTOPAT1	MULTIPARAM	4	1.00000E+000	Charge Stop At &1	Voltage > Limit	V
CHARGESTOPAT2	MULTIPARAM	0	0.00000E+000	Charge Stop At &2	None	N/A
AESBHCSELECTOR	TOGGLE	F	Save Both Half Cells
IRCOMP	TOGGLE	F	IR &Measure
EOC	QUANT	0	Open Circuit (V)
SEQUENCER	TOGGLE	TRUE	Run as Sequence
PSTATMODEL	IQUANT	53	Pstat Model
PSTATSECTION	LABEL	IFC5000-01520	Pstat Section
PSTATSERIALNO	LABEL	01520	Pstat Serial Number
CTRLMODE	IQUANT	0	Control Mode
ELECTROMETER	IQUANT	1	RE=0 or CS=1
IESTAB	IQUANT	0	I/E Stability
CASPEED	IQUANT	4	Control Amp Speed
CONVENTION	IQUANT	1	Current Convention
ICHRANGE	IQUANT	2	Ich Range
ICHRANGEMODE	TOGGLE	T	Ich Auto Range
ICHOFFSETENABLE	TOGGLE	F	Ich Offset Enable
ICHOFFSET	QUANT	0	Ich Offset (V)
ICHFILTER	IQUANT	1	Ich Filter
VCHRANGE	IQUANT	2	Vch Range
VCHRANGEMODE	TOGGLE	T	Vch Auto Range
VCHOFFSETENABLE	TOGGLE	F	Vch Offset Enable
VCHOFFSET	QUANT	0	Vch Offset (V)
VCHFILTER	IQUANT	1	Vch Filter
IERANGELOWERLIMIT	IQUANT	9	I/E Range Lower Limit
IERANGEMODE	TOGGLE	F	I/E AutoRange
IERANGE	IQUANT	10	I/E Range
ACHSELECT	IQUANT	1	Ach Select
ACHRANGE	IQUANT	2	Ach Range
ACHOFFSETENABLE	TOGGLE	F	Ach Offset Enable
ACHOFFSET	QUANT	0	Ach Offset (V)
ACHFILTER	IQUANT	1	Ach Filter
CABLEID	IQUANT	14	Cable ID
DCCALDATE	LABEL	20-10-2016	DC Calibration Date
ACCALDATE	LABEL	12/3/2015	AC Calibration Date
FRAMEWORKVERSION	QUANT	7.01	Framework Version
INSTRUMENTVERSION	LABEL	4.00	Instrument Version
CURVE	TABLE	53
	Pt	T	Vf	Im	Vu	Pwr	Sig	Ach	Temp	IERange	Over
	#	s	V	A	V	W	V	V	deg C	#	bits
	0	0.013333	6.55101E-001	5.99398E-003	0.00000E+000	3.92666E-003	3.59960E-001	-1.17663E+000	3.57710E+000	10	...........
	1	0.026667	6.64395E-001	5.99673E-003	0.00000E+000	3.98420E-003	3.59960E-001	-1.18163E+000	3.57710E+000	10	...........
	2	0.04	6.72979E-001	5.99233E-003	0.00000E+000	4.03271E-003	3.59960E-001	-1.17221E+000	3.57710E+000	10	...........
	3	0.053333	6.81112E-001	5.99659E-003	0.00000E+000	4.08435E-003	3.59960E-001	-1.17636E+000	3.57710E+000	10	...........
	4	0.066667	6.88889E-001	5.99332E-003	0.00000E+000	4.12873E-003	3.59960E-001	-1.18136E+000	3.57710E+000	10	...........
	5	0.08	6.96494E-001	5.99378E-003	0.00000E+000	4.17463E-003	3.59960E-001	-1.17200E+000	3.57710E+000	10	...........
	6	0.093333	7.03987E-001	5.99452E-003	0.00000E+000	4.22007E-003	3.59960E-001	-1.17631E+000	3.57710E+000	10	...........
	7	0.106667	7.11289E-001	5.99420E-003	0.00000E+000	4.26360E-003	3.59960E-001	-1.18148E+000	3.57710E+000	10	...........
	8	0.12	7.18601E-001	5.99036E-003	0.00000E+000	4.30468E-003	3.59960E-001	-1.17197E+000	3.57710E+000	10	...........
	9	0.133333	7.25815E-001	5.99503E-003	0.00000E+000	4.35129E-003	3.59960E-001	-1.17585E+000	3.57710E+000	10	...........
	10	0.146667	7.32931E-001	5.99162E-003	0.00000E+000	4.39145E-003	3.59960E-001	-1.18100E+000	3.57710E+000	10	...........
	11	0.16	7.39985E-001	5.99500E-003	0.00000E+000	4.43621E-003	3.59960E-001	-1.17184E+000	3.57710E+000	10	...........
	12	0.173333	7.47009E-001	5.99061E-003	0.00000E+000	4.47504E-003	3.59960E-001	-1.17593E+000	3.57710E+000	10	...........
	13	0.186667	7.54014E-001	5.99196E-003	0.00000E+000	4.51802E-003	3.59960E-001	-1.18127E+000	3.57710E+000	10	...........
	14	0.2	7.60949E-001	5.99208E-003	0.00000E+000	4.55967E-003	3.59960E-001	-1.17173E+000	3.57710E+000	10	...........
	15	0.213333	7.67873E-001	5.99522E-003	0.00000E+000	4.60357E-003	3.59960E-001	-1.17589E+000	3.57710E+000	10	...........
	16	0.226667	7.74742E-001	5.99625E-003	0.00000E+000	4.64555E-003	3.59960E-001	-1.18129E+000	3.57710E+000	10	...........
	17	0.24	7.81577E-001	5.98898E-003	0.00000E+000	4.68085E-003	3.59960E-001	-1.17194E+000	3.57710E+000	10	...........
	18	0.253333	7.88393E-001	5.99661E-003	0.00000E+000	4.72768E-003	3.59960E-001	-1.17569E+000	3.57710E+000	10	...........
	19	0.266667	7.95202E-001	5.99608E-003	0.00000E+000	4.76809E-003	3.59960E-001	-1.18119E+000	3.57710E+000	10	...........
	20	0.28	8.01957E-001	5.99130E-003	0.00000E+000	4.80476E-003	3.59960E-001	-1.17147E+000	3.57710E+000	10	...........
	21	0.293333	8.08691E-001	5.99131E-003	0.00000E+000	4.84512E-003	3.59960E-001	-1.17558E+000	3.57710E+000	10	...........
	22	0.306667	8.15372E-001	5.99309E-003	0.00000E+000	4.88660E-003	3.59960E-001	-1.18143E+000	3.57710E+000	10	...........
	23	0.32	8.22062E-001	5.99359E-003	0.00000E+000	4.92710E-003	3.59960E-001	-1.17135E+000	3.57710E+000	10	...........
	24	0.333333	8.28766E-001	5.98930E-003	0.00000E+000	4.96372E-003	3.59960E-001	-1.17493E+000	3.57710E+000	10	...........
	25	0.346667	8.35368E-001	5.99441E-003	0.00000E+000	5.00754E-003	3.59960E-001	-1.18100E+000	3.57710E+000	10	...........
	26	0.36	8.41967E-001	5.99113E-003	0.00000E+000	5.04433E-003	3.59960E-001	-1.17127E+000	3.57710E+000	10	...........
	27	0.373333	8.48555E-001	5.99176E-003	0.00000E+000	5.08434E-003	3.59960E-001	-1.17522E+000	3.57710E+000	10	...........
	28	0.386667	8.55099E-001	5.99305E-003	0.00000E+000	5.12465E-003	3.59960E-001	-1.18086E+000	3.57710E+000	10	...........
	29	0.4	8.61594E-001	5.99275E-003	0.00000E+000	5.16332E-003	3.59960E-001	-1.17106E+000	3.57710E+000	10	...........
	30	0.413333	8.68113E-001	5.99565E-003	0.00000E+000	5.20490E-003	3.59960E-001	-1.17472E+000	3.57710E+000	10	...........
	31	0.426667	8.74601E-001	5.99369E-003	0.00000E+000	5.24209E-003	3.59960E-001	-1.18094E+000	3.57710E+000	10	...........
	32	0.44	8.81034E-001	5.99425E-003	0.00000E+000	5.28114E-003	3.59960E-001	-1.17117E+000	3.57710E+000	10	...........
	33	0.453333	8.87472E-001	5.99429E-003	0.00000E+000	5.31977E-003	3.59960E-001	-1.17475E+000	3.57710E+000	10	...........
	34	0.466667	8.93845E-001	5.99726E-003	0.00000E+000	5.36062E-003	3.59960E-001	-1.18077E+000	3.57710E+000	10	...........
	35	0.48	9.00181E-001	5.99876E-003	0.00000E+000	5.39997E-003	3.59960E-001	-1.17095E+000	3.57710E+000	10	...........
	36	0.493333	9.06458E-001	5.98961E-003	0.00000E+000	5.42933E-003	3.59960E-001	-1.17475E+000	3.57710E+000	10	...........
	37	0.506667	9.12659E-001	5.99761E-003	0.00000E+000	5.47377E-003	3.59960E-001	-1.18114E+000	3.57710E+000	10	...........
	38	0.52	9.18878E-001	5.99341E-003	0.00000E+000	5.50721E-003	3.59960E-001	-1.17102E+000	3.57710E+000	10	...........
	39	0.533333	9.25093E-001	5.98976E-003	0.00000E+000	5.54108E-003	3.59960E-001	-1.17448E+000	3.57710E+000	10	...........
	40	0.546667	9.31186E-001	5.99116E-003	0.00000E+000	5.57889E-003	3.59960E-001	-1.18116E+000	3.57710E+000	10	...........
	41	0.56	9.37248E-001	5.98829E-003	0.00000E+000	5.61252E-003	3.59960E-001	-1.17134E+000	3.57710E+000	10	...........
	42	0.573333	9.43252E-001	5.99453E-003	0.00000E+000	5.65435E-003	3.59960E-001	-1.17477E+000	3.57710E+000	10	...........
	43	0.586667	9.49280E-001	5.99303E-003	0.00000E+000	5.68906E-003	3.59960E-001	-1.18126E+000	3.57710E+000	10	...........
	44	0.6	9.55219E-001	5.99305E-003	0.00000E+000	5.72467E-003	3.59960E-001	-1.17100E+000	3.57710E+000	10	...........
	45	0.613333	9.61121E-001	5.99345E-003	0.00000E+000	5.76043E-003	3.59960E-001	-1.17443E+000	3.57710E+000	10	...........
	46	0.626667	9.66933E-001	5.99293E-003	0.00000E+000	5.79476E-003	3.59960E-001	-1.18116E+000	3.57710E+000	10	...........
	47	0.64	9.72725E-001	5.99104E-003	0.00000E+000	5.82763E-003	3.59960E-001	-1.17086E+000	3.57710E+000	10	...........
	48	0.653333	9.78497E-001	5.99230E-003	0.00000E+000	5.86345E-003	3.59960E-001	-1.17399E+000	3.57710E+000	10	...........
	49	0.666667	9.84189E-001	5.99033E-003	0.00000E+000	5.89562E-003	3.59960E-001	-1.18065E+000	3.57710E+000	10	...........
	50	0.68	9.89806E-001	5.99742E-003	0.00000E+000	5.93629E-003	3.59960E-001	-1.17065E+000	3.57710E+000	10	...........
	51	0.693333	9.95368E-001	5.98973E-003	0.00000E+000	5.96199E-003	3.59960E-001	-1.17394E+000	3.57710E+000	10	...........
	52	0.7	9.99539E-001	5.99292E-003	0.00000E+000	5.99015E-003	3.59960E-001	-1.17756E+000	3.57710E+000	10	...........
STARTTIMEOFFSET	QUANT	1514.578	Start Time Offset (s)