File: Data/CV_CRGO300517_1/PWRCCD_CRGO300517_1/CHARGE_DISCHARGE/CHARGE_#445.DTA
EXPLAIN
TAG	PWR800_CHARGE
TITLE	LABEL	PWR Cyclic Charge Discharge (Cell) - Charge Step	Test &Identifier
DATE	LABEL	22-6-2017	Date
TIME	LABEL	15:53:45	Time
NOTES	NOTES	3	&Notes...
	supercap test cell
	0.6mg
	6M KOH
PSTAT	PSTAT	IFC5000-01520	Potentiostat
CAPACITY	QUANT	1.00000E-003	Capacity (A-hr)
CELLTYPE	SELECTOR	1	&Cell Type
WORKINGCONNECTION	SELECTOR	0	&Working Lead
MAXCHARGETIME	VARIABLEANDUNITS	1.00000E+002	s	1.00000E+002	second(s)	Max &Charge Time
CHARGECURRENT	QUANT	6.00000E-003	&Charge Current (A)
VOLTAGEFINISH	TWOPARAM	F	1.00000E-003	3.60000E+003	&Voltage Finish	 I (A) < 	Max Time(s)
SAMPLETIME	QUANT	1.00000E-002	Sa&mple Period (s)
CHARGESTOPAT1	MULTIPARAM	4	1.00000E+000	Charge Stop At &1	Voltage > Limit	V
CHARGESTOPAT2	MULTIPARAM	0	0.00000E+000	Charge Stop At &2	None	N/A
AESBHCSELECTOR	TOGGLE	F	Save Both Half Cells
IRCOMP	TOGGLE	F	IR &Measure
EOC	QUANT	0	Open Circuit (V)
SEQUENCER	TOGGLE	TRUE	Run as Sequence
PSTATMODEL	IQUANT	53	Pstat Model
PSTATSECTION	LABEL	IFC5000-01520	Pstat Section
PSTATSERIALNO	LABEL	01520	Pstat Serial Number
CTRLMODE	IQUANT	0	Control Mode
ELECTROMETER	IQUANT	1	RE=0 or CS=1
IESTAB	IQUANT	0	I/E Stability
CASPEED	IQUANT	4	Control Amp Speed
CONVENTION	IQUANT	1	Current Convention
ICHRANGE	IQUANT	2	Ich Range
ICHRANGEMODE	TOGGLE	T	Ich Auto Range
ICHOFFSETENABLE	TOGGLE	F	Ich Offset Enable
ICHOFFSET	QUANT	0	Ich Offset (V)
ICHFILTER	IQUANT	1	Ich Filter
VCHRANGE	IQUANT	2	Vch Range
VCHRANGEMODE	TOGGLE	T	Vch Auto Range
VCHOFFSETENABLE	TOGGLE	F	Vch Offset Enable
VCHOFFSET	QUANT	0	Vch Offset (V)
VCHFILTER	IQUANT	1	Vch Filter
IERANGELOWERLIMIT	IQUANT	9	I/E Range Lower Limit
IERANGEMODE	TOGGLE	F	I/E AutoRange
IERANGE	IQUANT	10	I/E Range
ACHSELECT	IQUANT	1	Ach Select
ACHRANGE	IQUANT	2	Ach Range
ACHOFFSETENABLE	TOGGLE	F	Ach Offset Enable
ACHOFFSET	QUANT	0	Ach Offset (V)
ACHFILTER	IQUANT	1	Ach Filter
CABLEID	IQUANT	14	Cable ID
DCCALDATE	LABEL	20-10-2016	DC Calibration Date
ACCALDATE	LABEL	12/3/2015	AC Calibration Date
FRAMEWORKVERSION	QUANT	7.01	Framework Version
INSTRUMENTVERSION	LABEL	4.00	Instrument Version
CURVE	TABLE	59
	Pt	T	Vf	Im	Vu	Pwr	Sig	Ach	Temp	IERange	Over
	#	s	V	A	V	W	V	V	deg C	#	bits
	0	0.013333	6.28036E-001	5.99203E-003	0.00000E+000	3.76321E-003	3.59960E-001	-1.13413E+000	3.57670E+000	10	...........
	1	0.026667	6.36857E-001	5.99182E-003	0.00000E+000	3.81593E-003	3.59960E-001	-1.13775E+000	3.57670E+000	10	...........
	2	0.04	6.44982E-001	5.99401E-003	0.00000E+000	3.86603E-003	3.59960E-001	-1.14364E+000	3.57670E+000	10	...........
	3	0.053333	6.52696E-001	5.99331E-003	0.00000E+000	3.91181E-003	3.59960E-001	-1.13377E+000	3.57670E+000	10	...........
	4	0.066667	6.60121E-001	5.99386E-003	0.00000E+000	3.95668E-003	3.59960E-001	-1.13775E+000	3.57670E+000	10	...........
	5	0.08	6.67325E-001	5.99163E-003	0.00000E+000	3.99836E-003	3.59960E-001	-1.14374E+000	3.57670E+000	10	...........
	6	0.093333	6.74412E-001	5.99460E-003	0.00000E+000	4.04284E-003	3.59960E-001	-1.13399E+000	3.57670E+000	10	...........
	7	0.106667	6.81344E-001	5.99513E-003	0.00000E+000	4.08474E-003	3.59960E-001	-1.13782E+000	3.57670E+000	10	...........
	8	0.12	6.88226E-001	5.99094E-003	0.00000E+000	4.12312E-003	3.59960E-001	-1.14332E+000	3.57670E+000	10	...........
	9	0.133333	6.95041E-001	5.99607E-003	0.00000E+000	4.16751E-003	3.59960E-001	-1.13400E+000	3.57670E+000	10	...........
	10	0.146667	7.01771E-001	5.99739E-003	0.00000E+000	4.20880E-003	3.59960E-001	-1.13816E+000	3.57670E+000	10	...........
	11	0.16	7.08425E-001	6.00074E-003	0.00000E+000	4.25107E-003	3.59960E-001	-1.14365E+000	3.57670E+000	10	...........
	12	0.173333	7.15077E-001	5.99437E-003	0.00000E+000	4.28643E-003	3.59960E-001	-1.13387E+000	3.57670E+000	10	...........
	13	0.186667	7.21724E-001	5.99354E-003	0.00000E+000	4.32568E-003	3.59960E-001	-1.13799E+000	3.57670E+000	10	...........
	14	0.2	7.28276E-001	5.99069E-003	0.00000E+000	4.36288E-003	3.59960E-001	-1.14310E+000	3.57670E+000	10	...........
	15	0.213333	7.34813E-001	5.99022E-003	0.00000E+000	4.40170E-003	3.59960E-001	-1.13361E+000	3.57670E+000	10	...........
	16	0.226667	7.41361E-001	5.99662E-003	0.00000E+000	4.44566E-003	3.59960E-001	-1.13784E+000	3.57670E+000	10	...........
	17	0.24	7.47903E-001	5.99792E-003	0.00000E+000	4.48587E-003	3.59960E-001	-1.14260E+000	3.57670E+000	10	...........
	18	0.253333	7.54393E-001	5.99417E-003	0.00000E+000	4.52196E-003	3.59960E-001	-1.13347E+000	3.57670E+000	10	...........
	19	0.266667	7.60863E-001	5.99087E-003	0.00000E+000	4.55823E-003	3.59960E-001	-1.13793E+000	3.57670E+000	10	...........
	20	0.28	7.67277E-001	5.98944E-003	0.00000E+000	4.59556E-003	3.59960E-001	-1.14252E+000	3.57670E+000	10	...........
	21	0.293333	7.73730E-001	5.99551E-003	0.00000E+000	4.63891E-003	3.59960E-001	-1.13345E+000	3.57670E+000	10	...........
	22	0.306667	7.80174E-001	6.00067E-003	0.00000E+000	4.68156E-003	3.59960E-001	-1.13808E+000	3.57670E+000	10	...........
	23	0.32	7.86573E-001	5.99374E-003	0.00000E+000	4.71451E-003	3.59960E-001	-1.14222E+000	3.57670E+000	10	...........
	24	0.333333	7.92997E-001	5.99463E-003	0.00000E+000	4.75372E-003	3.59960E-001	-1.13314E+000	3.57670E+000	10	...........
	25	0.346667	7.99419E-001	5.99219E-003	0.00000E+000	4.79026E-003	3.59960E-001	-1.13803E+000	3.57670E+000	10	...........
	26	0.36	8.05778E-001	5.99268E-003	0.00000E+000	4.82877E-003	3.59960E-001	-1.14192E+000	3.57670E+000	10	...........
	27	0.373333	8.12121E-001	5.99555E-003	0.00000E+000	4.86911E-003	3.59960E-001	-1.13328E+000	3.57670E+000	10	...........
	28	0.386667	8.18473E-001	5.99140E-003	0.00000E+000	4.90380E-003	3.59960E-001	-1.13812E+000	3.57670E+000	10	...........
	29	0.4	8.24810E-001	5.99552E-003	0.00000E+000	4.94517E-003	3.59960E-001	-1.14178E+000	3.57670E+000	10	...........
	30	0.413333	8.31108E-001	5.99471E-003	0.00000E+000	4.98225E-003	3.59960E-001	-1.13331E+000	3.57670E+000	10	...........
	31	0.426667	8.37409E-001	5.99367E-003	0.00000E+000	5.01915E-003	3.59960E-001	-1.13828E+000	3.57670E+000	10	...........
	32	0.44	8.43724E-001	5.99416E-003	0.00000E+000	5.05741E-003	3.59960E-001	-1.14180E+000	3.57670E+000	10	...........
	33	0.453333	8.49992E-001	5.99241E-003	0.00000E+000	5.09351E-003	3.59960E-001	-1.13329E+000	3.57670E+000	10	...........
	34	0.466667	8.56216E-001	5.99343E-003	0.00000E+000	5.13167E-003	3.59960E-001	-1.13875E+000	3.57670E+000	10	...........
	35	0.48	8.62504E-001	5.99610E-003	0.00000E+000	5.17166E-003	3.59960E-001	-1.14158E+000	3.57670E+000	10	...........
	36	0.493333	8.68727E-001	5.99481E-003	0.00000E+000	5.20785E-003	3.59960E-001	-1.13330E+000	3.57670E+000	10	...........
	37	0.506667	8.74933E-001	5.99511E-003	0.00000E+000	5.24531E-003	3.59960E-001	-1.13861E+000	3.57670E+000	10	...........
	38	0.52	8.81108E-001	5.99316E-003	0.00000E+000	5.28061E-003	3.59960E-001	-1.14142E+000	3.57670E+000	10	...........
	39	0.533333	8.87250E-001	5.99452E-003	0.00000E+000	5.31864E-003	3.59960E-001	-1.13265E+000	3.57670E+000	10	...........
	40	0.546667	8.93343E-001	5.99154E-003	0.00000E+000	5.35250E-003	3.59960E-001	-1.13835E+000	3.57670E+000	10	...........
	41	0.56	8.99448E-001	5.99699E-003	0.00000E+000	5.39398E-003	3.59960E-001	-1.14083E+000	3.57670E+000	10	...........
	42	0.573333	9.05519E-001	5.99303E-003	0.00000E+000	5.42680E-003	3.59960E-001	-1.13254E+000	3.57670E+000	10	...........
	43	0.586667	9.11561E-001	5.99344E-003	0.00000E+000	5.46339E-003	3.59960E-001	-1.13847E+000	3.57670E+000	10	...........
	44	0.6	9.17585E-001	5.99579E-003	0.00000E+000	5.50165E-003	3.59960E-001	-1.14064E+000	3.57670E+000	10	...........
	45	0.613333	9.23628E-001	5.99715E-003	0.00000E+000	5.53914E-003	3.59960E-001	-1.13254E+000	3.57670E+000	10	...........
	46	0.626667	9.29560E-001	5.99587E-003	0.00000E+000	5.57352E-003	3.59960E-001	-1.13853E+000	3.57670E+000	10	...........
	47	0.64	9.35428E-001	5.99384E-003	0.00000E+000	5.60681E-003	3.59960E-001	-1.14032E+000	3.57670E+000	10	...........
	48	0.653333	9.41309E-001	5.99666E-003	0.00000E+000	5.64471E-003	3.59960E-001	-1.13222E+000	3.57670E+000	10	...........
	49	0.666667	9.47156E-001	5.99609E-003	0.00000E+000	5.67923E-003	3.59960E-001	-1.13861E+000	3.57670E+000	10	...........
	50	0.68	9.52969E-001	5.99512E-003	0.00000E+000	5.71316E-003	3.59960E-001	-1.14010E+000	3.57670E+000	10	...........
	51	0.693333	9.58717E-001	5.99633E-003	0.00000E+000	5.74878E-003	3.59960E-001	-1.13231E+000	3.57670E+000	10	...........
	52	0.706667	9.64443E-001	5.99607E-003	0.00000E+000	5.78287E-003	3.59960E-001	-1.13885E+000	3.57670E+000	10	...........
	53	0.72	9.70138E-001	5.99628E-003	0.00000E+000	5.81722E-003	3.59960E-001	-1.13988E+000	3.57670E+000	10	...........
	54	0.733333	9.75818E-001	5.99709E-003	0.00000E+000	5.85206E-003	3.59960E-001	-1.13214E+000	3.57670E+000	10	...........
	55	0.746667	9.81428E-001	6.00269E-003	0.00000E+000	5.89121E-003	3.59960E-001	-1.13904E+000	3.57670E+000	10	...........
	56	0.76	9.86939E-001	5.99371E-003	0.00000E+000	5.91542E-003	3.59960E-001	-1.13989E+000	3.57670E+000	10	...........
	57	0.773333	9.92422E-001	5.99522E-003	0.00000E+000	5.94979E-003	3.59960E-001	-1.13220E+000	3.57670E+000	10	...........
	58	0.786667	9.97908E-001	5.99385E-003	0.00000E+000	5.98132E-003	3.59960E-001	-1.13902E+000	3.57670E+000	10	...........
STARTTIMEOFFSET	QUANT	773.6235	Start Time Offset (s)