File: Data/CV_CRGO300517_1/PWRCCD_CRGO300517_1/CHARGE_DISCHARGE/CHARGE_#464.DTA
EXPLAIN
TAG	PWR800_CHARGE
TITLE	LABEL	PWR Cyclic Charge Discharge (Cell) - Charge Step	Test &Identifier
DATE	LABEL	22-6-2017	Date
TIME	LABEL	15:54:30	Time
NOTES	NOTES	3	&Notes...
	supercap test cell
	0.6mg
	6M KOH
PSTAT	PSTAT	IFC5000-01520	Potentiostat
CAPACITY	QUANT	1.00000E-003	Capacity (A-hr)
CELLTYPE	SELECTOR	1	&Cell Type
WORKINGCONNECTION	SELECTOR	0	&Working Lead
MAXCHARGETIME	VARIABLEANDUNITS	1.00000E+002	s	1.00000E+002	second(s)	Max &Charge Time
CHARGECURRENT	QUANT	6.00000E-003	&Charge Current (A)
VOLTAGEFINISH	TWOPARAM	F	1.00000E-003	3.60000E+003	&Voltage Finish	 I (A) < 	Max Time(s)
SAMPLETIME	QUANT	1.00000E-002	Sa&mple Period (s)
CHARGESTOPAT1	MULTIPARAM	4	1.00000E+000	Charge Stop At &1	Voltage > Limit	V
CHARGESTOPAT2	MULTIPARAM	0	0.00000E+000	Charge Stop At &2	None	N/A
AESBHCSELECTOR	TOGGLE	F	Save Both Half Cells
IRCOMP	TOGGLE	F	IR &Measure
EOC	QUANT	0	Open Circuit (V)
SEQUENCER	TOGGLE	TRUE	Run as Sequence
PSTATMODEL	IQUANT	53	Pstat Model
PSTATSECTION	LABEL	IFC5000-01520	Pstat Section
PSTATSERIALNO	LABEL	01520	Pstat Serial Number
CTRLMODE	IQUANT	0	Control Mode
ELECTROMETER	IQUANT	1	RE=0 or CS=1
IESTAB	IQUANT	0	I/E Stability
CASPEED	IQUANT	4	Control Amp Speed
CONVENTION	IQUANT	1	Current Convention
ICHRANGE	IQUANT	2	Ich Range
ICHRANGEMODE	TOGGLE	T	Ich Auto Range
ICHOFFSETENABLE	TOGGLE	F	Ich Offset Enable
ICHOFFSET	QUANT	0	Ich Offset (V)
ICHFILTER	IQUANT	1	Ich Filter
VCHRANGE	IQUANT	2	Vch Range
VCHRANGEMODE	TOGGLE	T	Vch Auto Range
VCHOFFSETENABLE	TOGGLE	F	Vch Offset Enable
VCHOFFSET	QUANT	0	Vch Offset (V)
VCHFILTER	IQUANT	1	Vch Filter
IERANGELOWERLIMIT	IQUANT	9	I/E Range Lower Limit
IERANGEMODE	TOGGLE	F	I/E AutoRange
IERANGE	IQUANT	10	I/E Range
ACHSELECT	IQUANT	1	Ach Select
ACHRANGE	IQUANT	2	Ach Range
ACHOFFSETENABLE	TOGGLE	F	Ach Offset Enable
ACHOFFSET	QUANT	0	Ach Offset (V)
ACHFILTER	IQUANT	1	Ach Filter
CABLEID	IQUANT	14	Cable ID
DCCALDATE	LABEL	20-10-2016	DC Calibration Date
ACCALDATE	LABEL	12/3/2015	AC Calibration Date
FRAMEWORKVERSION	QUANT	7.01	Framework Version
INSTRUMENTVERSION	LABEL	4.00	Instrument Version
CURVE	TABLE	59
	Pt	T	Vf	Im	Vu	Pwr	Sig	Ach	Temp	IERange	Over
	#	s	V	A	V	W	V	V	deg C	#	bits
	0	0.013333	6.29546E-001	5.98851E-003	0.00000E+000	3.77004E-003	3.59960E-001	-1.10999E+000	3.57790E+000	10	...........
	1	0.026667	6.38380E-001	5.99074E-003	0.00000E+000	3.82437E-003	3.59960E-001	-1.10354E+000	3.57790E+000	10	...........
	2	0.04	6.46475E-001	5.99333E-003	0.00000E+000	3.87454E-003	3.59960E-001	-1.11173E+000	3.57790E+000	10	...........
	3	0.053333	6.54172E-001	5.98995E-003	0.00000E+000	3.91846E-003	3.59960E-001	-1.11112E+000	3.57790E+000	10	...........
	4	0.066667	6.61590E-001	5.99163E-003	0.00000E+000	3.96401E-003	3.59960E-001	-1.10452E+000	3.57790E+000	10	...........
	5	0.08	6.68807E-001	5.99301E-003	0.00000E+000	4.00816E-003	3.59960E-001	-1.11261E+000	3.57790E+000	10	...........
	6	0.093333	6.75880E-001	5.99531E-003	0.00000E+000	4.05212E-003	3.59960E-001	-1.11224E+000	3.57790E+000	10	...........
	7	0.106667	6.82876E-001	5.99840E-003	0.00000E+000	4.09616E-003	3.59960E-001	-1.10579E+000	3.57790E+000	10	...........
	8	0.12	6.89694E-001	5.99614E-003	0.00000E+000	4.13550E-003	3.59960E-001	-1.11383E+000	3.57790E+000	10	...........
	9	0.133333	6.96574E-001	5.99016E-003	0.00000E+000	4.17259E-003	3.59960E-001	-1.11320E+000	3.57790E+000	10	...........
	10	0.146667	7.03299E-001	5.98845E-003	0.00000E+000	4.21167E-003	3.59960E-001	-1.10690E+000	3.57790E+000	10	...........
	11	0.16	7.10003E-001	5.99169E-003	0.00000E+000	4.25412E-003	3.59960E-001	-1.11483E+000	3.57790E+000	10	...........
	12	0.173333	7.16699E-001	5.99865E-003	0.00000E+000	4.29923E-003	3.59960E-001	-1.11445E+000	3.57790E+000	10	...........
	13	0.186667	7.23317E-001	5.99319E-003	0.00000E+000	4.33497E-003	3.59960E-001	-1.10803E+000	3.57790E+000	10	...........
	14	0.2	7.29948E-001	5.98599E-003	0.00000E+000	4.36946E-003	3.59960E-001	-1.11589E+000	3.57790E+000	10	...........
	15	0.213333	7.36522E-001	5.99833E-003	0.00000E+000	4.41790E-003	3.59960E-001	-1.11570E+000	3.57790E+000	10	...........
	16	0.226667	7.43104E-001	5.99451E-003	0.00000E+000	4.45455E-003	3.59960E-001	-1.10909E+000	3.57790E+000	10	...........
	17	0.24	7.49609E-001	5.99205E-003	0.00000E+000	4.49169E-003	3.59960E-001	-1.11691E+000	3.57790E+000	10	...........
	18	0.253333	7.56113E-001	5.99404E-003	0.00000E+000	4.53217E-003	3.59960E-001	-1.11655E+000	3.57790E+000	10	...........
	19	0.266667	7.62599E-001	5.99592E-003	0.00000E+000	4.57248E-003	3.59960E-001	-1.10982E+000	3.57790E+000	10	...........
	20	0.28	7.69086E-001	5.99174E-003	0.00000E+000	4.60816E-003	3.59960E-001	-1.11770E+000	3.57790E+000	10	...........
	21	0.293333	7.75556E-001	5.99610E-003	0.00000E+000	4.65031E-003	3.59960E-001	-1.11712E+000	3.57790E+000	10	...........
	22	0.306667	7.81995E-001	5.99663E-003	0.00000E+000	4.68933E-003	3.59960E-001	-1.11058E+000	3.57790E+000	10	...........
	23	0.32	7.88391E-001	5.99094E-003	0.00000E+000	4.72320E-003	3.59960E-001	-1.11852E+000	3.57790E+000	10	...........
	24	0.333333	7.94862E-001	6.00122E-003	0.00000E+000	4.77014E-003	3.59960E-001	-1.11785E+000	3.57790E+000	10	...........
	25	0.346667	8.01215E-001	5.99499E-003	0.00000E+000	4.80328E-003	3.59960E-001	-1.11163E+000	3.57790E+000	10	...........
	26	0.36	8.07594E-001	5.99151E-003	0.00000E+000	4.83871E-003	3.59960E-001	-1.11938E+000	3.57790E+000	10	...........
	27	0.373333	8.13955E-001	5.99033E-003	0.00000E+000	4.87586E-003	3.59960E-001	-1.11880E+000	3.57790E+000	10	...........
	28	0.386667	8.20351E-001	5.99330E-003	0.00000E+000	4.91661E-003	3.59960E-001	-1.11243E+000	3.57790E+000	10	...........
	29	0.4	8.26645E-001	5.99244E-003	0.00000E+000	4.95362E-003	3.59960E-001	-1.12037E+000	3.57790E+000	10	...........
	30	0.413333	8.32996E-001	5.99237E-003	0.00000E+000	4.99162E-003	3.59960E-001	-1.11989E+000	3.57790E+000	10	...........
	31	0.426667	8.39291E-001	5.99053E-003	0.00000E+000	5.02779E-003	3.59960E-001	-1.11343E+000	3.57790E+000	10	...........
	32	0.44	8.45622E-001	5.99153E-003	0.00000E+000	5.06657E-003	3.59960E-001	-1.12122E+000	3.57790E+000	10	...........
	33	0.453333	8.51898E-001	5.99205E-003	0.00000E+000	5.10461E-003	3.59960E-001	-1.12052E+000	3.57790E+000	10	...........
	34	0.466667	8.58155E-001	5.99437E-003	0.00000E+000	5.14410E-003	3.59960E-001	-1.11401E+000	3.57745E+000	10	...........
	35	0.48	8.64444E-001	5.99879E-003	0.00000E+000	5.18562E-003	3.59960E-001	-1.12212E+000	3.57670E+000	10	...........
	36	0.493333	8.70682E-001	5.99081E-003	0.00000E+000	5.21609E-003	3.59960E-001	-1.12159E+000	3.57670E+000	10	...........
	37	0.506667	8.76871E-001	5.99049E-003	0.00000E+000	5.25289E-003	3.59960E-001	-1.11507E+000	3.57670E+000	10	...........
	38	0.52	8.83076E-001	5.99485E-003	0.00000E+000	5.29390E-003	3.59960E-001	-1.12283E+000	3.57670E+000	10	...........
	39	0.533333	8.89207E-001	5.99123E-003	0.00000E+000	5.32744E-003	3.59960E-001	-1.12226E+000	3.57670E+000	10	...........
	40	0.546667	8.95330E-001	5.99544E-003	0.00000E+000	5.36790E-003	3.59960E-001	-1.11583E+000	3.57670E+000	10	...........
	41	0.56	9.01474E-001	5.99189E-003	0.00000E+000	5.40153E-003	3.59960E-001	-1.12376E+000	3.57670E+000	10	...........
	42	0.573333	9.07521E-001	6.00279E-003	0.00000E+000	5.44766E-003	3.59960E-001	-1.12313E+000	3.57670E+000	10	...........
	43	0.586667	9.13549E-001	5.98920E-003	0.00000E+000	5.47143E-003	3.59960E-001	-1.11637E+000	3.57670E+000	10	...........
	44	0.6	9.19553E-001	5.99127E-003	0.00000E+000	5.50929E-003	3.59960E-001	-1.12402E+000	3.57670E+000	10	...........
	45	0.613333	9.25579E-001	5.99712E-003	0.00000E+000	5.55081E-003	3.59960E-001	-1.12341E+000	3.57670E+000	10	...........
	46	0.626667	9.31515E-001	5.99610E-003	0.00000E+000	5.58545E-003	3.59960E-001	-1.11696E+000	3.57670E+000	10	...........
	47	0.64	9.37376E-001	5.98958E-003	0.00000E+000	5.61449E-003	3.59960E-001	-1.12468E+000	3.57670E+000	10	...........
	48	0.653333	9.43234E-001	5.99369E-003	0.00000E+000	5.65345E-003	3.59960E-001	-1.12413E+000	3.57670E+000	10	...........
	49	0.666667	9.49063E-001	5.99756E-003	0.00000E+000	5.69206E-003	3.59960E-001	-1.11770E+000	3.57670E+000	10	...........
	50	0.68	9.54850E-001	5.99904E-003	0.00000E+000	5.72818E-003	3.59960E-001	-1.12538E+000	3.57670E+000	10	...........
	51	0.693333	9.60646E-001	5.99236E-003	0.00000E+000	5.75654E-003	3.59960E-001	-1.12483E+000	3.57670E+000	10	...........
	52	0.706667	9.66331E-001	5.99525E-003	0.00000E+000	5.79340E-003	3.59960E-001	-1.11824E+000	3.57670E+000	10	...........
	53	0.72	9.72024E-001	5.99505E-003	0.00000E+000	5.82733E-003	3.59960E-001	-1.12587E+000	3.57670E+000	10	...........
	54	0.733333	9.77717E-001	5.99463E-003	0.00000E+000	5.86105E-003	3.59960E-001	-1.12542E+000	3.57670E+000	10	...........
	55	0.746667	9.83294E-001	5.99822E-003	0.00000E+000	5.89802E-003	3.59960E-001	-1.11878E+000	3.57670E+000	10	...........
	56	0.76	9.88796E-001	5.99100E-003	0.00000E+000	5.92387E-003	3.59960E-001	-1.12688E+000	3.57670E+000	10	...........
	57	0.773333	9.94326E-001	5.99649E-003	0.00000E+000	5.96247E-003	3.59960E-001	-1.12613E+000	3.57670E+000	10	...........
	58	0.781667	9.98762E-001	5.99105E-003	0.00000E+000	5.98363E-003	3.59960E-001	-1.11753E+000	3.57670E+000	10	...........
STARTTIMEOFFSET	QUANT	803.2951	Start Time Offset (s)