File: Data/CV_CRGO300517_1/PWRCCD_CRGO300517_1/CHARGE_DISCHARGE/CHARGE_#699.DTA
EXPLAIN
TAG	PWR800_CHARGE
TITLE	LABEL	PWR Cyclic Charge Discharge (Cell) - Charge Step	Test &Identifier
DATE	LABEL	22-6-2017	Date
TIME	LABEL	16:03:31	Time
NOTES	NOTES	3	&Notes...
	supercap test cell
	0.6mg
	6M KOH
PSTAT	PSTAT	IFC5000-01520	Potentiostat
CAPACITY	QUANT	1.00000E-003	Capacity (A-hr)
CELLTYPE	SELECTOR	1	&Cell Type
WORKINGCONNECTION	SELECTOR	0	&Working Lead
MAXCHARGETIME	VARIABLEANDUNITS	1.00000E+002	s	1.00000E+002	second(s)	Max &Charge Time
CHARGECURRENT	QUANT	6.00000E-003	&Charge Current (A)
VOLTAGEFINISH	TWOPARAM	F	1.00000E-003	3.60000E+003	&Voltage Finish	 I (A) < 	Max Time(s)
SAMPLETIME	QUANT	1.00000E-002	Sa&mple Period (s)
CHARGESTOPAT1	MULTIPARAM	4	1.00000E+000	Charge Stop At &1	Voltage > Limit	V
CHARGESTOPAT2	MULTIPARAM	0	0.00000E+000	Charge Stop At &2	None	N/A
AESBHCSELECTOR	TOGGLE	F	Save Both Half Cells
IRCOMP	TOGGLE	F	IR &Measure
EOC	QUANT	0	Open Circuit (V)
SEQUENCER	TOGGLE	TRUE	Run as Sequence
PSTATMODEL	IQUANT	53	Pstat Model
PSTATSECTION	LABEL	IFC5000-01520	Pstat Section
PSTATSERIALNO	LABEL	01520	Pstat Serial Number
CTRLMODE	IQUANT	0	Control Mode
ELECTROMETER	IQUANT	1	RE=0 or CS=1
IESTAB	IQUANT	0	I/E Stability
CASPEED	IQUANT	4	Control Amp Speed
CONVENTION	IQUANT	1	Current Convention
ICHRANGE	IQUANT	2	Ich Range
ICHRANGEMODE	TOGGLE	T	Ich Auto Range
ICHOFFSETENABLE	TOGGLE	F	Ich Offset Enable
ICHOFFSET	QUANT	0	Ich Offset (V)
ICHFILTER	IQUANT	1	Ich Filter
VCHRANGE	IQUANT	2	Vch Range
VCHRANGEMODE	TOGGLE	T	Vch Auto Range
VCHOFFSETENABLE	TOGGLE	F	Vch Offset Enable
VCHOFFSET	QUANT	0	Vch Offset (V)
VCHFILTER	IQUANT	1	Vch Filter
IERANGELOWERLIMIT	IQUANT	9	I/E Range Lower Limit
IERANGEMODE	TOGGLE	F	I/E AutoRange
IERANGE	IQUANT	10	I/E Range
ACHSELECT	IQUANT	1	Ach Select
ACHRANGE	IQUANT	2	Ach Range
ACHOFFSETENABLE	TOGGLE	F	Ach Offset Enable
ACHOFFSET	QUANT	0	Ach Offset (V)
ACHFILTER	IQUANT	1	Ach Filter
CABLEID	IQUANT	14	Cable ID
DCCALDATE	LABEL	20-10-2016	DC Calibration Date
ACCALDATE	LABEL	12/3/2015	AC Calibration Date
FRAMEWORKVERSION	QUANT	7.01	Framework Version
INSTRUMENTVERSION	LABEL	4.00	Instrument Version
CURVE	TABLE	56
	Pt	T	Vf	Im	Vu	Pwr	Sig	Ach	Temp	IERange	Over
	#	s	V	A	V	W	V	V	deg C	#	bits
	0	0.013333	6.43195E-001	5.99365E-003	0.00000E+000	3.85508E-003	3.59960E-001	-1.15580E+000	3.57670E+000	10	...........
	1	0.026667	6.52263E-001	5.99470E-003	0.00000E+000	3.91012E-003	3.59960E-001	-1.16208E+000	3.57670E+000	10	...........
	2	0.04	6.60590E-001	5.99326E-003	0.00000E+000	3.95909E-003	3.59960E-001	-1.15202E+000	3.57670E+000	10	...........
	3	0.053333	6.68559E-001	5.99462E-003	0.00000E+000	4.00775E-003	3.59960E-001	-1.15584E+000	3.57670E+000	10	...........
	4	0.066667	6.76214E-001	5.99332E-003	0.00000E+000	4.05277E-003	3.59960E-001	-1.16187E+000	3.57670E+000	10	...........
	5	0.08	6.83613E-001	5.99419E-003	0.00000E+000	4.09771E-003	3.59960E-001	-1.15192E+000	3.57670E+000	10	...........
	6	0.093333	6.90916E-001	6.00103E-003	0.00000E+000	4.14621E-003	3.59960E-001	-1.15585E+000	3.57670E+000	10	...........
	7	0.106667	6.98106E-001	5.99618E-003	0.00000E+000	4.18597E-003	3.59960E-001	-1.16171E+000	3.57670E+000	10	...........
	8	0.12	7.05195E-001	5.99818E-003	0.00000E+000	4.22989E-003	3.59960E-001	-1.15166E+000	3.57670E+000	10	...........
	9	0.133333	7.12200E-001	5.99237E-003	0.00000E+000	4.26777E-003	3.59960E-001	-1.15565E+000	3.57670E+000	10	...........
	10	0.146667	7.19209E-001	5.99856E-003	0.00000E+000	4.31422E-003	3.59960E-001	-1.16145E+000	3.57670E+000	10	...........
	11	0.16	7.26081E-001	5.99507E-003	0.00000E+000	4.35291E-003	3.59960E-001	-1.15187E+000	3.57670E+000	10	...........
	12	0.173333	7.32924E-001	5.99101E-003	0.00000E+000	4.39095E-003	3.59960E-001	-1.15588E+000	3.57670E+000	10	...........
	13	0.186667	7.39743E-001	5.99235E-003	0.00000E+000	4.43280E-003	3.59960E-001	-1.16163E+000	3.57670E+000	10	...........
	14	0.2	7.46548E-001	5.99564E-003	0.00000E+000	4.47603E-003	3.59960E-001	-1.15209E+000	3.57670E+000	10	...........
	15	0.213333	7.53284E-001	5.99335E-003	0.00000E+000	4.51470E-003	3.59960E-001	-1.15606E+000	3.57670E+000	10	...........
	16	0.226667	7.60033E-001	5.99446E-003	0.00000E+000	4.55599E-003	3.59960E-001	-1.16181E+000	3.57670E+000	10	...........
	17	0.24	7.66693E-001	5.99115E-003	0.00000E+000	4.59337E-003	3.59960E-001	-1.15186E+000	3.57670E+000	10	...........
	18	0.253333	7.73439E-001	5.99420E-003	0.00000E+000	4.63615E-003	3.59960E-001	-1.15597E+000	3.57670E+000	10	...........
	19	0.266667	7.80075E-001	5.99675E-003	0.00000E+000	4.67792E-003	3.59960E-001	-1.16140E+000	3.57670E+000	10	...........
	20	0.28	7.86716E-001	5.99716E-003	0.00000E+000	4.71806E-003	3.59960E-001	-1.15161E+000	3.57670E+000	10	...........
	21	0.293333	7.93356E-001	5.99128E-003	0.00000E+000	4.75322E-003	3.59960E-001	-1.15555E+000	3.57670E+000	10	...........
	22	0.306667	7.99926E-001	5.98672E-003	0.00000E+000	4.78893E-003	3.59960E-001	-1.16089E+000	3.57670E+000	10	...........
	23	0.32	8.06517E-001	5.99178E-003	0.00000E+000	4.83247E-003	3.59960E-001	-1.15143E+000	3.57670E+000	10	...........
	24	0.333333	8.13065E-001	5.99516E-003	0.00000E+000	4.87445E-003	3.59960E-001	-1.15582E+000	3.57670E+000	10	...........
	25	0.346667	8.19595E-001	5.99181E-003	0.00000E+000	4.91086E-003	3.59960E-001	-1.16103E+000	3.57670E+000	10	...........
	26	0.36	8.26131E-001	5.99670E-003	0.00000E+000	4.95406E-003	3.59960E-001	-1.15167E+000	3.57670E+000	10	...........
	27	0.373333	8.32596E-001	5.99632E-003	0.00000E+000	4.99251E-003	3.59960E-001	-1.15573E+000	3.57670E+000	10	...........
	28	0.386667	8.39069E-001	5.99370E-003	0.00000E+000	5.02913E-003	3.59960E-001	-1.16077E+000	3.57670E+000	10	...........
	29	0.4	8.45546E-001	5.98898E-003	0.00000E+000	5.06396E-003	3.59960E-001	-1.15151E+000	3.57670E+000	10	...........
	30	0.413333	8.51976E-001	5.99916E-003	0.00000E+000	5.11114E-003	3.59960E-001	-1.15568E+000	3.57670E+000	10	...........
	31	0.426667	8.58358E-001	5.99420E-003	0.00000E+000	5.14517E-003	3.59960E-001	-1.16084E+000	3.57670E+000	10	...........
	32	0.44	8.64731E-001	5.99478E-003	0.00000E+000	5.18388E-003	3.59960E-001	-1.15144E+000	3.57670E+000	10	...........
	33	0.453333	8.71110E-001	5.99323E-003	0.00000E+000	5.22076E-003	3.59960E-001	-1.15555E+000	3.57670E+000	10	...........
	34	0.466667	8.77440E-001	5.99834E-003	0.00000E+000	5.26318E-003	3.59960E-001	-1.16074E+000	3.57670E+000	10	...........
	35	0.48	8.83762E-001	5.99642E-003	0.00000E+000	5.29941E-003	3.59960E-001	-1.15137E+000	3.57670E+000	10	...........
	36	0.493333	8.90036E-001	5.99343E-003	0.00000E+000	5.33436E-003	3.59960E-001	-1.15584E+000	3.57670E+000	10	...........
	37	0.506667	8.96254E-001	5.99205E-003	0.00000E+000	5.37040E-003	3.59960E-001	-1.16080E+000	3.57670E+000	10	...........
	38	0.52	9.02457E-001	5.99561E-003	0.00000E+000	5.41078E-003	3.59960E-001	-1.15138E+000	3.57670E+000	10	...........
	39	0.533333	9.08640E-001	5.99420E-003	0.00000E+000	5.44657E-003	3.59960E-001	-1.15589E+000	3.57670E+000	10	...........
	40	0.546667	9.14802E-001	5.99557E-003	0.00000E+000	5.48476E-003	3.59960E-001	-1.16080E+000	3.57670E+000	10	...........
	41	0.56	9.20957E-001	5.99555E-003	0.00000E+000	5.52165E-003	3.59960E-001	-1.15136E+000	3.57670E+000	10	...........
	42	0.573333	9.27068E-001	5.99602E-003	0.00000E+000	5.55872E-003	3.59960E-001	-1.15615E+000	3.57670E+000	10	...........
	43	0.586667	9.33092E-001	5.99758E-003	0.00000E+000	5.59629E-003	3.59960E-001	-1.16057E+000	3.57670E+000	10	...........
	44	0.6	9.39046E-001	5.99701E-003	0.00000E+000	5.63147E-003	3.59960E-001	-1.15102E+000	3.57670E+000	10	...........
	45	0.613333	9.44995E-001	5.99664E-003	0.00000E+000	5.66679E-003	3.59960E-001	-1.15597E+000	3.57670E+000	10	...........
	46	0.626667	9.50916E-001	5.99310E-003	0.00000E+000	5.69894E-003	3.59960E-001	-1.16034E+000	3.57670E+000	10	...........
	47	0.64	9.56752E-001	5.99300E-003	0.00000E+000	5.73381E-003	3.59960E-001	-1.15118E+000	3.57670E+000	10	...........
	48	0.653333	9.62568E-001	5.99190E-003	0.00000E+000	5.76761E-003	3.59960E-001	-1.15588E+000	3.57670E+000	10	...........
	49	0.666667	9.68327E-001	5.99537E-003	0.00000E+000	5.80548E-003	3.59960E-001	-1.16039E+000	3.57670E+000	10	...........
	50	0.68	9.74121E-001	5.99061E-003	0.00000E+000	5.83558E-003	3.59960E-001	-1.15120E+000	3.57670E+000	10	...........
	51	0.693333	9.79774E-001	5.99227E-003	0.00000E+000	5.87107E-003	3.59960E-001	-1.15606E+000	3.57670E+000	10	...........
	52	0.706667	9.85400E-001	5.99304E-003	0.00000E+000	5.90554E-003	3.59960E-001	-1.16014E+000	3.57670E+000	10	...........
	53	0.72	9.90991E-001	5.99527E-003	0.00000E+000	5.94126E-003	3.59960E-001	-1.15100E+000	3.57670E+000	10	...........
	54	0.733333	9.96510E-001	5.99120E-003	0.00000E+000	5.97030E-003	3.59960E-001	-1.15572E+000	3.57670E+000	10	...........
	55	0.736667	9.99994E-001	5.99967E-003	0.00000E+000	5.99964E-003	3.59960E-001	-1.14652E+000	3.57670E+000	10	...........
STARTTIMEOFFSET	QUANT	1157.755	Start Time Offset (s)