File: Data/CV_CRGO300517_1/PWRCCD_CRGO300517_1/CHARGE_DISCHARGE/CHARGE_#837.DTA
EXPLAIN
TAG	PWR800_CHARGE
TITLE	LABEL	PWR Cyclic Charge Discharge (Cell) - Charge Step	Test &Identifier
DATE	LABEL	22-6-2017	Date
TIME	LABEL	16:08:39	Time
NOTES	NOTES	3	&Notes...
	supercap test cell
	0.6mg
	6M KOH
PSTAT	PSTAT	IFC5000-01520	Potentiostat
CAPACITY	QUANT	1.00000E-003	Capacity (A-hr)
CELLTYPE	SELECTOR	1	&Cell Type
WORKINGCONNECTION	SELECTOR	0	&Working Lead
MAXCHARGETIME	VARIABLEANDUNITS	1.00000E+002	s	1.00000E+002	second(s)	Max &Charge Time
CHARGECURRENT	QUANT	6.00000E-003	&Charge Current (A)
VOLTAGEFINISH	TWOPARAM	F	1.00000E-003	3.60000E+003	&Voltage Finish	 I (A) < 	Max Time(s)
SAMPLETIME	QUANT	1.00000E-002	Sa&mple Period (s)
CHARGESTOPAT1	MULTIPARAM	4	1.00000E+000	Charge Stop At &1	Voltage > Limit	V
CHARGESTOPAT2	MULTIPARAM	0	0.00000E+000	Charge Stop At &2	None	N/A
AESBHCSELECTOR	TOGGLE	F	Save Both Half Cells
IRCOMP	TOGGLE	F	IR &Measure
EOC	QUANT	0	Open Circuit (V)
SEQUENCER	TOGGLE	TRUE	Run as Sequence
PSTATMODEL	IQUANT	53	Pstat Model
PSTATSECTION	LABEL	IFC5000-01520	Pstat Section
PSTATSERIALNO	LABEL	01520	Pstat Serial Number
CTRLMODE	IQUANT	0	Control Mode
ELECTROMETER	IQUANT	1	RE=0 or CS=1
IESTAB	IQUANT	0	I/E Stability
CASPEED	IQUANT	4	Control Amp Speed
CONVENTION	IQUANT	1	Current Convention
ICHRANGE	IQUANT	2	Ich Range
ICHRANGEMODE	TOGGLE	T	Ich Auto Range
ICHOFFSETENABLE	TOGGLE	F	Ich Offset Enable
ICHOFFSET	QUANT	0	Ich Offset (V)
ICHFILTER	IQUANT	1	Ich Filter
VCHRANGE	IQUANT	2	Vch Range
VCHRANGEMODE	TOGGLE	T	Vch Auto Range
VCHOFFSETENABLE	TOGGLE	F	Vch Offset Enable
VCHOFFSET	QUANT	0	Vch Offset (V)
VCHFILTER	IQUANT	1	Vch Filter
IERANGELOWERLIMIT	IQUANT	9	I/E Range Lower Limit
IERANGEMODE	TOGGLE	F	I/E AutoRange
IERANGE	IQUANT	10	I/E Range
ACHSELECT	IQUANT	1	Ach Select
ACHRANGE	IQUANT	2	Ach Range
ACHOFFSETENABLE	TOGGLE	F	Ach Offset Enable
ACHOFFSET	QUANT	0	Ach Offset (V)
ACHFILTER	IQUANT	1	Ach Filter
CABLEID	IQUANT	14	Cable ID
DCCALDATE	LABEL	20-10-2016	DC Calibration Date
ACCALDATE	LABEL	12/3/2015	AC Calibration Date
FRAMEWORKVERSION	QUANT	7.01	Framework Version
INSTRUMENTVERSION	LABEL	4.00	Instrument Version
CURVE	TABLE	54
	Pt	T	Vf	Im	Vu	Pwr	Sig	Ach	Temp	IERange	Over
	#	s	V	A	V	W	V	V	deg C	#	bits
	0	0.013333	6.50175E-001	5.99414E-003	0.00000E+000	3.89724E-003	3.59960E-001	-1.15803E+000	3.57780E+000	10	...........
	1	0.026667	6.59396E-001	5.99564E-003	0.00000E+000	3.95350E-003	3.59960E-001	-1.16177E+000	3.57780E+000	10	...........
	2	0.04	6.67910E-001	5.99344E-003	0.00000E+000	4.00308E-003	3.59960E-001	-1.16777E+000	3.57780E+000	10	...........
	3	0.053333	6.75973E-001	5.99450E-003	0.00000E+000	4.05212E-003	3.59960E-001	-1.15797E+000	3.57780E+000	10	...........
	4	0.066667	6.83707E-001	5.99476E-003	0.00000E+000	4.09866E-003	3.59960E-001	-1.16149E+000	3.57780E+000	10	...........
	5	0.08	6.91316E-001	5.99543E-003	0.00000E+000	4.14474E-003	3.59960E-001	-1.16683E+000	3.57780E+000	10	...........
	6	0.093333	6.98716E-001	5.99136E-003	0.00000E+000	4.18626E-003	3.59960E-001	-1.15750E+000	3.57780E+000	10	...........
	7	0.106667	7.05969E-001	5.99403E-003	0.00000E+000	4.23160E-003	3.59960E-001	-1.16160E+000	3.57780E+000	10	...........
	8	0.12	7.13162E-001	5.99716E-003	0.00000E+000	4.27695E-003	3.59960E-001	-1.16653E+000	3.57780E+000	10	...........
	9	0.133333	7.20341E-001	5.99576E-003	0.00000E+000	4.31899E-003	3.59960E-001	-1.15681E+000	3.57780E+000	10	...........
	10	0.146667	7.27356E-001	5.99676E-003	0.00000E+000	4.36178E-003	3.59960E-001	-1.16070E+000	3.57780E+000	10	...........
	11	0.16	7.34346E-001	5.99402E-003	0.00000E+000	4.40168E-003	3.59960E-001	-1.16643E+000	3.57780E+000	10	...........
	12	0.173333	7.41306E-001	5.99610E-003	0.00000E+000	4.44494E-003	3.59960E-001	-1.15704E+000	3.57780E+000	10	...........
	13	0.186667	7.48217E-001	5.99411E-003	0.00000E+000	4.48490E-003	3.59960E-001	-1.16088E+000	3.57780E+000	10	...........
	14	0.2	7.55071E-001	5.99440E-003	0.00000E+000	4.52619E-003	3.59960E-001	-1.16604E+000	3.57780E+000	10	...........
	15	0.213333	7.61937E-001	5.99243E-003	0.00000E+000	4.56585E-003	3.59960E-001	-1.15667E+000	3.57780E+000	10	...........
	16	0.226667	7.68717E-001	5.99330E-003	0.00000E+000	4.60715E-003	3.59960E-001	-1.16081E+000	3.57780E+000	10	...........
	17	0.24	7.75517E-001	5.99406E-003	0.00000E+000	4.64850E-003	3.59960E-001	-1.16614E+000	3.57780E+000	10	...........
	18	0.253333	7.82270E-001	5.99757E-003	0.00000E+000	4.69172E-003	3.59960E-001	-1.15700E+000	3.57780E+000	10	...........
	19	0.266667	7.88980E-001	5.99193E-003	0.00000E+000	4.72751E-003	3.59960E-001	-1.16086E+000	3.57780E+000	10	...........
	20	0.28	7.95728E-001	5.99152E-003	0.00000E+000	4.76762E-003	3.59960E-001	-1.16575E+000	3.57780E+000	10	...........
	21	0.293333	8.02431E-001	5.99107E-003	0.00000E+000	4.80742E-003	3.59960E-001	-1.15678E+000	3.57780E+000	10	...........
	22	0.306667	8.09076E-001	5.99252E-003	0.00000E+000	4.84840E-003	3.59960E-001	-1.16130E+000	3.57780E+000	10	...........
	23	0.32	8.15681E-001	5.99683E-003	0.00000E+000	4.89150E-003	3.59960E-001	-1.16595E+000	3.57780E+000	10	...........
	24	0.333333	8.22331E-001	5.99210E-003	0.00000E+000	4.92749E-003	3.59960E-001	-1.15678E+000	3.57780E+000	10	...........
	25	0.346667	8.28929E-001	5.99708E-003	0.00000E+000	4.97115E-003	3.59960E-001	-1.16132E+000	3.57780E+000	10	...........
	26	0.36	8.35502E-001	5.99853E-003	0.00000E+000	5.01178E-003	3.59960E-001	-1.16619E+000	3.57780E+000	10	...........
	27	0.373333	8.42037E-001	5.99792E-003	0.00000E+000	5.05047E-003	3.59960E-001	-1.15729E+000	3.57780E+000	10	...........
	28	0.386667	8.48558E-001	5.99085E-003	0.00000E+000	5.08358E-003	3.59960E-001	-1.16155E+000	3.57780E+000	10	...........
	29	0.4	8.55064E-001	5.99049E-003	0.00000E+000	5.12225E-003	3.59960E-001	-1.16583E+000	3.57780E+000	10	...........
	30	0.413333	8.61545E-001	5.99266E-003	0.00000E+000	5.16295E-003	3.59960E-001	-1.15690E+000	3.57780E+000	10	...........
	31	0.426667	8.67936E-001	5.98967E-003	0.00000E+000	5.19865E-003	3.59960E-001	-1.16158E+000	3.57780E+000	10	...........
	32	0.44	8.74351E-001	5.99617E-003	0.00000E+000	5.24276E-003	3.59960E-001	-1.16560E+000	3.57780E+000	10	...........
	33	0.453333	8.80726E-001	5.99311E-003	0.00000E+000	5.27829E-003	3.59960E-001	-1.15662E+000	3.57780E+000	10	...........
	34	0.466667	8.87086E-001	5.99501E-003	0.00000E+000	5.31809E-003	3.59960E-001	-1.16123E+000	3.57780E+000	10	...........
	35	0.48	8.93398E-001	5.98967E-003	0.00000E+000	5.35116E-003	3.59960E-001	-1.16552E+000	3.57780E+000	10	...........
	36	0.493333	8.99703E-001	5.98768E-003	0.00000E+000	5.38713E-003	3.59960E-001	-1.15689E+000	3.57780E+000	10	...........
	37	0.506667	9.05953E-001	5.99787E-003	0.00000E+000	5.43379E-003	3.59960E-001	-1.16174E+000	3.57780E+000	10	...........
	38	0.52	9.12160E-001	5.99183E-003	0.00000E+000	5.46551E-003	3.59960E-001	-1.16550E+000	3.57780E+000	10	...........
	39	0.533333	9.18331E-001	5.99901E-003	0.00000E+000	5.50908E-003	3.59960E-001	-1.15660E+000	3.57780E+000	10	...........
	40	0.546667	9.24512E-001	5.99251E-003	0.00000E+000	5.54015E-003	3.59960E-001	-1.16143E+000	3.57780E+000	10	...........
	41	0.56	9.30607E-001	5.99611E-003	0.00000E+000	5.58002E-003	3.59960E-001	-1.16565E+000	3.57780E+000	10	...........
	42	0.573333	9.36662E-001	5.99345E-003	0.00000E+000	5.61383E-003	3.59960E-001	-1.15689E+000	3.57780E+000	10	...........
	43	0.586667	9.42667E-001	5.99177E-003	0.00000E+000	5.64824E-003	3.59960E-001	-1.16150E+000	3.57720E+000	10	...........
	44	0.6	9.48636E-001	5.99023E-003	0.00000E+000	5.68255E-003	3.59960E-001	-1.16516E+000	3.57700E+000	10	...........
	45	0.613333	9.54540E-001	5.99787E-003	0.00000E+000	5.72520E-003	3.59960E-001	-1.15646E+000	3.57700E+000	10	...........
	46	0.626667	9.60372E-001	5.99131E-003	0.00000E+000	5.75388E-003	3.59960E-001	-1.16196E+000	3.57700E+000	10	...........
	47	0.64	9.66210E-001	5.99231E-003	0.00000E+000	5.78983E-003	3.59960E-001	-1.16559E+000	3.57700E+000	10	...........
	48	0.653333	9.71977E-001	5.99181E-003	0.00000E+000	5.82390E-003	3.59960E-001	-1.15702E+000	3.57700E+000	10	...........
	49	0.666667	9.77739E-001	5.99668E-003	0.00000E+000	5.86319E-003	3.59960E-001	-1.16193E+000	3.57700E+000	10	...........
	50	0.68	9.83388E-001	5.99208E-003	0.00000E+000	5.89254E-003	3.59960E-001	-1.16581E+000	3.57700E+000	10	...........
	51	0.693333	9.89002E-001	5.99018E-003	0.00000E+000	5.92430E-003	3.59960E-001	-1.15718E+000	3.57700E+000	10	...........
	52	0.706667	9.94574E-001	5.99767E-003	0.00000E+000	5.96513E-003	3.59960E-001	-1.16226E+000	3.57700E+000	10	...........
	53	0.715	9.99086E-001	5.99568E-003	0.00000E+000	5.99020E-003	3.59960E-001	-1.16274E+000	3.57700E+000	10	...........
STARTTIMEOFFSET	QUANT	1356.967	Start Time Offset (s)