File: Data/CV_CRGO300517_1/PWRCCD_CRGO300517_1/CHARGE_DISCHARGE/CHARGE_#995.DTA
EXPLAIN
TAG	PWR800_CHARGE
TITLE	LABEL	PWR Cyclic Charge Discharge (Cell) - Charge Step	Test &Identifier
DATE	LABEL	22-6-2017	Date
TIME	LABEL	16:14:27	Time
NOTES	NOTES	3	&Notes...
	supercap test cell
	0.6mg
	6M KOH
PSTAT	PSTAT	IFC5000-01520	Potentiostat
CAPACITY	QUANT	1.00000E-003	Capacity (A-hr)
CELLTYPE	SELECTOR	1	&Cell Type
WORKINGCONNECTION	SELECTOR	0	&Working Lead
MAXCHARGETIME	VARIABLEANDUNITS	1.00000E+002	s	1.00000E+002	second(s)	Max &Charge Time
CHARGECURRENT	QUANT	6.00000E-003	&Charge Current (A)
VOLTAGEFINISH	TWOPARAM	F	1.00000E-003	3.60000E+003	&Voltage Finish	 I (A) < 	Max Time(s)
SAMPLETIME	QUANT	1.00000E-002	Sa&mple Period (s)
CHARGESTOPAT1	MULTIPARAM	4	1.00000E+000	Charge Stop At &1	Voltage > Limit	V
CHARGESTOPAT2	MULTIPARAM	0	0.00000E+000	Charge Stop At &2	None	N/A
AESBHCSELECTOR	TOGGLE	F	Save Both Half Cells
IRCOMP	TOGGLE	F	IR &Measure
EOC	QUANT	0	Open Circuit (V)
SEQUENCER	TOGGLE	TRUE	Run as Sequence
PSTATMODEL	IQUANT	53	Pstat Model
PSTATSECTION	LABEL	IFC5000-01520	Pstat Section
PSTATSERIALNO	LABEL	01520	Pstat Serial Number
CTRLMODE	IQUANT	0	Control Mode
ELECTROMETER	IQUANT	1	RE=0 or CS=1
IESTAB	IQUANT	0	I/E Stability
CASPEED	IQUANT	4	Control Amp Speed
CONVENTION	IQUANT	1	Current Convention
ICHRANGE	IQUANT	2	Ich Range
ICHRANGEMODE	TOGGLE	T	Ich Auto Range
ICHOFFSETENABLE	TOGGLE	F	Ich Offset Enable
ICHOFFSET	QUANT	0	Ich Offset (V)
ICHFILTER	IQUANT	1	Ich Filter
VCHRANGE	IQUANT	2	Vch Range
VCHRANGEMODE	TOGGLE	T	Vch Auto Range
VCHOFFSETENABLE	TOGGLE	F	Vch Offset Enable
VCHOFFSET	QUANT	0	Vch Offset (V)
VCHFILTER	IQUANT	1	Vch Filter
IERANGELOWERLIMIT	IQUANT	9	I/E Range Lower Limit
IERANGEMODE	TOGGLE	F	I/E AutoRange
IERANGE	IQUANT	10	I/E Range
ACHSELECT	IQUANT	1	Ach Select
ACHRANGE	IQUANT	2	Ach Range
ACHOFFSETENABLE	TOGGLE	F	Ach Offset Enable
ACHOFFSET	QUANT	0	Ach Offset (V)
ACHFILTER	IQUANT	1	Ach Filter
CABLEID	IQUANT	14	Cable ID
DCCALDATE	LABEL	20-10-2016	DC Calibration Date
ACCALDATE	LABEL	12/3/2015	AC Calibration Date
FRAMEWORKVERSION	QUANT	7.01	Framework Version
INSTRUMENTVERSION	LABEL	4.00	Instrument Version
CURVE	TABLE	52
	Pt	T	Vf	Im	Vu	Pwr	Sig	Ach	Temp	IERange	Over
	#	s	V	A	V	W	V	V	deg C	#	bits
	0	0.013333	6.56846E-001	5.99080E-003	0.00000E+000	3.93503E-003	3.59960E-001	-1.18310E+000	3.57780E+000	10	...........
	1	0.026667	6.66229E-001	5.99283E-003	0.00000E+000	3.99260E-003	3.59960E-001	-1.17996E+000	3.57780E+000	10	...........
	2	0.04	6.74838E-001	5.99205E-003	0.00000E+000	4.04366E-003	3.59960E-001	-1.17441E+000	3.57780E+000	10	...........
	3	0.053333	6.83023E-001	5.98992E-003	0.00000E+000	4.09125E-003	3.59960E-001	-1.18320E+000	3.57780E+000	10	...........
	4	0.066667	6.90886E-001	5.99304E-003	0.00000E+000	4.14051E-003	3.59960E-001	-1.17943E+000	3.57780E+000	10	...........
	5	0.08	6.98544E-001	5.99078E-003	0.00000E+000	4.18482E-003	3.59960E-001	-1.17399E+000	3.57780E+000	10	...........
	6	0.093333	7.06034E-001	5.99332E-003	0.00000E+000	4.23149E-003	3.59960E-001	-1.18313E+000	3.57780E+000	10	...........
	7	0.106667	7.13412E-001	5.99340E-003	0.00000E+000	4.27576E-003	3.59960E-001	-1.17923E+000	3.57780E+000	10	...........
	8	0.12	7.20765E-001	5.99441E-003	0.00000E+000	4.32056E-003	3.59960E-001	-1.17372E+000	3.57780E+000	10	...........
	9	0.133333	7.27950E-001	5.99168E-003	0.00000E+000	4.36164E-003	3.59960E-001	-1.18279E+000	3.57780E+000	10	...........
	10	0.146667	7.35116E-001	5.99607E-003	0.00000E+000	4.40780E-003	3.59960E-001	-1.17907E+000	3.57780E+000	10	...........
	11	0.16	7.42230E-001	5.99421E-003	0.00000E+000	4.44908E-003	3.59960E-001	-1.17356E+000	3.57780E+000	10	...........
	12	0.173333	7.49276E-001	5.99498E-003	0.00000E+000	4.49190E-003	3.59960E-001	-1.18297E+000	3.57780E+000	10	...........
	13	0.186667	7.56274E-001	5.99150E-003	0.00000E+000	4.53121E-003	3.59960E-001	-1.17891E+000	3.57780E+000	10	...........
	14	0.2	7.63236E-001	5.99805E-003	0.00000E+000	4.57793E-003	3.59960E-001	-1.17367E+000	3.57780E+000	10	...........
	15	0.213333	7.70150E-001	5.99319E-003	0.00000E+000	4.61565E-003	3.59960E-001	-1.18291E+000	3.57780E+000	10	...........
	16	0.226667	7.77023E-001	5.98936E-003	0.00000E+000	4.65387E-003	3.59960E-001	-1.17861E+000	3.57780E+000	10	...........
	17	0.24	7.83912E-001	5.99032E-003	0.00000E+000	4.69588E-003	3.59960E-001	-1.17350E+000	3.57780E+000	10	...........
	18	0.253333	7.90765E-001	5.98969E-003	0.00000E+000	4.73644E-003	3.59960E-001	-1.18295E+000	3.57780E+000	10	...........
	19	0.266667	7.97612E-001	5.99588E-003	0.00000E+000	4.78238E-003	3.59960E-001	-1.17826E+000	3.57780E+000	10	...........
	20	0.28	8.04334E-001	5.99115E-003	0.00000E+000	4.81889E-003	3.59960E-001	-1.17309E+000	3.57780E+000	10	...........
	21	0.293333	8.11050E-001	5.99978E-003	0.00000E+000	4.86612E-003	3.59960E-001	-1.18291E+000	3.57780E+000	10	...........
	22	0.306667	8.17780E-001	5.99343E-003	0.00000E+000	4.90131E-003	3.59960E-001	-1.17835E+000	3.57780E+000	10	...........
	23	0.32	8.24468E-001	5.99492E-003	0.00000E+000	4.94262E-003	3.59960E-001	-1.17330E+000	3.57780E+000	10	...........
	24	0.333333	8.31143E-001	5.99063E-003	0.00000E+000	4.97907E-003	3.59960E-001	-1.18297E+000	3.57780E+000	10	...........
	25	0.346667	8.37752E-001	5.99012E-003	0.00000E+000	5.01823E-003	3.59960E-001	-1.17812E+000	3.57780E+000	10	...........
	26	0.36	8.44421E-001	5.99605E-003	0.00000E+000	5.06320E-003	3.59960E-001	-1.17317E+000	3.57780E+000	10	...........
	27	0.373333	8.50996E-001	5.99965E-003	0.00000E+000	5.10568E-003	3.59960E-001	-1.18307E+000	3.57780E+000	10	...........
	28	0.386667	8.57554E-001	5.99263E-003	0.00000E+000	5.13901E-003	3.59960E-001	-1.17792E+000	3.57780E+000	10	...........
	29	0.4	8.64102E-001	5.99495E-003	0.00000E+000	5.18025E-003	3.59960E-001	-1.17305E+000	3.57780E+000	10	...........
	30	0.413333	8.70612E-001	5.99423E-003	0.00000E+000	5.21865E-003	3.59960E-001	-1.18287E+000	3.57780E+000	10	...........
	31	0.426667	8.77067E-001	5.99258E-003	0.00000E+000	5.25590E-003	3.59960E-001	-1.17745E+000	3.57780E+000	10	...........
	32	0.44	8.83540E-001	5.99363E-003	0.00000E+000	5.29561E-003	3.59960E-001	-1.17279E+000	3.57780E+000	10	...........
	33	0.453333	8.89927E-001	5.99878E-003	0.00000E+000	5.33847E-003	3.59960E-001	-1.18289E+000	3.57780E+000	10	...........
	34	0.466667	8.96298E-001	5.99633E-003	0.00000E+000	5.37450E-003	3.59960E-001	-1.17729E+000	3.57780E+000	10	...........
	35	0.48	9.02615E-001	5.99673E-003	0.00000E+000	5.41274E-003	3.59960E-001	-1.17252E+000	3.57780E+000	10	...........
	36	0.493333	9.08914E-001	5.99231E-003	0.00000E+000	5.44650E-003	3.59960E-001	-1.18277E+000	3.57780E+000	10	...........
	37	0.506667	9.15158E-001	5.99698E-003	0.00000E+000	5.48818E-003	3.59960E-001	-1.17717E+000	3.57780E+000	10	...........
	38	0.52	9.21404E-001	5.99418E-003	0.00000E+000	5.52306E-003	3.59960E-001	-1.17267E+000	3.57780E+000	10	...........
	39	0.533333	9.27617E-001	5.99172E-003	0.00000E+000	5.55802E-003	3.59960E-001	-1.18257E+000	3.57780E+000	10	...........
	40	0.546667	9.33709E-001	5.99035E-003	0.00000E+000	5.59325E-003	3.59960E-001	-1.17679E+000	3.57780E+000	10	...........
	41	0.56	9.39748E-001	5.99434E-003	0.00000E+000	5.63317E-003	3.59960E-001	-1.17246E+000	3.57780E+000	10	...........
	42	0.573333	9.45819E-001	5.99371E-003	0.00000E+000	5.66896E-003	3.59960E-001	-1.18278E+000	3.57780E+000	10	...........
	43	0.586667	9.51812E-001	5.99500E-003	0.00000E+000	5.70612E-003	3.59960E-001	-1.17697E+000	3.57780E+000	10	...........
	44	0.6	9.57746E-001	5.99446E-003	0.00000E+000	5.74117E-003	3.59960E-001	-1.17257E+000	3.57780E+000	10	...........
	45	0.613333	9.63601E-001	5.99221E-003	0.00000E+000	5.77409E-003	3.59960E-001	-1.18262E+000	3.57780E+000	10	...........
	46	0.626667	9.69419E-001	5.99237E-003	0.00000E+000	5.80912E-003	3.59960E-001	-1.17676E+000	3.57780E+000	10	...........
	47	0.64	9.75259E-001	5.99129E-003	0.00000E+000	5.84305E-003	3.59960E-001	-1.17283E+000	3.57780E+000	10	...........
	48	0.653333	9.80927E-001	5.99573E-003	0.00000E+000	5.88137E-003	3.59960E-001	-1.18321E+000	3.57780E+000	10	...........
	49	0.666667	9.86602E-001	5.99405E-003	0.00000E+000	5.91374E-003	3.59960E-001	-1.17682E+000	3.57860E+000	10	...........
	50	0.68	9.92191E-001	5.99195E-003	0.00000E+000	5.94515E-003	3.59960E-001	-1.17274E+000	3.57860E+000	10	...........
	51	0.693333	9.97798E-001	5.99360E-003	0.00000E+000	5.98041E-003	3.59960E-001	-1.18326E+000	3.57860E+000	10	...........
STARTTIMEOFFSET	QUANT	1578.359	Start Time Offset (s)