File: Data/CV_CRGO300517_1/PWRCCD_CRGO300517_1/CHARGE_DISCHARGE/CHARGE_#673.DTA
EXPLAIN
TAG	PWR800_CHARGE
TITLE	LABEL	PWR Cyclic Charge Discharge (Cell) - Charge Step	Test &Identifier
DATE	LABEL	22-6-2017	Date
TIME	LABEL	16:02:32	Time
NOTES	NOTES	3	&Notes...
	supercap test cell
	0.6mg
	6M KOH
PSTAT	PSTAT	IFC5000-01520	Potentiostat
CAPACITY	QUANT	1.00000E-003	Capacity (A-hr)
CELLTYPE	SELECTOR	1	&Cell Type
WORKINGCONNECTION	SELECTOR	0	&Working Lead
MAXCHARGETIME	VARIABLEANDUNITS	1.00000E+002	s	1.00000E+002	second(s)	Max &Charge Time
CHARGECURRENT	QUANT	6.00000E-003	&Charge Current (A)
VOLTAGEFINISH	TWOPARAM	F	1.00000E-003	3.60000E+003	&Voltage Finish	 I (A) < 	Max Time(s)
SAMPLETIME	QUANT	1.00000E-002	Sa&mple Period (s)
CHARGESTOPAT1	MULTIPARAM	4	1.00000E+000	Charge Stop At &1	Voltage > Limit	V
CHARGESTOPAT2	MULTIPARAM	0	0.00000E+000	Charge Stop At &2	None	N/A
AESBHCSELECTOR	TOGGLE	F	Save Both Half Cells
IRCOMP	TOGGLE	F	IR &Measure
EOC	QUANT	0	Open Circuit (V)
SEQUENCER	TOGGLE	TRUE	Run as Sequence
PSTATMODEL	IQUANT	53	Pstat Model
PSTATSECTION	LABEL	IFC5000-01520	Pstat Section
PSTATSERIALNO	LABEL	01520	Pstat Serial Number
CTRLMODE	IQUANT	0	Control Mode
ELECTROMETER	IQUANT	1	RE=0 or CS=1
IESTAB	IQUANT	0	I/E Stability
CASPEED	IQUANT	4	Control Amp Speed
CONVENTION	IQUANT	1	Current Convention
ICHRANGE	IQUANT	2	Ich Range
ICHRANGEMODE	TOGGLE	T	Ich Auto Range
ICHOFFSETENABLE	TOGGLE	F	Ich Offset Enable
ICHOFFSET	QUANT	0	Ich Offset (V)
ICHFILTER	IQUANT	1	Ich Filter
VCHRANGE	IQUANT	2	Vch Range
VCHRANGEMODE	TOGGLE	T	Vch Auto Range
VCHOFFSETENABLE	TOGGLE	F	Vch Offset Enable
VCHOFFSET	QUANT	0	Vch Offset (V)
VCHFILTER	IQUANT	1	Vch Filter
IERANGELOWERLIMIT	IQUANT	9	I/E Range Lower Limit
IERANGEMODE	TOGGLE	F	I/E AutoRange
IERANGE	IQUANT	10	I/E Range
ACHSELECT	IQUANT	1	Ach Select
ACHRANGE	IQUANT	2	Ach Range
ACHOFFSETENABLE	TOGGLE	F	Ach Offset Enable
ACHOFFSET	QUANT	0	Ach Offset (V)
ACHFILTER	IQUANT	1	Ach Filter
CABLEID	IQUANT	14	Cable ID
DCCALDATE	LABEL	20-10-2016	DC Calibration Date
ACCALDATE	LABEL	12/3/2015	AC Calibration Date
FRAMEWORKVERSION	QUANT	7.01	Framework Version
INSTRUMENTVERSION	LABEL	4.00	Instrument Version
CURVE	TABLE	56
	Pt	T	Vf	Im	Vu	Pwr	Sig	Ach	Temp	IERange	Over
	#	s	V	A	V	W	V	V	deg C	#	bits
	0	0.013333	6.41615E-001	5.98879E-003	0.00000E+000	3.84250E-003	3.59960E-001	-1.16081E+000	3.57800E+000	10	...........
	1	0.026667	6.50647E-001	5.99612E-003	0.00000E+000	3.90136E-003	3.59960E-001	-1.15175E+000	3.57800E+000	10	...........
	2	0.04	6.59003E-001	5.99237E-003	0.00000E+000	3.94899E-003	3.59960E-001	-1.15584E+000	3.57800E+000	10	...........
	3	0.053333	6.66922E-001	5.99518E-003	0.00000E+000	3.99832E-003	3.59960E-001	-1.16082E+000	3.57800E+000	10	...........
	4	0.066667	6.74515E-001	5.99201E-003	0.00000E+000	4.04170E-003	3.59960E-001	-1.15146E+000	3.57800E+000	10	...........
	5	0.08	6.81980E-001	5.99421E-003	0.00000E+000	4.08793E-003	3.59960E-001	-1.15564E+000	3.57800E+000	10	...........
	6	0.093333	6.89248E-001	5.99569E-003	0.00000E+000	4.13252E-003	3.59960E-001	-1.16081E+000	3.57800E+000	10	...........
	7	0.106667	6.96401E-001	5.99360E-003	0.00000E+000	4.17395E-003	3.59960E-001	-1.15148E+000	3.57800E+000	10	...........
	8	0.12	7.03456E-001	5.99842E-003	0.00000E+000	4.21962E-003	3.59960E-001	-1.15573E+000	3.57800E+000	10	...........
	9	0.133333	7.10449E-001	5.99451E-003	0.00000E+000	4.25880E-003	3.59960E-001	-1.16068E+000	3.57800E+000	10	...........
	10	0.146667	7.17412E-001	5.99667E-003	0.00000E+000	4.30208E-003	3.59960E-001	-1.15149E+000	3.57800E+000	10	...........
	11	0.16	7.24266E-001	5.99210E-003	0.00000E+000	4.33987E-003	3.59960E-001	-1.15593E+000	3.57800E+000	10	...........
	12	0.173333	7.31110E-001	5.99128E-003	0.00000E+000	4.38028E-003	3.59960E-001	-1.16051E+000	3.57800E+000	10	...........
	13	0.186667	7.37887E-001	5.99351E-003	0.00000E+000	4.42253E-003	3.59960E-001	-1.15157E+000	3.57800E+000	10	...........
	14	0.2	7.44737E-001	5.99317E-003	0.00000E+000	4.46333E-003	3.59960E-001	-1.15566E+000	3.57800E+000	10	...........
	15	0.213333	7.51463E-001	5.99657E-003	0.00000E+000	4.50620E-003	3.59960E-001	-1.16053E+000	3.57800E+000	10	...........
	16	0.226667	7.58135E-001	5.99248E-003	0.00000E+000	4.54310E-003	3.59960E-001	-1.15142E+000	3.57800E+000	10	...........
	17	0.24	7.64821E-001	5.99081E-003	0.00000E+000	4.58189E-003	3.59960E-001	-1.15548E+000	3.57800E+000	10	...........
	18	0.253333	7.71474E-001	5.99254E-003	0.00000E+000	4.62309E-003	3.59960E-001	-1.16010E+000	3.57800E+000	10	...........
	19	0.266667	7.78149E-001	5.99013E-003	0.00000E+000	4.66122E-003	3.59960E-001	-1.15089E+000	3.57800E+000	10	...........
	20	0.28	7.84739E-001	5.99552E-003	0.00000E+000	4.70492E-003	3.59960E-001	-1.15539E+000	3.57800E+000	10	...........
	21	0.293333	7.91317E-001	5.99410E-003	0.00000E+000	4.74324E-003	3.59960E-001	-1.16013E+000	3.57800E+000	10	...........
	22	0.306667	7.97947E-001	5.99354E-003	0.00000E+000	4.78253E-003	3.59960E-001	-1.15089E+000	3.57800E+000	10	...........
	23	0.32	8.04522E-001	5.99725E-003	0.00000E+000	4.82492E-003	3.59960E-001	-1.15553E+000	3.57800E+000	10	...........
	24	0.333333	8.11062E-001	5.99200E-003	0.00000E+000	4.85988E-003	3.59960E-001	-1.15990E+000	3.57800E+000	10	...........
	25	0.346667	8.17608E-001	5.99393E-003	0.00000E+000	4.90068E-003	3.59960E-001	-1.15068E+000	3.57800E+000	10	...........
	26	0.36	8.24126E-001	5.99526E-003	0.00000E+000	4.94085E-003	3.59960E-001	-1.15548E+000	3.57800E+000	10	...........
	27	0.373333	8.30606E-001	5.99432E-003	0.00000E+000	4.97892E-003	3.59960E-001	-1.15971E+000	3.57800E+000	10	...........
	28	0.386667	8.37085E-001	5.99301E-003	0.00000E+000	5.01666E-003	3.59960E-001	-1.15088E+000	3.57800E+000	10	...........
	29	0.4	8.43531E-001	5.99435E-003	0.00000E+000	5.05642E-003	3.59960E-001	-1.15548E+000	3.57800E+000	10	...........
	30	0.413333	8.49991E-001	5.99404E-003	0.00000E+000	5.09488E-003	3.59960E-001	-1.15966E+000	3.57800E+000	10	...........
	31	0.426667	8.56367E-001	5.99033E-003	0.00000E+000	5.12992E-003	3.59960E-001	-1.15092E+000	3.57800E+000	10	...........
	32	0.44	8.62754E-001	6.00274E-003	0.00000E+000	5.17889E-003	3.59960E-001	-1.15573E+000	3.57800E+000	10	...........
	33	0.453333	8.69088E-001	5.99351E-003	0.00000E+000	5.20889E-003	3.59960E-001	-1.15983E+000	3.57800E+000	10	...........
	34	0.466667	8.75415E-001	5.99558E-003	0.00000E+000	5.24862E-003	3.59960E-001	-1.15085E+000	3.57800E+000	10	...........
	35	0.48	8.81756E-001	5.99676E-003	0.00000E+000	5.28769E-003	3.59960E-001	-1.15580E+000	3.57800E+000	10	...........
	36	0.493333	8.88003E-001	5.99406E-003	0.00000E+000	5.32274E-003	3.59960E-001	-1.15967E+000	3.57800E+000	10	...........
	37	0.506667	8.94227E-001	5.99613E-003	0.00000E+000	5.36190E-003	3.59960E-001	-1.15098E+000	3.57800E+000	10	...........
	38	0.52	9.00442E-001	5.99219E-003	0.00000E+000	5.39562E-003	3.59960E-001	-1.15561E+000	3.57783E+000	10	...........
	39	0.533333	9.06621E-001	5.99495E-003	0.00000E+000	5.43514E-003	3.59960E-001	-1.15937E+000	3.57780E+000	10	...........
	40	0.546667	9.12762E-001	5.99499E-003	0.00000E+000	5.47200E-003	3.59960E-001	-1.15063E+000	3.57780E+000	10	...........
	41	0.56	9.18878E-001	5.99567E-003	0.00000E+000	5.50929E-003	3.59960E-001	-1.15563E+000	3.57780E+000	10	...........
	42	0.573333	9.25022E-001	5.99336E-003	0.00000E+000	5.54400E-003	3.59960E-001	-1.15931E+000	3.57780E+000	10	...........
	43	0.586667	9.31040E-001	5.99358E-003	0.00000E+000	5.58026E-003	3.59960E-001	-1.15061E+000	3.57780E+000	10	...........
	44	0.6	9.37039E-001	5.99268E-003	0.00000E+000	5.61537E-003	3.59960E-001	-1.15541E+000	3.57780E+000	10	...........
	45	0.613333	9.42995E-001	5.98894E-003	0.00000E+000	5.64754E-003	3.59960E-001	-1.15902E+000	3.57780E+000	10	...........
	46	0.626667	9.48958E-001	5.99717E-003	0.00000E+000	5.69106E-003	3.59960E-001	-1.15052E+000	3.57780E+000	10	...........
	47	0.64	9.54797E-001	5.99178E-003	0.00000E+000	5.72093E-003	3.59960E-001	-1.15559E+000	3.57780E+000	10	...........
	48	0.653333	9.60573E-001	5.99486E-003	0.00000E+000	5.75850E-003	3.59960E-001	-1.15905E+000	3.57780E+000	10	...........
	49	0.666667	9.66352E-001	5.99433E-003	0.00000E+000	5.79263E-003	3.59960E-001	-1.15036E+000	3.57780E+000	10	...........
	50	0.68	9.72135E-001	5.99274E-003	0.00000E+000	5.82575E-003	3.59960E-001	-1.15545E+000	3.57780E+000	10	...........
	51	0.693333	9.77843E-001	5.99675E-003	0.00000E+000	5.86388E-003	3.59960E-001	-1.15891E+000	3.57780E+000	10	...........
	52	0.706667	9.83492E-001	6.00061E-003	0.00000E+000	5.90155E-003	3.59960E-001	-1.15048E+000	3.57780E+000	10	...........
	53	0.72	9.89057E-001	5.99502E-003	0.00000E+000	5.92942E-003	3.59960E-001	-1.15566E+000	3.57780E+000	10	...........
	54	0.733333	9.94561E-001	5.99662E-003	0.00000E+000	5.96400E-003	3.59960E-001	-1.15880E+000	3.57780E+000	10	...........
	55	0.741667	9.99030E-001	5.99297E-003	0.00000E+000	5.98716E-003	3.59960E-001	-1.14551E+000	3.57780E+000	10	...........
STARTTIMEOFFSET	QUANT	1119.483	Start Time Offset (s)