File: Data/CV_CRGO300517_1/PWRCCD_CRGO300517_1/CHARGE_DISCHARGE/CHARGE_#557.DTA
EXPLAIN
TAG	PWR800_CHARGE
TITLE	LABEL	PWR Cyclic Charge Discharge (Cell) - Charge Step	Test &Identifier
DATE	LABEL	22-6-2017	Date
TIME	LABEL	15:58:07	Time
NOTES	NOTES	3	&Notes...
	supercap test cell
	0.6mg
	6M KOH
PSTAT	PSTAT	IFC5000-01520	Potentiostat
CAPACITY	QUANT	1.00000E-003	Capacity (A-hr)
CELLTYPE	SELECTOR	1	&Cell Type
WORKINGCONNECTION	SELECTOR	0	&Working Lead
MAXCHARGETIME	VARIABLEANDUNITS	1.00000E+002	s	1.00000E+002	second(s)	Max &Charge Time
CHARGECURRENT	QUANT	6.00000E-003	&Charge Current (A)
VOLTAGEFINISH	TWOPARAM	F	1.00000E-003	3.60000E+003	&Voltage Finish	 I (A) < 	Max Time(s)
SAMPLETIME	QUANT	1.00000E-002	Sa&mple Period (s)
CHARGESTOPAT1	MULTIPARAM	4	1.00000E+000	Charge Stop At &1	Voltage > Limit	V
CHARGESTOPAT2	MULTIPARAM	0	0.00000E+000	Charge Stop At &2	None	N/A
AESBHCSELECTOR	TOGGLE	F	Save Both Half Cells
IRCOMP	TOGGLE	F	IR &Measure
EOC	QUANT	0	Open Circuit (V)
SEQUENCER	TOGGLE	TRUE	Run as Sequence
PSTATMODEL	IQUANT	53	Pstat Model
PSTATSECTION	LABEL	IFC5000-01520	Pstat Section
PSTATSERIALNO	LABEL	01520	Pstat Serial Number
CTRLMODE	IQUANT	0	Control Mode
ELECTROMETER	IQUANT	1	RE=0 or CS=1
IESTAB	IQUANT	0	I/E Stability
CASPEED	IQUANT	4	Control Amp Speed
CONVENTION	IQUANT	1	Current Convention
ICHRANGE	IQUANT	2	Ich Range
ICHRANGEMODE	TOGGLE	T	Ich Auto Range
ICHOFFSETENABLE	TOGGLE	F	Ich Offset Enable
ICHOFFSET	QUANT	0	Ich Offset (V)
ICHFILTER	IQUANT	1	Ich Filter
VCHRANGE	IQUANT	2	Vch Range
VCHRANGEMODE	TOGGLE	T	Vch Auto Range
VCHOFFSETENABLE	TOGGLE	F	Vch Offset Enable
VCHOFFSET	QUANT	0	Vch Offset (V)
VCHFILTER	IQUANT	1	Vch Filter
IERANGELOWERLIMIT	IQUANT	9	I/E Range Lower Limit
IERANGEMODE	TOGGLE	F	I/E AutoRange
IERANGE	IQUANT	10	I/E Range
ACHSELECT	IQUANT	1	Ach Select
ACHRANGE	IQUANT	2	Ach Range
ACHOFFSETENABLE	TOGGLE	F	Ach Offset Enable
ACHOFFSET	QUANT	0	Ach Offset (V)
ACHFILTER	IQUANT	1	Ach Filter
CABLEID	IQUANT	14	Cable ID
DCCALDATE	LABEL	20-10-2016	DC Calibration Date
ACCALDATE	LABEL	12/3/2015	AC Calibration Date
FRAMEWORKVERSION	QUANT	7.01	Framework Version
INSTRUMENTVERSION	LABEL	4.00	Instrument Version
CURVE	TABLE	58
	Pt	T	Vf	Im	Vu	Pwr	Sig	Ach	Temp	IERange	Over
	#	s	V	A	V	W	V	V	deg C	#	bits
	0	0.013333	6.35030E-001	5.99537E-003	0.00000E+000	3.80724E-003	3.59960E-001	-1.14605E+000	3.57790E+000	10	...........
	1	0.026667	6.43985E-001	5.99367E-003	0.00000E+000	3.85983E-003	3.59960E-001	-1.13755E+000	3.57790E+000	10	...........
	2	0.04	6.52280E-001	5.99856E-003	0.00000E+000	3.91274E-003	3.59960E-001	-1.14343E+000	3.57790E+000	10	...........
	3	0.053333	6.60067E-001	5.99115E-003	0.00000E+000	3.95456E-003	3.59960E-001	-1.14542E+000	3.57790E+000	10	...........
	4	0.066667	6.67632E-001	5.99314E-003	0.00000E+000	4.00122E-003	3.59960E-001	-1.13726E+000	3.57790E+000	10	...........
	5	0.08	6.74946E-001	5.99468E-003	0.00000E+000	4.04609E-003	3.59960E-001	-1.14343E+000	3.57790E+000	10	...........
	6	0.093333	6.82163E-001	5.98974E-003	0.00000E+000	4.08598E-003	3.59960E-001	-1.14555E+000	3.57790E+000	10	...........
	7	0.106667	6.89273E-001	5.99696E-003	0.00000E+000	4.13354E-003	3.59960E-001	-1.13744E+000	3.57790E+000	10	...........
	8	0.12	6.96229E-001	5.99578E-003	0.00000E+000	4.17444E-003	3.59960E-001	-1.14322E+000	3.57790E+000	10	...........
	9	0.133333	7.03139E-001	5.98954E-003	0.00000E+000	4.21148E-003	3.59960E-001	-1.14542E+000	3.57790E+000	10	...........
	10	0.146667	7.09977E-001	5.99389E-003	0.00000E+000	4.25552E-003	3.59960E-001	-1.13743E+000	3.57790E+000	10	...........
	11	0.16	7.16790E-001	5.99555E-003	0.00000E+000	4.29756E-003	3.59960E-001	-1.14317E+000	3.57790E+000	10	...........
	12	0.173333	7.23547E-001	5.99338E-003	0.00000E+000	4.33649E-003	3.59960E-001	-1.14559E+000	3.57790E+000	10	...........
	13	0.186667	7.30258E-001	5.99525E-003	0.00000E+000	4.37808E-003	3.59960E-001	-1.13726E+000	3.57790E+000	10	...........
	14	0.2	7.36918E-001	5.99865E-003	0.00000E+000	4.42051E-003	3.59960E-001	-1.14300E+000	3.57790E+000	10	...........
	15	0.213333	7.43608E-001	5.99812E-003	0.00000E+000	4.46025E-003	3.59960E-001	-1.14565E+000	3.57790E+000	10	...........
	16	0.226667	7.50224E-001	5.99212E-003	0.00000E+000	4.49543E-003	3.59960E-001	-1.13743E+000	3.57790E+000	10	...........
	17	0.24	7.56863E-001	5.99140E-003	0.00000E+000	4.53467E-003	3.59960E-001	-1.14304E+000	3.57790E+000	10	...........
	18	0.253333	7.63429E-001	5.99352E-003	0.00000E+000	4.57563E-003	3.59960E-001	-1.14573E+000	3.57790E+000	10	...........
	19	0.266667	7.70000E-001	5.99619E-003	0.00000E+000	4.61707E-003	3.59960E-001	-1.13725E+000	3.57790E+000	10	...........
	20	0.28	7.76549E-001	5.98857E-003	0.00000E+000	4.65041E-003	3.59960E-001	-1.14325E+000	3.57790E+000	10	...........
	21	0.293333	7.83085E-001	5.99239E-003	0.00000E+000	4.69255E-003	3.59960E-001	-1.14586E+000	3.57790E+000	10	...........
	22	0.306667	7.89590E-001	5.99382E-003	0.00000E+000	4.73266E-003	3.59960E-001	-1.13736E+000	3.57790E+000	10	...........
	23	0.32	7.96162E-001	5.99621E-003	0.00000E+000	4.77396E-003	3.59960E-001	-1.14296E+000	3.57790E+000	10	...........
	24	0.333333	8.02624E-001	5.99349E-003	0.00000E+000	4.81052E-003	3.59960E-001	-1.14571E+000	3.57790E+000	10	...........
	25	0.346667	8.09091E-001	5.99745E-003	0.00000E+000	4.85248E-003	3.59960E-001	-1.13719E+000	3.57790E+000	10	...........
	26	0.36	8.15540E-001	5.99540E-003	0.00000E+000	4.88948E-003	3.59960E-001	-1.14267E+000	3.57790E+000	10	...........
	27	0.373333	8.21996E-001	5.99838E-003	0.00000E+000	4.93064E-003	3.59960E-001	-1.14555E+000	3.57790E+000	10	...........
	28	0.386667	8.28373E-001	5.99044E-003	0.00000E+000	4.96232E-003	3.59960E-001	-1.13704E+000	3.57790E+000	10	...........
	29	0.4	8.34772E-001	5.99106E-003	0.00000E+000	5.00117E-003	3.59960E-001	-1.14250E+000	3.57790E+000	10	...........
	30	0.413333	8.41138E-001	5.99520E-003	0.00000E+000	5.04279E-003	3.59960E-001	-1.14550E+000	3.57790E+000	10	...........
	31	0.426667	8.47545E-001	6.00024E-003	0.00000E+000	5.08547E-003	3.59960E-001	-1.13732E+000	3.57790E+000	10	...........
	32	0.44	8.53874E-001	5.99455E-003	0.00000E+000	5.11859E-003	3.59960E-001	-1.14254E+000	3.57790E+000	10	...........
	33	0.453333	8.60151E-001	5.99300E-003	0.00000E+000	5.15488E-003	3.59960E-001	-1.14537E+000	3.57790E+000	10	...........
	34	0.466667	8.66456E-001	5.99431E-003	0.00000E+000	5.19381E-003	3.59960E-001	-1.13687E+000	3.57790E+000	10	...........
	35	0.48	8.72777E-001	5.99175E-003	0.00000E+000	5.22946E-003	3.59960E-001	-1.14254E+000	3.57790E+000	10	...........
	36	0.493333	8.79049E-001	5.99340E-003	0.00000E+000	5.26849E-003	3.59960E-001	-1.14561E+000	3.57790E+000	10	...........
	37	0.506667	8.85299E-001	5.99120E-003	0.00000E+000	5.30401E-003	3.59960E-001	-1.13718E+000	3.57790E+000	10	...........
	38	0.52	8.91485E-001	5.99622E-003	0.00000E+000	5.34554E-003	3.59960E-001	-1.14229E+000	3.57790E+000	10	...........
	39	0.533333	8.97659E-001	5.99366E-003	0.00000E+000	5.38026E-003	3.59960E-001	-1.14546E+000	3.57790E+000	10	...........
	40	0.546667	9.03787E-001	5.99333E-003	0.00000E+000	5.41670E-003	3.59960E-001	-1.13723E+000	3.57790E+000	10	...........
	41	0.56	9.09936E-001	5.99519E-003	0.00000E+000	5.45524E-003	3.59960E-001	-1.14250E+000	3.57790E+000	10	...........
	42	0.573333	9.15995E-001	5.99236E-003	0.00000E+000	5.48898E-003	3.59960E-001	-1.14558E+000	3.57790E+000	10	...........
	43	0.586667	9.22091E-001	5.99314E-003	0.00000E+000	5.52623E-003	3.59960E-001	-1.13707E+000	3.57790E+000	10	...........
	44	0.6	9.28142E-001	5.99586E-003	0.00000E+000	5.56501E-003	3.59960E-001	-1.14236E+000	3.57790E+000	10	...........
	45	0.613333	9.34090E-001	5.99368E-003	0.00000E+000	5.59863E-003	3.59960E-001	-1.14573E+000	3.57790E+000	10	...........
	46	0.626667	9.40041E-001	5.99503E-003	0.00000E+000	5.63557E-003	3.59960E-001	-1.13751E+000	3.57790E+000	10	...........
	47	0.64	9.45894E-001	5.99293E-003	0.00000E+000	5.66867E-003	3.59960E-001	-1.14251E+000	3.57790E+000	10	...........
	48	0.653333	9.51769E-001	5.99289E-003	0.00000E+000	5.70385E-003	3.59960E-001	-1.14590E+000	3.57790E+000	10	...........
	49	0.666667	9.57613E-001	5.99837E-003	0.00000E+000	5.74412E-003	3.59960E-001	-1.13683E+000	3.57790E+000	10	...........
	50	0.68	9.63415E-001	5.99634E-003	0.00000E+000	5.77696E-003	3.59960E-001	-1.14187E+000	3.57790E+000	10	...........
	51	0.693333	9.69099E-001	5.99468E-003	0.00000E+000	5.80944E-003	3.59960E-001	-1.14559E+000	3.57790E+000	10	...........
	52	0.706667	9.74851E-001	5.99092E-003	0.00000E+000	5.84026E-003	3.59960E-001	-1.13691E+000	3.57790E+000	10	...........
	53	0.72	9.80475E-001	5.98998E-003	0.00000E+000	5.87303E-003	3.59960E-001	-1.14189E+000	3.57790E+000	10	...........
	54	0.733333	9.86040E-001	5.99286E-003	0.00000E+000	5.90920E-003	3.59960E-001	-1.14531E+000	3.57790E+000	10	...........
	55	0.746667	9.91615E-001	5.99182E-003	0.00000E+000	5.94158E-003	3.59960E-001	-1.13687E+000	3.57790E+000	10	...........
	56	0.76	9.97134E-001	5.99209E-003	0.00000E+000	5.97492E-003	3.59960E-001	-1.14196E+000	3.57790E+000	10	...........
	57	0.761667	1.00021E+000	5.98653E-003	0.00000E+000	5.98781E-003	3.59960E-001	-1.12706E+000	3.57790E+000	10	...........
STARTTIMEOFFSET	QUANT	946.1151	Start Time Offset (s)