File: Data/CV_CRGO300517_1/PWRCCD_CRGO300517_1/CHARGE_DISCHARGE/CHARGE_#817.DTA
EXPLAIN
TAG	PWR800_CHARGE
TITLE	LABEL	PWR Cyclic Charge Discharge (Cell) - Charge Step	Test &Identifier
DATE	LABEL	22-6-2017	Date
TIME	LABEL	16:07:55	Time
NOTES	NOTES	3	&Notes...
	supercap test cell
	0.6mg
	6M KOH
PSTAT	PSTAT	IFC5000-01520	Potentiostat
CAPACITY	QUANT	1.00000E-003	Capacity (A-hr)
CELLTYPE	SELECTOR	1	&Cell Type
WORKINGCONNECTION	SELECTOR	0	&Working Lead
MAXCHARGETIME	VARIABLEANDUNITS	1.00000E+002	s	1.00000E+002	second(s)	Max &Charge Time
CHARGECURRENT	QUANT	6.00000E-003	&Charge Current (A)
VOLTAGEFINISH	TWOPARAM	F	1.00000E-003	3.60000E+003	&Voltage Finish	 I (A) < 	Max Time(s)
SAMPLETIME	QUANT	1.00000E-002	Sa&mple Period (s)
CHARGESTOPAT1	MULTIPARAM	4	1.00000E+000	Charge Stop At &1	Voltage > Limit	V
CHARGESTOPAT2	MULTIPARAM	0	0.00000E+000	Charge Stop At &2	None	N/A
AESBHCSELECTOR	TOGGLE	F	Save Both Half Cells
IRCOMP	TOGGLE	F	IR &Measure
EOC	QUANT	0	Open Circuit (V)
SEQUENCER	TOGGLE	TRUE	Run as Sequence
PSTATMODEL	IQUANT	53	Pstat Model
PSTATSECTION	LABEL	IFC5000-01520	Pstat Section
PSTATSERIALNO	LABEL	01520	Pstat Serial Number
CTRLMODE	IQUANT	0	Control Mode
ELECTROMETER	IQUANT	1	RE=0 or CS=1
IESTAB	IQUANT	0	I/E Stability
CASPEED	IQUANT	4	Control Amp Speed
CONVENTION	IQUANT	1	Current Convention
ICHRANGE	IQUANT	2	Ich Range
ICHRANGEMODE	TOGGLE	T	Ich Auto Range
ICHOFFSETENABLE	TOGGLE	F	Ich Offset Enable
ICHOFFSET	QUANT	0	Ich Offset (V)
ICHFILTER	IQUANT	1	Ich Filter
VCHRANGE	IQUANT	2	Vch Range
VCHRANGEMODE	TOGGLE	T	Vch Auto Range
VCHOFFSETENABLE	TOGGLE	F	Vch Offset Enable
VCHOFFSET	QUANT	0	Vch Offset (V)
VCHFILTER	IQUANT	1	Vch Filter
IERANGELOWERLIMIT	IQUANT	9	I/E Range Lower Limit
IERANGEMODE	TOGGLE	F	I/E AutoRange
IERANGE	IQUANT	10	I/E Range
ACHSELECT	IQUANT	1	Ach Select
ACHRANGE	IQUANT	2	Ach Range
ACHOFFSETENABLE	TOGGLE	F	Ach Offset Enable
ACHOFFSET	QUANT	0	Ach Offset (V)
ACHFILTER	IQUANT	1	Ach Filter
CABLEID	IQUANT	14	Cable ID
DCCALDATE	LABEL	20-10-2016	DC Calibration Date
ACCALDATE	LABEL	12/3/2015	AC Calibration Date
FRAMEWORKVERSION	QUANT	7.01	Framework Version
INSTRUMENTVERSION	LABEL	4.00	Instrument Version
CURVE	TABLE	54
	Pt	T	Vf	Im	Vu	Pwr	Sig	Ach	Temp	IERange	Over
	#	s	V	A	V	W	V	V	deg C	#	bits
	0	0.013333	6.49528E-001	5.99602E-003	0.00000E+000	3.89459E-003	3.59960E-001	-1.16506E+000	3.57660E+000	10	...........
	1	0.026667	6.58762E-001	5.99829E-003	0.00000E+000	3.95144E-003	3.59960E-001	-1.16788E+000	3.57660E+000	10	...........
	2	0.04	6.67218E-001	5.99297E-003	0.00000E+000	3.99862E-003	3.59960E-001	-1.15953E+000	3.57660E+000	10	...........
	3	0.053333	6.75275E-001	5.99625E-003	0.00000E+000	4.04912E-003	3.59960E-001	-1.16478E+000	3.57660E+000	10	...........
	4	0.066667	6.83019E-001	5.99706E-003	0.00000E+000	4.09610E-003	3.59960E-001	-1.16721E+000	3.57660E+000	10	...........
	5	0.08	6.90556E-001	5.99753E-003	0.00000E+000	4.14163E-003	3.59960E-001	-1.15908E+000	3.57660E+000	10	...........
	6	0.093333	6.97942E-001	5.99296E-003	0.00000E+000	4.18274E-003	3.59960E-001	-1.16483E+000	3.57660E+000	10	...........
	7	0.106667	7.05219E-001	5.99192E-003	0.00000E+000	4.22562E-003	3.59960E-001	-1.16717E+000	3.57660E+000	10	...........
	8	0.12	7.12393E-001	5.99539E-003	0.00000E+000	4.27107E-003	3.59960E-001	-1.15881E+000	3.57660E+000	10	...........
	9	0.133333	7.19555E-001	5.99610E-003	0.00000E+000	4.31452E-003	3.59960E-001	-1.16466E+000	3.57660E+000	10	...........
	10	0.146667	7.26582E-001	5.99078E-003	0.00000E+000	4.35279E-003	3.59960E-001	-1.16694E+000	3.57660E+000	10	...........
	11	0.16	7.33557E-001	5.98869E-003	0.00000E+000	4.39304E-003	3.59960E-001	-1.15875E+000	3.57660E+000	10	...........
	12	0.173333	7.40477E-001	5.98969E-003	0.00000E+000	4.43523E-003	3.59960E-001	-1.16466E+000	3.57660E+000	10	...........
	13	0.186667	7.47396E-001	5.99774E-003	0.00000E+000	4.48269E-003	3.59960E-001	-1.16708E+000	3.57660E+000	10	...........
	14	0.2	7.54238E-001	5.99462E-003	0.00000E+000	4.52137E-003	3.59960E-001	-1.15863E+000	3.57660E+000	10	...........
	15	0.213333	7.61099E-001	5.99367E-003	0.00000E+000	4.56178E-003	3.59960E-001	-1.16429E+000	3.57660E+000	10	...........
	16	0.226667	7.67876E-001	6.00092E-003	0.00000E+000	4.60796E-003	3.59960E-001	-1.16678E+000	3.57660E+000	10	...........
	17	0.24	7.74656E-001	5.99565E-003	0.00000E+000	4.64456E-003	3.59960E-001	-1.15827E+000	3.57660E+000	10	...........
	18	0.253333	7.81402E-001	5.99220E-003	0.00000E+000	4.68231E-003	3.59960E-001	-1.16396E+000	3.57660E+000	10	...........
	19	0.266667	7.88104E-001	5.99389E-003	0.00000E+000	4.72381E-003	3.59960E-001	-1.16609E+000	3.57660E+000	10	...........
	20	0.28	7.94827E-001	5.99350E-003	0.00000E+000	4.76379E-003	3.59960E-001	-1.15784E+000	3.57660E+000	10	...........
	21	0.293333	8.01518E-001	5.99706E-003	0.00000E+000	4.80675E-003	3.59960E-001	-1.16410E+000	3.57660E+000	10	...........
	22	0.306667	8.08142E-001	5.99396E-003	0.00000E+000	4.84397E-003	3.59960E-001	-1.16644E+000	3.57660E+000	10	...........
	23	0.32	8.14773E-001	5.99344E-003	0.00000E+000	4.88329E-003	3.59960E-001	-1.15822E+000	3.57660E+000	10	...........
	24	0.333333	8.21424E-001	5.99676E-003	0.00000E+000	4.92589E-003	3.59960E-001	-1.16356E+000	3.57660E+000	10	...........
	25	0.346667	8.27967E-001	5.99484E-003	0.00000E+000	4.96353E-003	3.59960E-001	-1.16579E+000	3.57660E+000	10	...........
	26	0.36	8.34587E-001	5.99388E-003	0.00000E+000	5.00242E-003	3.59960E-001	-1.15780E+000	3.57660E+000	10	...........
	27	0.373333	8.41113E-001	5.99350E-003	0.00000E+000	5.04121E-003	3.59960E-001	-1.16390E+000	3.57660E+000	10	...........
	28	0.386667	8.47653E-001	5.99675E-003	0.00000E+000	5.08316E-003	3.59960E-001	-1.16582E+000	3.57660E+000	10	...........
	29	0.4	8.54119E-001	5.99328E-003	0.00000E+000	5.11897E-003	3.59960E-001	-1.15735E+000	3.57660E+000	10	...........
	30	0.413333	8.60564E-001	5.99247E-003	0.00000E+000	5.15690E-003	3.59960E-001	-1.16315E+000	3.57660E+000	10	...........
	31	0.426667	8.67002E-001	5.99408E-003	0.00000E+000	5.19688E-003	3.59960E-001	-1.16557E+000	3.57660E+000	10	...........
	32	0.44	8.73415E-001	5.99257E-003	0.00000E+000	5.23400E-003	3.59960E-001	-1.15758E+000	3.57660E+000	10	...........
	33	0.453333	8.79822E-001	5.99676E-003	0.00000E+000	5.27609E-003	3.59960E-001	-1.16343E+000	3.57660E+000	10	...........
	34	0.466667	8.86196E-001	5.99422E-003	0.00000E+000	5.31205E-003	3.59960E-001	-1.16538E+000	3.57660E+000	10	...........
	35	0.48	8.92500E-001	5.99340E-003	0.00000E+000	5.34911E-003	3.59960E-001	-1.15719E+000	3.57660E+000	10	...........
	36	0.493333	8.98765E-001	5.99193E-003	0.00000E+000	5.38534E-003	3.59960E-001	-1.16328E+000	3.57660E+000	10	...........
	37	0.506667	9.05020E-001	5.99225E-003	0.00000E+000	5.42310E-003	3.59960E-001	-1.16568E+000	3.57660E+000	10	...........
	38	0.52	9.11265E-001	5.99568E-003	0.00000E+000	5.46365E-003	3.59960E-001	-1.15717E+000	3.57660E+000	10	...........
	39	0.533333	9.17422E-001	5.99788E-003	0.00000E+000	5.50259E-003	3.59960E-001	-1.16326E+000	3.57660E+000	10	...........
	40	0.546667	9.23603E-001	5.99180E-003	0.00000E+000	5.53405E-003	3.59960E-001	-1.16500E+000	3.57660E+000	10	...........
	41	0.56	9.29697E-001	6.00103E-003	0.00000E+000	5.57914E-003	3.59960E-001	-1.15682E+000	3.57660E+000	10	...........
	42	0.573333	9.35719E-001	5.98904E-003	0.00000E+000	5.60405E-003	3.59960E-001	-1.16287E+000	3.57660E+000	10	...........
	43	0.586667	9.41731E-001	5.99615E-003	0.00000E+000	5.64676E-003	3.59960E-001	-1.16485E+000	3.57660E+000	10	...........
	44	0.6	9.47718E-001	5.99219E-003	0.00000E+000	5.67890E-003	3.59960E-001	-1.15654E+000	3.57660E+000	10	...........
	45	0.613333	9.53632E-001	5.99531E-003	0.00000E+000	5.71732E-003	3.59960E-001	-1.16223E+000	3.57660E+000	10	...........
	46	0.626667	9.59470E-001	5.99439E-003	0.00000E+000	5.75143E-003	3.59960E-001	-1.16443E+000	3.57660E+000	10	...........
	47	0.64	9.65305E-001	5.99396E-003	0.00000E+000	5.78600E-003	3.59960E-001	-1.15672E+000	3.57660E+000	10	...........
	48	0.653333	9.71113E-001	5.99617E-003	0.00000E+000	5.82296E-003	3.59960E-001	-1.16253E+000	3.57660E+000	10	...........
	49	0.666667	9.76854E-001	5.99093E-003	0.00000E+000	5.85227E-003	3.59960E-001	-1.16429E+000	3.57660E+000	10	...........
	50	0.68	9.82521E-001	5.99500E-003	0.00000E+000	5.89022E-003	3.59960E-001	-1.15618E+000	3.57660E+000	10	...........
	51	0.693333	9.88136E-001	5.99337E-003	0.00000E+000	5.92227E-003	3.59960E-001	-1.16244E+000	3.57660E+000	10	...........
	52	0.706667	9.93678E-001	5.98724E-003	0.00000E+000	5.94939E-003	3.59960E-001	-1.16435E+000	3.57660E+000	10	...........
	53	0.716667	9.98542E-001	5.98824E-003	0.00000E+000	5.97951E-003	3.59960E-001	-1.15256E+000	3.57660E+000	10	...........
STARTTIMEOFFSET	QUANT	1328.456	Start Time Offset (s)