File: Data/CV_CRGO300517_1/PWRCCD_CRGO300517_1/CHARGE_DISCHARGE/CHARGE_#771.DTA
EXPLAIN
TAG	PWR800_CHARGE
TITLE	LABEL	PWR Cyclic Charge Discharge (Cell) - Charge Step	Test &Identifier
DATE	LABEL	22-6-2017	Date
TIME	LABEL	16:06:12	Time
NOTES	NOTES	3	&Notes...
	supercap test cell
	0.6mg
	6M KOH
PSTAT	PSTAT	IFC5000-01520	Potentiostat
CAPACITY	QUANT	1.00000E-003	Capacity (A-hr)
CELLTYPE	SELECTOR	1	&Cell Type
WORKINGCONNECTION	SELECTOR	0	&Working Lead
MAXCHARGETIME	VARIABLEANDUNITS	1.00000E+002	s	1.00000E+002	second(s)	Max &Charge Time
CHARGECURRENT	QUANT	6.00000E-003	&Charge Current (A)
VOLTAGEFINISH	TWOPARAM	F	1.00000E-003	3.60000E+003	&Voltage Finish	 I (A) < 	Max Time(s)
SAMPLETIME	QUANT	1.00000E-002	Sa&mple Period (s)
CHARGESTOPAT1	MULTIPARAM	4	1.00000E+000	Charge Stop At &1	Voltage > Limit	V
CHARGESTOPAT2	MULTIPARAM	0	0.00000E+000	Charge Stop At &2	None	N/A
AESBHCSELECTOR	TOGGLE	F	Save Both Half Cells
IRCOMP	TOGGLE	F	IR &Measure
EOC	QUANT	0	Open Circuit (V)
SEQUENCER	TOGGLE	TRUE	Run as Sequence
PSTATMODEL	IQUANT	53	Pstat Model
PSTATSECTION	LABEL	IFC5000-01520	Pstat Section
PSTATSERIALNO	LABEL	01520	Pstat Serial Number
CTRLMODE	IQUANT	0	Control Mode
ELECTROMETER	IQUANT	1	RE=0 or CS=1
IESTAB	IQUANT	0	I/E Stability
CASPEED	IQUANT	4	Control Amp Speed
CONVENTION	IQUANT	1	Current Convention
ICHRANGE	IQUANT	2	Ich Range
ICHRANGEMODE	TOGGLE	T	Ich Auto Range
ICHOFFSETENABLE	TOGGLE	F	Ich Offset Enable
ICHOFFSET	QUANT	0	Ich Offset (V)
ICHFILTER	IQUANT	1	Ich Filter
VCHRANGE	IQUANT	2	Vch Range
VCHRANGEMODE	TOGGLE	T	Vch Auto Range
VCHOFFSETENABLE	TOGGLE	F	Vch Offset Enable
VCHOFFSET	QUANT	0	Vch Offset (V)
VCHFILTER	IQUANT	1	Vch Filter
IERANGELOWERLIMIT	IQUANT	9	I/E Range Lower Limit
IERANGEMODE	TOGGLE	F	I/E AutoRange
IERANGE	IQUANT	10	I/E Range
ACHSELECT	IQUANT	1	Ach Select
ACHRANGE	IQUANT	2	Ach Range
ACHOFFSETENABLE	TOGGLE	F	Ach Offset Enable
ACHOFFSET	QUANT	0	Ach Offset (V)
ACHFILTER	IQUANT	1	Ach Filter
CABLEID	IQUANT	14	Cable ID
DCCALDATE	LABEL	20-10-2016	DC Calibration Date
ACCALDATE	LABEL	12/3/2015	AC Calibration Date
FRAMEWORKVERSION	QUANT	7.01	Framework Version
INSTRUMENTVERSION	LABEL	4.00	Instrument Version
CURVE	TABLE	55
	Pt	T	Vf	Im	Vu	Pwr	Sig	Ach	Temp	IERange	Over
	#	s	V	A	V	W	V	V	deg C	#	bits
	0	0.013333	6.47302E-001	5.99301E-003	0.00000E+000	3.87929E-003	3.59960E-001	-1.16157E+000	3.57780E+000	10	...........
	1	0.026667	6.56482E-001	5.99390E-003	0.00000E+000	3.93488E-003	3.59960E-001	-1.17257E+000	3.57780E+000	10	...........
	2	0.04	6.64919E-001	5.99260E-003	0.00000E+000	3.98459E-003	3.59960E-001	-1.16415E+000	3.57780E+000	10	...........
	3	0.053333	6.72958E-001	5.99584E-003	0.00000E+000	4.03495E-003	3.59960E-001	-1.16143E+000	3.57780E+000	10	...........
	4	0.066667	6.80606E-001	5.99233E-003	0.00000E+000	4.07842E-003	3.59960E-001	-1.17259E+000	3.57780E+000	10	...........
	5	0.08	6.88119E-001	5.99462E-003	0.00000E+000	4.12501E-003	3.59960E-001	-1.16354E+000	3.57780E+000	10	...........
	6	0.093333	6.95523E-001	5.99249E-003	0.00000E+000	4.16791E-003	3.59960E-001	-1.16066E+000	3.57780E+000	10	...........
	7	0.106667	7.02747E-001	5.98728E-003	0.00000E+000	4.20754E-003	3.59960E-001	-1.17200E+000	3.57780E+000	10	...........
	8	0.12	7.09893E-001	5.99278E-003	0.00000E+000	4.25423E-003	3.59960E-001	-1.16329E+000	3.57780E+000	10	...........
	9	0.133333	7.16994E-001	5.99285E-003	0.00000E+000	4.29684E-003	3.59960E-001	-1.16098E+000	3.57780E+000	10	...........
	10	0.146667	7.24067E-001	5.99328E-003	0.00000E+000	4.33954E-003	3.59960E-001	-1.17198E+000	3.57780E+000	10	...........
	11	0.16	7.31010E-001	5.99813E-003	0.00000E+000	4.38469E-003	3.59960E-001	-1.16302E+000	3.57780E+000	10	...........
	12	0.173333	7.37897E-001	5.99062E-003	0.00000E+000	4.42046E-003	3.59960E-001	-1.16047E+000	3.57780E+000	10	...........
	13	0.186667	7.44797E-001	5.99275E-003	0.00000E+000	4.46338E-003	3.59960E-001	-1.17200E+000	3.57780E+000	10	...........
	14	0.2	7.51621E-001	5.99281E-003	0.00000E+000	4.50432E-003	3.59960E-001	-1.16280E+000	3.57780E+000	10	...........
	15	0.213333	7.58442E-001	6.00041E-003	0.00000E+000	4.55097E-003	3.59960E-001	-1.16066E+000	3.57780E+000	10	...........
	16	0.226667	7.65198E-001	5.99294E-003	0.00000E+000	4.58578E-003	3.59960E-001	-1.17166E+000	3.57780E+000	10	...........
	17	0.24	7.71932E-001	5.99426E-003	0.00000E+000	4.62716E-003	3.59960E-001	-1.16259E+000	3.57780E+000	10	...........
	18	0.253333	7.78627E-001	5.99333E-003	0.00000E+000	4.66657E-003	3.59960E-001	-1.16040E+000	3.57780E+000	10	...........
	19	0.266667	7.85343E-001	5.99658E-003	0.00000E+000	4.70937E-003	3.59960E-001	-1.17172E+000	3.57780E+000	10	...........
	20	0.28	7.92042E-001	5.99561E-003	0.00000E+000	4.74877E-003	3.59960E-001	-1.16263E+000	3.57780E+000	10	...........
	21	0.293333	7.98720E-001	5.99507E-003	0.00000E+000	4.78838E-003	3.59960E-001	-1.16044E+000	3.57780E+000	10	...........
	22	0.306667	8.05347E-001	5.99561E-003	0.00000E+000	4.82854E-003	3.59960E-001	-1.17182E+000	3.57780E+000	10	...........
	23	0.32	8.11969E-001	5.99491E-003	0.00000E+000	4.86768E-003	3.59960E-001	-1.16238E+000	3.57780E+000	10	...........
	24	0.333333	8.18556E-001	5.99498E-003	0.00000E+000	4.90723E-003	3.59960E-001	-1.16039E+000	3.57780E+000	10	...........
	25	0.346667	8.25093E-001	5.99432E-003	0.00000E+000	4.94587E-003	3.59960E-001	-1.17171E+000	3.57780E+000	10	...........
	26	0.36	8.31659E-001	5.99449E-003	0.00000E+000	4.98537E-003	3.59960E-001	-1.16223E+000	3.57780E+000	10	...........
	27	0.373333	8.38163E-001	5.99414E-003	0.00000E+000	5.02406E-003	3.59960E-001	-1.16019E+000	3.57780E+000	10	...........
	28	0.386667	8.44664E-001	5.99702E-003	0.00000E+000	5.06547E-003	3.59960E-001	-1.17143E+000	3.57780E+000	10	...........
	29	0.4	8.51134E-001	5.99071E-003	0.00000E+000	5.09890E-003	3.59960E-001	-1.16195E+000	3.57780E+000	10	...........
	30	0.413333	8.57596E-001	5.99193E-003	0.00000E+000	5.13866E-003	3.59960E-001	-1.15982E+000	3.57780E+000	10	...........
	31	0.426667	8.64011E-001	5.99589E-003	0.00000E+000	5.18051E-003	3.59960E-001	-1.17119E+000	3.57780E+000	10	...........
	32	0.44	8.70471E-001	5.99333E-003	0.00000E+000	5.21702E-003	3.59960E-001	-1.16155E+000	3.57780E+000	10	...........
	33	0.453333	8.76805E-001	5.99141E-003	0.00000E+000	5.25330E-003	3.59960E-001	-1.15968E+000	3.57780E+000	10	...........
	34	0.466667	8.83143E-001	5.99334E-003	0.00000E+000	5.29298E-003	3.59960E-001	-1.17109E+000	3.57780E+000	10	...........
	35	0.48	8.89432E-001	5.99695E-003	0.00000E+000	5.33388E-003	3.59960E-001	-1.16147E+000	3.57780E+000	10	...........
	36	0.493333	8.95702E-001	5.99306E-003	0.00000E+000	5.36799E-003	3.59960E-001	-1.15973E+000	3.57780E+000	10	...........
	37	0.506667	9.01998E-001	5.99882E-003	0.00000E+000	5.41092E-003	3.59960E-001	-1.17117E+000	3.57780E+000	10	...........
	38	0.52	9.08196E-001	5.99076E-003	0.00000E+000	5.44078E-003	3.59960E-001	-1.16147E+000	3.57780E+000	10	...........
	39	0.533333	9.14397E-001	5.99305E-003	0.00000E+000	5.48003E-003	3.59960E-001	-1.15982E+000	3.57780E+000	10	...........
	40	0.546667	9.20577E-001	5.99182E-003	0.00000E+000	5.51593E-003	3.59960E-001	-1.17093E+000	3.57780E+000	10	...........
	41	0.56	9.26712E-001	5.99008E-003	0.00000E+000	5.55108E-003	3.59960E-001	-1.16120E+000	3.57780E+000	10	...........
	42	0.573333	9.32807E-001	5.99146E-003	0.00000E+000	5.58887E-003	3.59960E-001	-1.15957E+000	3.57780E+000	10	...........
	43	0.586667	9.38795E-001	5.99484E-003	0.00000E+000	5.62793E-003	3.59960E-001	-1.17098E+000	3.57780E+000	10	...........
	44	0.6	9.44780E-001	5.99408E-003	0.00000E+000	5.66309E-003	3.59960E-001	-1.16102E+000	3.57780E+000	10	...........
	45	0.613333	9.50766E-001	5.99256E-003	0.00000E+000	5.69752E-003	3.59960E-001	-1.15965E+000	3.57780E+000	10	...........
	46	0.626667	9.56635E-001	5.99354E-003	0.00000E+000	5.73363E-003	3.59960E-001	-1.17092E+000	3.57780E+000	10	...........
	47	0.64	9.62416E-001	5.99084E-003	0.00000E+000	5.76568E-003	3.59960E-001	-1.16078E+000	3.57780E+000	10	...........
	48	0.653333	9.68232E-001	5.99410E-003	0.00000E+000	5.80368E-003	3.59960E-001	-1.15975E+000	3.57780E+000	10	...........
	49	0.666667	9.74004E-001	5.99036E-003	0.00000E+000	5.83464E-003	3.59960E-001	-1.17079E+000	3.57780E+000	10	...........
	50	0.68	9.79703E-001	5.99368E-003	0.00000E+000	5.87202E-003	3.59960E-001	-1.16096E+000	3.57780E+000	10	...........
	51	0.693333	9.85307E-001	5.99345E-003	0.00000E+000	5.90539E-003	3.59960E-001	-1.15978E+000	3.57780E+000	10	...........
	52	0.706667	9.90909E-001	5.99629E-003	0.00000E+000	5.94178E-003	3.59960E-001	-1.17076E+000	3.57780E+000	10	...........
	53	0.72	9.96465E-001	5.99238E-003	0.00000E+000	5.97120E-003	3.59960E-001	-1.16060E+000	3.57780E+000	10	...........
	54	0.723333	9.99899E-001	5.99905E-003	0.00000E+000	5.99844E-003	3.59960E-001	-1.17210E+000	3.57780E+000	10	...........
STARTTIMEOFFSET	QUANT	1262.423	Start Time Offset (s)