File: Data/CV_CRGO300517_1/PWRCCD_CRGO300517_1/CHARGE_DISCHARGE/CHARGE_#667.DTA
EXPLAIN
TAG	PWR800_CHARGE
TITLE	LABEL	PWR Cyclic Charge Discharge (Cell) - Charge Step	Test &Identifier
DATE	LABEL	22-6-2017	Date
TIME	LABEL	16:02:19	Time
NOTES	NOTES	3	&Notes...
	supercap test cell
	0.6mg
	6M KOH
PSTAT	PSTAT	IFC5000-01520	Potentiostat
CAPACITY	QUANT	1.00000E-003	Capacity (A-hr)
CELLTYPE	SELECTOR	1	&Cell Type
WORKINGCONNECTION	SELECTOR	0	&Working Lead
MAXCHARGETIME	VARIABLEANDUNITS	1.00000E+002	s	1.00000E+002	second(s)	Max &Charge Time
CHARGECURRENT	QUANT	6.00000E-003	&Charge Current (A)
VOLTAGEFINISH	TWOPARAM	F	1.00000E-003	3.60000E+003	&Voltage Finish	 I (A) < 	Max Time(s)
SAMPLETIME	QUANT	1.00000E-002	Sa&mple Period (s)
CHARGESTOPAT1	MULTIPARAM	4	1.00000E+000	Charge Stop At &1	Voltage > Limit	V
CHARGESTOPAT2	MULTIPARAM	0	0.00000E+000	Charge Stop At &2	None	N/A
AESBHCSELECTOR	TOGGLE	F	Save Both Half Cells
IRCOMP	TOGGLE	F	IR &Measure
EOC	QUANT	0	Open Circuit (V)
SEQUENCER	TOGGLE	TRUE	Run as Sequence
PSTATMODEL	IQUANT	53	Pstat Model
PSTATSECTION	LABEL	IFC5000-01520	Pstat Section
PSTATSERIALNO	LABEL	01520	Pstat Serial Number
CTRLMODE	IQUANT	0	Control Mode
ELECTROMETER	IQUANT	1	RE=0 or CS=1
IESTAB	IQUANT	0	I/E Stability
CASPEED	IQUANT	4	Control Amp Speed
CONVENTION	IQUANT	1	Current Convention
ICHRANGE	IQUANT	2	Ich Range
ICHRANGEMODE	TOGGLE	T	Ich Auto Range
ICHOFFSETENABLE	TOGGLE	F	Ich Offset Enable
ICHOFFSET	QUANT	0	Ich Offset (V)
ICHFILTER	IQUANT	1	Ich Filter
VCHRANGE	IQUANT	2	Vch Range
VCHRANGEMODE	TOGGLE	T	Vch Auto Range
VCHOFFSETENABLE	TOGGLE	F	Vch Offset Enable
VCHOFFSET	QUANT	0	Vch Offset (V)
VCHFILTER	IQUANT	1	Vch Filter
IERANGELOWERLIMIT	IQUANT	9	I/E Range Lower Limit
IERANGEMODE	TOGGLE	F	I/E AutoRange
IERANGE	IQUANT	10	I/E Range
ACHSELECT	IQUANT	1	Ach Select
ACHRANGE	IQUANT	2	Ach Range
ACHOFFSETENABLE	TOGGLE	F	Ach Offset Enable
ACHOFFSET	QUANT	0	Ach Offset (V)
ACHFILTER	IQUANT	1	Ach Filter
CABLEID	IQUANT	14	Cable ID
DCCALDATE	LABEL	20-10-2016	DC Calibration Date
ACCALDATE	LABEL	12/3/2015	AC Calibration Date
FRAMEWORKVERSION	QUANT	7.01	Framework Version
INSTRUMENTVERSION	LABEL	4.00	Instrument Version
CURVE	TABLE	56
	Pt	T	Vf	Im	Vu	Pwr	Sig	Ach	Temp	IERange	Over
	#	s	V	A	V	W	V	V	deg C	#	bits
	0	0.013333	6.42157E-001	5.99202E-003	0.00000E+000	3.84782E-003	3.59960E-001	-1.14954E+000	3.57640E+000	10	...........
	1	0.026667	6.51200E-001	5.99453E-003	0.00000E+000	3.90364E-003	3.59960E-001	-1.16051E+000	3.57640E+000	10	...........
	2	0.04	6.59517E-001	5.99681E-003	0.00000E+000	3.95499E-003	3.59960E-001	-1.15127E+000	3.57640E+000	10	...........
	3	0.053333	6.67371E-001	5.99112E-003	0.00000E+000	3.99830E-003	3.59960E-001	-1.14894E+000	3.57658E+000	10	...........
	4	0.066667	6.74985E-001	5.99428E-003	0.00000E+000	4.04605E-003	3.59960E-001	-1.16037E+000	3.57660E+000	10	...........
	5	0.08	6.82395E-001	5.99253E-003	0.00000E+000	4.08927E-003	3.59960E-001	-1.15145E+000	3.57660E+000	10	...........
	6	0.093333	6.89667E-001	5.99125E-003	0.00000E+000	4.13196E-003	3.59960E-001	-1.14904E+000	3.57660E+000	10	...........
	7	0.106667	6.96842E-001	5.99607E-003	0.00000E+000	4.17831E-003	3.59960E-001	-1.16009E+000	3.57660E+000	10	...........
	8	0.12	7.03875E-001	5.99187E-003	0.00000E+000	4.21753E-003	3.59960E-001	-1.15090E+000	3.57660E+000	10	...........
	9	0.133333	7.10825E-001	5.99074E-003	0.00000E+000	4.25836E-003	3.59960E-001	-1.14893E+000	3.57660E+000	10	...........
	10	0.146667	7.17803E-001	5.99517E-003	0.00000E+000	4.30335E-003	3.59960E-001	-1.16044E+000	3.57660E+000	10	...........
	11	0.16	7.24662E-001	5.99293E-003	0.00000E+000	4.34285E-003	3.59960E-001	-1.15124E+000	3.57660E+000	10	...........
	12	0.173333	7.31527E-001	5.99512E-003	0.00000E+000	4.38559E-003	3.59960E-001	-1.14878E+000	3.57660E+000	10	...........
	13	0.186667	7.38293E-001	5.99519E-003	0.00000E+000	4.42621E-003	3.59960E-001	-1.15994E+000	3.57660E+000	10	...........
	14	0.2	7.45073E-001	5.98841E-003	0.00000E+000	4.46180E-003	3.59960E-001	-1.15122E+000	3.57660E+000	10	...........
	15	0.213333	7.51813E-001	6.00133E-003	0.00000E+000	4.51188E-003	3.59960E-001	-1.14904E+000	3.57660E+000	10	...........
	16	0.226667	7.58503E-001	5.99792E-003	0.00000E+000	4.54944E-003	3.59960E-001	-1.16024E+000	3.57660E+000	10	...........
	17	0.24	7.65182E-001	5.99211E-003	0.00000E+000	4.58506E-003	3.59960E-001	-1.15108E+000	3.57660E+000	10	...........
	18	0.253333	7.71862E-001	5.99805E-003	0.00000E+000	4.62967E-003	3.59960E-001	-1.14873E+000	3.57660E+000	10	...........
	19	0.266667	7.78516E-001	5.99318E-003	0.00000E+000	4.66578E-003	3.59960E-001	-1.16023E+000	3.57660E+000	10	...........
	20	0.28	7.85142E-001	6.00013E-003	0.00000E+000	4.71096E-003	3.59960E-001	-1.15116E+000	3.57660E+000	10	...........
	21	0.293333	7.91703E-001	5.98923E-003	0.00000E+000	4.74170E-003	3.59960E-001	-1.14879E+000	3.57660E+000	10	...........
	22	0.306667	7.98271E-001	5.98978E-003	0.00000E+000	4.78146E-003	3.59960E-001	-1.15947E+000	3.57660E+000	10	...........
	23	0.32	8.04806E-001	5.99317E-003	0.00000E+000	4.82333E-003	3.59960E-001	-1.15062E+000	3.57660E+000	10	...........
	24	0.333333	8.11327E-001	5.99111E-003	0.00000E+000	4.86075E-003	3.59960E-001	-1.14834E+000	3.57660E+000	10	...........
	25	0.346667	8.17862E-001	5.99658E-003	0.00000E+000	4.90437E-003	3.59960E-001	-1.15963E+000	3.57660E+000	10	...........
	26	0.36	8.24360E-001	5.99413E-003	0.00000E+000	4.94132E-003	3.59960E-001	-1.15066E+000	3.57660E+000	10	...........
	27	0.373333	8.30815E-001	5.98969E-003	0.00000E+000	4.97633E-003	3.59960E-001	-1.14830E+000	3.57660E+000	10	...........
	28	0.386667	8.37296E-001	5.99589E-003	0.00000E+000	5.02033E-003	3.59960E-001	-1.15951E+000	3.57660E+000	10	...........
	29	0.4	8.43724E-001	5.99530E-003	0.00000E+000	5.05838E-003	3.59960E-001	-1.15062E+000	3.57660E+000	10	...........
	30	0.413333	8.50151E-001	5.99368E-003	0.00000E+000	5.09553E-003	3.59960E-001	-1.14849E+000	3.57660E+000	10	...........
	31	0.426667	8.56520E-001	5.98888E-003	0.00000E+000	5.12959E-003	3.59960E-001	-1.15943E+000	3.57660E+000	10	...........
	32	0.44	8.62876E-001	5.99840E-003	0.00000E+000	5.17588E-003	3.59960E-001	-1.15045E+000	3.57660E+000	10	...........
	33	0.453333	8.69249E-001	5.99710E-003	0.00000E+000	5.21297E-003	3.59960E-001	-1.14808E+000	3.57660E+000	10	...........
	34	0.466667	8.75573E-001	5.99250E-003	0.00000E+000	5.24687E-003	3.59960E-001	-1.15937E+000	3.57660E+000	10	...........
	35	0.48	8.81862E-001	5.99486E-003	0.00000E+000	5.28663E-003	3.59960E-001	-1.15040E+000	3.57660E+000	10	...........
	36	0.493333	8.88154E-001	5.98780E-003	0.00000E+000	5.31809E-003	3.59960E-001	-1.14824E+000	3.57660E+000	10	...........
	37	0.506667	8.94351E-001	5.99374E-003	0.00000E+000	5.36051E-003	3.59960E-001	-1.15949E+000	3.57660E+000	10	...........
	38	0.52	9.00550E-001	5.99289E-003	0.00000E+000	5.39690E-003	3.59960E-001	-1.15047E+000	3.57660E+000	10	...........
	39	0.533333	9.06738E-001	5.99473E-003	0.00000E+000	5.43565E-003	3.59960E-001	-1.14828E+000	3.57660E+000	10	...........
	40	0.546667	9.12903E-001	5.99228E-003	0.00000E+000	5.47037E-003	3.59960E-001	-1.15973E+000	3.57660E+000	10	...........
	41	0.56	9.19005E-001	5.99114E-003	0.00000E+000	5.50589E-003	3.59960E-001	-1.15061E+000	3.57660E+000	10	...........
	42	0.573333	9.25083E-001	5.99091E-003	0.00000E+000	5.54209E-003	3.59960E-001	-1.14828E+000	3.57660E+000	10	...........
	43	0.586667	9.31142E-001	5.99652E-003	0.00000E+000	5.58362E-003	3.59960E-001	-1.15947E+000	3.57660E+000	10	...........
	44	0.6	9.37137E-001	5.99373E-003	0.00000E+000	5.61694E-003	3.59960E-001	-1.15065E+000	3.57660E+000	10	...........
	45	0.613333	9.43068E-001	5.98947E-003	0.00000E+000	5.64848E-003	3.59960E-001	-1.14837E+000	3.57660E+000	10	...........
	46	0.626667	9.48986E-001	5.99342E-003	0.00000E+000	5.68767E-003	3.59960E-001	-1.15932E+000	3.57660E+000	10	...........
	47	0.64	9.54874E-001	5.99817E-003	0.00000E+000	5.72750E-003	3.59960E-001	-1.15028E+000	3.57660E+000	10	...........
	48	0.653333	9.60704E-001	5.99134E-003	0.00000E+000	5.75591E-003	3.59960E-001	-1.14793E+000	3.57660E+000	10	...........
	49	0.666667	9.66460E-001	5.99268E-003	0.00000E+000	5.79168E-003	3.59960E-001	-1.15921E+000	3.57660E+000	10	...........
	50	0.68	9.72196E-001	5.99457E-003	0.00000E+000	5.82790E-003	3.59960E-001	-1.15044E+000	3.57660E+000	10	...........
	51	0.693333	9.77896E-001	5.99337E-003	0.00000E+000	5.86090E-003	3.59960E-001	-1.14825E+000	3.57660E+000	10	...........
	52	0.706667	9.83519E-001	5.99366E-003	0.00000E+000	5.89488E-003	3.59960E-001	-1.15934E+000	3.57660E+000	10	...........
	53	0.72	9.89129E-001	5.99314E-003	0.00000E+000	5.92799E-003	3.59960E-001	-1.15038E+000	3.57660E+000	10	...........
	54	0.733333	9.94669E-001	5.99530E-003	0.00000E+000	5.96335E-003	3.59960E-001	-1.14810E+000	3.57660E+000	10	...........
	55	0.741667	9.99144E-001	5.99459E-003	0.00000E+000	5.98946E-003	3.59960E-001	-1.16171E+000	3.57660E+000	10	...........
STARTTIMEOFFSET	QUANT	1110.631	Start Time Offset (s)