File: Data/CV_CRGO300517_1/PWRCCD_CRGO300517_1/CHARGE_DISCHARGE/CHARGE_#250.DTA
EXPLAIN
TAG	PWR800_CHARGE
TITLE	LABEL	PWR Cyclic Charge Discharge (Cell) - Charge Step	Test &Identifier
DATE	LABEL	22-6-2017	Date
TIME	LABEL	15:45:53	Time
NOTES	NOTES	3	&Notes...
	supercap test cell
	0.6mg
	6M KOH
PSTAT	PSTAT	IFC5000-01520	Potentiostat
CAPACITY	QUANT	1.00000E-003	Capacity (A-hr)
CELLTYPE	SELECTOR	1	&Cell Type
WORKINGCONNECTION	SELECTOR	0	&Working Lead
MAXCHARGETIME	VARIABLEANDUNITS	1.00000E+002	s	1.00000E+002	second(s)	Max &Charge Time
CHARGECURRENT	QUANT	6.00000E-003	&Charge Current (A)
VOLTAGEFINISH	TWOPARAM	F	1.00000E-003	3.60000E+003	&Voltage Finish	 I (A) < 	Max Time(s)
SAMPLETIME	QUANT	1.00000E-002	Sa&mple Period (s)
CHARGESTOPAT1	MULTIPARAM	4	1.00000E+000	Charge Stop At &1	Voltage > Limit	V
CHARGESTOPAT2	MULTIPARAM	0	0.00000E+000	Charge Stop At &2	None	N/A
AESBHCSELECTOR	TOGGLE	F	Save Both Half Cells
IRCOMP	TOGGLE	F	IR &Measure
EOC	QUANT	0	Open Circuit (V)
SEQUENCER	TOGGLE	TRUE	Run as Sequence
PSTATMODEL	IQUANT	53	Pstat Model
PSTATSECTION	LABEL	IFC5000-01520	Pstat Section
PSTATSERIALNO	LABEL	01520	Pstat Serial Number
CTRLMODE	IQUANT	0	Control Mode
ELECTROMETER	IQUANT	1	RE=0 or CS=1
IESTAB	IQUANT	0	I/E Stability
CASPEED	IQUANT	4	Control Amp Speed
CONVENTION	IQUANT	1	Current Convention
ICHRANGE	IQUANT	2	Ich Range
ICHRANGEMODE	TOGGLE	T	Ich Auto Range
ICHOFFSETENABLE	TOGGLE	F	Ich Offset Enable
ICHOFFSET	QUANT	0	Ich Offset (V)
ICHFILTER	IQUANT	1	Ich Filter
VCHRANGE	IQUANT	2	Vch Range
VCHRANGEMODE	TOGGLE	T	Vch Auto Range
VCHOFFSETENABLE	TOGGLE	F	Vch Offset Enable
VCHOFFSET	QUANT	0	Vch Offset (V)
VCHFILTER	IQUANT	1	Vch Filter
IERANGELOWERLIMIT	IQUANT	9	I/E Range Lower Limit
IERANGEMODE	TOGGLE	F	I/E AutoRange
IERANGE	IQUANT	10	I/E Range
ACHSELECT	IQUANT	1	Ach Select
ACHRANGE	IQUANT	2	Ach Range
ACHOFFSETENABLE	TOGGLE	F	Ach Offset Enable
ACHOFFSET	QUANT	0	Ach Offset (V)
ACHFILTER	IQUANT	1	Ach Filter
CABLEID	IQUANT	14	Cable ID
DCCALDATE	LABEL	20-10-2016	DC Calibration Date
ACCALDATE	LABEL	12/3/2015	AC Calibration Date
FRAMEWORKVERSION	QUANT	7.01	Framework Version
INSTRUMENTVERSION	LABEL	4.00	Instrument Version
CURVE	TABLE	64
	Pt	T	Vf	Im	Vu	Pwr	Sig	Ach	Temp	IERange	Over
	#	s	V	A	V	W	V	V	deg C	#	bits
	0	0.013333	6.11384E-001	5.99305E-003	0.00000E+000	3.66406E-003	3.59960E-001	-1.10142E+000	3.57670E+000	10	...........
	1	0.026667	6.19959E-001	5.99111E-003	0.00000E+000	3.71424E-003	3.59960E-001	-1.09412E+000	3.57670E+000	10	...........
	2	0.04	6.27828E-001	5.99287E-003	0.00000E+000	3.76249E-003	3.59960E-001	-1.09961E+000	3.57670E+000	10	...........
	3	0.053333	6.35277E-001	5.99225E-003	0.00000E+000	3.80674E-003	3.59960E-001	-1.10156E+000	3.57670E+000	10	...........
	4	0.066667	6.42493E-001	5.99997E-003	0.00000E+000	3.85494E-003	3.59960E-001	-1.09409E+000	3.57670E+000	10	...........
	5	0.08	6.49492E-001	5.99553E-003	0.00000E+000	3.89405E-003	3.59960E-001	-1.09968E+000	3.57670E+000	10	...........
	6	0.093333	6.56312E-001	5.99828E-003	0.00000E+000	3.93674E-003	3.59960E-001	-1.10165E+000	3.57670E+000	10	...........
	7	0.106667	6.63002E-001	5.99325E-003	0.00000E+000	3.97354E-003	3.59960E-001	-1.09402E+000	3.57670E+000	10	...........
	8	0.12	6.69662E-001	5.99730E-003	0.00000E+000	4.01616E-003	3.59960E-001	-1.09915E+000	3.57675E+000	10	...........
	9	0.133333	6.76217E-001	5.99557E-003	0.00000E+000	4.05431E-003	3.59960E-001	-1.10168E+000	3.57690E+000	10	...........
	10	0.146667	6.82759E-001	5.99697E-003	0.00000E+000	4.09449E-003	3.59960E-001	-1.09430E+000	3.57690E+000	10	...........
	11	0.16	6.89174E-001	5.99620E-003	0.00000E+000	4.13243E-003	3.59960E-001	-1.09942E+000	3.57690E+000	10	...........
	12	0.173333	6.95628E-001	5.99425E-003	0.00000E+000	4.16977E-003	3.59960E-001	-1.10156E+000	3.57690E+000	10	...........
	13	0.186667	7.02014E-001	5.99287E-003	0.00000E+000	4.20708E-003	3.59960E-001	-1.09439E+000	3.57690E+000	10	...........
	14	0.2	7.08356E-001	5.99493E-003	0.00000E+000	4.24654E-003	3.59960E-001	-1.09971E+000	3.57690E+000	10	...........
	15	0.213333	7.14667E-001	5.99828E-003	0.00000E+000	4.28677E-003	3.59960E-001	-1.10203E+000	3.57690E+000	10	...........
	16	0.226667	7.21030E-001	5.99629E-003	0.00000E+000	4.32351E-003	3.59960E-001	-1.09452E+000	3.57690E+000	10	...........
	17	0.24	7.27373E-001	5.99176E-003	0.00000E+000	4.35824E-003	3.59960E-001	-1.09960E+000	3.57690E+000	10	...........
	18	0.253333	7.33638E-001	5.99048E-003	0.00000E+000	4.39485E-003	3.59960E-001	-1.10222E+000	3.57690E+000	10	...........
	19	0.266667	7.39897E-001	5.99633E-003	0.00000E+000	4.43666E-003	3.59960E-001	-1.09479E+000	3.57690E+000	10	...........
	20	0.28	7.46145E-001	5.99494E-003	0.00000E+000	4.47309E-003	3.59960E-001	-1.09986E+000	3.57690E+000	10	...........
	21	0.293333	7.52360E-001	5.99426E-003	0.00000E+000	4.50984E-003	3.59960E-001	-1.10235E+000	3.57690E+000	10	...........
	22	0.306667	7.58576E-001	5.99586E-003	0.00000E+000	4.54831E-003	3.59960E-001	-1.09482E+000	3.57690E+000	10	...........
	23	0.32	7.64769E-001	5.99405E-003	0.00000E+000	4.58407E-003	3.59960E-001	-1.10001E+000	3.57690E+000	10	...........
	24	0.333333	7.70987E-001	5.99446E-003	0.00000E+000	4.62165E-003	3.59960E-001	-1.10266E+000	3.57690E+000	10	...........
	25	0.346667	7.77155E-001	5.99295E-003	0.00000E+000	4.65745E-003	3.59960E-001	-1.09540E+000	3.57690E+000	10	...........
	26	0.36	7.83341E-001	5.99571E-003	0.00000E+000	4.69669E-003	3.59960E-001	-1.10032E+000	3.57690E+000	10	...........
	27	0.373333	7.89527E-001	5.99202E-003	0.00000E+000	4.73086E-003	3.59960E-001	-1.10297E+000	3.57690E+000	10	...........
	28	0.386667	7.95756E-001	5.99399E-003	0.00000E+000	4.76975E-003	3.59960E-001	-1.09535E+000	3.57690E+000	10	...........
	29	0.4	8.01944E-001	5.99527E-003	0.00000E+000	4.80788E-003	3.59960E-001	-1.10048E+000	3.57690E+000	10	...........
	30	0.413333	8.08086E-001	5.99617E-003	0.00000E+000	4.84542E-003	3.59960E-001	-1.10323E+000	3.57690E+000	10	...........
	31	0.426667	8.14200E-001	5.99118E-003	0.00000E+000	4.87802E-003	3.59960E-001	-1.09538E+000	3.57690E+000	10	...........
	32	0.44	8.20380E-001	5.99516E-003	0.00000E+000	4.91831E-003	3.59960E-001	-1.09987E+000	3.57690E+000	10	...........
	33	0.453333	8.26499E-001	5.99174E-003	0.00000E+000	4.95216E-003	3.59960E-001	-1.10319E+000	3.57690E+000	10	...........
	34	0.466667	8.32591E-001	5.99453E-003	0.00000E+000	4.99099E-003	3.59960E-001	-1.09563E+000	3.57690E+000	10	...........
	35	0.48	8.38669E-001	5.99676E-003	0.00000E+000	5.02930E-003	3.59960E-001	-1.10046E+000	3.57690E+000	10	...........
	36	0.493333	8.44803E-001	5.99040E-003	0.00000E+000	5.06071E-003	3.59960E-001	-1.10329E+000	3.57690E+000	10	...........
	37	0.506667	8.50881E-001	5.99513E-003	0.00000E+000	5.10114E-003	3.59960E-001	-1.09580E+000	3.57690E+000	10	...........
	38	0.52	8.56945E-001	5.99185E-003	0.00000E+000	5.13469E-003	3.59960E-001	-1.10055E+000	3.57690E+000	10	...........
	39	0.533333	8.63028E-001	5.99474E-003	0.00000E+000	5.17363E-003	3.59960E-001	-1.10367E+000	3.57690E+000	10	...........
	40	0.546667	8.69037E-001	5.99598E-003	0.00000E+000	5.21073E-003	3.59960E-001	-1.09598E+000	3.57690E+000	10	...........
	41	0.56	8.75047E-001	5.99498E-003	0.00000E+000	5.24589E-003	3.59960E-001	-1.10058E+000	3.57690E+000	10	...........
	42	0.573333	8.81054E-001	5.99744E-003	0.00000E+000	5.28407E-003	3.59960E-001	-1.10357E+000	3.57690E+000	10	...........
	43	0.586667	8.87042E-001	5.99301E-003	0.00000E+000	5.31605E-003	3.59960E-001	-1.09594E+000	3.57690E+000	10	...........
	44	0.6	8.93026E-001	5.99200E-003	0.00000E+000	5.35101E-003	3.59960E-001	-1.10055E+000	3.57690E+000	10	...........
	45	0.613333	8.99019E-001	5.99450E-003	0.00000E+000	5.38917E-003	3.59960E-001	-1.10372E+000	3.57690E+000	10	...........
	46	0.626667	9.04893E-001	5.99169E-003	0.00000E+000	5.42184E-003	3.59960E-001	-1.09569E+000	3.57690E+000	10	...........
	47	0.64	9.10814E-001	5.99114E-003	0.00000E+000	5.45681E-003	3.59960E-001	-1.10023E+000	3.57690E+000	10	...........
	48	0.653333	9.16691E-001	5.99259E-003	0.00000E+000	5.49335E-003	3.59960E-001	-1.10352E+000	3.57690E+000	10	...........
	49	0.666667	9.22620E-001	5.99796E-003	0.00000E+000	5.53384E-003	3.59960E-001	-1.09580E+000	3.57690E+000	10	...........
	50	0.68	9.28446E-001	5.99530E-003	0.00000E+000	5.56632E-003	3.59960E-001	-1.10027E+000	3.57690E+000	10	...........
	51	0.693333	9.34275E-001	5.99778E-003	0.00000E+000	5.60357E-003	3.59960E-001	-1.10326E+000	3.57690E+000	10	...........
	52	0.706667	9.40007E-001	5.99962E-003	0.00000E+000	5.63969E-003	3.59960E-001	-1.09516E+000	3.57690E+000	10	...........
	53	0.72	9.45754E-001	5.99438E-003	0.00000E+000	5.66920E-003	3.59960E-001	-1.09980E+000	3.57690E+000	10	...........
	54	0.733333	9.51499E-001	5.99657E-003	0.00000E+000	5.70572E-003	3.59960E-001	-1.10318E+000	3.57690E+000	10	...........
	55	0.746667	9.57186E-001	5.99468E-003	0.00000E+000	5.73802E-003	3.59960E-001	-1.09498E+000	3.57690E+000	10	...........
	56	0.76	9.62825E-001	5.99822E-003	0.00000E+000	5.77524E-003	3.59960E-001	-1.09906E+000	3.57690E+000	10	...........
	57	0.773333	9.68430E-001	5.99622E-003	0.00000E+000	5.80692E-003	3.59960E-001	-1.10269E+000	3.57690E+000	10	...........
	58	0.786667	9.74029E-001	5.99541E-003	0.00000E+000	5.83970E-003	3.59960E-001	-1.09482E+000	3.57690E+000	10	...........
	59	0.8	9.79574E-001	5.99292E-003	0.00000E+000	5.87050E-003	3.59960E-001	-1.09887E+000	3.57690E+000	10	...........
	60	0.813333	9.85056E-001	5.99637E-003	0.00000E+000	5.90676E-003	3.59960E-001	-1.10277E+000	3.57690E+000	10	...........
	61	0.826667	9.90508E-001	5.99792E-003	0.00000E+000	5.94099E-003	3.59960E-001	-1.09480E+000	3.57690E+000	10	...........
	62	0.84	9.95901E-001	6.00099E-003	0.00000E+000	5.97639E-003	3.59960E-001	-1.09875E+000	3.57690E+000	10	...........
	63	0.845	9.99577E-001	5.99198E-003	0.00000E+000	5.98945E-003	3.59960E-001	-1.09602E+000	3.57690E+000	10	...........
STARTTIMEOFFSET	QUANT	457.9618	Start Time Offset (s)