File: Data/CV_CRGO300517_1/PWRCCD_CRGO300517_1/CHARGE_DISCHARGE/CHARGE_#149.DTA
EXPLAIN
TAG	PWR800_CHARGE
TITLE	LABEL	PWR Cyclic Charge Discharge (Cell) - Charge Step	Test &Identifier
DATE	LABEL	22-6-2017	Date
TIME	LABEL	15:41:38	Time
NOTES	NOTES	3	&Notes...
	supercap test cell
	0.6mg
	6M KOH
PSTAT	PSTAT	IFC5000-01520	Potentiostat
CAPACITY	QUANT	1.00000E-003	Capacity (A-hr)
CELLTYPE	SELECTOR	1	&Cell Type
WORKINGCONNECTION	SELECTOR	0	&Working Lead
MAXCHARGETIME	VARIABLEANDUNITS	1.00000E+002	s	1.00000E+002	second(s)	Max &Charge Time
CHARGECURRENT	QUANT	6.00000E-003	&Charge Current (A)
VOLTAGEFINISH	TWOPARAM	F	1.00000E-003	3.60000E+003	&Voltage Finish	 I (A) < 	Max Time(s)
SAMPLETIME	QUANT	1.00000E-002	Sa&mple Period (s)
CHARGESTOPAT1	MULTIPARAM	4	1.00000E+000	Charge Stop At &1	Voltage > Limit	V
CHARGESTOPAT2	MULTIPARAM	0	0.00000E+000	Charge Stop At &2	None	N/A
AESBHCSELECTOR	TOGGLE	F	Save Both Half Cells
IRCOMP	TOGGLE	F	IR &Measure
EOC	QUANT	0	Open Circuit (V)
SEQUENCER	TOGGLE	TRUE	Run as Sequence
PSTATMODEL	IQUANT	53	Pstat Model
PSTATSECTION	LABEL	IFC5000-01520	Pstat Section
PSTATSERIALNO	LABEL	01520	Pstat Serial Number
CTRLMODE	IQUANT	0	Control Mode
ELECTROMETER	IQUANT	1	RE=0 or CS=1
IESTAB	IQUANT	0	I/E Stability
CASPEED	IQUANT	4	Control Amp Speed
CONVENTION	IQUANT	1	Current Convention
ICHRANGE	IQUANT	2	Ich Range
ICHRANGEMODE	TOGGLE	T	Ich Auto Range
ICHOFFSETENABLE	TOGGLE	F	Ich Offset Enable
ICHOFFSET	QUANT	0	Ich Offset (V)
ICHFILTER	IQUANT	1	Ich Filter
VCHRANGE	IQUANT	2	Vch Range
VCHRANGEMODE	TOGGLE	T	Vch Auto Range
VCHOFFSETENABLE	TOGGLE	F	Vch Offset Enable
VCHOFFSET	QUANT	0	Vch Offset (V)
VCHFILTER	IQUANT	1	Vch Filter
IERANGELOWERLIMIT	IQUANT	9	I/E Range Lower Limit
IERANGEMODE	TOGGLE	F	I/E AutoRange
IERANGE	IQUANT	10	I/E Range
ACHSELECT	IQUANT	1	Ach Select
ACHRANGE	IQUANT	2	Ach Range
ACHOFFSETENABLE	TOGGLE	F	Ach Offset Enable
ACHOFFSET	QUANT	0	Ach Offset (V)
ACHFILTER	IQUANT	1	Ach Filter
CABLEID	IQUANT	14	Cable ID
DCCALDATE	LABEL	20-10-2016	DC Calibration Date
ACCALDATE	LABEL	12/3/2015	AC Calibration Date
FRAMEWORKVERSION	QUANT	7.01	Framework Version
INSTRUMENTVERSION	LABEL	4.00	Instrument Version
CURVE	TABLE	68
	Pt	T	Vf	Im	Vu	Pwr	Sig	Ach	Temp	IERange	Over
	#	s	V	A	V	W	V	V	deg C	#	bits
	0	0.013333	5.97499E-001	5.99314E-003	0.00000E+000	3.58090E-003	3.59960E-001	-1.07977E+000	3.57730E+000	10	...........
	1	0.026667	6.05863E-001	5.99321E-003	0.00000E+000	3.63106E-003	3.59960E-001	-1.06895E+000	3.57730E+000	10	...........
	2	0.04	6.13549E-001	5.99282E-003	0.00000E+000	3.67689E-003	3.59960E-001	-1.06904E+000	3.57730E+000	10	...........
	3	0.053333	6.20866E-001	5.99912E-003	0.00000E+000	3.72465E-003	3.59960E-001	-1.07929E+000	3.57730E+000	10	...........
	4	0.066667	6.27819E-001	5.99075E-003	0.00000E+000	3.76110E-003	3.59960E-001	-1.06845E+000	3.57730E+000	10	...........
	5	0.08	6.34655E-001	5.99479E-003	0.00000E+000	3.80463E-003	3.59960E-001	-1.06853E+000	3.57730E+000	10	...........
	6	0.093333	6.41380E-001	5.99360E-003	0.00000E+000	3.84418E-003	3.59960E-001	-1.07924E+000	3.57730E+000	10	...........
	7	0.106667	6.47928E-001	5.99719E-003	0.00000E+000	3.88575E-003	3.59960E-001	-1.06830E+000	3.57730E+000	10	...........
	8	0.12	6.54419E-001	5.99712E-003	0.00000E+000	3.92463E-003	3.59960E-001	-1.06861E+000	3.57730E+000	10	...........
	9	0.133333	6.60816E-001	5.99407E-003	0.00000E+000	3.96098E-003	3.59960E-001	-1.07919E+000	3.57730E+000	10	...........
	10	0.146667	6.67211E-001	5.99620E-003	0.00000E+000	4.00073E-003	3.59960E-001	-1.06841E+000	3.57730E+000	10	...........
	11	0.16	6.73480E-001	5.99584E-003	0.00000E+000	4.03807E-003	3.59960E-001	-1.06834E+000	3.57730E+000	10	...........
	12	0.173333	6.79763E-001	5.99290E-003	0.00000E+000	4.07376E-003	3.59960E-001	-1.07896E+000	3.57730E+000	10	...........
	13	0.186667	6.85989E-001	5.99562E-003	0.00000E+000	4.11293E-003	3.59960E-001	-1.06810E+000	3.57730E+000	10	...........
	14	0.2	6.92218E-001	5.99556E-003	0.00000E+000	4.15024E-003	3.59960E-001	-1.06808E+000	3.57730E+000	10	...........
	15	0.213333	6.98415E-001	5.99408E-003	0.00000E+000	4.18636E-003	3.59960E-001	-1.07885E+000	3.57730E+000	10	...........
	16	0.226667	7.04538E-001	5.99443E-003	0.00000E+000	4.22331E-003	3.59960E-001	-1.06813E+000	3.57730E+000	10	...........
	17	0.24	7.10623E-001	5.99373E-003	0.00000E+000	4.25928E-003	3.59960E-001	-1.06808E+000	3.57730E+000	10	...........
	18	0.253333	7.16761E-001	5.99529E-003	0.00000E+000	4.29719E-003	3.59960E-001	-1.07847E+000	3.57730E+000	10	...........
	19	0.266667	7.22904E-001	5.99379E-003	0.00000E+000	4.33294E-003	3.59960E-001	-1.06770E+000	3.57730E+000	10	...........
	20	0.28	7.28939E-001	5.99523E-003	0.00000E+000	4.37016E-003	3.59960E-001	-1.06743E+000	3.57730E+000	10	...........
	21	0.293333	7.34990E-001	5.99445E-003	0.00000E+000	4.40586E-003	3.59960E-001	-1.07826E+000	3.57730E+000	10	...........
	22	0.306667	7.41067E-001	5.99524E-003	0.00000E+000	4.44288E-003	3.59960E-001	-1.06752E+000	3.57730E+000	10	...........
	23	0.32	7.47139E-001	5.99532E-003	0.00000E+000	4.47934E-003	3.59960E-001	-1.06743E+000	3.57715E+000	10	...........
	24	0.333333	7.53172E-001	5.99420E-003	0.00000E+000	4.51466E-003	3.59960E-001	-1.07776E+000	3.57710E+000	10	...........
	25	0.346667	7.59179E-001	5.99752E-003	0.00000E+000	4.55319E-003	3.59960E-001	-1.06688E+000	3.57710E+000	10	...........
	26	0.36	7.65206E-001	5.99408E-003	0.00000E+000	4.58671E-003	3.59960E-001	-1.06697E+000	3.57710E+000	10	...........
	27	0.373333	7.71266E-001	5.98830E-003	0.00000E+000	4.61857E-003	3.59960E-001	-1.07713E+000	3.57710E+000	10	...........
	28	0.386667	7.77313E-001	5.99447E-003	0.00000E+000	4.65958E-003	3.59960E-001	-1.06611E+000	3.57710E+000	10	...........
	29	0.4	7.83353E-001	5.99212E-003	0.00000E+000	4.69394E-003	3.59960E-001	-1.06611E+000	3.57710E+000	10	...........
	30	0.413333	7.89327E-001	5.99367E-003	0.00000E+000	4.73097E-003	3.59960E-001	-1.07653E+000	3.57710E+000	10	...........
	31	0.426667	7.95350E-001	5.99479E-003	0.00000E+000	4.76796E-003	3.59960E-001	-1.06562E+000	3.57710E+000	10	...........
	32	0.44	8.01362E-001	5.99504E-003	0.00000E+000	4.80420E-003	3.59960E-001	-1.06559E+000	3.57710E+000	10	...........
	33	0.453333	8.07347E-001	5.99286E-003	0.00000E+000	4.83832E-003	3.59960E-001	-1.07634E+000	3.57710E+000	10	...........
	34	0.466667	8.13367E-001	5.99423E-003	0.00000E+000	4.87551E-003	3.59960E-001	-1.06538E+000	3.57710E+000	10	...........
	35	0.48	8.19338E-001	5.99204E-003	0.00000E+000	4.90951E-003	3.59960E-001	-1.06534E+000	3.57710E+000	10	...........
	36	0.493333	8.25286E-001	5.99167E-003	0.00000E+000	4.94484E-003	3.59960E-001	-1.07592E+000	3.57710E+000	10	...........
	37	0.506667	8.31235E-001	5.99152E-003	0.00000E+000	4.98036E-003	3.59960E-001	-1.06514E+000	3.57710E+000	10	...........
	38	0.52	8.37223E-001	5.99371E-003	0.00000E+000	5.01807E-003	3.59960E-001	-1.06523E+000	3.57710E+000	10	...........
	39	0.533333	8.43179E-001	5.99341E-003	0.00000E+000	5.05351E-003	3.59960E-001	-1.07572E+000	3.57710E+000	10	...........
	40	0.546667	8.49124E-001	5.99215E-003	0.00000E+000	5.08808E-003	3.59960E-001	-1.06441E+000	3.57710E+000	10	...........
	41	0.56	8.55032E-001	5.99232E-003	0.00000E+000	5.12362E-003	3.59960E-001	-1.06515E+000	3.57710E+000	10	...........
	42	0.573333	8.60974E-001	5.99445E-003	0.00000E+000	5.16106E-003	3.59960E-001	-1.07591E+000	3.57710E+000	10	...........
	43	0.586667	8.66885E-001	5.99352E-003	0.00000E+000	5.19569E-003	3.59960E-001	-1.06492E+000	3.57710E+000	10	...........
	44	0.6	8.72797E-001	5.99212E-003	0.00000E+000	5.22991E-003	3.59960E-001	-1.06502E+000	3.57710E+000	10	...........
	45	0.613333	8.78670E-001	5.99309E-003	0.00000E+000	5.26595E-003	3.59960E-001	-1.07557E+000	3.57710E+000	10	...........
	46	0.626667	8.84556E-001	5.99137E-003	0.00000E+000	5.29971E-003	3.59960E-001	-1.06518E+000	3.57710E+000	10	...........
	47	0.64	8.90391E-001	5.98843E-003	0.00000E+000	5.33204E-003	3.59960E-001	-1.06552E+000	3.57710E+000	10	...........
	48	0.653333	8.96247E-001	5.99400E-003	0.00000E+000	5.37210E-003	3.59960E-001	-1.07603E+000	3.57710E+000	10	...........
	49	0.666667	9.02104E-001	5.99728E-003	0.00000E+000	5.41017E-003	3.59960E-001	-1.06491E+000	3.57710E+000	10	...........
	50	0.68	9.07900E-001	5.99441E-003	0.00000E+000	5.44232E-003	3.59960E-001	-1.06535E+000	3.57710E+000	10	...........
	51	0.693333	9.13698E-001	5.99743E-003	0.00000E+000	5.47984E-003	3.59960E-001	-1.07582E+000	3.57710E+000	10	...........
	52	0.706667	9.19520E-001	5.99421E-003	0.00000E+000	5.51180E-003	3.59960E-001	-1.06492E+000	3.57710E+000	10	...........
	53	0.72	9.25364E-001	5.99567E-003	0.00000E+000	5.54818E-003	3.59960E-001	-1.06516E+000	3.57710E+000	10	...........
	54	0.733333	9.31052E-001	5.99331E-003	0.00000E+000	5.58009E-003	3.59960E-001	-1.07564E+000	3.57710E+000	10	...........
	55	0.746667	9.36738E-001	5.99672E-003	0.00000E+000	5.61736E-003	3.59960E-001	-1.06477E+000	3.57710E+000	10	...........
	56	0.76	9.42399E-001	5.99686E-003	0.00000E+000	5.65143E-003	3.59960E-001	-1.06536E+000	3.57710E+000	10	...........
	57	0.773333	9.48056E-001	5.99231E-003	0.00000E+000	5.68105E-003	3.59960E-001	-1.07574E+000	3.57710E+000	10	...........
	58	0.786667	9.53698E-001	5.99526E-003	0.00000E+000	5.71767E-003	3.59960E-001	-1.06471E+000	3.57710E+000	10	...........
	59	0.8	9.59280E-001	5.99637E-003	0.00000E+000	5.75220E-003	3.59960E-001	-1.06505E+000	3.57710E+000	10	...........
	60	0.813333	9.64826E-001	5.99362E-003	0.00000E+000	5.78280E-003	3.59960E-001	-1.07573E+000	3.57710E+000	10	...........
	61	0.826667	9.70366E-001	5.99351E-003	0.00000E+000	5.81590E-003	3.59960E-001	-1.06488E+000	3.57710E+000	10	...........
	62	0.84	9.75903E-001	5.99306E-003	0.00000E+000	5.84864E-003	3.59960E-001	-1.06528E+000	3.57710E+000	10	...........
	63	0.853333	9.81352E-001	5.99319E-003	0.00000E+000	5.88143E-003	3.59960E-001	-1.07545E+000	3.57710E+000	10	...........
	64	0.866667	9.86798E-001	5.99457E-003	0.00000E+000	5.91543E-003	3.59960E-001	-1.06447E+000	3.57710E+000	10	...........
	65	0.88	9.92166E-001	5.99189E-003	0.00000E+000	5.94495E-003	3.59960E-001	-1.06512E+000	3.57710E+000	10	...........
	66	0.893333	9.97546E-001	5.99749E-003	0.00000E+000	5.98277E-003	3.59960E-001	-1.07574E+000	3.57710E+000	10	...........
	67	0.895	1.00049E+000	5.99179E-003	0.00000E+000	5.99475E-003	3.59960E-001	-1.06012E+000	3.57710E+000	10	...........
STARTTIMEOFFSET	QUANT	283.8301	Start Time Offset (s)