File: Data/CV_CRGO300517_1/PWRCCD_CRGO300517_1/CHARGE_DISCHARGE/CHARGE_#292.DTA
EXPLAIN
TAG	PWR800_CHARGE
TITLE	LABEL	PWR Cyclic Charge Discharge (Cell) - Charge Step	Test &Identifier
DATE	LABEL	22-6-2017	Date
TIME	LABEL	15:47:36	Time
NOTES	NOTES	3	&Notes...
	supercap test cell
	0.6mg
	6M KOH
PSTAT	PSTAT	IFC5000-01520	Potentiostat
CAPACITY	QUANT	1.00000E-003	Capacity (A-hr)
CELLTYPE	SELECTOR	1	&Cell Type
WORKINGCONNECTION	SELECTOR	0	&Working Lead
MAXCHARGETIME	VARIABLEANDUNITS	1.00000E+002	s	1.00000E+002	second(s)	Max &Charge Time
CHARGECURRENT	QUANT	6.00000E-003	&Charge Current (A)
VOLTAGEFINISH	TWOPARAM	F	1.00000E-003	3.60000E+003	&Voltage Finish	 I (A) < 	Max Time(s)
SAMPLETIME	QUANT	1.00000E-002	Sa&mple Period (s)
CHARGESTOPAT1	MULTIPARAM	4	1.00000E+000	Charge Stop At &1	Voltage > Limit	V
CHARGESTOPAT2	MULTIPARAM	0	0.00000E+000	Charge Stop At &2	None	N/A
AESBHCSELECTOR	TOGGLE	F	Save Both Half Cells
IRCOMP	TOGGLE	F	IR &Measure
EOC	QUANT	0	Open Circuit (V)
SEQUENCER	TOGGLE	TRUE	Run as Sequence
PSTATMODEL	IQUANT	53	Pstat Model
PSTATSECTION	LABEL	IFC5000-01520	Pstat Section
PSTATSERIALNO	LABEL	01520	Pstat Serial Number
CTRLMODE	IQUANT	0	Control Mode
ELECTROMETER	IQUANT	1	RE=0 or CS=1
IESTAB	IQUANT	0	I/E Stability
CASPEED	IQUANT	4	Control Amp Speed
CONVENTION	IQUANT	1	Current Convention
ICHRANGE	IQUANT	2	Ich Range
ICHRANGEMODE	TOGGLE	T	Ich Auto Range
ICHOFFSETENABLE	TOGGLE	F	Ich Offset Enable
ICHOFFSET	QUANT	0	Ich Offset (V)
ICHFILTER	IQUANT	1	Ich Filter
VCHRANGE	IQUANT	2	Vch Range
VCHRANGEMODE	TOGGLE	T	Vch Auto Range
VCHOFFSETENABLE	TOGGLE	F	Vch Offset Enable
VCHOFFSET	QUANT	0	Vch Offset (V)
VCHFILTER	IQUANT	1	Vch Filter
IERANGELOWERLIMIT	IQUANT	9	I/E Range Lower Limit
IERANGEMODE	TOGGLE	F	I/E AutoRange
IERANGE	IQUANT	10	I/E Range
ACHSELECT	IQUANT	1	Ach Select
ACHRANGE	IQUANT	2	Ach Range
ACHOFFSETENABLE	TOGGLE	F	Ach Offset Enable
ACHOFFSET	QUANT	0	Ach Offset (V)
ACHFILTER	IQUANT	1	Ach Filter
CABLEID	IQUANT	14	Cable ID
DCCALDATE	LABEL	20-10-2016	DC Calibration Date
ACCALDATE	LABEL	12/3/2015	AC Calibration Date
FRAMEWORKVERSION	QUANT	7.01	Framework Version
INSTRUMENTVERSION	LABEL	4.00	Instrument Version
CURVE	TABLE	63
	Pt	T	Vf	Im	Vu	Pwr	Sig	Ach	Temp	IERange	Over
	#	s	V	A	V	W	V	V	deg C	#	bits
	0	0.013333	6.15203E-001	5.99433E-003	0.00000E+000	3.68773E-003	3.59960E-001	-1.10594E+000	3.57810E+000	10	...........
	1	0.026667	6.23859E-001	5.99681E-003	0.00000E+000	3.74116E-003	3.59960E-001	-1.11493E+000	3.57810E+000	10	...........
	2	0.04	6.31729E-001	5.99336E-003	0.00000E+000	3.78618E-003	3.59960E-001	-1.10440E+000	3.57810E+000	10	...........
	3	0.053333	6.39238E-001	5.99281E-003	0.00000E+000	3.83083E-003	3.59960E-001	-1.10536E+000	3.57810E+000	10	...........
	4	0.066667	6.46446E-001	5.99254E-003	0.00000E+000	3.87385E-003	3.59960E-001	-1.11478E+000	3.57810E+000	10	...........
	5	0.08	6.53475E-001	5.99879E-003	0.00000E+000	3.92006E-003	3.59960E-001	-1.10461E+000	3.57810E+000	10	...........
	6	0.093333	6.60367E-001	5.99757E-003	0.00000E+000	3.96060E-003	3.59960E-001	-1.10550E+000	3.57810E+000	10	...........
	7	0.106667	6.67162E-001	5.99877E-003	0.00000E+000	4.00215E-003	3.59960E-001	-1.11464E+000	3.57810E+000	10	...........
	8	0.12	6.73865E-001	5.99390E-003	0.00000E+000	4.03907E-003	3.59960E-001	-1.10431E+000	3.57810E+000	10	...........
	9	0.133333	6.80502E-001	5.99625E-003	0.00000E+000	4.08046E-003	3.59960E-001	-1.10520E+000	3.57810E+000	10	...........
	10	0.146667	6.87095E-001	5.98864E-003	0.00000E+000	4.11476E-003	3.59960E-001	-1.11498E+000	3.57810E+000	10	...........
	11	0.16	6.93647E-001	5.99608E-003	0.00000E+000	4.15916E-003	3.59960E-001	-1.10460E+000	3.57810E+000	10	...........
	12	0.173333	7.00163E-001	5.99548E-003	0.00000E+000	4.19781E-003	3.59960E-001	-1.10504E+000	3.57810E+000	10	...........
	13	0.186667	7.06592E-001	5.99406E-003	0.00000E+000	4.23536E-003	3.59960E-001	-1.11477E+000	3.57810E+000	10	...........
	14	0.2	7.13004E-001	5.99388E-003	0.00000E+000	4.27366E-003	3.59960E-001	-1.10462E+000	3.57810E+000	10	...........
	15	0.213333	7.19449E-001	5.99224E-003	0.00000E+000	4.31111E-003	3.59960E-001	-1.10499E+000	3.57810E+000	10	...........
	16	0.226667	7.25811E-001	5.99442E-003	0.00000E+000	4.35082E-003	3.59960E-001	-1.11461E+000	3.57810E+000	10	...........
	17	0.24	7.32144E-001	5.99798E-003	0.00000E+000	4.39139E-003	3.59960E-001	-1.10430E+000	3.57810E+000	10	...........
	18	0.253333	7.38455E-001	5.99465E-003	0.00000E+000	4.42678E-003	3.59960E-001	-1.10438E+000	3.57810E+000	10	...........
	19	0.266667	7.44796E-001	5.99429E-003	0.00000E+000	4.46452E-003	3.59960E-001	-1.11456E+000	3.57810E+000	10	...........
	20	0.28	7.51109E-001	5.99375E-003	0.00000E+000	4.50196E-003	3.59960E-001	-1.10436E+000	3.57810E+000	10	...........
	21	0.293333	7.57423E-001	5.99458E-003	0.00000E+000	4.54044E-003	3.59960E-001	-1.10444E+000	3.57810E+000	10	...........
	22	0.306667	7.63715E-001	5.99462E-003	0.00000E+000	4.57818E-003	3.59960E-001	-1.11433E+000	3.57810E+000	10	...........
	23	0.32	7.69924E-001	5.99579E-003	0.00000E+000	4.61631E-003	3.59960E-001	-1.10422E+000	3.57810E+000	10	...........
	24	0.333333	7.76201E-001	5.99570E-003	0.00000E+000	4.65387E-003	3.59960E-001	-1.10427E+000	3.57810E+000	10	...........
	25	0.346667	7.82509E-001	5.99696E-003	0.00000E+000	4.69267E-003	3.59960E-001	-1.11462E+000	3.57810E+000	10	...........
	26	0.36	7.88711E-001	5.99232E-003	0.00000E+000	4.72621E-003	3.59960E-001	-1.10462E+000	3.57810E+000	10	...........
	27	0.373333	7.94971E-001	5.99346E-003	0.00000E+000	4.76462E-003	3.59960E-001	-1.10451E+000	3.57810E+000	10	...........
	28	0.386667	8.01184E-001	5.99916E-003	0.00000E+000	4.80644E-003	3.59960E-001	-1.11464E+000	3.57810E+000	10	...........
	29	0.4	8.07371E-001	5.99560E-003	0.00000E+000	4.84067E-003	3.59960E-001	-1.10478E+000	3.57810E+000	10	...........
	30	0.413333	8.13574E-001	5.99191E-003	0.00000E+000	4.87486E-003	3.59960E-001	-1.10468E+000	3.57810E+000	10	...........
	31	0.426667	8.19804E-001	5.99256E-003	0.00000E+000	4.91272E-003	3.59960E-001	-1.11472E+000	3.57810E+000	10	...........
	32	0.44	8.25947E-001	5.99508E-003	0.00000E+000	4.95162E-003	3.59960E-001	-1.10453E+000	3.57810E+000	10	...........
	33	0.453333	8.32099E-001	5.99426E-003	0.00000E+000	4.98782E-003	3.59960E-001	-1.10397E+000	3.57810E+000	10	...........
	34	0.466667	8.38230E-001	5.99523E-003	0.00000E+000	5.02538E-003	3.59960E-001	-1.11477E+000	3.57810E+000	10	...........
	35	0.48	8.44356E-001	5.99175E-003	0.00000E+000	5.05917E-003	3.59960E-001	-1.10484E+000	3.57810E+000	10	...........
	36	0.493333	8.50476E-001	5.99453E-003	0.00000E+000	5.09821E-003	3.59960E-001	-1.10427E+000	3.57810E+000	10	...........
	37	0.506667	8.56602E-001	5.99147E-003	0.00000E+000	5.13230E-003	3.59960E-001	-1.11454E+000	3.57810E+000	10	...........
	38	0.52	8.62707E-001	5.99668E-003	0.00000E+000	5.17338E-003	3.59960E-001	-1.10483E+000	3.57810E+000	10	...........
	39	0.533333	8.68808E-001	5.99458E-003	0.00000E+000	5.20814E-003	3.59960E-001	-1.10424E+000	3.57810E+000	10	...........
	40	0.546667	8.74853E-001	5.99084E-003	0.00000E+000	5.24110E-003	3.59960E-001	-1.11471E+000	3.57810E+000	10	...........
	41	0.56	8.80881E-001	5.99359E-003	0.00000E+000	5.27964E-003	3.59960E-001	-1.10479E+000	3.57810E+000	10	...........
	42	0.573333	8.86933E-001	5.99150E-003	0.00000E+000	5.31406E-003	3.59960E-001	-1.10361E+000	3.57810E+000	10	...........
	43	0.586667	8.92938E-001	5.99497E-003	0.00000E+000	5.35314E-003	3.59960E-001	-1.11423E+000	3.57810E+000	10	...........
	44	0.6	8.98952E-001	5.99449E-003	0.00000E+000	5.38876E-003	3.59960E-001	-1.10490E+000	3.57810E+000	10	...........
	45	0.613333	9.04935E-001	5.99614E-003	0.00000E+000	5.42612E-003	3.59960E-001	-1.10373E+000	3.57810E+000	10	...........
	46	0.626667	9.10909E-001	5.99214E-003	0.00000E+000	5.45829E-003	3.59960E-001	-1.11436E+000	3.57810E+000	10	...........
	47	0.64	9.16831E-001	5.99457E-003	0.00000E+000	5.49601E-003	3.59960E-001	-1.10476E+000	3.57810E+000	10	...........
	48	0.653333	9.22769E-001	5.99788E-003	0.00000E+000	5.53466E-003	3.59960E-001	-1.10378E+000	3.57810E+000	10	...........
	49	0.666667	9.28623E-001	5.99402E-003	0.00000E+000	5.56618E-003	3.59960E-001	-1.11450E+000	3.57810E+000	10	...........
	50	0.68	9.34456E-001	5.99425E-003	0.00000E+000	5.60136E-003	3.59960E-001	-1.10507E+000	3.57810E+000	10	...........
	51	0.693333	9.40232E-001	5.99028E-003	0.00000E+000	5.63225E-003	3.59960E-001	-1.10375E+000	3.57810E+000	10	...........
	52	0.706667	9.46047E-001	5.98812E-003	0.00000E+000	5.66504E-003	3.59960E-001	-1.11418E+000	3.57810E+000	10	...........
	53	0.72	9.51760E-001	5.99163E-003	0.00000E+000	5.70260E-003	3.59960E-001	-1.10483E+000	3.57810E+000	10	...........
	54	0.733333	9.57461E-001	5.99575E-003	0.00000E+000	5.74070E-003	3.59960E-001	-1.10379E+000	3.57810E+000	10	...........
	55	0.746667	9.63103E-001	5.99407E-003	0.00000E+000	5.77291E-003	3.59960E-001	-1.11441E+000	3.57810E+000	10	...........
	56	0.76	9.68759E-001	5.99898E-003	0.00000E+000	5.81156E-003	3.59960E-001	-1.10505E+000	3.57810E+000	10	...........
	57	0.773333	9.74365E-001	5.99141E-003	0.00000E+000	5.83782E-003	3.59960E-001	-1.10363E+000	3.57810E+000	10	...........
	58	0.786667	9.79920E-001	5.99233E-003	0.00000E+000	5.87201E-003	3.59960E-001	-1.11436E+000	3.57810E+000	10	...........
	59	0.8	9.85462E-001	5.99442E-003	0.00000E+000	5.90727E-003	3.59960E-001	-1.10528E+000	3.57810E+000	10	...........
	60	0.813333	9.90924E-001	5.99294E-003	0.00000E+000	5.93855E-003	3.59960E-001	-1.10396E+000	3.57810E+000	10	...........
	61	0.826667	9.96400E-001	5.99314E-003	0.00000E+000	5.97157E-003	3.59960E-001	-1.11444E+000	3.57810E+000	10	...........
	62	0.83	9.99754E-001	5.99200E-003	0.00000E+000	5.99052E-003	3.59960E-001	-1.09279E+000	3.57810E+000	10	...........
STARTTIMEOFFSET	QUANT	527.9432	Start Time Offset (s)