File: Data/CV_CRGO300517_1/PWRCCD_CRGO300517_1/CHARGE_DISCHARGE/CHARGE_#390.DTA
EXPLAIN
TAG	PWR800_CHARGE
TITLE	LABEL	PWR Cyclic Charge Discharge (Cell) - Charge Step	Test &Identifier
DATE	LABEL	22-6-2017	Date
TIME	LABEL	15:51:34	Time
NOTES	NOTES	3	&Notes...
	supercap test cell
	0.6mg
	6M KOH
PSTAT	PSTAT	IFC5000-01520	Potentiostat
CAPACITY	QUANT	1.00000E-003	Capacity (A-hr)
CELLTYPE	SELECTOR	1	&Cell Type
WORKINGCONNECTION	SELECTOR	0	&Working Lead
MAXCHARGETIME	VARIABLEANDUNITS	1.00000E+002	s	1.00000E+002	second(s)	Max &Charge Time
CHARGECURRENT	QUANT	6.00000E-003	&Charge Current (A)
VOLTAGEFINISH	TWOPARAM	F	1.00000E-003	3.60000E+003	&Voltage Finish	 I (A) < 	Max Time(s)
SAMPLETIME	QUANT	1.00000E-002	Sa&mple Period (s)
CHARGESTOPAT1	MULTIPARAM	4	1.00000E+000	Charge Stop At &1	Voltage > Limit	V
CHARGESTOPAT2	MULTIPARAM	0	0.00000E+000	Charge Stop At &2	None	N/A
AESBHCSELECTOR	TOGGLE	F	Save Both Half Cells
IRCOMP	TOGGLE	F	IR &Measure
EOC	QUANT	0	Open Circuit (V)
SEQUENCER	TOGGLE	TRUE	Run as Sequence
PSTATMODEL	IQUANT	53	Pstat Model
PSTATSECTION	LABEL	IFC5000-01520	Pstat Section
PSTATSERIALNO	LABEL	01520	Pstat Serial Number
CTRLMODE	IQUANT	0	Control Mode
ELECTROMETER	IQUANT	1	RE=0 or CS=1
IESTAB	IQUANT	0	I/E Stability
CASPEED	IQUANT	4	Control Amp Speed
CONVENTION	IQUANT	1	Current Convention
ICHRANGE	IQUANT	2	Ich Range
ICHRANGEMODE	TOGGLE	T	Ich Auto Range
ICHOFFSETENABLE	TOGGLE	F	Ich Offset Enable
ICHOFFSET	QUANT	0	Ich Offset (V)
ICHFILTER	IQUANT	1	Ich Filter
VCHRANGE	IQUANT	2	Vch Range
VCHRANGEMODE	TOGGLE	T	Vch Auto Range
VCHOFFSETENABLE	TOGGLE	F	Vch Offset Enable
VCHOFFSET	QUANT	0	Vch Offset (V)
VCHFILTER	IQUANT	1	Vch Filter
IERANGELOWERLIMIT	IQUANT	9	I/E Range Lower Limit
IERANGEMODE	TOGGLE	F	I/E AutoRange
IERANGE	IQUANT	10	I/E Range
ACHSELECT	IQUANT	1	Ach Select
ACHRANGE	IQUANT	2	Ach Range
ACHOFFSETENABLE	TOGGLE	F	Ach Offset Enable
ACHOFFSET	QUANT	0	Ach Offset (V)
ACHFILTER	IQUANT	1	Ach Filter
CABLEID	IQUANT	14	Cable ID
DCCALDATE	LABEL	20-10-2016	DC Calibration Date
ACCALDATE	LABEL	12/3/2015	AC Calibration Date
FRAMEWORKVERSION	QUANT	7.01	Framework Version
INSTRUMENTVERSION	LABEL	4.00	Instrument Version
CURVE	TABLE	60
	Pt	T	Vf	Im	Vu	Pwr	Sig	Ach	Temp	IERange	Over
	#	s	V	A	V	W	V	V	deg C	#	bits
	0	0.013333	6.24391E-001	5.99463E-003	0.00000E+000	3.74299E-003	3.59960E-001	-1.13123E+000	3.57660E+000	10	...........
	1	0.026667	6.33090E-001	5.99362E-003	0.00000E+000	3.79450E-003	3.59960E-001	-1.12463E+000	3.57660E+000	10	...........
	2	0.04	6.41125E-001	5.99337E-003	0.00000E+000	3.84250E-003	3.59960E-001	-1.12067E+000	3.57660E+000	10	...........
	3	0.053333	6.48772E-001	5.99386E-003	0.00000E+000	3.88865E-003	3.59960E-001	-1.13111E+000	3.57660E+000	10	...........
	4	0.066667	6.56128E-001	5.99245E-003	0.00000E+000	3.93181E-003	3.59960E-001	-1.12452E+000	3.57660E+000	10	...........
	5	0.08	6.63246E-001	5.99252E-003	0.00000E+000	3.97451E-003	3.59960E-001	-1.12085E+000	3.57660E+000	10	...........
	6	0.093333	6.70286E-001	5.99418E-003	0.00000E+000	4.01781E-003	3.59960E-001	-1.13117E+000	3.57660E+000	10	...........
	7	0.106667	6.77170E-001	5.99743E-003	0.00000E+000	4.06128E-003	3.59960E-001	-1.12423E+000	3.57660E+000	10	...........
	8	0.12	6.83980E-001	5.99528E-003	0.00000E+000	4.10065E-003	3.59960E-001	-1.12054E+000	3.57660E+000	10	...........
	9	0.133333	6.90750E-001	5.99570E-003	0.00000E+000	4.14153E-003	3.59960E-001	-1.13112E+000	3.57660E+000	10	...........
	10	0.146667	6.97445E-001	5.99554E-003	0.00000E+000	4.18156E-003	3.59960E-001	-1.12420E+000	3.57660E+000	10	...........
	11	0.16	7.04037E-001	5.99261E-003	0.00000E+000	4.21902E-003	3.59960E-001	-1.12025E+000	3.57660E+000	10	...........
	12	0.173333	7.10573E-001	5.99244E-003	0.00000E+000	4.25806E-003	3.59960E-001	-1.13078E+000	3.57660E+000	10	...........
	13	0.186667	7.17162E-001	5.99212E-003	0.00000E+000	4.29732E-003	3.59960E-001	-1.12356E+000	3.57660E+000	10	...........
	14	0.2	7.23718E-001	5.99164E-003	0.00000E+000	4.33626E-003	3.59960E-001	-1.12014E+000	3.57660E+000	10	...........
	15	0.213333	7.30189E-001	5.99351E-003	0.00000E+000	4.37640E-003	3.59960E-001	-1.13071E+000	3.57660E+000	10	...........
	16	0.226667	7.36684E-001	5.99306E-003	0.00000E+000	4.41499E-003	3.59960E-001	-1.12390E+000	3.57660E+000	10	...........
	17	0.24	7.43148E-001	5.99911E-003	0.00000E+000	4.45823E-003	3.59960E-001	-1.12011E+000	3.57660E+000	10	...........
	18	0.253333	7.49594E-001	5.99543E-003	0.00000E+000	4.49414E-003	3.59960E-001	-1.13055E+000	3.57660E+000	10	...........
	19	0.266667	7.56024E-001	5.99595E-003	0.00000E+000	4.53308E-003	3.59960E-001	-1.12364E+000	3.57660E+000	10	...........
	20	0.28	7.62377E-001	5.99324E-003	0.00000E+000	4.56911E-003	3.59960E-001	-1.11987E+000	3.57660E+000	10	...........
	21	0.293333	7.68785E-001	5.98952E-003	0.00000E+000	4.60465E-003	3.59960E-001	-1.13057E+000	3.57660E+000	10	...........
	22	0.306667	7.75197E-001	5.99760E-003	0.00000E+000	4.64932E-003	3.59960E-001	-1.12341E+000	3.57660E+000	10	...........
	23	0.32	7.81558E-001	5.99148E-003	0.00000E+000	4.68269E-003	3.59960E-001	-1.11956E+000	3.57660E+000	10	...........
	24	0.333333	7.87929E-001	5.99538E-003	0.00000E+000	4.72393E-003	3.59960E-001	-1.13058E+000	3.57660E+000	10	...........
	25	0.346667	7.94264E-001	5.98994E-003	0.00000E+000	4.75760E-003	3.59960E-001	-1.12336E+000	3.57660E+000	10	...........
	26	0.36	8.00593E-001	5.99336E-003	0.00000E+000	4.79824E-003	3.59960E-001	-1.11981E+000	3.57660E+000	10	...........
	27	0.373333	8.06898E-001	5.99177E-003	0.00000E+000	4.83474E-003	3.59960E-001	-1.13038E+000	3.57660E+000	10	...........
	28	0.386667	8.13221E-001	5.99731E-003	0.00000E+000	4.87714E-003	3.59960E-001	-1.12313E+000	3.57671E+000	10	...........
	29	0.4	8.19503E-001	5.99617E-003	0.00000E+000	4.91388E-003	3.59960E-001	-1.11982E+000	3.57690E+000	10	...........
	30	0.413333	8.25785E-001	5.99478E-003	0.00000E+000	4.95040E-003	3.59960E-001	-1.13078E+000	3.57690E+000	10	...........
	31	0.426667	8.32028E-001	5.99365E-003	0.00000E+000	4.98688E-003	3.59960E-001	-1.12335E+000	3.57690E+000	10	...........
	32	0.44	8.38259E-001	5.99209E-003	0.00000E+000	5.02293E-003	3.59960E-001	-1.11971E+000	3.57690E+000	10	...........
	33	0.453333	8.44499E-001	5.99513E-003	0.00000E+000	5.06288E-003	3.59960E-001	-1.13035E+000	3.57690E+000	10	...........
	34	0.466667	8.50753E-001	5.99184E-003	0.00000E+000	5.09757E-003	3.59960E-001	-1.12284E+000	3.57690E+000	10	...........
	35	0.48	8.56964E-001	5.99600E-003	0.00000E+000	5.13836E-003	3.59960E-001	-1.11951E+000	3.57690E+000	10	...........
	36	0.493333	8.63143E-001	5.99417E-003	0.00000E+000	5.17383E-003	3.59960E-001	-1.13022E+000	3.57690E+000	10	...........
	37	0.506667	8.69342E-001	5.99499E-003	0.00000E+000	5.21170E-003	3.59960E-001	-1.12260E+000	3.57690E+000	10	...........
	38	0.52	8.75492E-001	5.99177E-003	0.00000E+000	5.24574E-003	3.59960E-001	-1.11912E+000	3.57690E+000	10	...........
	39	0.533333	8.81628E-001	5.99451E-003	0.00000E+000	5.28493E-003	3.59960E-001	-1.12984E+000	3.57690E+000	10	...........
	40	0.546667	8.87746E-001	5.98947E-003	0.00000E+000	5.31713E-003	3.59960E-001	-1.12256E+000	3.57690E+000	10	...........
	41	0.56	8.93831E-001	5.99698E-003	0.00000E+000	5.36029E-003	3.59960E-001	-1.11919E+000	3.57690E+000	10	...........
	42	0.573333	8.99922E-001	6.00282E-003	0.00000E+000	5.40207E-003	3.59960E-001	-1.12987E+000	3.57690E+000	10	...........
	43	0.586667	9.05964E-001	5.99967E-003	0.00000E+000	5.43549E-003	3.59960E-001	-1.12238E+000	3.57690E+000	10	...........
	44	0.6	9.11951E-001	5.99347E-003	0.00000E+000	5.46575E-003	3.59960E-001	-1.11907E+000	3.57690E+000	10	...........
	45	0.613333	9.17945E-001	5.99374E-003	0.00000E+000	5.50192E-003	3.59960E-001	-1.12987E+000	3.57690E+000	10	...........
	46	0.626667	9.23922E-001	5.99015E-003	0.00000E+000	5.53443E-003	3.59960E-001	-1.12242E+000	3.57690E+000	10	...........
	47	0.64	9.29854E-001	5.99323E-003	0.00000E+000	5.57283E-003	3.59960E-001	-1.11911E+000	3.57690E+000	10	...........
	48	0.653333	9.35739E-001	5.99417E-003	0.00000E+000	5.60898E-003	3.59960E-001	-1.12977E+000	3.57690E+000	10	...........
	49	0.666667	9.41570E-001	5.99344E-003	0.00000E+000	5.64324E-003	3.59960E-001	-1.12203E+000	3.57690E+000	10	...........
	50	0.68	9.47416E-001	5.99473E-003	0.00000E+000	5.67950E-003	3.59960E-001	-1.11898E+000	3.57690E+000	10	...........
	51	0.693333	9.53197E-001	5.99806E-003	0.00000E+000	5.71733E-003	3.59960E-001	-1.13002E+000	3.57690E+000	10	...........
	52	0.706667	9.58936E-001	5.99165E-003	0.00000E+000	5.74561E-003	3.59960E-001	-1.12224E+000	3.57690E+000	10	...........
	53	0.72	9.64630E-001	5.99616E-003	0.00000E+000	5.78407E-003	3.59960E-001	-1.11900E+000	3.57690E+000	10	...........
	54	0.733333	9.70304E-001	5.99347E-003	0.00000E+000	5.81549E-003	3.59960E-001	-1.12982E+000	3.57690E+000	10	...........
	55	0.746667	9.75940E-001	5.99415E-003	0.00000E+000	5.84993E-003	3.59960E-001	-1.12211E+000	3.57690E+000	10	...........
	56	0.76	9.81506E-001	5.99099E-003	0.00000E+000	5.88019E-003	3.59960E-001	-1.11931E+000	3.57690E+000	10	...........
	57	0.773333	9.87030E-001	5.99205E-003	0.00000E+000	5.91434E-003	3.59960E-001	-1.12977E+000	3.57690E+000	10	...........
	58	0.786667	9.92520E-001	5.98969E-003	0.00000E+000	5.94489E-003	3.59960E-001	-1.12191E+000	3.57690E+000	10	...........
	59	0.8	9.97979E-001	5.99458E-003	0.00000E+000	5.98247E-003	3.59960E-001	-1.11851E+000	3.57690E+000	10	...........
STARTTIMEOFFSET	QUANT	686.7684	Start Time Offset (s)