File: Data/CV_CRGO300517_1/PWRCCD_CRGO300517_1/CHARGE_DISCHARGE/CHARGE_#494.DTA
EXPLAIN
TAG	PWR800_CHARGE
TITLE	LABEL	PWR Cyclic Charge Discharge (Cell) - Charge Step	Test &Identifier
DATE	LABEL	22-6-2017	Date
TIME	LABEL	15:55:41	Time
NOTES	NOTES	3	&Notes...
	supercap test cell
	0.6mg
	6M KOH
PSTAT	PSTAT	IFC5000-01520	Potentiostat
CAPACITY	QUANT	1.00000E-003	Capacity (A-hr)
CELLTYPE	SELECTOR	1	&Cell Type
WORKINGCONNECTION	SELECTOR	0	&Working Lead
MAXCHARGETIME	VARIABLEANDUNITS	1.00000E+002	s	1.00000E+002	second(s)	Max &Charge Time
CHARGECURRENT	QUANT	6.00000E-003	&Charge Current (A)
VOLTAGEFINISH	TWOPARAM	F	1.00000E-003	3.60000E+003	&Voltage Finish	 I (A) < 	Max Time(s)
SAMPLETIME	QUANT	1.00000E-002	Sa&mple Period (s)
CHARGESTOPAT1	MULTIPARAM	4	1.00000E+000	Charge Stop At &1	Voltage > Limit	V
CHARGESTOPAT2	MULTIPARAM	0	0.00000E+000	Charge Stop At &2	None	N/A
AESBHCSELECTOR	TOGGLE	F	Save Both Half Cells
IRCOMP	TOGGLE	F	IR &Measure
EOC	QUANT	0	Open Circuit (V)
SEQUENCER	TOGGLE	TRUE	Run as Sequence
PSTATMODEL	IQUANT	53	Pstat Model
PSTATSECTION	LABEL	IFC5000-01520	Pstat Section
PSTATSERIALNO	LABEL	01520	Pstat Serial Number
CTRLMODE	IQUANT	0	Control Mode
ELECTROMETER	IQUANT	1	RE=0 or CS=1
IESTAB	IQUANT	0	I/E Stability
CASPEED	IQUANT	4	Control Amp Speed
CONVENTION	IQUANT	1	Current Convention
ICHRANGE	IQUANT	2	Ich Range
ICHRANGEMODE	TOGGLE	T	Ich Auto Range
ICHOFFSETENABLE	TOGGLE	F	Ich Offset Enable
ICHOFFSET	QUANT	0	Ich Offset (V)
ICHFILTER	IQUANT	1	Ich Filter
VCHRANGE	IQUANT	2	Vch Range
VCHRANGEMODE	TOGGLE	T	Vch Auto Range
VCHOFFSETENABLE	TOGGLE	F	Vch Offset Enable
VCHOFFSET	QUANT	0	Vch Offset (V)
VCHFILTER	IQUANT	1	Vch Filter
IERANGELOWERLIMIT	IQUANT	9	I/E Range Lower Limit
IERANGEMODE	TOGGLE	F	I/E AutoRange
IERANGE	IQUANT	10	I/E Range
ACHSELECT	IQUANT	1	Ach Select
ACHRANGE	IQUANT	2	Ach Range
ACHOFFSETENABLE	TOGGLE	F	Ach Offset Enable
ACHOFFSET	QUANT	0	Ach Offset (V)
ACHFILTER	IQUANT	1	Ach Filter
CABLEID	IQUANT	14	Cable ID
DCCALDATE	LABEL	20-10-2016	DC Calibration Date
ACCALDATE	LABEL	12/3/2015	AC Calibration Date
FRAMEWORKVERSION	QUANT	7.01	Framework Version
INSTRUMENTVERSION	LABEL	4.00	Instrument Version
CURVE	TABLE	59
	Pt	T	Vf	Im	Vu	Pwr	Sig	Ach	Temp	IERange	Over
	#	s	V	A	V	W	V	V	deg C	#	bits
	0	0.013333	6.31524E-001	5.99562E-003	0.00000E+000	3.78638E-003	3.59960E-001	-1.12898E+000	3.57790E+000	10	...........
	1	0.026667	6.40415E-001	5.99089E-003	0.00000E+000	3.83666E-003	3.59960E-001	-1.12773E+000	3.57790E+000	10	...........
	2	0.04	6.48599E-001	5.99317E-003	0.00000E+000	3.88716E-003	3.59960E-001	-1.13784E+000	3.57790E+000	10	...........
	3	0.053333	6.56308E-001	5.99532E-003	0.00000E+000	3.93478E-003	3.59960E-001	-1.12932E+000	3.57790E+000	10	...........
	4	0.066667	6.63752E-001	5.99146E-003	0.00000E+000	3.97684E-003	3.59960E-001	-1.12767E+000	3.57790E+000	10	...........
	5	0.08	6.71065E-001	5.99944E-003	0.00000E+000	4.02602E-003	3.59960E-001	-1.13769E+000	3.57790E+000	10	...........
	6	0.093333	6.78170E-001	5.99134E-003	0.00000E+000	4.06315E-003	3.59960E-001	-1.12953E+000	3.57790E+000	10	...........
	7	0.106667	6.85161E-001	5.99457E-003	0.00000E+000	4.10725E-003	3.59960E-001	-1.12798E+000	3.57790E+000	10	...........
	8	0.12	6.92076E-001	5.99608E-003	0.00000E+000	4.14974E-003	3.59960E-001	-1.13800E+000	3.57790E+000	10	...........
	9	0.133333	6.98931E-001	5.99071E-003	0.00000E+000	4.18710E-003	3.59960E-001	-1.12980E+000	3.57790E+000	10	...........
	10	0.146667	7.05735E-001	5.99729E-003	0.00000E+000	4.23250E-003	3.59960E-001	-1.12797E+000	3.57790E+000	10	...........
	11	0.16	7.12483E-001	5.99321E-003	0.00000E+000	4.27006E-003	3.59960E-001	-1.13792E+000	3.57790E+000	10	...........
	12	0.173333	7.19211E-001	5.99721E-003	0.00000E+000	4.31326E-003	3.59960E-001	-1.12997E+000	3.57790E+000	10	...........
	13	0.186667	7.25875E-001	5.99234E-003	0.00000E+000	4.34969E-003	3.59960E-001	-1.12808E+000	3.57790E+000	10	...........
	14	0.2	7.32515E-001	5.99179E-003	0.00000E+000	4.38908E-003	3.59960E-001	-1.13793E+000	3.57790E+000	10	...........
	15	0.213333	7.39098E-001	5.99123E-003	0.00000E+000	4.42810E-003	3.59960E-001	-1.12953E+000	3.57790E+000	10	...........
	16	0.226667	7.45672E-001	5.99516E-003	0.00000E+000	4.47042E-003	3.59960E-001	-1.12774E+000	3.57790E+000	10	...........
	17	0.24	7.52240E-001	5.99698E-003	0.00000E+000	4.51117E-003	3.59960E-001	-1.13799E+000	3.57790E+000	10	...........
	18	0.253333	7.58794E-001	5.99737E-003	0.00000E+000	4.55076E-003	3.59960E-001	-1.13008E+000	3.57790E+000	10	...........
	19	0.266667	7.65290E-001	5.99344E-003	0.00000E+000	4.58672E-003	3.59960E-001	-1.12793E+000	3.57790E+000	10	...........
	20	0.28	7.71827E-001	5.99916E-003	0.00000E+000	4.63032E-003	3.59960E-001	-1.13816E+000	3.57790E+000	10	...........
	21	0.293333	7.78287E-001	5.99133E-003	0.00000E+000	4.66297E-003	3.59960E-001	-1.12975E+000	3.57790E+000	10	...........
	22	0.306667	7.84769E-001	5.99144E-003	0.00000E+000	4.70190E-003	3.59960E-001	-1.12802E+000	3.57790E+000	10	...........
	23	0.32	7.91222E-001	5.99417E-003	0.00000E+000	4.74272E-003	3.59960E-001	-1.13849E+000	3.57790E+000	10	...........
	24	0.333333	7.97695E-001	5.99316E-003	0.00000E+000	4.78071E-003	3.59960E-001	-1.13016E+000	3.57790E+000	10	...........
	25	0.346667	8.04069E-001	5.98856E-003	0.00000E+000	4.81521E-003	3.59960E-001	-1.12776E+000	3.57790E+000	10	...........
	26	0.36	8.10460E-001	5.99353E-003	0.00000E+000	4.85752E-003	3.59960E-001	-1.13816E+000	3.57790E+000	10	...........
	27	0.373333	8.16799E-001	5.99177E-003	0.00000E+000	4.89407E-003	3.59960E-001	-1.13029E+000	3.57790E+000	10	...........
	28	0.386667	8.23224E-001	5.98703E-003	0.00000E+000	4.92867E-003	3.59960E-001	-1.12831E+000	3.57790E+000	10	...........
	29	0.4	8.29561E-001	5.99247E-003	0.00000E+000	4.97112E-003	3.59960E-001	-1.13868E+000	3.57790E+000	10	...........
	30	0.413333	8.35893E-001	5.99543E-003	0.00000E+000	5.01154E-003	3.59960E-001	-1.13050E+000	3.57790E+000	10	...........
	31	0.426667	8.42222E-001	5.99275E-003	0.00000E+000	5.04722E-003	3.59960E-001	-1.12834E+000	3.57790E+000	10	...........
	32	0.44	8.48547E-001	5.99305E-003	0.00000E+000	5.08538E-003	3.59960E-001	-1.13891E+000	3.57790E+000	10	...........
	33	0.453333	8.54808E-001	5.99306E-003	0.00000E+000	5.12292E-003	3.59960E-001	-1.13080E+000	3.57790E+000	10	...........
	34	0.466667	8.61093E-001	5.99378E-003	0.00000E+000	5.16120E-003	3.59960E-001	-1.12824E+000	3.57790E+000	10	...........
	35	0.48	8.67320E-001	5.99408E-003	0.00000E+000	5.19879E-003	3.59960E-001	-1.13869E+000	3.57790E+000	10	...........
	36	0.493333	8.73559E-001	5.99576E-003	0.00000E+000	5.23765E-003	3.59960E-001	-1.13061E+000	3.57790E+000	10	...........
	37	0.506667	8.79752E-001	5.99578E-003	0.00000E+000	5.27480E-003	3.59960E-001	-1.12852E+000	3.57790E+000	10	...........
	38	0.52	8.85952E-001	5.99188E-003	0.00000E+000	5.30852E-003	3.59960E-001	-1.13865E+000	3.57756E+000	10	...........
	39	0.533333	8.92082E-001	5.99618E-003	0.00000E+000	5.34908E-003	3.59960E-001	-1.13061E+000	3.57700E+000	10	...........
	40	0.546667	8.98240E-001	5.99605E-003	0.00000E+000	5.38590E-003	3.59960E-001	-1.12777E+000	3.57700E+000	10	...........
	41	0.56	9.04312E-001	5.99476E-003	0.00000E+000	5.42114E-003	3.59960E-001	-1.13847E+000	3.57700E+000	10	...........
	42	0.573333	9.10448E-001	5.99375E-003	0.00000E+000	5.45700E-003	3.59960E-001	-1.13059E+000	3.57700E+000	10	...........
	43	0.586667	9.16472E-001	5.99439E-003	0.00000E+000	5.49369E-003	3.59960E-001	-1.12798E+000	3.57700E+000	10	...........
	44	0.6	9.22539E-001	5.99464E-003	0.00000E+000	5.53029E-003	3.59960E-001	-1.13864E+000	3.57700E+000	10	...........
	45	0.613333	9.28516E-001	5.99195E-003	0.00000E+000	5.56362E-003	3.59960E-001	-1.13050E+000	3.57700E+000	10	...........
	46	0.626667	9.34436E-001	5.99889E-003	0.00000E+000	5.60558E-003	3.59960E-001	-1.12780E+000	3.57700E+000	10	...........
	47	0.64	9.40317E-001	5.99409E-003	0.00000E+000	5.63635E-003	3.59960E-001	-1.13848E+000	3.57700E+000	10	...........
	48	0.653333	9.46215E-001	5.99344E-003	0.00000E+000	5.67108E-003	3.59960E-001	-1.13049E+000	3.57700E+000	10	...........
	49	0.666667	9.52074E-001	5.99690E-003	0.00000E+000	5.70949E-003	3.59960E-001	-1.12779E+000	3.57700E+000	10	...........
	50	0.68	9.57881E-001	5.99163E-003	0.00000E+000	5.73927E-003	3.59960E-001	-1.13840E+000	3.57700E+000	10	...........
	51	0.693333	9.63608E-001	5.99560E-003	0.00000E+000	5.77740E-003	3.59960E-001	-1.13042E+000	3.57700E+000	10	...........
	52	0.706667	9.69301E-001	5.99723E-003	0.00000E+000	5.81313E-003	3.59960E-001	-1.12785E+000	3.57700E+000	10	...........
	53	0.72	9.75021E-001	5.99313E-003	0.00000E+000	5.84343E-003	3.59960E-001	-1.13849E+000	3.57700E+000	10	...........
	54	0.733333	9.80628E-001	5.99438E-003	0.00000E+000	5.87825E-003	3.59960E-001	-1.13075E+000	3.57700E+000	10	...........
	55	0.746667	9.86220E-001	5.99397E-003	0.00000E+000	5.91137E-003	3.59960E-001	-1.12787E+000	3.57700E+000	10	...........
	56	0.76	9.91747E-001	5.99882E-003	0.00000E+000	5.94931E-003	3.59960E-001	-1.13856E+000	3.57700E+000	10	...........
	57	0.773333	9.97252E-001	5.99582E-003	0.00000E+000	5.97934E-003	3.59960E-001	-1.13082E+000	3.57700E+000	10	...........
	58	0.775	1.00036E+000	6.00389E-003	0.00000E+000	6.00608E-003	3.59960E-001	-1.14130E+000	3.57700E+000	10	...........
STARTTIMEOFFSET	QUANT	849.7836	Start Time Offset (s)