File: Data/CV_CRGO300517_1/PWRCCD_CRGO300517_1/CHARGE_DISCHARGE/CHARGE_#424.DTA
EXPLAIN
TAG	PWR800_CHARGE
TITLE	LABEL	PWR Cyclic Charge Discharge (Cell) - Charge Step	Test &Identifier
DATE	LABEL	22-6-2017	Date
TIME	LABEL	15:52:55	Time
NOTES	NOTES	3	&Notes...
	supercap test cell
	0.6mg
	6M KOH
PSTAT	PSTAT	IFC5000-01520	Potentiostat
CAPACITY	QUANT	1.00000E-003	Capacity (A-hr)
CELLTYPE	SELECTOR	1	&Cell Type
WORKINGCONNECTION	SELECTOR	0	&Working Lead
MAXCHARGETIME	VARIABLEANDUNITS	1.00000E+002	s	1.00000E+002	second(s)	Max &Charge Time
CHARGECURRENT	QUANT	6.00000E-003	&Charge Current (A)
VOLTAGEFINISH	TWOPARAM	F	1.00000E-003	3.60000E+003	&Voltage Finish	 I (A) < 	Max Time(s)
SAMPLETIME	QUANT	1.00000E-002	Sa&mple Period (s)
CHARGESTOPAT1	MULTIPARAM	4	1.00000E+000	Charge Stop At &1	Voltage > Limit	V
CHARGESTOPAT2	MULTIPARAM	0	0.00000E+000	Charge Stop At &2	None	N/A
AESBHCSELECTOR	TOGGLE	F	Save Both Half Cells
IRCOMP	TOGGLE	F	IR &Measure
EOC	QUANT	0	Open Circuit (V)
SEQUENCER	TOGGLE	TRUE	Run as Sequence
PSTATMODEL	IQUANT	53	Pstat Model
PSTATSECTION	LABEL	IFC5000-01520	Pstat Section
PSTATSERIALNO	LABEL	01520	Pstat Serial Number
CTRLMODE	IQUANT	0	Control Mode
ELECTROMETER	IQUANT	1	RE=0 or CS=1
IESTAB	IQUANT	0	I/E Stability
CASPEED	IQUANT	4	Control Amp Speed
CONVENTION	IQUANT	1	Current Convention
ICHRANGE	IQUANT	2	Ich Range
ICHRANGEMODE	TOGGLE	T	Ich Auto Range
ICHOFFSETENABLE	TOGGLE	F	Ich Offset Enable
ICHOFFSET	QUANT	0	Ich Offset (V)
ICHFILTER	IQUANT	1	Ich Filter
VCHRANGE	IQUANT	2	Vch Range
VCHRANGEMODE	TOGGLE	T	Vch Auto Range
VCHOFFSETENABLE	TOGGLE	F	Vch Offset Enable
VCHOFFSET	QUANT	0	Vch Offset (V)
VCHFILTER	IQUANT	1	Vch Filter
IERANGELOWERLIMIT	IQUANT	9	I/E Range Lower Limit
IERANGEMODE	TOGGLE	F	I/E AutoRange
IERANGE	IQUANT	10	I/E Range
ACHSELECT	IQUANT	1	Ach Select
ACHRANGE	IQUANT	2	Ach Range
ACHOFFSETENABLE	TOGGLE	F	Ach Offset Enable
ACHOFFSET	QUANT	0	Ach Offset (V)
ACHFILTER	IQUANT	1	Ach Filter
CABLEID	IQUANT	14	Cable ID
DCCALDATE	LABEL	20-10-2016	DC Calibration Date
ACCALDATE	LABEL	12/3/2015	AC Calibration Date
FRAMEWORKVERSION	QUANT	7.01	Framework Version
INSTRUMENTVERSION	LABEL	4.00	Instrument Version
CURVE	TABLE	60
	Pt	T	Vf	Im	Vu	Pwr	Sig	Ach	Temp	IERange	Over
	#	s	V	A	V	W	V	V	deg C	#	bits
	0	0.013333	6.26501E-001	5.99824E-003	0.00000E+000	3.75790E-003	3.59960E-001	-1.14263E+000	3.57800E+000	10	...........
	1	0.026667	6.35220E-001	5.99171E-003	0.00000E+000	3.80605E-003	3.59960E-001	-1.13403E+000	3.57800E+000	10	...........
	2	0.04	6.43340E-001	5.99593E-003	0.00000E+000	3.85742E-003	3.59960E-001	-1.13183E+000	3.57800E+000	10	...........
	3	0.053333	6.50956E-001	5.99712E-003	0.00000E+000	3.90386E-003	3.59960E-001	-1.14249E+000	3.57800E+000	10	...........
	4	0.066667	6.58368E-001	5.99371E-003	0.00000E+000	3.94606E-003	3.59960E-001	-1.13407E+000	3.57800E+000	10	...........
	5	0.08	6.65578E-001	5.99245E-003	0.00000E+000	3.98844E-003	3.59960E-001	-1.13175E+000	3.57800E+000	10	...........
	6	0.093333	6.72624E-001	5.99600E-003	0.00000E+000	4.03306E-003	3.59960E-001	-1.14254E+000	3.57800E+000	10	...........
	7	0.106667	6.79542E-001	5.99344E-003	0.00000E+000	4.07279E-003	3.59960E-001	-1.13379E+000	3.57800E+000	10	...........
	8	0.12	6.86396E-001	5.99544E-003	0.00000E+000	4.11524E-003	3.59960E-001	-1.13161E+000	3.57800E+000	10	...........
	9	0.133333	6.93191E-001	5.99383E-003	0.00000E+000	4.15487E-003	3.59960E-001	-1.14258E+000	3.57800E+000	10	...........
	10	0.146667	6.99908E-001	5.99175E-003	0.00000E+000	4.19367E-003	3.59960E-001	-1.13380E+000	3.57800E+000	10	...........
	11	0.16	7.06543E-001	5.99628E-003	0.00000E+000	4.23663E-003	3.59960E-001	-1.13196E+000	3.57800E+000	10	...........
	12	0.173333	7.13137E-001	5.99275E-003	0.00000E+000	4.27365E-003	3.59960E-001	-1.14279E+000	3.57800E+000	10	...........
	13	0.186667	7.19792E-001	5.99685E-003	0.00000E+000	4.31648E-003	3.59960E-001	-1.13349E+000	3.57800E+000	10	...........
	14	0.2	7.26332E-001	5.99552E-003	0.00000E+000	4.35474E-003	3.59960E-001	-1.13156E+000	3.57800E+000	10	...........
	15	0.213333	7.32835E-001	5.99833E-003	0.00000E+000	4.39579E-003	3.59960E-001	-1.14243E+000	3.57800E+000	10	...........
	16	0.226667	7.39386E-001	5.98836E-003	0.00000E+000	4.42771E-003	3.59960E-001	-1.13332E+000	3.57800E+000	10	...........
	17	0.24	7.45911E-001	5.99431E-003	0.00000E+000	4.47123E-003	3.59960E-001	-1.13143E+000	3.57800E+000	10	...........
	18	0.253333	7.52367E-001	5.99152E-003	0.00000E+000	4.50782E-003	3.59960E-001	-1.14221E+000	3.57800E+000	10	...........
	19	0.266667	7.58852E-001	5.99120E-003	0.00000E+000	4.54644E-003	3.59960E-001	-1.13295E+000	3.57800E+000	10	...........
	20	0.28	7.65306E-001	5.99403E-003	0.00000E+000	4.58727E-003	3.59960E-001	-1.13140E+000	3.57800E+000	10	...........
	21	0.293333	7.71750E-001	5.99497E-003	0.00000E+000	4.62662E-003	3.59960E-001	-1.14250E+000	3.57800E+000	10	...........
	22	0.306667	7.78171E-001	5.99714E-003	0.00000E+000	4.66680E-003	3.59960E-001	-1.13317E+000	3.57800E+000	10	...........
	23	0.32	7.84569E-001	5.99141E-003	0.00000E+000	4.70068E-003	3.59960E-001	-1.13121E+000	3.57800E+000	10	...........
	24	0.333333	7.90947E-001	5.99262E-003	0.00000E+000	4.73985E-003	3.59960E-001	-1.14219E+000	3.57800E+000	10	...........
	25	0.346667	7.97314E-001	5.99309E-003	0.00000E+000	4.77838E-003	3.59960E-001	-1.13296E+000	3.57800E+000	10	...........
	26	0.36	8.03679E-001	5.99821E-003	0.00000E+000	4.82064E-003	3.59960E-001	-1.13146E+000	3.57800E+000	10	...........
	27	0.373333	8.10029E-001	5.99337E-003	0.00000E+000	4.85481E-003	3.59960E-001	-1.14203E+000	3.57800E+000	10	...........
	28	0.386667	8.16339E-001	5.99648E-003	0.00000E+000	4.89516E-003	3.59960E-001	-1.13274E+000	3.57800E+000	10	...........
	29	0.4	8.22648E-001	5.99076E-003	0.00000E+000	4.92829E-003	3.59960E-001	-1.13131E+000	3.57800E+000	10	...........
	30	0.413333	8.28919E-001	5.99168E-003	0.00000E+000	4.96662E-003	3.59960E-001	-1.14214E+000	3.57800E+000	10	...........
	31	0.426667	8.35201E-001	5.99379E-003	0.00000E+000	5.00602E-003	3.59960E-001	-1.13291E+000	3.57800E+000	10	...........
	32	0.44	8.41462E-001	5.99530E-003	0.00000E+000	5.04482E-003	3.59960E-001	-1.13133E+000	3.57800E+000	10	...........
	33	0.453333	8.47786E-001	5.99137E-003	0.00000E+000	5.07940E-003	3.59960E-001	-1.14194E+000	3.57800E+000	10	...........
	34	0.466667	8.54013E-001	5.99601E-003	0.00000E+000	5.12067E-003	3.59960E-001	-1.13275E+000	3.57800E+000	10	...........
	35	0.48	8.60272E-001	5.99662E-003	0.00000E+000	5.15873E-003	3.59960E-001	-1.13145E+000	3.57800E+000	10	...........
	36	0.493333	8.66477E-001	5.99695E-003	0.00000E+000	5.19622E-003	3.59960E-001	-1.14240E+000	3.57800E+000	10	...........
	37	0.506667	8.72667E-001	5.99112E-003	0.00000E+000	5.22825E-003	3.59960E-001	-1.13268E+000	3.57800E+000	10	...........
	38	0.52	8.78815E-001	5.99452E-003	0.00000E+000	5.26808E-003	3.59960E-001	-1.13123E+000	3.57800E+000	10	...........
	39	0.533333	8.84971E-001	5.99561E-003	0.00000E+000	5.30594E-003	3.59960E-001	-1.14176E+000	3.57800E+000	10	...........
	40	0.546667	8.91086E-001	5.99450E-003	0.00000E+000	5.34162E-003	3.59960E-001	-1.13213E+000	3.57800E+000	10	...........
	41	0.56	8.97162E-001	5.99477E-003	0.00000E+000	5.37828E-003	3.59960E-001	-1.13120E+000	3.57800E+000	10	...........
	42	0.573333	9.03224E-001	5.99508E-003	0.00000E+000	5.41491E-003	3.59960E-001	-1.14178E+000	3.57800E+000	10	...........
	43	0.586667	9.09285E-001	5.99158E-003	0.00000E+000	5.44806E-003	3.59960E-001	-1.13205E+000	3.57800E+000	10	...........
	44	0.6	9.15296E-001	5.99671E-003	0.00000E+000	5.48877E-003	3.59960E-001	-1.13082E+000	3.57800E+000	10	...........
	45	0.613333	9.21349E-001	5.99571E-003	0.00000E+000	5.52414E-003	3.59960E-001	-1.14181E+000	3.57800E+000	10	...........
	46	0.626667	9.27306E-001	5.99167E-003	0.00000E+000	5.55611E-003	3.59960E-001	-1.13207E+000	3.57852E+000	10	...........
	47	0.64	9.33229E-001	5.99995E-003	0.00000E+000	5.59932E-003	3.59960E-001	-1.13100E+000	3.58010E+000	10	...........
	48	0.653333	9.39095E-001	5.99347E-003	0.00000E+000	5.62844E-003	3.59960E-001	-1.14165E+000	3.58010E+000	10	...........
	49	0.666667	9.44954E-001	5.99792E-003	0.00000E+000	5.66776E-003	3.59960E-001	-1.13193E+000	3.58010E+000	10	...........
	50	0.68	9.50791E-001	5.99402E-003	0.00000E+000	5.69906E-003	3.59960E-001	-1.13081E+000	3.58010E+000	10	...........
	51	0.693333	9.56553E-001	5.99789E-003	0.00000E+000	5.73730E-003	3.59960E-001	-1.14158E+000	3.58010E+000	10	...........
	52	0.706667	9.62276E-001	5.99151E-003	0.00000E+000	5.76549E-003	3.59960E-001	-1.13190E+000	3.58010E+000	10	...........
	53	0.72	9.67963E-001	5.99152E-003	0.00000E+000	5.79957E-003	3.59960E-001	-1.13072E+000	3.58010E+000	10	...........
	54	0.733333	9.73655E-001	5.99275E-003	0.00000E+000	5.83487E-003	3.59960E-001	-1.14162E+000	3.58010E+000	10	...........
	55	0.746667	9.79251E-001	5.99245E-003	0.00000E+000	5.86811E-003	3.59960E-001	-1.13181E+000	3.58010E+000	10	...........
	56	0.76	9.84803E-001	5.99528E-003	0.00000E+000	5.90417E-003	3.59960E-001	-1.13115E+000	3.58010E+000	10	...........
	57	0.773333	9.90327E-001	5.99512E-003	0.00000E+000	5.93712E-003	3.59960E-001	-1.14172E+000	3.58010E+000	10	...........
	58	0.786667	9.95892E-001	5.99459E-003	0.00000E+000	5.96997E-003	3.59960E-001	-1.13173E+000	3.58010E+000	10	...........
	59	0.791667	9.99594E-001	5.99118E-003	0.00000E+000	5.98874E-003	3.59960E-001	-1.14282E+000	3.58010E+000	10	...........
STARTTIMEOFFSET	QUANT	740.6367	Start Time Offset (s)