File: Data/CV_CRGO300517_1/PWRCCD_CRGO300517_1/CHARGE_DISCHARGE/CHARGE_#957.DTA
EXPLAIN
TAG	PWR800_CHARGE
TITLE	LABEL	PWR Cyclic Charge Discharge (Cell) - Charge Step	Test &Identifier
DATE	LABEL	22-6-2017	Date
TIME	LABEL	16:13:04	Time
NOTES	NOTES	3	&Notes...
	supercap test cell
	0.6mg
	6M KOH
PSTAT	PSTAT	IFC5000-01520	Potentiostat
CAPACITY	QUANT	1.00000E-003	Capacity (A-hr)
CELLTYPE	SELECTOR	1	&Cell Type
WORKINGCONNECTION	SELECTOR	0	&Working Lead
MAXCHARGETIME	VARIABLEANDUNITS	1.00000E+002	s	1.00000E+002	second(s)	Max &Charge Time
CHARGECURRENT	QUANT	6.00000E-003	&Charge Current (A)
VOLTAGEFINISH	TWOPARAM	F	1.00000E-003	3.60000E+003	&Voltage Finish	 I (A) < 	Max Time(s)
SAMPLETIME	QUANT	1.00000E-002	Sa&mple Period (s)
CHARGESTOPAT1	MULTIPARAM	4	1.00000E+000	Charge Stop At &1	Voltage > Limit	V
CHARGESTOPAT2	MULTIPARAM	0	0.00000E+000	Charge Stop At &2	None	N/A
AESBHCSELECTOR	TOGGLE	F	Save Both Half Cells
IRCOMP	TOGGLE	F	IR &Measure
EOC	QUANT	0	Open Circuit (V)
SEQUENCER	TOGGLE	TRUE	Run as Sequence
PSTATMODEL	IQUANT	53	Pstat Model
PSTATSECTION	LABEL	IFC5000-01520	Pstat Section
PSTATSERIALNO	LABEL	01520	Pstat Serial Number
CTRLMODE	IQUANT	0	Control Mode
ELECTROMETER	IQUANT	1	RE=0 or CS=1
IESTAB	IQUANT	0	I/E Stability
CASPEED	IQUANT	4	Control Amp Speed
CONVENTION	IQUANT	1	Current Convention
ICHRANGE	IQUANT	2	Ich Range
ICHRANGEMODE	TOGGLE	T	Ich Auto Range
ICHOFFSETENABLE	TOGGLE	F	Ich Offset Enable
ICHOFFSET	QUANT	0	Ich Offset (V)
ICHFILTER	IQUANT	1	Ich Filter
VCHRANGE	IQUANT	2	Vch Range
VCHRANGEMODE	TOGGLE	T	Vch Auto Range
VCHOFFSETENABLE	TOGGLE	F	Vch Offset Enable
VCHOFFSET	QUANT	0	Vch Offset (V)
VCHFILTER	IQUANT	1	Vch Filter
IERANGELOWERLIMIT	IQUANT	9	I/E Range Lower Limit
IERANGEMODE	TOGGLE	F	I/E AutoRange
IERANGE	IQUANT	10	I/E Range
ACHSELECT	IQUANT	1	Ach Select
ACHRANGE	IQUANT	2	Ach Range
ACHOFFSETENABLE	TOGGLE	F	Ach Offset Enable
ACHOFFSET	QUANT	0	Ach Offset (V)
ACHFILTER	IQUANT	1	Ach Filter
CABLEID	IQUANT	14	Cable ID
DCCALDATE	LABEL	20-10-2016	DC Calibration Date
ACCALDATE	LABEL	12/3/2015	AC Calibration Date
FRAMEWORKVERSION	QUANT	7.01	Framework Version
INSTRUMENTVERSION	LABEL	4.00	Instrument Version
CURVE	TABLE	53
	Pt	T	Vf	Im	Vu	Pwr	Sig	Ach	Temp	IERange	Over
	#	s	V	A	V	W	V	V	deg C	#	bits
	0	0.013333	6.55844E-001	5.98922E-003	0.00000E+000	3.92800E-003	3.59960E-001	-1.17117E+000	3.57640E+000	10	...........
	1	0.026667	6.65183E-001	5.99356E-003	0.00000E+000	3.98681E-003	3.59960E-001	-1.16502E+000	3.57640E+000	10	...........
	2	0.04	6.73777E-001	5.99892E-003	0.00000E+000	4.04194E-003	3.59960E-001	-1.17333E+000	3.57640E+000	10	...........
	3	0.053333	6.81870E-001	5.99532E-003	0.00000E+000	4.08803E-003	3.59960E-001	-1.17099E+000	3.57640E+000	10	...........
	4	0.066667	6.89709E-001	5.99527E-003	0.00000E+000	4.13499E-003	3.59960E-001	-1.16492E+000	3.57640E+000	10	...........
	5	0.08	6.97392E-001	5.99623E-003	0.00000E+000	4.18172E-003	3.59960E-001	-1.17360E+000	3.57640E+000	10	...........
	6	0.093333	7.04832E-001	5.99520E-003	0.00000E+000	4.22561E-003	3.59960E-001	-1.17106E+000	3.57640E+000	10	...........
	7	0.106667	7.12179E-001	5.98953E-003	0.00000E+000	4.26561E-003	3.59960E-001	-1.16487E+000	3.57640E+000	10	...........
	8	0.12	7.19465E-001	5.99640E-003	0.00000E+000	4.31420E-003	3.59960E-001	-1.17331E+000	3.57640E+000	10	...........
	9	0.133333	7.26679E-001	5.99274E-003	0.00000E+000	4.35480E-003	3.59960E-001	-1.17112E+000	3.57640E+000	10	...........
	10	0.146667	7.33788E-001	5.98988E-003	0.00000E+000	4.39530E-003	3.59960E-001	-1.16519E+000	3.57640E+000	10	...........
	11	0.16	7.40871E-001	5.99810E-003	0.00000E+000	4.44382E-003	3.59960E-001	-1.17332E+000	3.57640E+000	10	...........
	12	0.173333	7.47883E-001	5.99356E-003	0.00000E+000	4.48248E-003	3.59960E-001	-1.17081E+000	3.57640E+000	10	...........
	13	0.186667	7.54842E-001	5.99118E-003	0.00000E+000	4.52240E-003	3.59960E-001	-1.16447E+000	3.57640E+000	10	...........
	14	0.2	7.61778E-001	5.99265E-003	0.00000E+000	4.56508E-003	3.59960E-001	-1.17291E+000	3.57640E+000	10	...........
	15	0.213333	7.68686E-001	5.99047E-003	0.00000E+000	4.60479E-003	3.59960E-001	-1.17058E+000	3.57640E+000	10	...........
	16	0.226667	7.75573E-001	5.98783E-003	0.00000E+000	4.64400E-003	3.59960E-001	-1.16445E+000	3.57640E+000	10	...........
	17	0.24	7.82455E-001	5.99454E-003	0.00000E+000	4.69046E-003	3.59960E-001	-1.17280E+000	3.57640E+000	10	...........
	18	0.253333	7.89270E-001	5.99211E-003	0.00000E+000	4.72939E-003	3.59960E-001	-1.17048E+000	3.57640E+000	10	...........
	19	0.266667	7.96119E-001	5.99401E-003	0.00000E+000	4.77194E-003	3.59960E-001	-1.16448E+000	3.57640E+000	10	...........
	20	0.28	8.02840E-001	5.99637E-003	0.00000E+000	4.81412E-003	3.59960E-001	-1.17297E+000	3.57640E+000	10	...........
	21	0.293333	8.09519E-001	5.99637E-003	0.00000E+000	4.85417E-003	3.59960E-001	-1.17046E+000	3.57640E+000	10	...........
	22	0.306667	8.16208E-001	5.99404E-003	0.00000E+000	4.89239E-003	3.59960E-001	-1.16435E+000	3.57640E+000	10	...........
	23	0.32	8.22952E-001	5.99542E-003	0.00000E+000	4.93394E-003	3.59960E-001	-1.17263E+000	3.57640E+000	10	...........
	24	0.333333	8.29566E-001	5.99804E-003	0.00000E+000	4.97577E-003	3.59960E-001	-1.17033E+000	3.57640E+000	10	...........
	25	0.346667	8.36185E-001	5.99505E-003	0.00000E+000	5.01297E-003	3.59960E-001	-1.16430E+000	3.57640E+000	10	...........
	26	0.36	8.42795E-001	5.99245E-003	0.00000E+000	5.05040E-003	3.59960E-001	-1.17269E+000	3.57640E+000	10	...........
	27	0.373333	8.49435E-001	5.99787E-003	0.00000E+000	5.09480E-003	3.59960E-001	-1.17015E+000	3.57640E+000	10	...........
	28	0.386667	8.55937E-001	5.98950E-003	0.00000E+000	5.12664E-003	3.59960E-001	-1.16418E+000	3.57640E+000	10	...........
	29	0.4	8.62456E-001	5.99593E-003	0.00000E+000	5.17122E-003	3.59960E-001	-1.17287E+000	3.57640E+000	10	...........
	30	0.413333	8.68989E-001	5.99125E-003	0.00000E+000	5.20633E-003	3.59960E-001	-1.17051E+000	3.57640E+000	10	...........
	31	0.426667	8.75453E-001	5.99200E-003	0.00000E+000	5.24571E-003	3.59960E-001	-1.16447E+000	3.57640E+000	10	...........
	32	0.44	8.81852E-001	5.99171E-003	0.00000E+000	5.28379E-003	3.59960E-001	-1.17269E+000	3.57640E+000	10	...........
	33	0.453333	8.88281E-001	5.99325E-003	0.00000E+000	5.32369E-003	3.59960E-001	-1.17031E+000	3.57640E+000	10	...........
	34	0.466667	8.94660E-001	5.98966E-003	0.00000E+000	5.35871E-003	3.59960E-001	-1.16438E+000	3.57644E+000	10	...........
	35	0.48	9.00972E-001	5.99190E-003	0.00000E+000	5.39854E-003	3.59960E-001	-1.17277E+000	3.57670E+000	10	...........
	36	0.493333	9.07238E-001	5.99313E-003	0.00000E+000	5.43720E-003	3.59960E-001	-1.17039E+000	3.57670E+000	10	...........
	37	0.506667	9.13507E-001	5.99754E-003	0.00000E+000	5.47879E-003	3.59960E-001	-1.16400E+000	3.57670E+000	10	...........
	38	0.52	9.19689E-001	5.99427E-003	0.00000E+000	5.51287E-003	3.59960E-001	-1.17222E+000	3.57670E+000	10	...........
	39	0.533333	9.25914E-001	5.99074E-003	0.00000E+000	5.54691E-003	3.59960E-001	-1.17001E+000	3.57670E+000	10	...........
	40	0.546667	9.32025E-001	5.99026E-003	0.00000E+000	5.58307E-003	3.59960E-001	-1.16414E+000	3.57670E+000	10	...........
	41	0.56	9.38040E-001	5.99116E-003	0.00000E+000	5.61995E-003	3.59960E-001	-1.17229E+000	3.57670E+000	10	...........
	42	0.573333	9.44057E-001	5.99473E-003	0.00000E+000	5.65937E-003	3.59960E-001	-1.16990E+000	3.57670E+000	10	...........
	43	0.586667	9.50058E-001	5.99441E-003	0.00000E+000	5.69503E-003	3.59960E-001	-1.16395E+000	3.57670E+000	10	...........
	44	0.6	9.56016E-001	5.99330E-003	0.00000E+000	5.72969E-003	3.59960E-001	-1.17218E+000	3.57670E+000	10	...........
	45	0.613333	9.61862E-001	5.99277E-003	0.00000E+000	5.76422E-003	3.59960E-001	-1.16991E+000	3.57670E+000	10	...........
	46	0.626667	9.67666E-001	5.99130E-003	0.00000E+000	5.79757E-003	3.59960E-001	-1.16383E+000	3.57670E+000	10	...........
	47	0.64	9.73469E-001	5.99903E-003	0.00000E+000	5.83987E-003	3.59960E-001	-1.17219E+000	3.57670E+000	10	...........
	48	0.653333	9.79210E-001	6.00030E-003	0.00000E+000	5.87555E-003	3.59960E-001	-1.16966E+000	3.57670E+000	10	...........
	49	0.666667	9.84845E-001	5.99353E-003	0.00000E+000	5.90270E-003	3.59960E-001	-1.16397E+000	3.57670E+000	10	...........
	50	0.68	9.90480E-001	5.99417E-003	0.00000E+000	5.93711E-003	3.59960E-001	-1.17251E+000	3.57670E+000	10	...........
	51	0.693333	9.96061E-001	5.99121E-003	0.00000E+000	5.96762E-003	3.59960E-001	-1.16990E+000	3.57670E+000	10	...........
	52	0.698333	9.99841E-001	5.99610E-003	0.00000E+000	5.99514E-003	3.59960E-001	-1.17068E+000	3.57670E+000	10	...........
STARTTIMEOFFSET	QUANT	1525.71	Start Time Offset (s)