File: Data/CV_CRGO300517_1/PWRCCD_CRGO300517_1/CHARGE_DISCHARGE/CHARGE_#530.DTA
EXPLAIN
TAG	PWR800_CHARGE
TITLE	LABEL	PWR Cyclic Charge Discharge (Cell) - Charge Step	Test &Identifier
DATE	LABEL	22-6-2017	Date
TIME	LABEL	15:57:05	Time
NOTES	NOTES	3	&Notes...
	supercap test cell
	0.6mg
	6M KOH
PSTAT	PSTAT	IFC5000-01520	Potentiostat
CAPACITY	QUANT	1.00000E-003	Capacity (A-hr)
CELLTYPE	SELECTOR	1	&Cell Type
WORKINGCONNECTION	SELECTOR	0	&Working Lead
MAXCHARGETIME	VARIABLEANDUNITS	1.00000E+002	s	1.00000E+002	second(s)	Max &Charge Time
CHARGECURRENT	QUANT	6.00000E-003	&Charge Current (A)
VOLTAGEFINISH	TWOPARAM	F	1.00000E-003	3.60000E+003	&Voltage Finish	 I (A) < 	Max Time(s)
SAMPLETIME	QUANT	1.00000E-002	Sa&mple Period (s)
CHARGESTOPAT1	MULTIPARAM	4	1.00000E+000	Charge Stop At &1	Voltage > Limit	V
CHARGESTOPAT2	MULTIPARAM	0	0.00000E+000	Charge Stop At &2	None	N/A
AESBHCSELECTOR	TOGGLE	F	Save Both Half Cells
IRCOMP	TOGGLE	F	IR &Measure
EOC	QUANT	0	Open Circuit (V)
SEQUENCER	TOGGLE	TRUE	Run as Sequence
PSTATMODEL	IQUANT	53	Pstat Model
PSTATSECTION	LABEL	IFC5000-01520	Pstat Section
PSTATSERIALNO	LABEL	01520	Pstat Serial Number
CTRLMODE	IQUANT	0	Control Mode
ELECTROMETER	IQUANT	1	RE=0 or CS=1
IESTAB	IQUANT	0	I/E Stability
CASPEED	IQUANT	4	Control Amp Speed
CONVENTION	IQUANT	1	Current Convention
ICHRANGE	IQUANT	2	Ich Range
ICHRANGEMODE	TOGGLE	T	Ich Auto Range
ICHOFFSETENABLE	TOGGLE	F	Ich Offset Enable
ICHOFFSET	QUANT	0	Ich Offset (V)
ICHFILTER	IQUANT	1	Ich Filter
VCHRANGE	IQUANT	2	Vch Range
VCHRANGEMODE	TOGGLE	T	Vch Auto Range
VCHOFFSETENABLE	TOGGLE	F	Vch Offset Enable
VCHOFFSET	QUANT	0	Vch Offset (V)
VCHFILTER	IQUANT	1	Vch Filter
IERANGELOWERLIMIT	IQUANT	9	I/E Range Lower Limit
IERANGEMODE	TOGGLE	F	I/E AutoRange
IERANGE	IQUANT	10	I/E Range
ACHSELECT	IQUANT	1	Ach Select
ACHRANGE	IQUANT	2	Ach Range
ACHOFFSETENABLE	TOGGLE	F	Ach Offset Enable
ACHOFFSET	QUANT	0	Ach Offset (V)
ACHFILTER	IQUANT	1	Ach Filter
CABLEID	IQUANT	14	Cable ID
DCCALDATE	LABEL	20-10-2016	DC Calibration Date
ACCALDATE	LABEL	12/3/2015	AC Calibration Date
FRAMEWORKVERSION	QUANT	7.01	Framework Version
INSTRUMENTVERSION	LABEL	4.00	Instrument Version
CURVE	TABLE	58
	Pt	T	Vf	Im	Vu	Pwr	Sig	Ach	Temp	IERange	Over
	#	s	V	A	V	W	V	V	deg C	#	bits
	0	0.013333	6.33827E-001	5.98817E-003	0.00000E+000	3.79547E-003	3.59960E-001	-1.13384E+000	3.57640E+000	10	...........
	1	0.026667	6.42788E-001	5.99382E-003	0.00000E+000	3.85276E-003	3.59960E-001	-1.14479E+000	3.57655E+000	10	...........
	2	0.04	6.50997E-001	5.99409E-003	0.00000E+000	3.90214E-003	3.59960E-001	-1.13432E+000	3.57670E+000	10	...........
	3	0.053333	6.58739E-001	5.99044E-003	0.00000E+000	3.94614E-003	3.59960E-001	-1.13378E+000	3.57670E+000	10	...........
	4	0.066667	6.66234E-001	5.99543E-003	0.00000E+000	3.99436E-003	3.59960E-001	-1.14428E+000	3.57670E+000	10	...........
	5	0.08	6.73522E-001	5.99570E-003	0.00000E+000	4.03824E-003	3.59960E-001	-1.13394E+000	3.57670E+000	10	...........
	6	0.093333	6.80622E-001	5.99794E-003	0.00000E+000	4.08233E-003	3.59960E-001	-1.13369E+000	3.57670E+000	10	...........
	7	0.106667	6.87608E-001	5.99334E-003	0.00000E+000	4.12107E-003	3.59960E-001	-1.14472E+000	3.57670E+000	10	...........
	8	0.12	6.94574E-001	5.99798E-003	0.00000E+000	4.16604E-003	3.59960E-001	-1.13427E+000	3.57670E+000	10	...........
	9	0.133333	7.01466E-001	5.99506E-003	0.00000E+000	4.20533E-003	3.59960E-001	-1.13375E+000	3.57670E+000	10	...........
	10	0.146667	7.08304E-001	5.99686E-003	0.00000E+000	4.24760E-003	3.59960E-001	-1.14449E+000	3.57670E+000	10	...........
	11	0.16	7.15057E-001	5.99544E-003	0.00000E+000	4.28708E-003	3.59960E-001	-1.13439E+000	3.57670E+000	10	...........
	12	0.173333	7.21836E-001	5.99260E-003	0.00000E+000	4.32568E-003	3.59960E-001	-1.13367E+000	3.57670E+000	10	...........
	13	0.186667	7.28502E-001	5.99081E-003	0.00000E+000	4.36432E-003	3.59960E-001	-1.14480E+000	3.57670E+000	10	...........
	14	0.2	7.35121E-001	5.99152E-003	0.00000E+000	4.40449E-003	3.59960E-001	-1.13443E+000	3.57670E+000	10	...........
	15	0.213333	7.41762E-001	5.99809E-003	0.00000E+000	4.44916E-003	3.59960E-001	-1.13390E+000	3.57670E+000	10	...........
	16	0.226667	7.48373E-001	5.99877E-003	0.00000E+000	4.48932E-003	3.59960E-001	-1.14477E+000	3.57670E+000	10	...........
	17	0.24	7.54923E-001	5.99183E-003	0.00000E+000	4.52337E-003	3.59960E-001	-1.13452E+000	3.57670E+000	10	...........
	18	0.253333	7.61487E-001	5.99801E-003	0.00000E+000	4.56740E-003	3.59960E-001	-1.13400E+000	3.57670E+000	10	...........
	19	0.266667	7.68041E-001	5.99432E-003	0.00000E+000	4.60388E-003	3.59960E-001	-1.14501E+000	3.57670E+000	10	...........
	20	0.28	7.74567E-001	5.99428E-003	0.00000E+000	4.64297E-003	3.59960E-001	-1.13515E+000	3.57670E+000	10	...........
	21	0.293333	7.81064E-001	5.98849E-003	0.00000E+000	4.67740E-003	3.59960E-001	-1.13408E+000	3.57670E+000	10	...........
	22	0.306667	7.87575E-001	5.99334E-003	0.00000E+000	4.72021E-003	3.59960E-001	-1.14512E+000	3.57670E+000	10	...........
	23	0.32	7.94089E-001	5.99936E-003	0.00000E+000	4.76403E-003	3.59960E-001	-1.13529E+000	3.57670E+000	10	...........
	24	0.333333	8.00555E-001	5.99984E-003	0.00000E+000	4.80320E-003	3.59960E-001	-1.13426E+000	3.57670E+000	10	...........
	25	0.346667	8.06964E-001	5.99888E-003	0.00000E+000	4.84088E-003	3.59960E-001	-1.14522E+000	3.57670E+000	10	...........
	26	0.36	8.13392E-001	5.99631E-003	0.00000E+000	4.87735E-003	3.59960E-001	-1.13535E+000	3.57670E+000	10	...........
	27	0.373333	8.19820E-001	5.99682E-003	0.00000E+000	4.91631E-003	3.59960E-001	-1.13408E+000	3.57670E+000	10	...........
	28	0.386667	8.26150E-001	5.98921E-003	0.00000E+000	4.94799E-003	3.59960E-001	-1.14509E+000	3.57670E+000	10	...........
	29	0.4	8.32513E-001	5.99295E-003	0.00000E+000	4.98921E-003	3.59960E-001	-1.13511E+000	3.57670E+000	10	...........
	30	0.413333	8.38924E-001	5.99644E-003	0.00000E+000	5.03056E-003	3.59960E-001	-1.13379E+000	3.57670E+000	10	...........
	31	0.426667	8.45278E-001	5.99340E-003	0.00000E+000	5.06609E-003	3.59960E-001	-1.14502E+000	3.57670E+000	10	...........
	32	0.44	8.51584E-001	5.99529E-003	0.00000E+000	5.10550E-003	3.59960E-001	-1.13533E+000	3.57670E+000	10	...........
	33	0.453333	8.57890E-001	5.99607E-003	0.00000E+000	5.14397E-003	3.59960E-001	-1.13409E+000	3.57670E+000	10	...........
	34	0.466667	8.64190E-001	5.99115E-003	0.00000E+000	5.17749E-003	3.59960E-001	-1.14510E+000	3.57670E+000	10	...........
	35	0.48	8.70492E-001	5.99468E-003	0.00000E+000	5.21832E-003	3.59960E-001	-1.13561E+000	3.57670E+000	10	...........
	36	0.493333	8.76750E-001	5.99271E-003	0.00000E+000	5.25410E-003	3.59960E-001	-1.13402E+000	3.57670E+000	10	...........
	37	0.506667	8.82943E-001	5.99346E-003	0.00000E+000	5.29188E-003	3.59960E-001	-1.14530E+000	3.57670E+000	10	...........
	38	0.52	8.89123E-001	5.99603E-003	0.00000E+000	5.33121E-003	3.59960E-001	-1.13562E+000	3.57670E+000	10	...........
	39	0.533333	8.95235E-001	5.99308E-003	0.00000E+000	5.36522E-003	3.59960E-001	-1.13408E+000	3.57670E+000	10	...........
	40	0.546667	9.01390E-001	5.99549E-003	0.00000E+000	5.40428E-003	3.59960E-001	-1.14533E+000	3.57670E+000	10	...........
	41	0.56	9.07485E-001	5.99476E-003	0.00000E+000	5.44015E-003	3.59960E-001	-1.13586E+000	3.57670E+000	10	...........
	42	0.573333	9.13556E-001	5.99195E-003	0.00000E+000	5.47398E-003	3.59960E-001	-1.13415E+000	3.57670E+000	10	...........
	43	0.586667	9.19627E-001	5.98985E-003	0.00000E+000	5.50843E-003	3.59960E-001	-1.14563E+000	3.57670E+000	10	...........
	44	0.6	9.25646E-001	5.99297E-003	0.00000E+000	5.54737E-003	3.59960E-001	-1.13621E+000	3.57670E+000	10	...........
	45	0.613333	9.31591E-001	5.99705E-003	0.00000E+000	5.58680E-003	3.59960E-001	-1.13422E+000	3.57670E+000	10	...........
	46	0.626667	9.37510E-001	5.99471E-003	0.00000E+000	5.62010E-003	3.59960E-001	-1.14556E+000	3.57670E+000	10	...........
	47	0.64	9.43417E-001	5.99235E-003	0.00000E+000	5.65329E-003	3.59960E-001	-1.13626E+000	3.57670E+000	10	...........
	48	0.653333	9.49317E-001	5.99487E-003	0.00000E+000	5.69102E-003	3.59960E-001	-1.13432E+000	3.57670E+000	10	...........
	49	0.666667	9.55129E-001	5.99253E-003	0.00000E+000	5.72364E-003	3.59960E-001	-1.14579E+000	3.57670E+000	10	...........
	50	0.68	9.60880E-001	5.99128E-003	0.00000E+000	5.75690E-003	3.59960E-001	-1.13617E+000	3.57670E+000	10	...........
	51	0.693333	9.66633E-001	5.99770E-003	0.00000E+000	5.79758E-003	3.59960E-001	-1.13441E+000	3.57670E+000	10	...........
	52	0.706667	9.72346E-001	5.99300E-003	0.00000E+000	5.82727E-003	3.59960E-001	-1.14540E+000	3.57670E+000	10	...........
	53	0.72	9.78025E-001	5.99508E-003	0.00000E+000	5.86334E-003	3.59960E-001	-1.13619E+000	3.57670E+000	10	...........
	54	0.733333	9.83664E-001	5.99396E-003	0.00000E+000	5.89604E-003	3.59960E-001	-1.13386E+000	3.57670E+000	10	...........
	55	0.746667	9.89206E-001	5.99317E-003	0.00000E+000	5.92848E-003	3.59960E-001	-1.14503E+000	3.57670E+000	10	...........
	56	0.76	9.94723E-001	5.99449E-003	0.00000E+000	5.96286E-003	3.59960E-001	-1.13617E+000	3.57670E+000	10	...........
	57	0.768333	9.99208E-001	5.99599E-003	0.00000E+000	5.99124E-003	3.59960E-001	-1.13937E+000	3.57670E+000	10	...........
STARTTIMEOFFSET	QUANT	905.0433	Start Time Offset (s)