File: Data/CV_CRGO300517_1/PWRCCD_CRGO300517_1/CHARGE_DISCHARGE/CHARGE_#990.DTA
EXPLAIN
TAG	PWR800_CHARGE
TITLE	LABEL	PWR Cyclic Charge Discharge (Cell) - Charge Step	Test &Identifier
DATE	LABEL	22-6-2017	Date
TIME	LABEL	16:14:16	Time
NOTES	NOTES	3	&Notes...
	supercap test cell
	0.6mg
	6M KOH
PSTAT	PSTAT	IFC5000-01520	Potentiostat
CAPACITY	QUANT	1.00000E-003	Capacity (A-hr)
CELLTYPE	SELECTOR	1	&Cell Type
WORKINGCONNECTION	SELECTOR	0	&Working Lead
MAXCHARGETIME	VARIABLEANDUNITS	1.00000E+002	s	1.00000E+002	second(s)	Max &Charge Time
CHARGECURRENT	QUANT	6.00000E-003	&Charge Current (A)
VOLTAGEFINISH	TWOPARAM	F	1.00000E-003	3.60000E+003	&Voltage Finish	 I (A) < 	Max Time(s)
SAMPLETIME	QUANT	1.00000E-002	Sa&mple Period (s)
CHARGESTOPAT1	MULTIPARAM	4	1.00000E+000	Charge Stop At &1	Voltage > Limit	V
CHARGESTOPAT2	MULTIPARAM	0	0.00000E+000	Charge Stop At &2	None	N/A
AESBHCSELECTOR	TOGGLE	F	Save Both Half Cells
IRCOMP	TOGGLE	F	IR &Measure
EOC	QUANT	0	Open Circuit (V)
SEQUENCER	TOGGLE	TRUE	Run as Sequence
PSTATMODEL	IQUANT	53	Pstat Model
PSTATSECTION	LABEL	IFC5000-01520	Pstat Section
PSTATSERIALNO	LABEL	01520	Pstat Serial Number
CTRLMODE	IQUANT	0	Control Mode
ELECTROMETER	IQUANT	1	RE=0 or CS=1
IESTAB	IQUANT	0	I/E Stability
CASPEED	IQUANT	4	Control Amp Speed
CONVENTION	IQUANT	1	Current Convention
ICHRANGE	IQUANT	2	Ich Range
ICHRANGEMODE	TOGGLE	T	Ich Auto Range
ICHOFFSETENABLE	TOGGLE	F	Ich Offset Enable
ICHOFFSET	QUANT	0	Ich Offset (V)
ICHFILTER	IQUANT	1	Ich Filter
VCHRANGE	IQUANT	2	Vch Range
VCHRANGEMODE	TOGGLE	T	Vch Auto Range
VCHOFFSETENABLE	TOGGLE	F	Vch Offset Enable
VCHOFFSET	QUANT	0	Vch Offset (V)
VCHFILTER	IQUANT	1	Vch Filter
IERANGELOWERLIMIT	IQUANT	9	I/E Range Lower Limit
IERANGEMODE	TOGGLE	F	I/E AutoRange
IERANGE	IQUANT	10	I/E Range
ACHSELECT	IQUANT	1	Ach Select
ACHRANGE	IQUANT	2	Ach Range
ACHOFFSETENABLE	TOGGLE	F	Ach Offset Enable
ACHOFFSET	QUANT	0	Ach Offset (V)
ACHFILTER	IQUANT	1	Ach Filter
CABLEID	IQUANT	14	Cable ID
DCCALDATE	LABEL	20-10-2016	DC Calibration Date
ACCALDATE	LABEL	12/3/2015	AC Calibration Date
FRAMEWORKVERSION	QUANT	7.01	Framework Version
INSTRUMENTVERSION	LABEL	4.00	Instrument Version
CURVE	TABLE	52
	Pt	T	Vf	Im	Vu	Pwr	Sig	Ach	Temp	IERange	Over
	#	s	V	A	V	W	V	V	deg C	#	bits
	0	0.013333	6.56801E-001	5.98881E-003	0.00000E+000	3.93345E-003	3.59960E-001	-1.17926E+000	3.57720E+000	10	...........
	1	0.026667	6.66114E-001	5.98910E-003	0.00000E+000	3.98942E-003	3.59960E-001	-1.18243E+000	3.57720E+000	10	...........
	2	0.04	6.74747E-001	5.99182E-003	0.00000E+000	4.04297E-003	3.59960E-001	-1.17384E+000	3.57720E+000	10	...........
	3	0.053333	6.82926E-001	5.99569E-003	0.00000E+000	4.09461E-003	3.59960E-001	-1.17904E+000	3.57720E+000	10	...........
	4	0.066667	6.90750E-001	5.99692E-003	0.00000E+000	4.14237E-003	3.59960E-001	-1.18213E+000	3.57720E+000	10	...........
	5	0.08	6.98427E-001	5.99430E-003	0.00000E+000	4.18659E-003	3.59960E-001	-1.17348E+000	3.57720E+000	10	...........
	6	0.093333	7.05905E-001	5.98785E-003	0.00000E+000	4.22685E-003	3.59960E-001	-1.17883E+000	3.57720E+000	10	...........
	7	0.106667	7.13298E-001	5.99335E-003	0.00000E+000	4.27505E-003	3.59960E-001	-1.18163E+000	3.57720E+000	10	...........
	8	0.12	7.20647E-001	5.99322E-003	0.00000E+000	4.31899E-003	3.59960E-001	-1.17323E+000	3.57720E+000	10	...........
	9	0.133333	7.27863E-001	5.99379E-003	0.00000E+000	4.36266E-003	3.59960E-001	-1.17874E+000	3.57720E+000	10	...........
	10	0.146667	7.35001E-001	5.99180E-003	0.00000E+000	4.40398E-003	3.59960E-001	-1.18154E+000	3.57720E+000	10	...........
	11	0.16	7.42099E-001	5.99117E-003	0.00000E+000	4.44604E-003	3.59960E-001	-1.17312E+000	3.57720E+000	10	...........
	12	0.173333	7.49162E-001	5.99500E-003	0.00000E+000	4.49123E-003	3.59960E-001	-1.17867E+000	3.57720E+000	10	...........
	13	0.186667	7.56185E-001	5.99221E-003	0.00000E+000	4.53122E-003	3.59960E-001	-1.18123E+000	3.57720E+000	10	...........
	14	0.2	7.63159E-001	5.99365E-003	0.00000E+000	4.57410E-003	3.59960E-001	-1.17307E+000	3.57720E+000	10	...........
	15	0.213333	7.70074E-001	5.99435E-003	0.00000E+000	4.61610E-003	3.59960E-001	-1.17891E+000	3.57720E+000	10	...........
	16	0.226667	7.76983E-001	5.99419E-003	0.00000E+000	4.65738E-003	3.59960E-001	-1.18130E+000	3.57720E+000	10	...........
	17	0.24	7.83835E-001	5.99697E-003	0.00000E+000	4.70064E-003	3.59960E-001	-1.17294E+000	3.57720E+000	10	...........
	18	0.253333	7.90692E-001	5.99455E-003	0.00000E+000	4.73984E-003	3.59960E-001	-1.17869E+000	3.57720E+000	10	...........
	19	0.266667	7.97482E-001	5.99234E-003	0.00000E+000	4.77878E-003	3.59960E-001	-1.18119E+000	3.57720E+000	10	...........
	20	0.28	8.04240E-001	5.99375E-003	0.00000E+000	4.82042E-003	3.59960E-001	-1.17292E+000	3.57720E+000	10	...........
	21	0.293333	8.10962E-001	5.99127E-003	0.00000E+000	4.85869E-003	3.59960E-001	-1.17886E+000	3.57720E+000	10	...........
	22	0.306667	8.17704E-001	5.99427E-003	0.00000E+000	4.90154E-003	3.59960E-001	-1.18093E+000	3.57720E+000	10	...........
	23	0.32	8.24397E-001	5.99180E-003	0.00000E+000	4.93962E-003	3.59960E-001	-1.17279E+000	3.57720E+000	10	...........
	24	0.333333	8.31084E-001	5.99696E-003	0.00000E+000	4.98398E-003	3.59960E-001	-1.17897E+000	3.57720E+000	10	...........
	25	0.346667	8.37709E-001	5.99173E-003	0.00000E+000	5.01932E-003	3.59960E-001	-1.18092E+000	3.57720E+000	10	...........
	26	0.36	8.44325E-001	5.99531E-003	0.00000E+000	5.06199E-003	3.59960E-001	-1.17270E+000	3.57720E+000	10	...........
	27	0.373333	8.50916E-001	5.99605E-003	0.00000E+000	5.10214E-003	3.59960E-001	-1.17893E+000	3.57720E+000	10	...........
	28	0.386667	8.57464E-001	5.98966E-003	0.00000E+000	5.13592E-003	3.59960E-001	-1.18055E+000	3.57720E+000	10	...........
	29	0.4	8.63987E-001	5.99867E-003	0.00000E+000	5.18278E-003	3.59960E-001	-1.17217E+000	3.57720E+000	10	...........
	30	0.413333	8.70530E-001	5.99459E-003	0.00000E+000	5.21847E-003	3.59960E-001	-1.17872E+000	3.57720E+000	10	...........
	31	0.426667	8.76961E-001	5.99787E-003	0.00000E+000	5.25990E-003	3.59960E-001	-1.18034E+000	3.57720E+000	10	...........
	32	0.44	8.83428E-001	5.99159E-003	0.00000E+000	5.29314E-003	3.59960E-001	-1.17203E+000	3.57720E+000	10	...........
	33	0.453333	8.89825E-001	5.99241E-003	0.00000E+000	5.33220E-003	3.59960E-001	-1.17855E+000	3.57720E+000	10	...........
	34	0.466667	8.96237E-001	5.99247E-003	0.00000E+000	5.37067E-003	3.59960E-001	-1.18016E+000	3.57720E+000	10	...........
	35	0.48	9.02523E-001	5.99121E-003	0.00000E+000	5.40721E-003	3.59960E-001	-1.17232E+000	3.57720E+000	10	...........
	36	0.493333	9.08793E-001	5.99197E-003	0.00000E+000	5.44546E-003	3.59960E-001	-1.17867E+000	3.57720E+000	10	...........
	37	0.506667	9.15040E-001	5.99193E-003	0.00000E+000	5.48286E-003	3.59960E-001	-1.17985E+000	3.57720E+000	10	...........
	38	0.52	9.21285E-001	5.99694E-003	0.00000E+000	5.52489E-003	3.59960E-001	-1.17221E+000	3.57720E+000	10	...........
	39	0.533333	9.27486E-001	5.99184E-003	0.00000E+000	5.55735E-003	3.59960E-001	-1.17876E+000	3.57683E+000	10	...........
	40	0.546667	9.33609E-001	5.98880E-003	0.00000E+000	5.59120E-003	3.59960E-001	-1.17971E+000	3.57670E+000	10	...........
	41	0.56	9.39679E-001	5.99189E-003	0.00000E+000	5.63046E-003	3.59960E-001	-1.17206E+000	3.57670E+000	10	...........
	42	0.573333	9.45646E-001	5.99229E-003	0.00000E+000	5.66659E-003	3.59960E-001	-1.17875E+000	3.57670E+000	10	...........
	43	0.586667	9.51647E-001	5.99599E-003	0.00000E+000	5.70607E-003	3.59960E-001	-1.17962E+000	3.57670E+000	10	...........
	44	0.6	9.57557E-001	5.99045E-003	0.00000E+000	5.73620E-003	3.59960E-001	-1.17199E+000	3.57670E+000	10	...........
	45	0.613333	9.63430E-001	5.99408E-003	0.00000E+000	5.77488E-003	3.59960E-001	-1.17909E+000	3.57670E+000	10	...........
	46	0.626667	9.69251E-001	5.99453E-003	0.00000E+000	5.81021E-003	3.59960E-001	-1.17969E+000	3.57670E+000	10	...........
	47	0.64	9.75074E-001	5.99739E-003	0.00000E+000	5.84790E-003	3.59960E-001	-1.17208E+000	3.57670E+000	10	...........
	48	0.653333	9.80734E-001	5.99065E-003	0.00000E+000	5.87524E-003	3.59960E-001	-1.17903E+000	3.57670E+000	10	...........
	49	0.666667	9.86406E-001	5.99669E-003	0.00000E+000	5.91517E-003	3.59960E-001	-1.17968E+000	3.57670E+000	10	...........
	50	0.68	9.92050E-001	5.99231E-003	0.00000E+000	5.94467E-003	3.59960E-001	-1.17225E+000	3.57670E+000	10	...........
	51	0.693333	9.97637E-001	5.99379E-003	0.00000E+000	5.97963E-003	3.59960E-001	-1.17924E+000	3.57670E+000	10	...........
STARTTIMEOFFSET	QUANT	1571.456	Start Time Offset (s)