File: Data/CV_CRGO300517_1/PWRCCD_CRGO300517_1/CHARGE_DISCHARGE/CHARGE_#487.DTA
EXPLAIN
TAG	PWR800_CHARGE
TITLE	LABEL	PWR Cyclic Charge Discharge (Cell) - Charge Step	Test &Identifier
DATE	LABEL	22-6-2017	Date
TIME	LABEL	15:55:24	Time
NOTES	NOTES	3	&Notes...
	supercap test cell
	0.6mg
	6M KOH
PSTAT	PSTAT	IFC5000-01520	Potentiostat
CAPACITY	QUANT	1.00000E-003	Capacity (A-hr)
CELLTYPE	SELECTOR	1	&Cell Type
WORKINGCONNECTION	SELECTOR	0	&Working Lead
MAXCHARGETIME	VARIABLEANDUNITS	1.00000E+002	s	1.00000E+002	second(s)	Max &Charge Time
CHARGECURRENT	QUANT	6.00000E-003	&Charge Current (A)
VOLTAGEFINISH	TWOPARAM	F	1.00000E-003	3.60000E+003	&Voltage Finish	 I (A) < 	Max Time(s)
SAMPLETIME	QUANT	1.00000E-002	Sa&mple Period (s)
CHARGESTOPAT1	MULTIPARAM	4	1.00000E+000	Charge Stop At &1	Voltage > Limit	V
CHARGESTOPAT2	MULTIPARAM	0	0.00000E+000	Charge Stop At &2	None	N/A
AESBHCSELECTOR	TOGGLE	F	Save Both Half Cells
IRCOMP	TOGGLE	F	IR &Measure
EOC	QUANT	0	Open Circuit (V)
SEQUENCER	TOGGLE	TRUE	Run as Sequence
PSTATMODEL	IQUANT	53	Pstat Model
PSTATSECTION	LABEL	IFC5000-01520	Pstat Section
PSTATSERIALNO	LABEL	01520	Pstat Serial Number
CTRLMODE	IQUANT	0	Control Mode
ELECTROMETER	IQUANT	1	RE=0 or CS=1
IESTAB	IQUANT	0	I/E Stability
CASPEED	IQUANT	4	Control Amp Speed
CONVENTION	IQUANT	1	Current Convention
ICHRANGE	IQUANT	2	Ich Range
ICHRANGEMODE	TOGGLE	T	Ich Auto Range
ICHOFFSETENABLE	TOGGLE	F	Ich Offset Enable
ICHOFFSET	QUANT	0	Ich Offset (V)
ICHFILTER	IQUANT	1	Ich Filter
VCHRANGE	IQUANT	2	Vch Range
VCHRANGEMODE	TOGGLE	T	Vch Auto Range
VCHOFFSETENABLE	TOGGLE	F	Vch Offset Enable
VCHOFFSET	QUANT	0	Vch Offset (V)
VCHFILTER	IQUANT	1	Vch Filter
IERANGELOWERLIMIT	IQUANT	9	I/E Range Lower Limit
IERANGEMODE	TOGGLE	F	I/E AutoRange
IERANGE	IQUANT	10	I/E Range
ACHSELECT	IQUANT	1	Ach Select
ACHRANGE	IQUANT	2	Ach Range
ACHOFFSETENABLE	TOGGLE	F	Ach Offset Enable
ACHOFFSET	QUANT	0	Ach Offset (V)
ACHFILTER	IQUANT	1	Ach Filter
CABLEID	IQUANT	14	Cable ID
DCCALDATE	LABEL	20-10-2016	DC Calibration Date
ACCALDATE	LABEL	12/3/2015	AC Calibration Date
FRAMEWORKVERSION	QUANT	7.01	Framework Version
INSTRUMENTVERSION	LABEL	4.00	Instrument Version
CURVE	TABLE	59
	Pt	T	Vf	Im	Vu	Pwr	Sig	Ach	Temp	IERange	Over
	#	s	V	A	V	W	V	V	deg C	#	bits
	0	0.013333	6.30444E-001	5.99811E-003	0.00000E+000	3.78147E-003	3.59960E-001	-1.13572E+000	3.57780E+000	10	...........
	1	0.026667	6.39296E-001	5.99763E-003	0.00000E+000	3.83426E-003	3.59960E-001	-1.13065E+000	3.57780E+000	10	...........
	2	0.04	6.47464E-001	5.99857E-003	0.00000E+000	3.88386E-003	3.59960E-001	-1.13888E+000	3.57780E+000	10	...........
	3	0.053333	6.55212E-001	6.00137E-003	0.00000E+000	3.93217E-003	3.59960E-001	-1.13565E+000	3.57780E+000	10	...........
	4	0.066667	6.62649E-001	5.98886E-003	0.00000E+000	3.96851E-003	3.59960E-001	-1.13023E+000	3.57780E+000	10	...........
	5	0.08	6.69936E-001	5.99596E-003	0.00000E+000	4.01691E-003	3.59960E-001	-1.13850E+000	3.57780E+000	10	...........
	6	0.093333	6.77046E-001	5.98829E-003	0.00000E+000	4.05435E-003	3.59960E-001	-1.13571E+000	3.57780E+000	10	...........
	7	0.106667	6.84088E-001	5.99337E-003	0.00000E+000	4.10000E-003	3.59960E-001	-1.12986E+000	3.57780E+000	10	...........
	8	0.12	6.90982E-001	5.99354E-003	0.00000E+000	4.14143E-003	3.59960E-001	-1.13820E+000	3.57780E+000	10	...........
	9	0.133333	6.97814E-001	6.00221E-003	0.00000E+000	4.18842E-003	3.59960E-001	-1.13514E+000	3.57780E+000	10	...........
	10	0.146667	7.04601E-001	5.99930E-003	0.00000E+000	4.22711E-003	3.59960E-001	-1.12965E+000	3.57780E+000	10	...........
	11	0.16	7.11292E-001	5.99311E-003	0.00000E+000	4.26286E-003	3.59960E-001	-1.13836E+000	3.57780E+000	10	...........
	12	0.173333	7.18010E-001	5.99398E-003	0.00000E+000	4.30374E-003	3.59960E-001	-1.13532E+000	3.57780E+000	10	...........
	13	0.186667	7.24686E-001	5.99717E-003	0.00000E+000	4.34607E-003	3.59960E-001	-1.12972E+000	3.57780E+000	10	...........
	14	0.2	7.31331E-001	5.99691E-003	0.00000E+000	4.38573E-003	3.59960E-001	-1.13830E+000	3.57780E+000	10	...........
	15	0.213333	7.37885E-001	5.99406E-003	0.00000E+000	4.42293E-003	3.59960E-001	-1.13520E+000	3.57780E+000	10	...........
	16	0.226667	7.44496E-001	5.99438E-003	0.00000E+000	4.46279E-003	3.59960E-001	-1.13003E+000	3.57780E+000	10	...........
	17	0.24	7.51023E-001	5.98989E-003	0.00000E+000	4.49855E-003	3.59960E-001	-1.13840E+000	3.57780E+000	10	...........
	18	0.253333	7.57573E-001	5.99232E-003	0.00000E+000	4.53962E-003	3.59960E-001	-1.13497E+000	3.57780E+000	10	...........
	19	0.266667	7.64077E-001	5.99511E-003	0.00000E+000	4.58072E-003	3.59960E-001	-1.12945E+000	3.57780E+000	10	...........
	20	0.28	7.70564E-001	5.99737E-003	0.00000E+000	4.62136E-003	3.59960E-001	-1.13772E+000	3.57780E+000	10	...........
	21	0.293333	7.77054E-001	6.00197E-003	0.00000E+000	4.66385E-003	3.59960E-001	-1.13457E+000	3.57780E+000	10	...........
	22	0.306667	7.83508E-001	5.99371E-003	0.00000E+000	4.69612E-003	3.59960E-001	-1.12884E+000	3.57780E+000	10	...........
	23	0.32	7.89974E-001	5.99961E-003	0.00000E+000	4.73954E-003	3.59960E-001	-1.13744E+000	3.57780E+000	10	...........
	24	0.333333	7.96432E-001	5.99251E-003	0.00000E+000	4.77263E-003	3.59960E-001	-1.13362E+000	3.57780E+000	10	...........
	25	0.346667	8.02834E-001	5.99797E-003	0.00000E+000	4.81537E-003	3.59960E-001	-1.12855E+000	3.57780E+000	10	...........
	26	0.36	8.09173E-001	5.99670E-003	0.00000E+000	4.85237E-003	3.59960E-001	-1.13735E+000	3.57780E+000	10	...........
	27	0.373333	8.15541E-001	5.99734E-003	0.00000E+000	4.89107E-003	3.59960E-001	-1.13403E+000	3.57780E+000	10	...........
	28	0.386667	8.21951E-001	5.99546E-003	0.00000E+000	4.92797E-003	3.59960E-001	-1.12843E+000	3.57780E+000	10	...........
	29	0.4	8.28272E-001	5.99388E-003	0.00000E+000	4.96457E-003	3.59960E-001	-1.13731E+000	3.57780E+000	10	...........
	30	0.413333	8.34622E-001	5.99795E-003	0.00000E+000	5.00602E-003	3.59960E-001	-1.13399E+000	3.57780E+000	10	...........
	31	0.426667	8.40933E-001	5.99454E-003	0.00000E+000	5.04101E-003	3.59960E-001	-1.12829E+000	3.57780E+000	10	...........
	32	0.44	8.47251E-001	5.99092E-003	0.00000E+000	5.07582E-003	3.59960E-001	-1.13667E+000	3.57780E+000	10	...........
	33	0.453333	8.53530E-001	5.99345E-003	0.00000E+000	5.11559E-003	3.59960E-001	-1.13311E+000	3.57780E+000	10	...........
	34	0.466667	8.59763E-001	5.99395E-003	0.00000E+000	5.15338E-003	3.59960E-001	-1.12764E+000	3.57780E+000	10	...........
	35	0.48	8.66031E-001	5.99892E-003	0.00000E+000	5.19525E-003	3.59960E-001	-1.13641E+000	3.57780E+000	10	...........
	36	0.493333	8.72363E-001	5.99225E-003	0.00000E+000	5.22742E-003	3.59960E-001	-1.13300E+000	3.57780E+000	10	...........
	37	0.506667	8.78549E-001	5.99379E-003	0.00000E+000	5.26584E-003	3.59960E-001	-1.12764E+000	3.57780E+000	10	...........
	38	0.52	8.84751E-001	5.99150E-003	0.00000E+000	5.30098E-003	3.59960E-001	-1.13602E+000	3.57780E+000	10	...........
	39	0.533333	8.90849E-001	5.99324E-003	0.00000E+000	5.33907E-003	3.59960E-001	-1.13253E+000	3.57780E+000	10	...........
	40	0.546667	8.96991E-001	5.99777E-003	0.00000E+000	5.37994E-003	3.59960E-001	-1.12760E+000	3.57780E+000	10	...........
	41	0.56	9.03081E-001	5.99148E-003	0.00000E+000	5.41079E-003	3.59960E-001	-1.13621E+000	3.57780E+000	10	...........
	42	0.573333	9.09177E-001	5.99641E-003	0.00000E+000	5.45180E-003	3.59960E-001	-1.13239E+000	3.57780E+000	10	...........
	43	0.586667	9.15225E-001	5.99456E-003	0.00000E+000	5.48638E-003	3.59960E-001	-1.12699E+000	3.57755E+000	10	...........
	44	0.6	9.21296E-001	5.99513E-003	0.00000E+000	5.52329E-003	3.59960E-001	-1.13555E+000	3.57680E+000	10	...........
	45	0.613333	9.27276E-001	5.99741E-003	0.00000E+000	5.56125E-003	3.59960E-001	-1.13194E+000	3.57680E+000	10	...........
	46	0.626667	9.33209E-001	5.99475E-003	0.00000E+000	5.59436E-003	3.59960E-001	-1.12639E+000	3.57680E+000	10	...........
	47	0.64	9.39139E-001	5.99624E-003	0.00000E+000	5.63130E-003	3.59960E-001	-1.13525E+000	3.57680E+000	10	...........
	48	0.653333	9.45042E-001	5.98955E-003	0.00000E+000	5.66038E-003	3.59960E-001	-1.13139E+000	3.57680E+000	10	...........
	49	0.666667	9.50931E-001	5.99881E-003	0.00000E+000	5.70445E-003	3.59960E-001	-1.12616E+000	3.57680E+000	10	...........
	50	0.68	9.56717E-001	5.99368E-003	0.00000E+000	5.73425E-003	3.59960E-001	-1.13529E+000	3.57680E+000	10	...........
	51	0.693333	9.62498E-001	5.99514E-003	0.00000E+000	5.77031E-003	3.59960E-001	-1.13173E+000	3.57680E+000	10	...........
	52	0.706667	9.68166E-001	5.99410E-003	0.00000E+000	5.80329E-003	3.59960E-001	-1.12657E+000	3.57680E+000	10	...........
	53	0.72	9.73837E-001	5.99644E-003	0.00000E+000	5.83955E-003	3.59960E-001	-1.13537E+000	3.57680E+000	10	...........
	54	0.733333	9.79493E-001	5.99701E-003	0.00000E+000	5.87403E-003	3.59960E-001	-1.13144E+000	3.57680E+000	10	...........
	55	0.746667	9.85022E-001	5.98969E-003	0.00000E+000	5.89998E-003	3.59960E-001	-1.12626E+000	3.57680E+000	10	...........
	56	0.76	9.90575E-001	5.99043E-003	0.00000E+000	5.93398E-003	3.59960E-001	-1.13514E+000	3.57680E+000	10	...........
	57	0.773333	9.96046E-001	5.99399E-003	0.00000E+000	5.97029E-003	3.59960E-001	-1.13109E+000	3.57680E+000	10	...........
	58	0.778333	9.99854E-001	6.00339E-003	0.00000E+000	6.00251E-003	3.59960E-001	-1.13421E+000	3.57680E+000	10	...........
STARTTIMEOFFSET	QUANT	838.9786	Start Time Offset (s)