File: Data/CV_CRGO300517_1/PWRCCD_CRGO300517_1/CHARGE_DISCHARGE/CHARGE_#716.DTA
EXPLAIN
TAG	PWR800_CHARGE
TITLE	LABEL	PWR Cyclic Charge Discharge (Cell) - Charge Step	Test &Identifier
DATE	LABEL	22-6-2017	Date
TIME	LABEL	16:04:09	Time
NOTES	NOTES	3	&Notes...
	supercap test cell
	0.6mg
	6M KOH
PSTAT	PSTAT	IFC5000-01520	Potentiostat
CAPACITY	QUANT	1.00000E-003	Capacity (A-hr)
CELLTYPE	SELECTOR	1	&Cell Type
WORKINGCONNECTION	SELECTOR	0	&Working Lead
MAXCHARGETIME	VARIABLEANDUNITS	1.00000E+002	s	1.00000E+002	second(s)	Max &Charge Time
CHARGECURRENT	QUANT	6.00000E-003	&Charge Current (A)
VOLTAGEFINISH	TWOPARAM	F	1.00000E-003	3.60000E+003	&Voltage Finish	 I (A) < 	Max Time(s)
SAMPLETIME	QUANT	1.00000E-002	Sa&mple Period (s)
CHARGESTOPAT1	MULTIPARAM	4	1.00000E+000	Charge Stop At &1	Voltage > Limit	V
CHARGESTOPAT2	MULTIPARAM	0	0.00000E+000	Charge Stop At &2	None	N/A
AESBHCSELECTOR	TOGGLE	F	Save Both Half Cells
IRCOMP	TOGGLE	F	IR &Measure
EOC	QUANT	0	Open Circuit (V)
SEQUENCER	TOGGLE	TRUE	Run as Sequence
PSTATMODEL	IQUANT	53	Pstat Model
PSTATSECTION	LABEL	IFC5000-01520	Pstat Section
PSTATSERIALNO	LABEL	01520	Pstat Serial Number
CTRLMODE	IQUANT	0	Control Mode
ELECTROMETER	IQUANT	1	RE=0 or CS=1
IESTAB	IQUANT	0	I/E Stability
CASPEED	IQUANT	4	Control Amp Speed
CONVENTION	IQUANT	1	Current Convention
ICHRANGE	IQUANT	2	Ich Range
ICHRANGEMODE	TOGGLE	T	Ich Auto Range
ICHOFFSETENABLE	TOGGLE	F	Ich Offset Enable
ICHOFFSET	QUANT	0	Ich Offset (V)
ICHFILTER	IQUANT	1	Ich Filter
VCHRANGE	IQUANT	2	Vch Range
VCHRANGEMODE	TOGGLE	T	Vch Auto Range
VCHOFFSETENABLE	TOGGLE	F	Vch Offset Enable
VCHOFFSET	QUANT	0	Vch Offset (V)
VCHFILTER	IQUANT	1	Vch Filter
IERANGELOWERLIMIT	IQUANT	9	I/E Range Lower Limit
IERANGEMODE	TOGGLE	F	I/E AutoRange
IERANGE	IQUANT	10	I/E Range
ACHSELECT	IQUANT	1	Ach Select
ACHRANGE	IQUANT	2	Ach Range
ACHOFFSETENABLE	TOGGLE	F	Ach Offset Enable
ACHOFFSET	QUANT	0	Ach Offset (V)
ACHFILTER	IQUANT	1	Ach Filter
CABLEID	IQUANT	14	Cable ID
DCCALDATE	LABEL	20-10-2016	DC Calibration Date
ACCALDATE	LABEL	12/3/2015	AC Calibration Date
FRAMEWORKVERSION	QUANT	7.01	Framework Version
INSTRUMENTVERSION	LABEL	4.00	Instrument Version
CURVE	TABLE	55
	Pt	T	Vf	Im	Vu	Pwr	Sig	Ach	Temp	IERange	Over
	#	s	V	A	V	W	V	V	deg C	#	bits
	0	0.013333	6.44839E-001	5.99340E-003	0.00000E+000	3.86477E-003	3.59960E-001	-1.15347E+000	3.57780E+000	10	...........
	1	0.026667	6.53957E-001	5.99504E-003	0.00000E+000	3.92050E-003	3.59960E-001	-1.15576E+000	3.57780E+000	10	...........
	2	0.04	6.62295E-001	5.99226E-003	0.00000E+000	3.96865E-003	3.59960E-001	-1.16348E+000	3.57780E+000	10	...........
	3	0.053333	6.70247E-001	5.99563E-003	0.00000E+000	4.01855E-003	3.59960E-001	-1.15297E+000	3.57780E+000	10	...........
	4	0.066667	6.77940E-001	5.99659E-003	0.00000E+000	4.06533E-003	3.59960E-001	-1.15565E+000	3.57780E+000	10	...........
	5	0.08	6.85378E-001	5.99576E-003	0.00000E+000	4.10936E-003	3.59960E-001	-1.16338E+000	3.57780E+000	10	...........
	6	0.093333	6.92729E-001	5.98882E-003	0.00000E+000	4.14863E-003	3.59960E-001	-1.15266E+000	3.57780E+000	10	...........
	7	0.106667	6.99877E-001	5.99283E-003	0.00000E+000	4.19424E-003	3.59960E-001	-1.15543E+000	3.57780E+000	10	...........
	8	0.12	7.07006E-001	5.99164E-003	0.00000E+000	4.23613E-003	3.59960E-001	-1.16338E+000	3.57780E+000	10	...........
	9	0.133333	7.14018E-001	5.99395E-003	0.00000E+000	4.27979E-003	3.59960E-001	-1.15281E+000	3.57780E+000	10	...........
	10	0.146667	7.21028E-001	5.99610E-003	0.00000E+000	4.32336E-003	3.59960E-001	-1.15566E+000	3.57780E+000	10	...........
	11	0.16	7.27891E-001	5.99219E-003	0.00000E+000	4.36166E-003	3.59960E-001	-1.16288E+000	3.57780E+000	10	...........
	12	0.173333	7.34771E-001	5.98994E-003	0.00000E+000	4.40124E-003	3.59960E-001	-1.15259E+000	3.57780E+000	10	...........
	13	0.186667	7.41630E-001	5.99412E-003	0.00000E+000	4.44541E-003	3.59960E-001	-1.15593E+000	3.57780E+000	10	...........
	14	0.2	7.48427E-001	5.99369E-003	0.00000E+000	4.48584E-003	3.59960E-001	-1.16323E+000	3.57780E+000	10	...........
	15	0.213333	7.55195E-001	5.99305E-003	0.00000E+000	4.52592E-003	3.59960E-001	-1.15260E+000	3.57780E+000	10	...........
	16	0.226667	7.61930E-001	5.99865E-003	0.00000E+000	4.57055E-003	3.59960E-001	-1.15557E+000	3.57780E+000	10	...........
	17	0.24	7.68621E-001	5.99310E-003	0.00000E+000	4.60642E-003	3.59960E-001	-1.16284E+000	3.57780E+000	10	...........
	18	0.253333	7.75316E-001	5.99315E-003	0.00000E+000	4.64659E-003	3.59960E-001	-1.15272E+000	3.57780E+000	10	...........
	19	0.266667	7.81981E-001	5.99412E-003	0.00000E+000	4.68728E-003	3.59960E-001	-1.15603E+000	3.57780E+000	10	...........
	20	0.28	7.88607E-001	5.99571E-003	0.00000E+000	4.72826E-003	3.59960E-001	-1.16275E+000	3.57780E+000	10	...........
	21	0.293333	7.95256E-001	5.99531E-003	0.00000E+000	4.76781E-003	3.59960E-001	-1.15257E+000	3.57780E+000	10	...........
	22	0.306667	8.01876E-001	5.99036E-003	0.00000E+000	4.80352E-003	3.59960E-001	-1.15594E+000	3.57780E+000	10	...........
	23	0.32	8.08426E-001	5.99522E-003	0.00000E+000	4.84669E-003	3.59960E-001	-1.16264E+000	3.57780E+000	10	...........
	24	0.333333	8.14977E-001	5.99264E-003	0.00000E+000	4.88387E-003	3.59960E-001	-1.15277E+000	3.57780E+000	10	...........
	25	0.346667	8.21530E-001	5.99204E-003	0.00000E+000	4.92264E-003	3.59960E-001	-1.15601E+000	3.57780E+000	10	...........
	26	0.36	8.28048E-001	5.99315E-003	0.00000E+000	4.96261E-003	3.59960E-001	-1.16223E+000	3.57780E+000	10	...........
	27	0.373333	8.34543E-001	5.98939E-003	0.00000E+000	4.99840E-003	3.59960E-001	-1.15221E+000	3.57780E+000	10	...........
	28	0.386667	8.41055E-001	5.99484E-003	0.00000E+000	5.04200E-003	3.59960E-001	-1.15578E+000	3.57780E+000	10	...........
	29	0.4	8.47528E-001	5.99122E-003	0.00000E+000	5.07772E-003	3.59960E-001	-1.16220E+000	3.57780E+000	10	...........
	30	0.413333	8.53945E-001	5.99996E-003	0.00000E+000	5.12363E-003	3.59960E-001	-1.15219E+000	3.57780E+000	10	...........
	31	0.426667	8.60370E-001	5.99494E-003	0.00000E+000	5.15786E-003	3.59960E-001	-1.15572E+000	3.57780E+000	10	...........
	32	0.44	8.66713E-001	5.99332E-003	0.00000E+000	5.19449E-003	3.59960E-001	-1.16176E+000	3.57780E+000	10	...........
	33	0.453333	8.73090E-001	5.99424E-003	0.00000E+000	5.23351E-003	3.59960E-001	-1.15206E+000	3.57780E+000	10	...........
	34	0.466667	8.79414E-001	5.99344E-003	0.00000E+000	5.27071E-003	3.59960E-001	-1.15581E+000	3.57780E+000	10	...........
	35	0.48	8.85715E-001	5.99131E-003	0.00000E+000	5.30660E-003	3.59960E-001	-1.16164E+000	3.57739E+000	10	...........
	36	0.493333	8.91965E-001	5.99415E-003	0.00000E+000	5.34657E-003	3.59960E-001	-1.15186E+000	3.57670E+000	10	...........
	37	0.506667	8.98221E-001	5.99440E-003	0.00000E+000	5.38429E-003	3.59960E-001	-1.15576E+000	3.57670E+000	10	...........
	38	0.52	9.04422E-001	5.99506E-003	0.00000E+000	5.42207E-003	3.59960E-001	-1.16138E+000	3.57670E+000	10	...........
	39	0.533333	9.10587E-001	5.99138E-003	0.00000E+000	5.45568E-003	3.59960E-001	-1.15177E+000	3.57670E+000	10	...........
	40	0.546667	9.16749E-001	5.99421E-003	0.00000E+000	5.49519E-003	3.59960E-001	-1.15589E+000	3.57670E+000	10	...........
	41	0.56	9.22929E-001	5.99716E-003	0.00000E+000	5.53495E-003	3.59960E-001	-1.16127E+000	3.57670E+000	10	...........
	42	0.573333	9.28979E-001	5.99643E-003	0.00000E+000	5.57056E-003	3.59960E-001	-1.15193E+000	3.57670E+000	10	...........
	43	0.586667	9.34964E-001	5.99028E-003	0.00000E+000	5.60069E-003	3.59960E-001	-1.15624E+000	3.57670E+000	10	...........
	44	0.6	9.40961E-001	5.99673E-003	0.00000E+000	5.64269E-003	3.59960E-001	-1.16159E+000	3.57670E+000	10	...........
	45	0.613333	9.46948E-001	5.99780E-003	0.00000E+000	5.67960E-003	3.59960E-001	-1.15205E+000	3.57670E+000	10	...........
	46	0.626667	9.52847E-001	5.98955E-003	0.00000E+000	5.70712E-003	3.59960E-001	-1.15601E+000	3.57670E+000	10	...........
	47	0.64	9.58692E-001	5.99546E-003	0.00000E+000	5.74780E-003	3.59960E-001	-1.16160E+000	3.57670E+000	10	...........
	48	0.653333	9.64523E-001	5.99268E-003	0.00000E+000	5.78007E-003	3.59960E-001	-1.15188E+000	3.57670E+000	10	...........
	49	0.666667	9.70299E-001	5.99671E-003	0.00000E+000	5.81860E-003	3.59960E-001	-1.15643E+000	3.57670E+000	10	...........
	50	0.68	9.76056E-001	5.99382E-003	0.00000E+000	5.85031E-003	3.59960E-001	-1.16093E+000	3.57670E+000	10	...........
	51	0.693333	9.81730E-001	5.99057E-003	0.00000E+000	5.88112E-003	3.59960E-001	-1.15159E+000	3.57670E+000	10	...........
	52	0.706667	9.87329E-001	5.99808E-003	0.00000E+000	5.92208E-003	3.59960E-001	-1.15612E+000	3.57670E+000	10	...........
	53	0.72	9.92875E-001	5.99305E-003	0.00000E+000	5.95035E-003	3.59960E-001	-1.16101E+000	3.57670E+000	10	...........
	54	0.731667	9.98123E-001	5.99063E-003	0.00000E+000	5.97939E-003	3.59960E-001	-1.14982E+000	3.57670E+000	10	...........
STARTTIMEOFFSET	QUANT	1182.634	Start Time Offset (s)