File: Data/CV_CRGO300517_1/PWRCCD_CRGO300517_1/CHARGE_DISCHARGE/CHARGE_#730.DTA
EXPLAIN
TAG	PWR800_CHARGE
TITLE	LABEL	PWR Cyclic Charge Discharge (Cell) - Charge Step	Test &Identifier
DATE	LABEL	22-6-2017	Date
TIME	LABEL	16:04:40	Time
NOTES	NOTES	3	&Notes...
	supercap test cell
	0.6mg
	6M KOH
PSTAT	PSTAT	IFC5000-01520	Potentiostat
CAPACITY	QUANT	1.00000E-003	Capacity (A-hr)
CELLTYPE	SELECTOR	1	&Cell Type
WORKINGCONNECTION	SELECTOR	0	&Working Lead
MAXCHARGETIME	VARIABLEANDUNITS	1.00000E+002	s	1.00000E+002	second(s)	Max &Charge Time
CHARGECURRENT	QUANT	6.00000E-003	&Charge Current (A)
VOLTAGEFINISH	TWOPARAM	F	1.00000E-003	3.60000E+003	&Voltage Finish	 I (A) < 	Max Time(s)
SAMPLETIME	QUANT	1.00000E-002	Sa&mple Period (s)
CHARGESTOPAT1	MULTIPARAM	4	1.00000E+000	Charge Stop At &1	Voltage > Limit	V
CHARGESTOPAT2	MULTIPARAM	0	0.00000E+000	Charge Stop At &2	None	N/A
AESBHCSELECTOR	TOGGLE	F	Save Both Half Cells
IRCOMP	TOGGLE	F	IR &Measure
EOC	QUANT	0	Open Circuit (V)
SEQUENCER	TOGGLE	TRUE	Run as Sequence
PSTATMODEL	IQUANT	53	Pstat Model
PSTATSECTION	LABEL	IFC5000-01520	Pstat Section
PSTATSERIALNO	LABEL	01520	Pstat Serial Number
CTRLMODE	IQUANT	0	Control Mode
ELECTROMETER	IQUANT	1	RE=0 or CS=1
IESTAB	IQUANT	0	I/E Stability
CASPEED	IQUANT	4	Control Amp Speed
CONVENTION	IQUANT	1	Current Convention
ICHRANGE	IQUANT	2	Ich Range
ICHRANGEMODE	TOGGLE	T	Ich Auto Range
ICHOFFSETENABLE	TOGGLE	F	Ich Offset Enable
ICHOFFSET	QUANT	0	Ich Offset (V)
ICHFILTER	IQUANT	1	Ich Filter
VCHRANGE	IQUANT	2	Vch Range
VCHRANGEMODE	TOGGLE	T	Vch Auto Range
VCHOFFSETENABLE	TOGGLE	F	Vch Offset Enable
VCHOFFSET	QUANT	0	Vch Offset (V)
VCHFILTER	IQUANT	1	Vch Filter
IERANGELOWERLIMIT	IQUANT	9	I/E Range Lower Limit
IERANGEMODE	TOGGLE	F	I/E AutoRange
IERANGE	IQUANT	10	I/E Range
ACHSELECT	IQUANT	1	Ach Select
ACHRANGE	IQUANT	2	Ach Range
ACHOFFSETENABLE	TOGGLE	F	Ach Offset Enable
ACHOFFSET	QUANT	0	Ach Offset (V)
ACHFILTER	IQUANT	1	Ach Filter
CABLEID	IQUANT	14	Cable ID
DCCALDATE	LABEL	20-10-2016	DC Calibration Date
ACCALDATE	LABEL	12/3/2015	AC Calibration Date
FRAMEWORKVERSION	QUANT	7.01	Framework Version
INSTRUMENTVERSION	LABEL	4.00	Instrument Version
CURVE	TABLE	55
	Pt	T	Vf	Im	Vu	Pwr	Sig	Ach	Temp	IERange	Over
	#	s	V	A	V	W	V	V	deg C	#	bits
	0	0.013333	6.44965E-001	5.98623E-003	0.00000E+000	3.86091E-003	3.59960E-001	-1.16748E+000	3.57640E+000	10	...........
	1	0.026667	6.54085E-001	5.99270E-003	0.00000E+000	3.91973E-003	3.59960E-001	-1.15658E+000	3.57640E+000	10	...........
	2	0.04	6.62445E-001	5.99409E-003	0.00000E+000	3.97076E-003	3.59960E-001	-1.15779E+000	3.57640E+000	10	...........
	3	0.053333	6.70423E-001	5.99498E-003	0.00000E+000	4.01918E-003	3.59960E-001	-1.16742E+000	3.57640E+000	10	...........
	4	0.066667	6.78119E-001	5.99269E-003	0.00000E+000	4.06375E-003	3.59960E-001	-1.15663E+000	3.57640E+000	10	...........
	5	0.08	6.85564E-001	5.99425E-003	0.00000E+000	4.10944E-003	3.59960E-001	-1.15787E+000	3.57640E+000	10	...........
	6	0.093333	6.92913E-001	5.99308E-003	0.00000E+000	4.15268E-003	3.59960E-001	-1.16722E+000	3.57640E+000	10	...........
	7	0.106667	7.00119E-001	5.99494E-003	0.00000E+000	4.19717E-003	3.59960E-001	-1.15628E+000	3.57640E+000	10	...........
	8	0.12	7.07197E-001	5.99239E-003	0.00000E+000	4.23780E-003	3.59960E-001	-1.15762E+000	3.57640E+000	10	...........
	9	0.133333	7.14222E-001	5.98941E-003	0.00000E+000	4.27777E-003	3.59960E-001	-1.16724E+000	3.57640E+000	10	...........
	10	0.146667	7.21242E-001	5.99110E-003	0.00000E+000	4.32103E-003	3.59960E-001	-1.15637E+000	3.57640E+000	10	...........
	11	0.16	7.28150E-001	5.99565E-003	0.00000E+000	4.36573E-003	3.59960E-001	-1.15773E+000	3.57640E+000	10	...........
	12	0.173333	7.35027E-001	5.99103E-003	0.00000E+000	4.40357E-003	3.59960E-001	-1.16687E+000	3.57640E+000	10	...........
	13	0.186667	7.41825E-001	5.99167E-003	0.00000E+000	4.44477E-003	3.59960E-001	-1.15623E+000	3.57640E+000	10	...........
	14	0.2	7.48675E-001	5.99256E-003	0.00000E+000	4.48648E-003	3.59960E-001	-1.15779E+000	3.57640E+000	10	...........
	15	0.213333	7.55501E-001	5.99501E-003	0.00000E+000	4.52924E-003	3.59960E-001	-1.16681E+000	3.57640E+000	10	...........
	16	0.226667	7.62232E-001	5.99188E-003	0.00000E+000	4.56721E-003	3.59960E-001	-1.15583E+000	3.57640E+000	10	...........
	17	0.24	7.68977E-001	5.99488E-003	0.00000E+000	4.60992E-003	3.59960E-001	-1.15722E+000	3.57659E+000	10	...........
	18	0.253333	7.75659E-001	5.99144E-003	0.00000E+000	4.64732E-003	3.59960E-001	-1.16658E+000	3.57660E+000	10	...........
	19	0.266667	7.82355E-001	5.99400E-003	0.00000E+000	4.68943E-003	3.59960E-001	-1.15587E+000	3.57660E+000	10	...........
	20	0.28	7.89011E-001	5.99123E-003	0.00000E+000	4.72714E-003	3.59960E-001	-1.15730E+000	3.57660E+000	10	...........
	21	0.293333	7.95661E-001	5.99717E-003	0.00000E+000	4.77171E-003	3.59960E-001	-1.16618E+000	3.57660E+000	10	...........
	22	0.306667	8.02278E-001	5.99200E-003	0.00000E+000	4.80725E-003	3.59960E-001	-1.15548E+000	3.57660E+000	10	...........
	23	0.32	8.08878E-001	5.99259E-003	0.00000E+000	4.84728E-003	3.59960E-001	-1.15703E+000	3.57660E+000	10	...........
	24	0.333333	8.15430E-001	5.99451E-003	0.00000E+000	4.88810E-003	3.59960E-001	-1.16639E+000	3.57660E+000	10	...........
	25	0.346667	8.21979E-001	5.99791E-003	0.00000E+000	4.93016E-003	3.59960E-001	-1.15553E+000	3.57660E+000	10	...........
	26	0.36	8.28497E-001	5.99154E-003	0.00000E+000	4.96397E-003	3.59960E-001	-1.15692E+000	3.57660E+000	10	...........
	27	0.373333	8.34997E-001	5.99858E-003	0.00000E+000	5.00879E-003	3.59960E-001	-1.16583E+000	3.57660E+000	10	...........
	28	0.386667	8.41468E-001	5.99292E-003	0.00000E+000	5.04285E-003	3.59960E-001	-1.15526E+000	3.57660E+000	10	...........
	29	0.4	8.47951E-001	5.99513E-003	0.00000E+000	5.08358E-003	3.59960E-001	-1.15686E+000	3.57660E+000	10	...........
	30	0.413333	8.54386E-001	5.99049E-003	0.00000E+000	5.11819E-003	3.59960E-001	-1.16611E+000	3.57660E+000	10	...........
	31	0.426667	8.60830E-001	5.99363E-003	0.00000E+000	5.15950E-003	3.59960E-001	-1.15529E+000	3.57660E+000	10	...........
	32	0.44	8.67175E-001	5.99346E-003	0.00000E+000	5.19738E-003	3.59960E-001	-1.15660E+000	3.57660E+000	10	...........
	33	0.453333	8.73578E-001	5.99433E-003	0.00000E+000	5.23652E-003	3.59960E-001	-1.16612E+000	3.57660E+000	10	...........
	34	0.466667	8.79911E-001	5.99645E-003	0.00000E+000	5.27634E-003	3.59960E-001	-1.15546E+000	3.57660E+000	10	...........
	35	0.48	8.86212E-001	5.99507E-003	0.00000E+000	5.31291E-003	3.59960E-001	-1.15693E+000	3.57660E+000	10	...........
	36	0.493333	8.92455E-001	5.99211E-003	0.00000E+000	5.34769E-003	3.59960E-001	-1.16595E+000	3.57660E+000	10	...........
	37	0.506667	8.98760E-001	5.99493E-003	0.00000E+000	5.38800E-003	3.59960E-001	-1.15509E+000	3.57660E+000	10	...........
	38	0.52	9.04965E-001	5.99687E-003	0.00000E+000	5.42696E-003	3.59960E-001	-1.15683E+000	3.57660E+000	10	...........
	39	0.533333	9.11135E-001	5.99443E-003	0.00000E+000	5.46173E-003	3.59960E-001	-1.16549E+000	3.57660E+000	10	...........
	40	0.546667	9.17270E-001	5.99151E-003	0.00000E+000	5.49583E-003	3.59960E-001	-1.15499E+000	3.57660E+000	10	...........
	41	0.56	9.23446E-001	5.99795E-003	0.00000E+000	5.53878E-003	3.59960E-001	-1.15640E+000	3.57660E+000	10	...........
	42	0.573333	9.29479E-001	5.99442E-003	0.00000E+000	5.57169E-003	3.59960E-001	-1.16543E+000	3.57660E+000	10	...........
	43	0.586667	9.35515E-001	5.99473E-003	0.00000E+000	5.60816E-003	3.59960E-001	-1.15470E+000	3.57660E+000	10	...........
	44	0.6	9.41479E-001	5.99169E-003	0.00000E+000	5.64105E-003	3.59960E-001	-1.15636E+000	3.57660E+000	10	...........
	45	0.613333	9.47426E-001	5.99134E-003	0.00000E+000	5.67635E-003	3.59960E-001	-1.16561E+000	3.57660E+000	10	...........
	46	0.626667	9.53329E-001	5.99345E-003	0.00000E+000	5.71373E-003	3.59960E-001	-1.15477E+000	3.57660E+000	10	...........
	47	0.64	9.59190E-001	5.99491E-003	0.00000E+000	5.75026E-003	3.59960E-001	-1.15595E+000	3.57660E+000	10	...........
	48	0.653333	9.64952E-001	5.99313E-003	0.00000E+000	5.78309E-003	3.59960E-001	-1.16526E+000	3.57660E+000	10	...........
	49	0.666667	9.70747E-001	5.99560E-003	0.00000E+000	5.82021E-003	3.59960E-001	-1.15468E+000	3.57660E+000	10	...........
	50	0.68	9.76494E-001	5.99894E-003	0.00000E+000	5.85793E-003	3.59960E-001	-1.15597E+000	3.57660E+000	10	...........
	51	0.693333	9.82162E-001	5.99621E-003	0.00000E+000	5.88925E-003	3.59960E-001	-1.16525E+000	3.57660E+000	10	...........
	52	0.706667	9.87754E-001	5.99174E-003	0.00000E+000	5.91836E-003	3.59960E-001	-1.15413E+000	3.57660E+000	10	...........
	53	0.72	9.93303E-001	5.99233E-003	0.00000E+000	5.95220E-003	3.59960E-001	-1.15551E+000	3.57660E+000	10	...........
	54	0.731667	9.98479E-001	5.99221E-003	0.00000E+000	5.98309E-003	3.59960E-001	-1.16506E+000	3.57660E+000	10	...........
STARTTIMEOFFSET	QUANT	1203.04	Start Time Offset (s)