File: Data/CV_CRGO300517_1/PWRCCD_CRGO300517_1/CHARGE_DISCHARGE/CHARGE_#830.DTA
EXPLAIN
TAG	PWR800_CHARGE
TITLE	LABEL	PWR Cyclic Charge Discharge (Cell) - Charge Step	Test &Identifier
DATE	LABEL	22-6-2017	Date
TIME	LABEL	16:08:24	Time
NOTES	NOTES	3	&Notes...
	supercap test cell
	0.6mg
	6M KOH
PSTAT	PSTAT	IFC5000-01520	Potentiostat
CAPACITY	QUANT	1.00000E-003	Capacity (A-hr)
CELLTYPE	SELECTOR	1	&Cell Type
WORKINGCONNECTION	SELECTOR	0	&Working Lead
MAXCHARGETIME	VARIABLEANDUNITS	1.00000E+002	s	1.00000E+002	second(s)	Max &Charge Time
CHARGECURRENT	QUANT	6.00000E-003	&Charge Current (A)
VOLTAGEFINISH	TWOPARAM	F	1.00000E-003	3.60000E+003	&Voltage Finish	 I (A) < 	Max Time(s)
SAMPLETIME	QUANT	1.00000E-002	Sa&mple Period (s)
CHARGESTOPAT1	MULTIPARAM	4	1.00000E+000	Charge Stop At &1	Voltage > Limit	V
CHARGESTOPAT2	MULTIPARAM	0	0.00000E+000	Charge Stop At &2	None	N/A
AESBHCSELECTOR	TOGGLE	F	Save Both Half Cells
IRCOMP	TOGGLE	F	IR &Measure
EOC	QUANT	0	Open Circuit (V)
SEQUENCER	TOGGLE	TRUE	Run as Sequence
PSTATMODEL	IQUANT	53	Pstat Model
PSTATSECTION	LABEL	IFC5000-01520	Pstat Section
PSTATSERIALNO	LABEL	01520	Pstat Serial Number
CTRLMODE	IQUANT	0	Control Mode
ELECTROMETER	IQUANT	1	RE=0 or CS=1
IESTAB	IQUANT	0	I/E Stability
CASPEED	IQUANT	4	Control Amp Speed
CONVENTION	IQUANT	1	Current Convention
ICHRANGE	IQUANT	2	Ich Range
ICHRANGEMODE	TOGGLE	T	Ich Auto Range
ICHOFFSETENABLE	TOGGLE	F	Ich Offset Enable
ICHOFFSET	QUANT	0	Ich Offset (V)
ICHFILTER	IQUANT	1	Ich Filter
VCHRANGE	IQUANT	2	Vch Range
VCHRANGEMODE	TOGGLE	T	Vch Auto Range
VCHOFFSETENABLE	TOGGLE	F	Vch Offset Enable
VCHOFFSET	QUANT	0	Vch Offset (V)
VCHFILTER	IQUANT	1	Vch Filter
IERANGELOWERLIMIT	IQUANT	9	I/E Range Lower Limit
IERANGEMODE	TOGGLE	F	I/E AutoRange
IERANGE	IQUANT	10	I/E Range
ACHSELECT	IQUANT	1	Ach Select
ACHRANGE	IQUANT	2	Ach Range
ACHOFFSETENABLE	TOGGLE	F	Ach Offset Enable
ACHOFFSET	QUANT	0	Ach Offset (V)
ACHFILTER	IQUANT	1	Ach Filter
CABLEID	IQUANT	14	Cable ID
DCCALDATE	LABEL	20-10-2016	DC Calibration Date
ACCALDATE	LABEL	12/3/2015	AC Calibration Date
FRAMEWORKVERSION	QUANT	7.01	Framework Version
INSTRUMENTVERSION	LABEL	4.00	Instrument Version
CURVE	TABLE	54
	Pt	T	Vf	Im	Vu	Pwr	Sig	Ach	Temp	IERange	Over
	#	s	V	A	V	W	V	V	deg C	#	bits
	0	0.013333	6.50080E-001	5.99086E-003	0.00000E+000	3.89454E-003	3.59960E-001	-1.16256E+000	3.57640E+000	10	...........
	1	0.026667	6.59278E-001	5.98877E-003	0.00000E+000	3.94827E-003	3.59960E-001	-1.16679E+000	3.57640E+000	10	...........
	2	0.04	6.67755E-001	5.99331E-003	0.00000E+000	4.00206E-003	3.59960E-001	-1.17217E+000	3.57640E+000	10	...........
	3	0.053333	6.75749E-001	5.99544E-003	0.00000E+000	4.05141E-003	3.59960E-001	-1.16249E+000	3.57640E+000	10	...........
	4	0.066667	6.83466E-001	5.98946E-003	0.00000E+000	4.09359E-003	3.59960E-001	-1.16672E+000	3.57640E+000	10	...........
	5	0.08	6.91041E-001	5.99471E-003	0.00000E+000	4.14259E-003	3.59960E-001	-1.17178E+000	3.57643E+000	10	...........
	6	0.093333	6.98399E-001	5.99614E-003	0.00000E+000	4.18770E-003	3.59960E-001	-1.16223E+000	3.57660E+000	10	...........
	7	0.106667	7.05635E-001	5.99394E-003	0.00000E+000	4.22953E-003	3.59960E-001	-1.16656E+000	3.57660E+000	10	...........
	8	0.12	7.12794E-001	5.99455E-003	0.00000E+000	4.27288E-003	3.59960E-001	-1.17202E+000	3.57660E+000	10	...........
	9	0.133333	7.19977E-001	5.99857E-003	0.00000E+000	4.31883E-003	3.59960E-001	-1.16229E+000	3.57660E+000	10	...........
	10	0.146667	7.27021E-001	5.99444E-003	0.00000E+000	4.35808E-003	3.59960E-001	-1.16670E+000	3.57660E+000	10	...........
	11	0.16	7.33998E-001	5.99427E-003	0.00000E+000	4.39978E-003	3.59960E-001	-1.17181E+000	3.57660E+000	10	...........
	12	0.173333	7.40936E-001	5.99054E-003	0.00000E+000	4.43860E-003	3.59960E-001	-1.16245E+000	3.57660E+000	10	...........
	13	0.186667	7.47863E-001	5.99590E-003	0.00000E+000	4.48411E-003	3.59960E-001	-1.16653E+000	3.57660E+000	10	...........
	14	0.2	7.54735E-001	5.99484E-003	0.00000E+000	4.52452E-003	3.59960E-001	-1.17187E+000	3.57660E+000	10	...........
	15	0.213333	7.61602E-001	5.99558E-003	0.00000E+000	4.56624E-003	3.59960E-001	-1.16210E+000	3.57660E+000	10	...........
	16	0.226667	7.68382E-001	5.99685E-003	0.00000E+000	4.60787E-003	3.59960E-001	-1.16599E+000	3.57660E+000	10	...........
	17	0.24	7.75146E-001	5.99695E-003	0.00000E+000	4.64851E-003	3.59960E-001	-1.17161E+000	3.57660E+000	10	...........
	18	0.253333	7.81903E-001	5.99673E-003	0.00000E+000	4.68887E-003	3.59960E-001	-1.16180E+000	3.57660E+000	10	...........
	19	0.266667	7.88606E-001	5.99233E-003	0.00000E+000	4.72559E-003	3.59960E-001	-1.16591E+000	3.57660E+000	10	...........
	20	0.28	7.95357E-001	5.99323E-003	0.00000E+000	4.76676E-003	3.59960E-001	-1.17124E+000	3.57660E+000	10	...........
	21	0.293333	8.02035E-001	5.99531E-003	0.00000E+000	4.80845E-003	3.59960E-001	-1.16174E+000	3.57660E+000	10	...........
	22	0.306667	8.08618E-001	5.99153E-003	0.00000E+000	4.84486E-003	3.59960E-001	-1.16585E+000	3.57660E+000	10	...........
	23	0.32	8.15268E-001	5.99151E-003	0.00000E+000	4.88468E-003	3.59960E-001	-1.17126E+000	3.57660E+000	10	...........
	24	0.333333	8.21911E-001	5.99416E-003	0.00000E+000	4.92666E-003	3.59960E-001	-1.16157E+000	3.57660E+000	10	...........
	25	0.346667	8.28504E-001	5.99757E-003	0.00000E+000	4.96901E-003	3.59960E-001	-1.16547E+000	3.57660E+000	10	...........
	26	0.36	8.35025E-001	5.99237E-003	0.00000E+000	5.00378E-003	3.59960E-001	-1.17119E+000	3.57660E+000	10	...........
	27	0.373333	8.41517E-001	5.99205E-003	0.00000E+000	5.04241E-003	3.59960E-001	-1.16155E+000	3.57660E+000	10	...........
	28	0.386667	8.48088E-001	5.99043E-003	0.00000E+000	5.08041E-003	3.59960E-001	-1.16550E+000	3.57660E+000	10	...........
	29	0.4	8.54565E-001	5.99752E-003	0.00000E+000	5.12527E-003	3.59960E-001	-1.17116E+000	3.57660E+000	10	...........
	30	0.413333	8.61043E-001	5.99253E-003	0.00000E+000	5.15982E-003	3.59960E-001	-1.16139E+000	3.57660E+000	10	...........
	31	0.426667	8.67487E-001	5.99481E-003	0.00000E+000	5.20043E-003	3.59960E-001	-1.16533E+000	3.57660E+000	10	...........
	32	0.44	8.73915E-001	5.99005E-003	0.00000E+000	5.23479E-003	3.59960E-001	-1.17140E+000	3.57660E+000	10	...........
	33	0.453333	8.80316E-001	5.99224E-003	0.00000E+000	5.27506E-003	3.59960E-001	-1.16172E+000	3.57660E+000	10	...........
	34	0.466667	8.86665E-001	5.99297E-003	0.00000E+000	5.31375E-003	3.59960E-001	-1.16546E+000	3.57660E+000	10	...........
	35	0.48	8.92983E-001	5.99442E-003	0.00000E+000	5.35291E-003	3.59960E-001	-1.17135E+000	3.57660E+000	10	...........
	36	0.493333	8.99264E-001	5.99595E-003	0.00000E+000	5.39194E-003	3.59960E-001	-1.16148E+000	3.57660E+000	10	...........
	37	0.506667	9.05464E-001	5.99603E-003	0.00000E+000	5.42919E-003	3.59960E-001	-1.16548E+000	3.57660E+000	10	...........
	38	0.52	9.11694E-001	5.99220E-003	0.00000E+000	5.46305E-003	3.59960E-001	-1.17148E+000	3.57660E+000	10	...........
	39	0.533333	9.17865E-001	5.99512E-003	0.00000E+000	5.50271E-003	3.59960E-001	-1.16160E+000	3.57660E+000	10	...........
	40	0.546667	9.24048E-001	5.99593E-003	0.00000E+000	5.54053E-003	3.59960E-001	-1.16508E+000	3.57660E+000	10	...........
	41	0.56	9.30158E-001	6.00167E-003	0.00000E+000	5.58250E-003	3.59960E-001	-1.17091E+000	3.57660E+000	10	...........
	42	0.573333	9.36150E-001	5.99177E-003	0.00000E+000	5.60920E-003	3.59960E-001	-1.16107E+000	3.57660E+000	10	...........
	43	0.586667	9.42155E-001	5.99174E-003	0.00000E+000	5.64514E-003	3.59960E-001	-1.16484E+000	3.57660E+000	10	...........
	44	0.6	9.48132E-001	5.99692E-003	0.00000E+000	5.68587E-003	3.59960E-001	-1.17091E+000	3.57660E+000	10	...........
	45	0.613333	9.54052E-001	5.99256E-003	0.00000E+000	5.71721E-003	3.59960E-001	-1.16095E+000	3.57660E+000	10	...........
	46	0.626667	9.59887E-001	5.99328E-003	0.00000E+000	5.75287E-003	3.59960E-001	-1.16457E+000	3.57660E+000	10	...........
	47	0.64	9.65706E-001	5.99226E-003	0.00000E+000	5.78676E-003	3.59960E-001	-1.17092E+000	3.57660E+000	10	...........
	48	0.653333	9.71501E-001	5.99257E-003	0.00000E+000	5.82179E-003	3.59960E-001	-1.16098E+000	3.57660E+000	10	...........
	49	0.666667	9.77276E-001	5.99212E-003	0.00000E+000	5.85596E-003	3.59960E-001	-1.16461E+000	3.57660E+000	10	...........
	50	0.68	9.82926E-001	5.98983E-003	0.00000E+000	5.88756E-003	3.59960E-001	-1.17087E+000	3.57660E+000	10	...........
	51	0.693333	9.88560E-001	5.99031E-003	0.00000E+000	5.92178E-003	3.59960E-001	-1.16100E+000	3.57660E+000	10	...........
	52	0.706667	9.94109E-001	5.99057E-003	0.00000E+000	5.95528E-003	3.59960E-001	-1.16444E+000	3.57660E+000	10	...........
	53	0.716667	9.98974E-001	5.99941E-003	0.00000E+000	5.99325E-003	3.59960E-001	-1.16993E+000	3.57660E+000	10	...........
STARTTIMEOFFSET	QUANT	1347	Start Time Offset (s)