File: Data/CV_CRGO300517_1/PWRCCD_CRGO300517_1/CHARGE_DISCHARGE/CHARGE_#416.DTA
EXPLAIN
TAG	PWR800_CHARGE
TITLE	LABEL	PWR Cyclic Charge Discharge (Cell) - Charge Step	Test &Identifier
DATE	LABEL	22-6-2017	Date
TIME	LABEL	15:52:36	Time
NOTES	NOTES	3	&Notes...
	supercap test cell
	0.6mg
	6M KOH
PSTAT	PSTAT	IFC5000-01520	Potentiostat
CAPACITY	QUANT	1.00000E-003	Capacity (A-hr)
CELLTYPE	SELECTOR	1	&Cell Type
WORKINGCONNECTION	SELECTOR	0	&Working Lead
MAXCHARGETIME	VARIABLEANDUNITS	1.00000E+002	s	1.00000E+002	second(s)	Max &Charge Time
CHARGECURRENT	QUANT	6.00000E-003	&Charge Current (A)
VOLTAGEFINISH	TWOPARAM	F	1.00000E-003	3.60000E+003	&Voltage Finish	 I (A) < 	Max Time(s)
SAMPLETIME	QUANT	1.00000E-002	Sa&mple Period (s)
CHARGESTOPAT1	MULTIPARAM	4	1.00000E+000	Charge Stop At &1	Voltage > Limit	V
CHARGESTOPAT2	MULTIPARAM	0	0.00000E+000	Charge Stop At &2	None	N/A
AESBHCSELECTOR	TOGGLE	F	Save Both Half Cells
IRCOMP	TOGGLE	F	IR &Measure
EOC	QUANT	0	Open Circuit (V)
SEQUENCER	TOGGLE	TRUE	Run as Sequence
PSTATMODEL	IQUANT	53	Pstat Model
PSTATSECTION	LABEL	IFC5000-01520	Pstat Section
PSTATSERIALNO	LABEL	01520	Pstat Serial Number
CTRLMODE	IQUANT	0	Control Mode
ELECTROMETER	IQUANT	1	RE=0 or CS=1
IESTAB	IQUANT	0	I/E Stability
CASPEED	IQUANT	4	Control Amp Speed
CONVENTION	IQUANT	1	Current Convention
ICHRANGE	IQUANT	2	Ich Range
ICHRANGEMODE	TOGGLE	T	Ich Auto Range
ICHOFFSETENABLE	TOGGLE	F	Ich Offset Enable
ICHOFFSET	QUANT	0	Ich Offset (V)
ICHFILTER	IQUANT	1	Ich Filter
VCHRANGE	IQUANT	2	Vch Range
VCHRANGEMODE	TOGGLE	T	Vch Auto Range
VCHOFFSETENABLE	TOGGLE	F	Vch Offset Enable
VCHOFFSET	QUANT	0	Vch Offset (V)
VCHFILTER	IQUANT	1	Vch Filter
IERANGELOWERLIMIT	IQUANT	9	I/E Range Lower Limit
IERANGEMODE	TOGGLE	F	I/E AutoRange
IERANGE	IQUANT	10	I/E Range
ACHSELECT	IQUANT	1	Ach Select
ACHRANGE	IQUANT	2	Ach Range
ACHOFFSETENABLE	TOGGLE	F	Ach Offset Enable
ACHOFFSET	QUANT	0	Ach Offset (V)
ACHFILTER	IQUANT	1	Ach Filter
CABLEID	IQUANT	14	Cable ID
DCCALDATE	LABEL	20-10-2016	DC Calibration Date
ACCALDATE	LABEL	12/3/2015	AC Calibration Date
FRAMEWORKVERSION	QUANT	7.01	Framework Version
INSTRUMENTVERSION	LABEL	4.00	Instrument Version
CURVE	TABLE	60
	Pt	T	Vf	Im	Vu	Pwr	Sig	Ach	Temp	IERange	Over
	#	s	V	A	V	W	V	V	deg C	#	bits
	0	0.013333	6.25467E-001	5.99257E-003	0.00000E+000	3.74815E-003	3.59960E-001	-1.12912E+000	3.57790E+000	10	...........
	1	0.026667	6.34243E-001	5.99313E-003	0.00000E+000	3.80110E-003	3.59960E-001	-1.13696E+000	3.57790E+000	10	...........
	2	0.04	6.42297E-001	5.99388E-003	0.00000E+000	3.84985E-003	3.59960E-001	-1.13523E+000	3.57790E+000	10	...........
	3	0.053333	6.49940E-001	5.99947E-003	0.00000E+000	3.89929E-003	3.59960E-001	-1.12923E+000	3.57790E+000	10	...........
	4	0.066667	6.57336E-001	5.99424E-003	0.00000E+000	3.94023E-003	3.59960E-001	-1.13709E+000	3.57790E+000	10	...........
	5	0.08	6.64475E-001	5.99429E-003	0.00000E+000	3.98306E-003	3.59960E-001	-1.13481E+000	3.57790E+000	10	...........
	6	0.093333	6.71583E-001	5.99529E-003	0.00000E+000	4.02633E-003	3.59960E-001	-1.12898E+000	3.57790E+000	10	...........
	7	0.106667	6.78533E-001	5.99137E-003	0.00000E+000	4.06534E-003	3.59960E-001	-1.13739E+000	3.57790E+000	10	...........
	8	0.12	6.85360E-001	5.99377E-003	0.00000E+000	4.10789E-003	3.59960E-001	-1.13500E+000	3.57790E+000	10	...........
	9	0.133333	6.92093E-001	5.99413E-003	0.00000E+000	4.14849E-003	3.59960E-001	-1.12894E+000	3.57790E+000	10	...........
	10	0.146667	6.98801E-001	5.99608E-003	0.00000E+000	4.19007E-003	3.59960E-001	-1.13742E+000	3.57790E+000	10	...........
	11	0.16	7.05454E-001	5.99663E-003	0.00000E+000	4.23035E-003	3.59960E-001	-1.13507E+000	3.57790E+000	10	...........
	12	0.173333	7.12059E-001	5.99027E-003	0.00000E+000	4.26542E-003	3.59960E-001	-1.12913E+000	3.57790E+000	10	...........
	13	0.186667	7.18684E-001	5.99425E-003	0.00000E+000	4.30797E-003	3.59960E-001	-1.13764E+000	3.57790E+000	10	...........
	14	0.2	7.25236E-001	5.99148E-003	0.00000E+000	4.34523E-003	3.59960E-001	-1.13469E+000	3.57790E+000	10	...........
	15	0.213333	7.31752E-001	5.99224E-003	0.00000E+000	4.38483E-003	3.59960E-001	-1.12889E+000	3.57790E+000	10	...........
	16	0.226667	7.38253E-001	5.99726E-003	0.00000E+000	4.42750E-003	3.59960E-001	-1.13701E+000	3.57790E+000	10	...........
	17	0.24	7.44792E-001	5.99568E-003	0.00000E+000	4.46553E-003	3.59960E-001	-1.13434E+000	3.57790E+000	10	...........
	18	0.253333	7.51261E-001	5.99503E-003	0.00000E+000	4.50383E-003	3.59960E-001	-1.12858E+000	3.57790E+000	10	...........
	19	0.266667	7.57738E-001	5.99717E-003	0.00000E+000	4.54429E-003	3.59960E-001	-1.13706E+000	3.57790E+000	10	...........
	20	0.28	7.64182E-001	5.99264E-003	0.00000E+000	4.57947E-003	3.59960E-001	-1.13410E+000	3.57790E+000	10	...........
	21	0.293333	7.70570E-001	5.99459E-003	0.00000E+000	4.61926E-003	3.59960E-001	-1.12868E+000	3.57790E+000	10	...........
	22	0.306667	7.76974E-001	5.99781E-003	0.00000E+000	4.66014E-003	3.59960E-001	-1.13739E+000	3.57790E+000	10	...........
	23	0.32	7.83393E-001	5.99495E-003	0.00000E+000	4.69640E-003	3.59960E-001	-1.13395E+000	3.57790E+000	10	...........
	24	0.333333	7.89773E-001	5.99783E-003	0.00000E+000	4.73692E-003	3.59960E-001	-1.12851E+000	3.57790E+000	10	...........
	25	0.346667	7.96211E-001	5.99552E-003	0.00000E+000	4.77370E-003	3.59960E-001	-1.13725E+000	3.57790E+000	10	...........
	26	0.36	8.02527E-001	5.99407E-003	0.00000E+000	4.81041E-003	3.59960E-001	-1.13384E+000	3.57790E+000	10	...........
	27	0.373333	8.08866E-001	5.99305E-003	0.00000E+000	4.84757E-003	3.59960E-001	-1.12858E+000	3.57790E+000	10	...........
	28	0.386667	8.15171E-001	5.99720E-003	0.00000E+000	4.88874E-003	3.59960E-001	-1.13736E+000	3.57790E+000	10	...........
	29	0.4	8.21489E-001	5.98995E-003	0.00000E+000	4.92068E-003	3.59960E-001	-1.13379E+000	3.57790E+000	10	...........
	30	0.413333	8.27810E-001	5.99577E-003	0.00000E+000	4.96336E-003	3.59960E-001	-1.12840E+000	3.57790E+000	10	...........
	31	0.426667	8.34074E-001	5.99191E-003	0.00000E+000	4.99770E-003	3.59960E-001	-1.13747E+000	3.57790E+000	10	...........
	32	0.44	8.40331E-001	5.99684E-003	0.00000E+000	5.03933E-003	3.59960E-001	-1.13379E+000	3.57790E+000	10	...........
	33	0.453333	8.46600E-001	5.99340E-003	0.00000E+000	5.07401E-003	3.59960E-001	-1.12862E+000	3.57790E+000	10	...........
	34	0.466667	8.52847E-001	5.99014E-003	0.00000E+000	5.10867E-003	3.59960E-001	-1.13767E+000	3.57790E+000	10	...........
	35	0.48	8.59069E-001	5.99672E-003	0.00000E+000	5.15160E-003	3.59960E-001	-1.13370E+000	3.57790E+000	10	...........
	36	0.493333	8.65247E-001	5.99466E-003	0.00000E+000	5.18686E-003	3.59960E-001	-1.12850E+000	3.57790E+000	10	...........
	37	0.506667	8.71458E-001	5.99325E-003	0.00000E+000	5.22286E-003	3.59960E-001	-1.13763E+000	3.57790E+000	10	...........
	38	0.52	8.77606E-001	5.99549E-003	0.00000E+000	5.26168E-003	3.59960E-001	-1.13352E+000	3.57790E+000	10	...........
	39	0.533333	8.83746E-001	5.99187E-003	0.00000E+000	5.29529E-003	3.59960E-001	-1.12839E+000	3.57790E+000	10	...........
	40	0.546667	8.89837E-001	5.99196E-003	0.00000E+000	5.33186E-003	3.59960E-001	-1.13734E+000	3.57790E+000	10	...........
	41	0.56	8.95918E-001	5.99631E-003	0.00000E+000	5.37220E-003	3.59960E-001	-1.13288E+000	3.57757E+000	10	...........
	42	0.573333	9.01975E-001	5.99372E-003	0.00000E+000	5.40619E-003	3.59960E-001	-1.12792E+000	3.57710E+000	10	...........
	43	0.586667	9.08034E-001	5.99749E-003	0.00000E+000	5.44593E-003	3.59960E-001	-1.13750E+000	3.57710E+000	10	...........
	44	0.6	9.14021E-001	5.99429E-003	0.00000E+000	5.47891E-003	3.59960E-001	-1.13291E+000	3.57710E+000	10	...........
	45	0.613333	9.20043E-001	5.99311E-003	0.00000E+000	5.51392E-003	3.59960E-001	-1.12780E+000	3.57710E+000	10	...........
	46	0.626667	9.26015E-001	5.99538E-003	0.00000E+000	5.55181E-003	3.59960E-001	-1.13724E+000	3.57710E+000	10	...........
	47	0.64	9.31949E-001	5.99662E-003	0.00000E+000	5.58854E-003	3.59960E-001	-1.13263E+000	3.57710E+000	10	...........
	48	0.653333	9.37808E-001	5.99437E-003	0.00000E+000	5.62157E-003	3.59960E-001	-1.12801E+000	3.57710E+000	10	...........
	49	0.666667	9.43667E-001	5.99605E-003	0.00000E+000	5.65828E-003	3.59960E-001	-1.13761E+000	3.57710E+000	10	...........
	50	0.68	9.49554E-001	5.99564E-003	0.00000E+000	5.69318E-003	3.59960E-001	-1.13258E+000	3.57710E+000	10	...........
	51	0.693333	9.55282E-001	5.99381E-003	0.00000E+000	5.72578E-003	3.59960E-001	-1.12769E+000	3.57710E+000	10	...........
	52	0.706667	9.61026E-001	5.99414E-003	0.00000E+000	5.76052E-003	3.59960E-001	-1.13766E+000	3.57710E+000	10	...........
	53	0.72	9.66698E-001	5.99457E-003	0.00000E+000	5.79494E-003	3.59960E-001	-1.13261E+000	3.57710E+000	10	...........
	54	0.733333	9.72401E-001	5.99479E-003	0.00000E+000	5.82934E-003	3.59960E-001	-1.12799E+000	3.57710E+000	10	...........
	55	0.746667	9.78018E-001	5.99239E-003	0.00000E+000	5.86067E-003	3.59960E-001	-1.13771E+000	3.57710E+000	10	...........
	56	0.76	9.83623E-001	5.99735E-003	0.00000E+000	5.89913E-003	3.59960E-001	-1.13243E+000	3.57710E+000	10	...........
	57	0.773333	9.89145E-001	5.99421E-003	0.00000E+000	5.92914E-003	3.59960E-001	-1.12806E+000	3.57710E+000	10	...........
	58	0.786667	9.94612E-001	5.99292E-003	0.00000E+000	5.96063E-003	3.59960E-001	-1.13808E+000	3.57710E+000	10	...........
	59	0.795	9.99044E-001	5.99044E-003	0.00000E+000	5.98471E-003	3.59960E-001	-1.12633E+000	3.57710E+000	10	...........
STARTTIMEOFFSET	QUANT	728.0085	Start Time Offset (s)