File: Data/CV_CRGO300517_1/PWRCCD_CRGO300517_1/CHARGE_DISCHARGE/CHARGE_#346.DTA
EXPLAIN
TAG	PWR800_CHARGE
TITLE	LABEL	PWR Cyclic Charge Discharge (Cell) - Charge Step	Test &Identifier
DATE	LABEL	22-6-2017	Date
TIME	LABEL	15:49:48	Time
NOTES	NOTES	3	&Notes...
	supercap test cell
	0.6mg
	6M KOH
PSTAT	PSTAT	IFC5000-01520	Potentiostat
CAPACITY	QUANT	1.00000E-003	Capacity (A-hr)
CELLTYPE	SELECTOR	1	&Cell Type
WORKINGCONNECTION	SELECTOR	0	&Working Lead
MAXCHARGETIME	VARIABLEANDUNITS	1.00000E+002	s	1.00000E+002	second(s)	Max &Charge Time
CHARGECURRENT	QUANT	6.00000E-003	&Charge Current (A)
VOLTAGEFINISH	TWOPARAM	F	1.00000E-003	3.60000E+003	&Voltage Finish	 I (A) < 	Max Time(s)
SAMPLETIME	QUANT	1.00000E-002	Sa&mple Period (s)
CHARGESTOPAT1	MULTIPARAM	4	1.00000E+000	Charge Stop At &1	Voltage > Limit	V
CHARGESTOPAT2	MULTIPARAM	0	0.00000E+000	Charge Stop At &2	None	N/A
AESBHCSELECTOR	TOGGLE	F	Save Both Half Cells
IRCOMP	TOGGLE	F	IR &Measure
EOC	QUANT	0	Open Circuit (V)
SEQUENCER	TOGGLE	TRUE	Run as Sequence
PSTATMODEL	IQUANT	53	Pstat Model
PSTATSECTION	LABEL	IFC5000-01520	Pstat Section
PSTATSERIALNO	LABEL	01520	Pstat Serial Number
CTRLMODE	IQUANT	0	Control Mode
ELECTROMETER	IQUANT	1	RE=0 or CS=1
IESTAB	IQUANT	0	I/E Stability
CASPEED	IQUANT	4	Control Amp Speed
CONVENTION	IQUANT	1	Current Convention
ICHRANGE	IQUANT	2	Ich Range
ICHRANGEMODE	TOGGLE	T	Ich Auto Range
ICHOFFSETENABLE	TOGGLE	F	Ich Offset Enable
ICHOFFSET	QUANT	0	Ich Offset (V)
ICHFILTER	IQUANT	1	Ich Filter
VCHRANGE	IQUANT	2	Vch Range
VCHRANGEMODE	TOGGLE	T	Vch Auto Range
VCHOFFSETENABLE	TOGGLE	F	Vch Offset Enable
VCHOFFSET	QUANT	0	Vch Offset (V)
VCHFILTER	IQUANT	1	Vch Filter
IERANGELOWERLIMIT	IQUANT	9	I/E Range Lower Limit
IERANGEMODE	TOGGLE	F	I/E AutoRange
IERANGE	IQUANT	10	I/E Range
ACHSELECT	IQUANT	1	Ach Select
ACHRANGE	IQUANT	2	Ach Range
ACHOFFSETENABLE	TOGGLE	F	Ach Offset Enable
ACHOFFSET	QUANT	0	Ach Offset (V)
ACHFILTER	IQUANT	1	Ach Filter
CABLEID	IQUANT	14	Cable ID
DCCALDATE	LABEL	20-10-2016	DC Calibration Date
ACCALDATE	LABEL	12/3/2015	AC Calibration Date
FRAMEWORKVERSION	QUANT	7.01	Framework Version
INSTRUMENTVERSION	LABEL	4.00	Instrument Version
CURVE	TABLE	61
	Pt	T	Vf	Im	Vu	Pwr	Sig	Ach	Temp	IERange	Over
	#	s	V	A	V	W	V	V	deg C	#	bits
	0	0.013333	6.20860E-001	5.99587E-003	0.00000E+000	3.72259E-003	3.59960E-001	-1.11574E+000	3.57960E+000	10	...........
	1	0.026667	6.29528E-001	5.99119E-003	0.00000E+000	3.77163E-003	3.59960E-001	-1.12191E+000	3.57960E+000	10	...........
	2	0.04	6.37519E-001	5.99432E-003	0.00000E+000	3.82149E-003	3.59960E-001	-1.12390E+000	3.57960E+000	10	...........
	3	0.053333	6.45133E-001	5.99103E-003	0.00000E+000	3.86501E-003	3.59960E-001	-1.11576E+000	3.57960E+000	10	...........
	4	0.066667	6.52415E-001	5.99309E-003	0.00000E+000	3.90999E-003	3.59960E-001	-1.12189E+000	3.57960E+000	10	...........
	5	0.08	6.59539E-001	5.99348E-003	0.00000E+000	3.95293E-003	3.59960E-001	-1.12412E+000	3.57960E+000	10	...........
	6	0.093333	6.66504E-001	5.98750E-003	0.00000E+000	3.99070E-003	3.59960E-001	-1.11596E+000	3.57960E+000	10	...........
	7	0.106667	6.73327E-001	5.99626E-003	0.00000E+000	4.03745E-003	3.59960E-001	-1.12174E+000	3.57960E+000	10	...........
	8	0.12	6.80094E-001	5.99356E-003	0.00000E+000	4.07619E-003	3.59960E-001	-1.12398E+000	3.57960E+000	10	...........
	9	0.133333	6.86784E-001	5.99835E-003	0.00000E+000	4.11957E-003	3.59960E-001	-1.11555E+000	3.57960E+000	10	...........
	10	0.146667	6.93396E-001	5.99283E-003	0.00000E+000	4.15540E-003	3.59960E-001	-1.12166E+000	3.57960E+000	10	...........
	11	0.16	6.99993E-001	5.99133E-003	0.00000E+000	4.19389E-003	3.59960E-001	-1.12394E+000	3.57960E+000	10	...........
	12	0.173333	7.06555E-001	5.99268E-003	0.00000E+000	4.23416E-003	3.59960E-001	-1.11553E+000	3.57960E+000	10	...........
	13	0.186667	7.13037E-001	5.99512E-003	0.00000E+000	4.27474E-003	3.59960E-001	-1.12154E+000	3.57960E+000	10	...........
	14	0.2	7.19605E-001	5.99248E-003	0.00000E+000	4.31222E-003	3.59960E-001	-1.12394E+000	3.57960E+000	10	...........
	15	0.213333	7.26025E-001	5.99016E-003	0.00000E+000	4.34901E-003	3.59960E-001	-1.11572E+000	3.57960E+000	10	...........
	16	0.226667	7.32451E-001	5.99780E-003	0.00000E+000	4.39309E-003	3.59960E-001	-1.12151E+000	3.57960E+000	10	...........
	17	0.24	7.38875E-001	5.99508E-003	0.00000E+000	4.42962E-003	3.59960E-001	-1.12409E+000	3.57960E+000	10	...........
	18	0.253333	7.45292E-001	5.99138E-003	0.00000E+000	4.46533E-003	3.59960E-001	-1.11561E+000	3.57960E+000	10	...........
	19	0.266667	7.51642E-001	5.99674E-003	0.00000E+000	4.50741E-003	3.59960E-001	-1.12121E+000	3.57960E+000	10	...........
	20	0.28	7.58032E-001	5.99581E-003	0.00000E+000	4.54502E-003	3.59960E-001	-1.12429E+000	3.57960E+000	10	...........
	21	0.293333	7.64338E-001	5.99500E-003	0.00000E+000	4.58221E-003	3.59960E-001	-1.11560E+000	3.57960E+000	10	...........
	22	0.306667	7.70738E-001	5.99338E-003	0.00000E+000	4.61933E-003	3.59960E-001	-1.12105E+000	3.57960E+000	10	...........
	23	0.32	7.77088E-001	5.99653E-003	0.00000E+000	4.65983E-003	3.59960E-001	-1.12397E+000	3.57960E+000	10	...........
	24	0.333333	7.83406E-001	5.99409E-003	0.00000E+000	4.69581E-003	3.59960E-001	-1.11526E+000	3.57960E+000	10	...........
	25	0.346667	7.89714E-001	5.99592E-003	0.00000E+000	4.73506E-003	3.59960E-001	-1.12077E+000	3.57960E+000	10	...........
	26	0.36	7.96010E-001	5.99323E-003	0.00000E+000	4.77067E-003	3.59960E-001	-1.12399E+000	3.57849E+000	10	...........
	27	0.373333	8.02270E-001	5.99369E-003	0.00000E+000	4.80855E-003	3.59960E-001	-1.11532E+000	3.57730E+000	10	...........
	28	0.386667	8.08471E-001	5.99370E-003	0.00000E+000	4.84573E-003	3.59960E-001	-1.12057E+000	3.57730E+000	10	...........
	29	0.4	8.14744E-001	5.99605E-003	0.00000E+000	4.88525E-003	3.59960E-001	-1.12397E+000	3.57730E+000	10	...........
	30	0.413333	8.21060E-001	5.98981E-003	0.00000E+000	4.91799E-003	3.59960E-001	-1.11521E+000	3.57730E+000	10	...........
	31	0.426667	8.27289E-001	5.99952E-003	0.00000E+000	4.96333E-003	3.59960E-001	-1.12071E+000	3.57730E+000	10	...........
	32	0.44	8.33480E-001	5.99281E-003	0.00000E+000	4.99489E-003	3.59960E-001	-1.12392E+000	3.57730E+000	10	...........
	33	0.453333	8.39660E-001	5.99476E-003	0.00000E+000	5.03356E-003	3.59960E-001	-1.11516E+000	3.57730E+000	10	...........
	34	0.466667	8.45887E-001	5.99128E-003	0.00000E+000	5.06794E-003	3.59960E-001	-1.12056E+000	3.57730E+000	10	...........
	35	0.48	8.52046E-001	5.99833E-003	0.00000E+000	5.11085E-003	3.59960E-001	-1.12402E+000	3.57730E+000	10	...........
	36	0.493333	8.58199E-001	5.99032E-003	0.00000E+000	5.14088E-003	3.59960E-001	-1.11511E+000	3.57730E+000	10	...........
	37	0.506667	8.64338E-001	6.00018E-003	0.00000E+000	5.18618E-003	3.59960E-001	-1.12021E+000	3.57730E+000	10	...........
	38	0.52	8.70494E-001	5.99168E-003	0.00000E+000	5.21572E-003	3.59960E-001	-1.12379E+000	3.57730E+000	10	...........
	39	0.533333	8.76623E-001	5.99574E-003	0.00000E+000	5.25601E-003	3.59960E-001	-1.11523E+000	3.57730E+000	10	...........
	40	0.546667	8.82738E-001	5.99401E-003	0.00000E+000	5.29114E-003	3.59960E-001	-1.12033E+000	3.57730E+000	10	...........
	41	0.56	8.88814E-001	5.99719E-003	0.00000E+000	5.33039E-003	3.59960E-001	-1.12423E+000	3.57730E+000	10	...........
	42	0.573333	8.94825E-001	5.99367E-003	0.00000E+000	5.36328E-003	3.59960E-001	-1.11521E+000	3.57730E+000	10	...........
	43	0.586667	9.00847E-001	5.99474E-003	0.00000E+000	5.40035E-003	3.59960E-001	-1.12019E+000	3.57730E+000	10	...........
	44	0.6	9.06860E-001	5.99391E-003	0.00000E+000	5.43563E-003	3.59960E-001	-1.12417E+000	3.57730E+000	10	...........
	45	0.613333	9.12867E-001	5.99494E-003	0.00000E+000	5.47258E-003	3.59960E-001	-1.11515E+000	3.57730E+000	10	...........
	46	0.626667	9.18838E-001	5.99078E-003	0.00000E+000	5.50455E-003	3.59960E-001	-1.12016E+000	3.57730E+000	10	...........
	47	0.64	9.24781E-001	5.99376E-003	0.00000E+000	5.54292E-003	3.59960E-001	-1.12408E+000	3.57730E+000	10	...........
	48	0.653333	9.30663E-001	5.99354E-003	0.00000E+000	5.57797E-003	3.59960E-001	-1.11461E+000	3.57730E+000	10	...........
	49	0.666667	9.36537E-001	5.99254E-003	0.00000E+000	5.61223E-003	3.59960E-001	-1.11956E+000	3.57730E+000	10	...........
	50	0.68	9.42381E-001	5.99686E-003	0.00000E+000	5.65133E-003	3.59960E-001	-1.12395E+000	3.57730E+000	10	...........
	51	0.693333	9.48207E-001	5.99186E-003	0.00000E+000	5.68153E-003	3.59960E-001	-1.11496E+000	3.57730E+000	10	...........
	52	0.706667	9.53956E-001	5.99162E-003	0.00000E+000	5.71574E-003	3.59960E-001	-1.11970E+000	3.57730E+000	10	...........
	53	0.72	9.59650E-001	5.99324E-003	0.00000E+000	5.75141E-003	3.59960E-001	-1.12397E+000	3.57730E+000	10	...........
	54	0.733333	9.65329E-001	5.99246E-003	0.00000E+000	5.78469E-003	3.59960E-001	-1.11487E+000	3.57730E+000	10	...........
	55	0.746667	9.71022E-001	5.99236E-003	0.00000E+000	5.81872E-003	3.59960E-001	-1.11950E+000	3.57730E+000	10	...........
	56	0.76	9.76647E-001	5.98947E-003	0.00000E+000	5.84960E-003	3.59960E-001	-1.12417E+000	3.57730E+000	10	...........
	57	0.773333	9.82162E-001	5.99200E-003	0.00000E+000	5.88511E-003	3.59960E-001	-1.11459E+000	3.57730E+000	10	...........
	58	0.786667	9.87699E-001	5.99284E-003	0.00000E+000	5.91913E-003	3.59960E-001	-1.11939E+000	3.57730E+000	10	...........
	59	0.8	9.93146E-001	5.99391E-003	0.00000E+000	5.95283E-003	3.59960E-001	-1.12406E+000	3.57730E+000	10	...........
	60	0.811667	9.98245E-001	5.99860E-003	0.00000E+000	5.98807E-003	3.59960E-001	-1.11283E+000	3.57730E+000	10	...........
STARTTIMEOFFSET	QUANT	616.1848	Start Time Offset (s)