File: Data/CV_CRGO300517_1/PWRCCD_CRGO300517_1/CHARGE_DISCHARGE/CHARGE_#781.DTA
EXPLAIN
TAG	PWR800_CHARGE
TITLE	LABEL	PWR Cyclic Charge Discharge (Cell) - Charge Step	Test &Identifier
DATE	LABEL	22-6-2017	Date
TIME	LABEL	16:06:34	Time
NOTES	NOTES	3	&Notes...
	supercap test cell
	0.6mg
	6M KOH
PSTAT	PSTAT	IFC5000-01520	Potentiostat
CAPACITY	QUANT	1.00000E-003	Capacity (A-hr)
CELLTYPE	SELECTOR	1	&Cell Type
WORKINGCONNECTION	SELECTOR	0	&Working Lead
MAXCHARGETIME	VARIABLEANDUNITS	1.00000E+002	s	1.00000E+002	second(s)	Max &Charge Time
CHARGECURRENT	QUANT	6.00000E-003	&Charge Current (A)
VOLTAGEFINISH	TWOPARAM	F	1.00000E-003	3.60000E+003	&Voltage Finish	 I (A) < 	Max Time(s)
SAMPLETIME	QUANT	1.00000E-002	Sa&mple Period (s)
CHARGESTOPAT1	MULTIPARAM	4	1.00000E+000	Charge Stop At &1	Voltage > Limit	V
CHARGESTOPAT2	MULTIPARAM	0	0.00000E+000	Charge Stop At &2	None	N/A
AESBHCSELECTOR	TOGGLE	F	Save Both Half Cells
IRCOMP	TOGGLE	F	IR &Measure
EOC	QUANT	0	Open Circuit (V)
SEQUENCER	TOGGLE	TRUE	Run as Sequence
PSTATMODEL	IQUANT	53	Pstat Model
PSTATSECTION	LABEL	IFC5000-01520	Pstat Section
PSTATSERIALNO	LABEL	01520	Pstat Serial Number
CTRLMODE	IQUANT	0	Control Mode
ELECTROMETER	IQUANT	1	RE=0 or CS=1
IESTAB	IQUANT	0	I/E Stability
CASPEED	IQUANT	4	Control Amp Speed
CONVENTION	IQUANT	1	Current Convention
ICHRANGE	IQUANT	2	Ich Range
ICHRANGEMODE	TOGGLE	T	Ich Auto Range
ICHOFFSETENABLE	TOGGLE	F	Ich Offset Enable
ICHOFFSET	QUANT	0	Ich Offset (V)
ICHFILTER	IQUANT	1	Ich Filter
VCHRANGE	IQUANT	2	Vch Range
VCHRANGEMODE	TOGGLE	T	Vch Auto Range
VCHOFFSETENABLE	TOGGLE	F	Vch Offset Enable
VCHOFFSET	QUANT	0	Vch Offset (V)
VCHFILTER	IQUANT	1	Vch Filter
IERANGELOWERLIMIT	IQUANT	9	I/E Range Lower Limit
IERANGEMODE	TOGGLE	F	I/E AutoRange
IERANGE	IQUANT	10	I/E Range
ACHSELECT	IQUANT	1	Ach Select
ACHRANGE	IQUANT	2	Ach Range
ACHOFFSETENABLE	TOGGLE	F	Ach Offset Enable
ACHOFFSET	QUANT	0	Ach Offset (V)
ACHFILTER	IQUANT	1	Ach Filter
CABLEID	IQUANT	14	Cable ID
DCCALDATE	LABEL	20-10-2016	DC Calibration Date
ACCALDATE	LABEL	12/3/2015	AC Calibration Date
FRAMEWORKVERSION	QUANT	7.01	Framework Version
INSTRUMENTVERSION	LABEL	4.00	Instrument Version
CURVE	TABLE	55
	Pt	T	Vf	Im	Vu	Pwr	Sig	Ach	Temp	IERange	Over
	#	s	V	A	V	W	V	V	deg C	#	bits
	0	0.013333	6.47419E-001	5.99289E-003	0.00000E+000	3.87991E-003	3.59960E-001	-1.16866E+000	3.57780E+000	10	...........
	1	0.026667	6.56616E-001	5.99110E-003	0.00000E+000	3.93385E-003	3.59960E-001	-1.17413E+000	3.57780E+000	10	...........
	2	0.04	6.65046E-001	5.99318E-003	0.00000E+000	3.98574E-003	3.59960E-001	-1.16476E+000	3.57780E+000	10	...........
	3	0.053333	6.73042E-001	5.98961E-003	0.00000E+000	4.03126E-003	3.59960E-001	-1.16875E+000	3.57780E+000	10	...........
	4	0.066667	6.80755E-001	5.99230E-003	0.00000E+000	4.07929E-003	3.59960E-001	-1.17417E+000	3.57780E+000	10	...........
	5	0.08	6.88275E-001	5.99460E-003	0.00000E+000	4.12594E-003	3.59960E-001	-1.16430E+000	3.57780E+000	10	...........
	6	0.093333	6.95610E-001	5.99457E-003	0.00000E+000	4.16989E-003	3.59960E-001	-1.16865E+000	3.57780E+000	10	...........
	7	0.106667	7.02859E-001	5.99198E-003	0.00000E+000	4.21152E-003	3.59960E-001	-1.17395E+000	3.57780E+000	10	...........
	8	0.12	7.09961E-001	5.99621E-003	0.00000E+000	4.25707E-003	3.59960E-001	-1.16457E+000	3.57780E+000	10	...........
	9	0.133333	7.17074E-001	5.99948E-003	0.00000E+000	4.30207E-003	3.59960E-001	-1.16877E+000	3.57780E+000	10	...........
	10	0.146667	7.24127E-001	5.99401E-003	0.00000E+000	4.34043E-003	3.59960E-001	-1.17368E+000	3.57780E+000	10	...........
	11	0.16	7.31097E-001	5.99261E-003	0.00000E+000	4.38118E-003	3.59960E-001	-1.16441E+000	3.57780E+000	10	...........
	12	0.173333	7.38012E-001	5.99687E-003	0.00000E+000	4.42576E-003	3.59960E-001	-1.16871E+000	3.57780E+000	10	...........
	13	0.186667	7.44936E-001	5.99179E-003	0.00000E+000	4.46350E-003	3.59960E-001	-1.17367E+000	3.57780E+000	10	...........
	14	0.2	7.51791E-001	5.99155E-003	0.00000E+000	4.50439E-003	3.59960E-001	-1.16409E+000	3.57780E+000	10	...........
	15	0.213333	7.58621E-001	5.99376E-003	0.00000E+000	4.54699E-003	3.59960E-001	-1.16870E+000	3.57780E+000	10	...........
	16	0.226667	7.65381E-001	5.99045E-003	0.00000E+000	4.58498E-003	3.59960E-001	-1.17341E+000	3.57780E+000	10	...........
	17	0.24	7.72135E-001	5.99694E-003	0.00000E+000	4.63045E-003	3.59960E-001	-1.16432E+000	3.57780E+000	10	...........
	18	0.253333	7.78861E-001	5.99354E-003	0.00000E+000	4.66814E-003	3.59960E-001	-1.16889E+000	3.57780E+000	10	...........
	19	0.266667	7.85581E-001	5.99389E-003	0.00000E+000	4.70868E-003	3.59960E-001	-1.17352E+000	3.57780E+000	10	...........
	20	0.28	7.92298E-001	5.99122E-003	0.00000E+000	4.74683E-003	3.59960E-001	-1.16393E+000	3.57780E+000	10	...........
	21	0.293333	7.98973E-001	5.99326E-003	0.00000E+000	4.78846E-003	3.59960E-001	-1.16873E+000	3.57780E+000	10	...........
	22	0.306667	8.05560E-001	5.99330E-003	0.00000E+000	4.82796E-003	3.59960E-001	-1.17330E+000	3.57780E+000	10	...........
	23	0.32	8.12177E-001	5.99886E-003	0.00000E+000	4.87214E-003	3.59960E-001	-1.16412E+000	3.57780E+000	10	...........
	24	0.333333	8.18782E-001	5.99642E-003	0.00000E+000	4.90976E-003	3.59960E-001	-1.16841E+000	3.57780E+000	10	...........
	25	0.346667	8.25342E-001	5.99527E-003	0.00000E+000	4.94815E-003	3.59960E-001	-1.17258E+000	3.57780E+000	10	...........
	26	0.36	8.31877E-001	5.99469E-003	0.00000E+000	4.98684E-003	3.59960E-001	-1.16351E+000	3.57780E+000	10	...........
	27	0.373333	8.38432E-001	5.99390E-003	0.00000E+000	5.02547E-003	3.59960E-001	-1.16845E+000	3.57780E+000	10	...........
	28	0.386667	8.44957E-001	5.98990E-003	0.00000E+000	5.06121E-003	3.59960E-001	-1.17251E+000	3.57780E+000	10	...........
	29	0.4	8.51425E-001	5.99306E-003	0.00000E+000	5.10264E-003	3.59960E-001	-1.16356E+000	3.57780E+000	10	...........
	30	0.413333	8.57904E-001	5.99613E-003	0.00000E+000	5.14410E-003	3.59960E-001	-1.16827E+000	3.57780E+000	10	...........
	31	0.426667	8.64335E-001	5.99724E-003	0.00000E+000	5.18363E-003	3.59960E-001	-1.17248E+000	3.57780E+000	10	...........
	32	0.44	8.70776E-001	5.99370E-003	0.00000E+000	5.21917E-003	3.59960E-001	-1.16360E+000	3.57780E+000	10	...........
	33	0.453333	8.77134E-001	5.99198E-003	0.00000E+000	5.25576E-003	3.59960E-001	-1.16859E+000	3.57780E+000	10	...........
	34	0.466667	8.83511E-001	5.99756E-003	0.00000E+000	5.29891E-003	3.59960E-001	-1.17229E+000	3.57780E+000	10	...........
	35	0.48	8.89822E-001	5.99806E-003	0.00000E+000	5.33720E-003	3.59960E-001	-1.16343E+000	3.57780E+000	10	...........
	36	0.493333	8.96104E-001	5.99805E-003	0.00000E+000	5.37488E-003	3.59960E-001	-1.16851E+000	3.57780E+000	10	...........
	37	0.506667	9.02369E-001	5.99487E-003	0.00000E+000	5.40958E-003	3.59960E-001	-1.17218E+000	3.57780E+000	10	...........
	38	0.52	9.08594E-001	5.99089E-003	0.00000E+000	5.44329E-003	3.59960E-001	-1.16377E+000	3.57767E+000	10	...........
	39	0.533333	9.14796E-001	5.99569E-003	0.00000E+000	5.48483E-003	3.59960E-001	-1.16858E+000	3.57730E+000	10	...........
	40	0.546667	9.20965E-001	5.99357E-003	0.00000E+000	5.51987E-003	3.59960E-001	-1.17238E+000	3.57730E+000	10	...........
	41	0.56	9.27091E-001	5.99169E-003	0.00000E+000	5.55485E-003	3.59960E-001	-1.16366E+000	3.57730E+000	10	...........
	42	0.573333	9.33129E-001	5.99362E-003	0.00000E+000	5.59283E-003	3.59960E-001	-1.16882E+000	3.57730E+000	10	...........
	43	0.586667	9.39134E-001	5.99667E-003	0.00000E+000	5.63168E-003	3.59960E-001	-1.17217E+000	3.57730E+000	10	...........
	44	0.6	9.45136E-001	5.99192E-003	0.00000E+000	5.66318E-003	3.59960E-001	-1.16352E+000	3.57730E+000	10	...........
	45	0.613333	9.51070E-001	5.99482E-003	0.00000E+000	5.70149E-003	3.59960E-001	-1.16862E+000	3.57730E+000	10	...........
	46	0.626667	9.57003E-001	6.00100E-003	0.00000E+000	5.74297E-003	3.59960E-001	-1.17208E+000	3.57730E+000	10	...........
	47	0.64	9.62814E-001	5.99423E-003	0.00000E+000	5.77133E-003	3.59960E-001	-1.16357E+000	3.57730E+000	10	...........
	48	0.653333	9.68612E-001	6.00047E-003	0.00000E+000	5.81213E-003	3.59960E-001	-1.16850E+000	3.57730E+000	10	...........
	49	0.666667	9.74402E-001	5.99379E-003	0.00000E+000	5.84036E-003	3.59960E-001	-1.17164E+000	3.57730E+000	10	...........
	50	0.68	9.80084E-001	5.99485E-003	0.00000E+000	5.87545E-003	3.59960E-001	-1.16292E+000	3.57730E+000	10	...........
	51	0.693333	9.85697E-001	5.99311E-003	0.00000E+000	5.90740E-003	3.59960E-001	-1.16828E+000	3.57730E+000	10	...........
	52	0.706667	9.91306E-001	5.99946E-003	0.00000E+000	5.94729E-003	3.59960E-001	-1.17155E+000	3.57730E+000	10	...........
	53	0.72	9.96818E-001	5.99684E-003	0.00000E+000	5.97775E-003	3.59960E-001	-1.16294E+000	3.57730E+000	10	...........
	54	0.723333	1.00026E+000	5.99045E-003	0.00000E+000	5.99204E-003	3.59960E-001	-1.17779E+000	3.57730E+000	10	...........
STARTTIMEOFFSET	QUANT	1276.832	Start Time Offset (s)