File: Data/CV_CRGO300517_1/PWRCCD_CRGO300517_1/CHARGE_DISCHARGE/CHARGE_#829.DTA
EXPLAIN
TAG	PWR800_CHARGE
TITLE	LABEL	PWR Cyclic Charge Discharge (Cell) - Charge Step	Test &Identifier
DATE	LABEL	22-6-2017	Date
TIME	LABEL	16:08:21	Time
NOTES	NOTES	3	&Notes...
	supercap test cell
	0.6mg
	6M KOH
PSTAT	PSTAT	IFC5000-01520	Potentiostat
CAPACITY	QUANT	1.00000E-003	Capacity (A-hr)
CELLTYPE	SELECTOR	1	&Cell Type
WORKINGCONNECTION	SELECTOR	0	&Working Lead
MAXCHARGETIME	VARIABLEANDUNITS	1.00000E+002	s	1.00000E+002	second(s)	Max &Charge Time
CHARGECURRENT	QUANT	6.00000E-003	&Charge Current (A)
VOLTAGEFINISH	TWOPARAM	F	1.00000E-003	3.60000E+003	&Voltage Finish	 I (A) < 	Max Time(s)
SAMPLETIME	QUANT	1.00000E-002	Sa&mple Period (s)
CHARGESTOPAT1	MULTIPARAM	4	1.00000E+000	Charge Stop At &1	Voltage > Limit	V
CHARGESTOPAT2	MULTIPARAM	0	0.00000E+000	Charge Stop At &2	None	N/A
AESBHCSELECTOR	TOGGLE	F	Save Both Half Cells
IRCOMP	TOGGLE	F	IR &Measure
EOC	QUANT	0	Open Circuit (V)
SEQUENCER	TOGGLE	TRUE	Run as Sequence
PSTATMODEL	IQUANT	53	Pstat Model
PSTATSECTION	LABEL	IFC5000-01520	Pstat Section
PSTATSERIALNO	LABEL	01520	Pstat Serial Number
CTRLMODE	IQUANT	0	Control Mode
ELECTROMETER	IQUANT	1	RE=0 or CS=1
IESTAB	IQUANT	0	I/E Stability
CASPEED	IQUANT	4	Control Amp Speed
CONVENTION	IQUANT	1	Current Convention
ICHRANGE	IQUANT	2	Ich Range
ICHRANGEMODE	TOGGLE	T	Ich Auto Range
ICHOFFSETENABLE	TOGGLE	F	Ich Offset Enable
ICHOFFSET	QUANT	0	Ich Offset (V)
ICHFILTER	IQUANT	1	Ich Filter
VCHRANGE	IQUANT	2	Vch Range
VCHRANGEMODE	TOGGLE	T	Vch Auto Range
VCHOFFSETENABLE	TOGGLE	F	Vch Offset Enable
VCHOFFSET	QUANT	0	Vch Offset (V)
VCHFILTER	IQUANT	1	Vch Filter
IERANGELOWERLIMIT	IQUANT	9	I/E Range Lower Limit
IERANGEMODE	TOGGLE	F	I/E AutoRange
IERANGE	IQUANT	10	I/E Range
ACHSELECT	IQUANT	1	Ach Select
ACHRANGE	IQUANT	2	Ach Range
ACHOFFSETENABLE	TOGGLE	F	Ach Offset Enable
ACHOFFSET	QUANT	0	Ach Offset (V)
ACHFILTER	IQUANT	1	Ach Filter
CABLEID	IQUANT	14	Cable ID
DCCALDATE	LABEL	20-10-2016	DC Calibration Date
ACCALDATE	LABEL	12/3/2015	AC Calibration Date
FRAMEWORKVERSION	QUANT	7.01	Framework Version
INSTRUMENTVERSION	LABEL	4.00	Instrument Version
CURVE	TABLE	54
	Pt	T	Vf	Im	Vu	Pwr	Sig	Ach	Temp	IERange	Over
	#	s	V	A	V	W	V	V	deg C	#	bits
	0	0.013333	6.49642E-001	5.99393E-003	0.00000E+000	3.89391E-003	3.59960E-001	-1.16271E+000	3.57660E+000	10	...........
	1	0.026667	6.58820E-001	5.99258E-003	0.00000E+000	3.94803E-003	3.59960E-001	-1.16921E+000	3.57660E+000	10	...........
	2	0.04	6.67283E-001	5.99468E-003	0.00000E+000	4.00015E-003	3.59960E-001	-1.17007E+000	3.57660E+000	10	...........
	3	0.053333	6.75348E-001	5.99780E-003	0.00000E+000	4.05060E-003	3.59960E-001	-1.16252E+000	3.57660E+000	10	...........
	4	0.066667	6.83081E-001	5.99342E-003	0.00000E+000	4.09399E-003	3.59960E-001	-1.16932E+000	3.57660E+000	10	...........
	5	0.08	6.90637E-001	5.99422E-003	0.00000E+000	4.13983E-003	3.59960E-001	-1.17016E+000	3.57660E+000	10	...........
	6	0.093333	6.98026E-001	5.99150E-003	0.00000E+000	4.18222E-003	3.59960E-001	-1.16242E+000	3.57660E+000	10	...........
	7	0.106667	7.05283E-001	5.99183E-003	0.00000E+000	4.22593E-003	3.59960E-001	-1.16940E+000	3.57660E+000	10	...........
	8	0.12	7.12438E-001	5.99553E-003	0.00000E+000	4.27144E-003	3.59960E-001	-1.17020E+000	3.57660E+000	10	...........
	9	0.133333	7.19600E-001	5.98877E-003	0.00000E+000	4.30952E-003	3.59960E-001	-1.16237E+000	3.57660E+000	10	...........
	10	0.146667	7.26629E-001	5.99294E-003	0.00000E+000	4.35464E-003	3.59960E-001	-1.16913E+000	3.57660E+000	10	...........
	11	0.16	7.33661E-001	5.99614E-003	0.00000E+000	4.39913E-003	3.59960E-001	-1.17009E+000	3.57660E+000	10	...........
	12	0.173333	7.40583E-001	5.99628E-003	0.00000E+000	4.44075E-003	3.59960E-001	-1.16229E+000	3.57660E+000	10	...........
	13	0.186667	7.47481E-001	5.99368E-003	0.00000E+000	4.48016E-003	3.59960E-001	-1.16919E+000	3.57660E+000	10	...........
	14	0.2	7.54318E-001	5.98955E-003	0.00000E+000	4.51802E-003	3.59960E-001	-1.16994E+000	3.57660E+000	10	...........
	15	0.213333	7.61181E-001	5.99043E-003	0.00000E+000	4.55980E-003	3.59960E-001	-1.16173E+000	3.57660E+000	10	...........
	16	0.226667	7.67959E-001	5.99141E-003	0.00000E+000	4.60116E-003	3.59960E-001	-1.16872E+000	3.57660E+000	10	...........
	17	0.24	7.74748E-001	5.99652E-003	0.00000E+000	4.64580E-003	3.59960E-001	-1.16947E+000	3.57660E+000	10	...........
	18	0.253333	7.81497E-001	5.99264E-003	0.00000E+000	4.68323E-003	3.59960E-001	-1.16170E+000	3.57660E+000	10	...........
	19	0.266667	7.88194E-001	5.99580E-003	0.00000E+000	4.72586E-003	3.59960E-001	-1.16853E+000	3.57660E+000	10	...........
	20	0.28	7.94896E-001	5.99766E-003	0.00000E+000	4.76752E-003	3.59960E-001	-1.16964E+000	3.57660E+000	10	...........
	21	0.293333	8.01548E-001	5.99548E-003	0.00000E+000	4.80567E-003	3.59960E-001	-1.16182E+000	3.57660E+000	10	...........
	22	0.306667	8.08231E-001	5.98792E-003	0.00000E+000	4.83962E-003	3.59960E-001	-1.16852E+000	3.57666E+000	10	...........
	23	0.32	8.14876E-001	5.99553E-003	0.00000E+000	4.88561E-003	3.59960E-001	-1.16970E+000	3.57670E+000	10	...........
	24	0.333333	8.21502E-001	5.99217E-003	0.00000E+000	4.92258E-003	3.59960E-001	-1.16178E+000	3.57670E+000	10	...........
	25	0.346667	8.28114E-001	5.99573E-003	0.00000E+000	4.96515E-003	3.59960E-001	-1.16828E+000	3.57670E+000	10	...........
	26	0.36	8.34668E-001	5.99243E-003	0.00000E+000	5.00168E-003	3.59960E-001	-1.16923E+000	3.57670E+000	10	...........
	27	0.373333	8.41198E-001	5.99277E-003	0.00000E+000	5.04110E-003	3.59960E-001	-1.16162E+000	3.57670E+000	10	...........
	28	0.386667	8.47706E-001	5.99117E-003	0.00000E+000	5.07876E-003	3.59960E-001	-1.16827E+000	3.57670E+000	10	...........
	29	0.4	8.54229E-001	5.99578E-003	0.00000E+000	5.12177E-003	3.59960E-001	-1.16945E+000	3.57670E+000	10	...........
	30	0.413333	8.60680E-001	5.99143E-003	0.00000E+000	5.15671E-003	3.59960E-001	-1.16159E+000	3.57670E+000	10	...........
	31	0.426667	8.67121E-001	5.99240E-003	0.00000E+000	5.19614E-003	3.59960E-001	-1.16831E+000	3.57670E+000	10	...........
	32	0.44	8.73583E-001	5.99130E-003	0.00000E+000	5.23390E-003	3.59960E-001	-1.16943E+000	3.57670E+000	10	...........
	33	0.453333	8.79945E-001	5.99757E-003	0.00000E+000	5.27753E-003	3.59960E-001	-1.16162E+000	3.57670E+000	10	...........
	34	0.466667	8.86292E-001	5.99454E-003	0.00000E+000	5.31291E-003	3.59960E-001	-1.16826E+000	3.57670E+000	10	...........
	35	0.48	8.92602E-001	5.99592E-003	0.00000E+000	5.35197E-003	3.59960E-001	-1.16954E+000	3.57670E+000	10	...........
	36	0.493333	8.98889E-001	5.99586E-003	0.00000E+000	5.38961E-003	3.59960E-001	-1.16159E+000	3.57670E+000	10	...........
	37	0.506667	9.05114E-001	5.99493E-003	0.00000E+000	5.42609E-003	3.59960E-001	-1.16796E+000	3.57670E+000	10	...........
	38	0.52	9.11329E-001	5.99310E-003	0.00000E+000	5.46169E-003	3.59960E-001	-1.16952E+000	3.57670E+000	10	...........
	39	0.533333	9.17483E-001	5.99457E-003	0.00000E+000	5.49992E-003	3.59960E-001	-1.16126E+000	3.57670E+000	10	...........
	40	0.546667	9.23693E-001	5.99769E-003	0.00000E+000	5.54003E-003	3.59960E-001	-1.16784E+000	3.57670E+000	10	...........
	41	0.56	9.29801E-001	5.99272E-003	0.00000E+000	5.57203E-003	3.59960E-001	-1.16911E+000	3.57670E+000	10	...........
	42	0.573333	9.35815E-001	5.99173E-003	0.00000E+000	5.60715E-003	3.59960E-001	-1.16114E+000	3.57670E+000	10	...........
	43	0.586667	9.41832E-001	5.99370E-003	0.00000E+000	5.64506E-003	3.59960E-001	-1.16765E+000	3.57670E+000	10	...........
	44	0.6	9.47855E-001	5.99586E-003	0.00000E+000	5.68320E-003	3.59960E-001	-1.16933E+000	3.57670E+000	10	...........
	45	0.613333	9.53802E-001	5.99317E-003	0.00000E+000	5.71629E-003	3.59960E-001	-1.16114E+000	3.57670E+000	10	...........
	46	0.626667	9.59634E-001	5.99129E-003	0.00000E+000	5.74944E-003	3.59960E-001	-1.16742E+000	3.57670E+000	10	...........
	47	0.64	9.65407E-001	5.99408E-003	0.00000E+000	5.78673E-003	3.59960E-001	-1.16916E+000	3.57670E+000	10	...........
	48	0.653333	9.71196E-001	5.99147E-003	0.00000E+000	5.81889E-003	3.59960E-001	-1.16130E+000	3.57670E+000	10	...........
	49	0.666667	9.76968E-001	5.99809E-003	0.00000E+000	5.85994E-003	3.59960E-001	-1.16757E+000	3.57670E+000	10	...........
	50	0.68	9.82640E-001	5.99511E-003	0.00000E+000	5.89103E-003	3.59960E-001	-1.16929E+000	3.57670E+000	10	...........
	51	0.693333	9.88266E-001	5.99741E-003	0.00000E+000	5.92704E-003	3.59960E-001	-1.16125E+000	3.57670E+000	10	...........
	52	0.706667	9.93824E-001	5.99593E-003	0.00000E+000	5.95890E-003	3.59960E-001	-1.16742E+000	3.57670E+000	10	...........
	53	0.716667	9.98694E-001	5.99486E-003	0.00000E+000	5.98703E-003	3.59960E-001	-1.16758E+000	3.57670E+000	10	...........
STARTTIMEOFFSET	QUANT	1345.574	Start Time Offset (s)