File: Data/CV_CRGO300517_1/PWRCCD_CRGO300517_1/CHARGE_DISCHARGE/CHARGE_#523.DTA
EXPLAIN
TAG	PWR800_CHARGE
TITLE	LABEL	PWR Cyclic Charge Discharge (Cell) - Charge Step	Test &Identifier
DATE	LABEL	22-6-2017	Date
TIME	LABEL	15:56:48	Time
NOTES	NOTES	3	&Notes...
	supercap test cell
	0.6mg
	6M KOH
PSTAT	PSTAT	IFC5000-01520	Potentiostat
CAPACITY	QUANT	1.00000E-003	Capacity (A-hr)
CELLTYPE	SELECTOR	1	&Cell Type
WORKINGCONNECTION	SELECTOR	0	&Working Lead
MAXCHARGETIME	VARIABLEANDUNITS	1.00000E+002	s	1.00000E+002	second(s)	Max &Charge Time
CHARGECURRENT	QUANT	6.00000E-003	&Charge Current (A)
VOLTAGEFINISH	TWOPARAM	F	1.00000E-003	3.60000E+003	&Voltage Finish	 I (A) < 	Max Time(s)
SAMPLETIME	QUANT	1.00000E-002	Sa&mple Period (s)
CHARGESTOPAT1	MULTIPARAM	4	1.00000E+000	Charge Stop At &1	Voltage > Limit	V
CHARGESTOPAT2	MULTIPARAM	0	0.00000E+000	Charge Stop At &2	None	N/A
AESBHCSELECTOR	TOGGLE	F	Save Both Half Cells
IRCOMP	TOGGLE	F	IR &Measure
EOC	QUANT	0	Open Circuit (V)
SEQUENCER	TOGGLE	TRUE	Run as Sequence
PSTATMODEL	IQUANT	53	Pstat Model
PSTATSECTION	LABEL	IFC5000-01520	Pstat Section
PSTATSERIALNO	LABEL	01520	Pstat Serial Number
CTRLMODE	IQUANT	0	Control Mode
ELECTROMETER	IQUANT	1	RE=0 or CS=1
IESTAB	IQUANT	0	I/E Stability
CASPEED	IQUANT	4	Control Amp Speed
CONVENTION	IQUANT	1	Current Convention
ICHRANGE	IQUANT	2	Ich Range
ICHRANGEMODE	TOGGLE	T	Ich Auto Range
ICHOFFSETENABLE	TOGGLE	F	Ich Offset Enable
ICHOFFSET	QUANT	0	Ich Offset (V)
ICHFILTER	IQUANT	1	Ich Filter
VCHRANGE	IQUANT	2	Vch Range
VCHRANGEMODE	TOGGLE	T	Vch Auto Range
VCHOFFSETENABLE	TOGGLE	F	Vch Offset Enable
VCHOFFSET	QUANT	0	Vch Offset (V)
VCHFILTER	IQUANT	1	Vch Filter
IERANGELOWERLIMIT	IQUANT	9	I/E Range Lower Limit
IERANGEMODE	TOGGLE	F	I/E AutoRange
IERANGE	IQUANT	10	I/E Range
ACHSELECT	IQUANT	1	Ach Select
ACHRANGE	IQUANT	2	Ach Range
ACHOFFSETENABLE	TOGGLE	F	Ach Offset Enable
ACHOFFSET	QUANT	0	Ach Offset (V)
ACHFILTER	IQUANT	1	Ach Filter
CABLEID	IQUANT	14	Cable ID
DCCALDATE	LABEL	20-10-2016	DC Calibration Date
ACCALDATE	LABEL	12/3/2015	AC Calibration Date
FRAMEWORKVERSION	QUANT	7.01	Framework Version
INSTRUMENTVERSION	LABEL	4.00	Instrument Version
CURVE	TABLE	58
	Pt	T	Vf	Im	Vu	Pwr	Sig	Ach	Temp	IERange	Over
	#	s	V	A	V	W	V	V	deg C	#	bits
	0	0.013333	6.33462E-001	5.99197E-003	0.00000E+000	3.79568E-003	3.59960E-001	-1.12051E+000	3.57740E+000	10	...........
	1	0.026667	6.42336E-001	5.99128E-003	0.00000E+000	3.84841E-003	3.59960E-001	-1.12648E+000	3.57740E+000	10	...........
	2	0.04	6.50537E-001	5.99586E-003	0.00000E+000	3.90053E-003	3.59960E-001	-1.12885E+000	3.57740E+000	10	...........
	3	0.053333	6.58273E-001	5.99224E-003	0.00000E+000	3.94453E-003	3.59960E-001	-1.12075E+000	3.57740E+000	10	...........
	4	0.066667	6.65769E-001	5.99322E-003	0.00000E+000	3.99010E-003	3.59960E-001	-1.12679E+000	3.57740E+000	10	...........
	5	0.08	6.73063E-001	5.99619E-003	0.00000E+000	4.03581E-003	3.59960E-001	-1.12905E+000	3.57740E+000	10	...........
	6	0.093333	6.80192E-001	5.99241E-003	0.00000E+000	4.07599E-003	3.59960E-001	-1.12088E+000	3.57740E+000	10	...........
	7	0.106667	6.87180E-001	5.98873E-003	0.00000E+000	4.11533E-003	3.59960E-001	-1.12708E+000	3.57740E+000	10	...........
	8	0.12	6.94135E-001	5.99391E-003	0.00000E+000	4.16058E-003	3.59960E-001	-1.12954E+000	3.57740E+000	10	...........
	9	0.133333	7.00985E-001	5.98942E-003	0.00000E+000	4.19849E-003	3.59960E-001	-1.12117E+000	3.57740E+000	10	...........
	10	0.146667	7.07831E-001	5.99599E-003	0.00000E+000	4.24415E-003	3.59960E-001	-1.12735E+000	3.57740E+000	10	...........
	11	0.16	7.14533E-001	5.99210E-003	0.00000E+000	4.28156E-003	3.59960E-001	-1.12971E+000	3.57740E+000	10	...........
	12	0.173333	7.21270E-001	5.99298E-003	0.00000E+000	4.32255E-003	3.59960E-001	-1.12166E+000	3.57740E+000	10	...........
	13	0.186667	7.28015E-001	5.99747E-003	0.00000E+000	4.36625E-003	3.59960E-001	-1.12754E+000	3.57740E+000	10	...........
	14	0.2	7.34613E-001	5.99116E-003	0.00000E+000	4.40119E-003	3.59960E-001	-1.13007E+000	3.57740E+000	10	...........
	15	0.213333	7.41240E-001	5.99559E-003	0.00000E+000	4.44417E-003	3.59960E-001	-1.12179E+000	3.57740E+000	10	...........
	16	0.226667	7.47806E-001	5.99453E-003	0.00000E+000	4.48275E-003	3.59960E-001	-1.12758E+000	3.57740E+000	10	...........
	17	0.24	7.54389E-001	5.99965E-003	0.00000E+000	4.52607E-003	3.59960E-001	-1.13016E+000	3.57725E+000	10	...........
	18	0.253333	7.60938E-001	5.99832E-003	0.00000E+000	4.56435E-003	3.59960E-001	-1.12187E+000	3.57700E+000	10	...........
	19	0.266667	7.67433E-001	5.99692E-003	0.00000E+000	4.60223E-003	3.59960E-001	-1.12752E+000	3.57700E+000	10	...........
	20	0.28	7.73947E-001	5.99215E-003	0.00000E+000	4.63761E-003	3.59960E-001	-1.13036E+000	3.57700E+000	10	...........
	21	0.293333	7.80447E-001	5.99536E-003	0.00000E+000	4.67905E-003	3.59960E-001	-1.12206E+000	3.57700E+000	10	...........
	22	0.306667	7.86941E-001	5.99336E-003	0.00000E+000	4.71643E-003	3.59960E-001	-1.12776E+000	3.57700E+000	10	...........
	23	0.32	7.93418E-001	5.99480E-003	0.00000E+000	4.75638E-003	3.59960E-001	-1.13063E+000	3.57700E+000	10	...........
	24	0.333333	7.99870E-001	5.99541E-003	0.00000E+000	4.79555E-003	3.59960E-001	-1.12224E+000	3.57700E+000	10	...........
	25	0.346667	8.06294E-001	5.99342E-003	0.00000E+000	4.83245E-003	3.59960E-001	-1.12776E+000	3.57700E+000	10	...........
	26	0.36	8.12678E-001	5.99514E-003	0.00000E+000	4.87212E-003	3.59960E-001	-1.13072E+000	3.57700E+000	10	...........
	27	0.373333	8.19085E-001	5.99534E-003	0.00000E+000	4.91069E-003	3.59960E-001	-1.12251E+000	3.57700E+000	10	...........
	28	0.386667	8.25479E-001	5.99154E-003	0.00000E+000	4.94589E-003	3.59960E-001	-1.12803E+000	3.57700E+000	10	...........
	29	0.4	8.31843E-001	5.98866E-003	0.00000E+000	4.98162E-003	3.59960E-001	-1.13088E+000	3.57700E+000	10	...........
	30	0.413333	8.38217E-001	5.99382E-003	0.00000E+000	5.02412E-003	3.59960E-001	-1.12237E+000	3.57700E+000	10	...........
	31	0.426667	8.44581E-001	5.98978E-003	0.00000E+000	5.05885E-003	3.59960E-001	-1.12793E+000	3.57700E+000	10	...........
	32	0.44	8.50904E-001	5.99324E-003	0.00000E+000	5.09967E-003	3.59960E-001	-1.13118E+000	3.57700E+000	10	...........
	33	0.453333	8.57187E-001	5.99178E-003	0.00000E+000	5.13608E-003	3.59960E-001	-1.12276E+000	3.57700E+000	10	...........
	34	0.466667	8.63475E-001	5.99574E-003	0.00000E+000	5.17717E-003	3.59960E-001	-1.12820E+000	3.57700E+000	10	...........
	35	0.48	8.69760E-001	5.99821E-003	0.00000E+000	5.21700E-003	3.59960E-001	-1.13141E+000	3.57700E+000	10	...........
	36	0.493333	8.75992E-001	5.99320E-003	0.00000E+000	5.24999E-003	3.59960E-001	-1.12301E+000	3.57700E+000	10	...........
	37	0.506667	8.82229E-001	5.99522E-003	0.00000E+000	5.28916E-003	3.59960E-001	-1.12852E+000	3.57700E+000	10	...........
	38	0.52	8.88429E-001	5.99500E-003	0.00000E+000	5.32613E-003	3.59960E-001	-1.13164E+000	3.57700E+000	10	...........
	39	0.533333	8.94567E-001	5.99499E-003	0.00000E+000	5.36292E-003	3.59960E-001	-1.12316E+000	3.57700E+000	10	...........
	40	0.546667	9.00711E-001	5.99192E-003	0.00000E+000	5.39699E-003	3.59960E-001	-1.12852E+000	3.57700E+000	10	...........
	41	0.56	9.06835E-001	5.99692E-003	0.00000E+000	5.43821E-003	3.59960E-001	-1.13166E+000	3.57700E+000	10	...........
	42	0.573333	9.12896E-001	5.99505E-003	0.00000E+000	5.47286E-003	3.59960E-001	-1.12289E+000	3.57700E+000	10	...........
	43	0.586667	9.18975E-001	5.99565E-003	0.00000E+000	5.50985E-003	3.59960E-001	-1.12814E+000	3.57700E+000	10	...........
	44	0.6	9.25025E-001	5.99418E-003	0.00000E+000	5.54476E-003	3.59960E-001	-1.13159E+000	3.57700E+000	10	...........
	45	0.613333	9.30983E-001	5.99088E-003	0.00000E+000	5.57741E-003	3.59960E-001	-1.12293E+000	3.57700E+000	10	...........
	46	0.626667	9.36896E-001	5.98969E-003	0.00000E+000	5.61172E-003	3.59960E-001	-1.12842E+000	3.57700E+000	10	...........
	47	0.64	9.42783E-001	5.99276E-003	0.00000E+000	5.64987E-003	3.59960E-001	-1.13176E+000	3.57700E+000	10	...........
	48	0.653333	9.48670E-001	5.99060E-003	0.00000E+000	5.68310E-003	3.59960E-001	-1.12326E+000	3.57700E+000	10	...........
	49	0.666667	9.54542E-001	5.99835E-003	0.00000E+000	5.72568E-003	3.59960E-001	-1.12830E+000	3.57700E+000	10	...........
	50	0.68	9.60302E-001	5.98706E-003	0.00000E+000	5.74939E-003	3.59960E-001	-1.13183E+000	3.57700E+000	10	...........
	51	0.693333	9.66046E-001	5.99611E-003	0.00000E+000	5.79252E-003	3.59960E-001	-1.12340E+000	3.57700E+000	10	...........
	52	0.706667	9.71715E-001	5.99780E-003	0.00000E+000	5.82815E-003	3.59960E-001	-1.12840E+000	3.57700E+000	10	...........
	53	0.72	9.77422E-001	5.99593E-003	0.00000E+000	5.86055E-003	3.59960E-001	-1.13233E+000	3.57700E+000	10	...........
	54	0.733333	9.83044E-001	5.99616E-003	0.00000E+000	5.89449E-003	3.59960E-001	-1.12343E+000	3.57700E+000	10	...........
	55	0.746667	9.88625E-001	6.00001E-003	0.00000E+000	5.93176E-003	3.59960E-001	-1.12825E+000	3.57700E+000	10	...........
	56	0.76	9.94092E-001	5.99089E-003	0.00000E+000	5.95550E-003	3.59960E-001	-1.13230E+000	3.57700E+000	10	...........
	57	0.77	9.98883E-001	5.99294E-003	0.00000E+000	5.98625E-003	3.59960E-001	-1.11959E+000	3.57700E+000	10	...........
STARTTIMEOFFSET	QUANT	894.3384	Start Time Offset (s)