File: Data/CV_CRGO300517_1/PWRCCD_CRGO300517_1/CHARGE_DISCHARGE/CHARGE_#955.DTA
EXPLAIN
TAG	PWR800_CHARGE
TITLE	LABEL	PWR Cyclic Charge Discharge (Cell) - Charge Step	Test &Identifier
DATE	LABEL	22-6-2017	Date
TIME	LABEL	16:13:00	Time
NOTES	NOTES	3	&Notes...
	supercap test cell
	0.6mg
	6M KOH
PSTAT	PSTAT	IFC5000-01520	Potentiostat
CAPACITY	QUANT	1.00000E-003	Capacity (A-hr)
CELLTYPE	SELECTOR	1	&Cell Type
WORKINGCONNECTION	SELECTOR	0	&Working Lead
MAXCHARGETIME	VARIABLEANDUNITS	1.00000E+002	s	1.00000E+002	second(s)	Max &Charge Time
CHARGECURRENT	QUANT	6.00000E-003	&Charge Current (A)
VOLTAGEFINISH	TWOPARAM	F	1.00000E-003	3.60000E+003	&Voltage Finish	 I (A) < 	Max Time(s)
SAMPLETIME	QUANT	1.00000E-002	Sa&mple Period (s)
CHARGESTOPAT1	MULTIPARAM	4	1.00000E+000	Charge Stop At &1	Voltage > Limit	V
CHARGESTOPAT2	MULTIPARAM	0	0.00000E+000	Charge Stop At &2	None	N/A
AESBHCSELECTOR	TOGGLE	F	Save Both Half Cells
IRCOMP	TOGGLE	F	IR &Measure
EOC	QUANT	0	Open Circuit (V)
SEQUENCER	TOGGLE	TRUE	Run as Sequence
PSTATMODEL	IQUANT	53	Pstat Model
PSTATSECTION	LABEL	IFC5000-01520	Pstat Section
PSTATSERIALNO	LABEL	01520	Pstat Serial Number
CTRLMODE	IQUANT	0	Control Mode
ELECTROMETER	IQUANT	1	RE=0 or CS=1
IESTAB	IQUANT	0	I/E Stability
CASPEED	IQUANT	4	Control Amp Speed
CONVENTION	IQUANT	1	Current Convention
ICHRANGE	IQUANT	2	Ich Range
ICHRANGEMODE	TOGGLE	T	Ich Auto Range
ICHOFFSETENABLE	TOGGLE	F	Ich Offset Enable
ICHOFFSET	QUANT	0	Ich Offset (V)
ICHFILTER	IQUANT	1	Ich Filter
VCHRANGE	IQUANT	2	Vch Range
VCHRANGEMODE	TOGGLE	T	Vch Auto Range
VCHOFFSETENABLE	TOGGLE	F	Vch Offset Enable
VCHOFFSET	QUANT	0	Vch Offset (V)
VCHFILTER	IQUANT	1	Vch Filter
IERANGELOWERLIMIT	IQUANT	9	I/E Range Lower Limit
IERANGEMODE	TOGGLE	F	I/E AutoRange
IERANGE	IQUANT	10	I/E Range
ACHSELECT	IQUANT	1	Ach Select
ACHRANGE	IQUANT	2	Ach Range
ACHOFFSETENABLE	TOGGLE	F	Ach Offset Enable
ACHOFFSET	QUANT	0	Ach Offset (V)
ACHFILTER	IQUANT	1	Ach Filter
CABLEID	IQUANT	14	Cable ID
DCCALDATE	LABEL	20-10-2016	DC Calibration Date
ACCALDATE	LABEL	12/3/2015	AC Calibration Date
FRAMEWORKVERSION	QUANT	7.01	Framework Version
INSTRUMENTVERSION	LABEL	4.00	Instrument Version
CURVE	TABLE	53
	Pt	T	Vf	Im	Vu	Pwr	Sig	Ach	Temp	IERange	Over
	#	s	V	A	V	W	V	V	deg C	#	bits
	0	0.013333	6.55974E-001	5.99423E-003	0.00000E+000	3.93206E-003	3.59960E-001	-1.16732E+000	3.57780E+000	10	...........
	1	0.026667	6.65257E-001	5.99518E-003	0.00000E+000	3.98833E-003	3.59960E-001	-1.16944E+000	3.57780E+000	10	...........
	2	0.04	6.73801E-001	5.99058E-003	0.00000E+000	4.03646E-003	3.59960E-001	-1.17728E+000	3.57780E+000	10	...........
	3	0.053333	6.81878E-001	5.99161E-003	0.00000E+000	4.08555E-003	3.59960E-001	-1.16658E+000	3.57780E+000	10	...........
	4	0.066667	6.89714E-001	5.99113E-003	0.00000E+000	4.13217E-003	3.59960E-001	-1.16877E+000	3.57780E+000	10	...........
	5	0.08	6.97346E-001	5.99224E-003	0.00000E+000	4.17866E-003	3.59960E-001	-1.17692E+000	3.57780E+000	10	...........
	6	0.093333	7.04859E-001	5.99714E-003	0.00000E+000	4.22714E-003	3.59960E-001	-1.16650E+000	3.57780E+000	10	...........
	7	0.106667	7.12225E-001	5.99418E-003	0.00000E+000	4.26920E-003	3.59960E-001	-1.16855E+000	3.57780E+000	10	...........
	8	0.12	7.19518E-001	5.99885E-003	0.00000E+000	4.31628E-003	3.59960E-001	-1.17691E+000	3.57780E+000	10	...........
	9	0.133333	7.26679E-001	5.99316E-003	0.00000E+000	4.35510E-003	3.59960E-001	-1.16628E+000	3.57780E+000	10	...........
	10	0.146667	7.33813E-001	5.99455E-003	0.00000E+000	4.39888E-003	3.59960E-001	-1.16846E+000	3.57780E+000	10	...........
	11	0.16	7.40872E-001	5.99390E-003	0.00000E+000	4.44071E-003	3.59960E-001	-1.17686E+000	3.57780E+000	10	...........
	12	0.173333	7.47891E-001	5.99508E-003	0.00000E+000	4.48367E-003	3.59960E-001	-1.16613E+000	3.57780E+000	10	...........
	13	0.186667	7.54867E-001	5.99171E-003	0.00000E+000	4.52294E-003	3.59960E-001	-1.16816E+000	3.57780E+000	10	...........
	14	0.2	7.61828E-001	5.99528E-003	0.00000E+000	4.56738E-003	3.59960E-001	-1.17688E+000	3.57780E+000	10	...........
	15	0.213333	7.68727E-001	5.99424E-003	0.00000E+000	4.60794E-003	3.59960E-001	-1.16605E+000	3.57780E+000	10	...........
	16	0.226667	7.75604E-001	5.99465E-003	0.00000E+000	4.64947E-003	3.59960E-001	-1.16810E+000	3.57780E+000	10	...........
	17	0.24	7.82484E-001	5.99366E-003	0.00000E+000	4.68994E-003	3.59960E-001	-1.17675E+000	3.57780E+000	10	...........
	18	0.253333	7.89256E-001	5.99511E-003	0.00000E+000	4.73167E-003	3.59960E-001	-1.16627E+000	3.57780E+000	10	...........
	19	0.266667	7.96070E-001	5.99596E-003	0.00000E+000	4.77320E-003	3.59960E-001	-1.16806E+000	3.57780E+000	10	...........
	20	0.28	8.02861E-001	5.99446E-003	0.00000E+000	4.81272E-003	3.59960E-001	-1.17690E+000	3.57780E+000	10	...........
	21	0.293333	8.09561E-001	5.99090E-003	0.00000E+000	4.85000E-003	3.59960E-001	-1.16605E+000	3.57780E+000	10	...........
	22	0.306667	8.16299E-001	5.99639E-003	0.00000E+000	4.89484E-003	3.59960E-001	-1.16810E+000	3.57780E+000	10	...........
	23	0.32	8.22980E-001	5.98850E-003	0.00000E+000	4.92842E-003	3.59960E-001	-1.17636E+000	3.57780E+000	10	...........
	24	0.333333	8.29610E-001	5.99329E-003	0.00000E+000	4.97209E-003	3.59960E-001	-1.16589E+000	3.57780E+000	10	...........
	25	0.346667	8.36188E-001	5.99171E-003	0.00000E+000	5.01020E-003	3.59960E-001	-1.16806E+000	3.57780E+000	10	...........
	26	0.36	8.42846E-001	5.99382E-003	0.00000E+000	5.05187E-003	3.59960E-001	-1.17635E+000	3.57780E+000	10	...........
	27	0.373333	8.49410E-001	5.99409E-003	0.00000E+000	5.09144E-003	3.59960E-001	-1.16558E+000	3.57780E+000	10	...........
	28	0.386667	8.55949E-001	5.99360E-003	0.00000E+000	5.13022E-003	3.59960E-001	-1.16747E+000	3.57780E+000	10	...........
	29	0.4	8.62469E-001	5.99069E-003	0.00000E+000	5.16679E-003	3.59960E-001	-1.17602E+000	3.57780E+000	10	...........
	30	0.413333	8.68986E-001	5.99069E-003	0.00000E+000	5.20583E-003	3.59960E-001	-1.16559E+000	3.57780E+000	10	...........
	31	0.426667	8.75440E-001	5.99130E-003	0.00000E+000	5.24503E-003	3.59960E-001	-1.16737E+000	3.57780E+000	10	...........
	32	0.44	8.81888E-001	5.99493E-003	0.00000E+000	5.28685E-003	3.59960E-001	-1.17592E+000	3.57780E+000	10	...........
	33	0.453333	8.88251E-001	5.99240E-003	0.00000E+000	5.32276E-003	3.59960E-001	-1.16530E+000	3.57780E+000	10	...........
	34	0.466667	8.94628E-001	5.99624E-003	0.00000E+000	5.36440E-003	3.59960E-001	-1.16734E+000	3.57780E+000	10	...........
	35	0.48	9.00900E-001	5.99123E-003	0.00000E+000	5.39749E-003	3.59960E-001	-1.17618E+000	3.57780E+000	10	...........
	36	0.493333	9.07201E-001	5.99996E-003	0.00000E+000	5.44317E-003	3.59960E-001	-1.16533E+000	3.57780E+000	10	...........
	37	0.506667	9.13481E-001	5.99141E-003	0.00000E+000	5.47304E-003	3.59960E-001	-1.16715E+000	3.57780E+000	10	...........
	38	0.52	9.19757E-001	5.99414E-003	0.00000E+000	5.51315E-003	3.59960E-001	-1.17568E+000	3.57780E+000	10	...........
	39	0.533333	9.25937E-001	5.99221E-003	0.00000E+000	5.54840E-003	3.59960E-001	-1.16538E+000	3.57780E+000	10	...........
	40	0.546667	9.32056E-001	5.99803E-003	0.00000E+000	5.59050E-003	3.59960E-001	-1.16722E+000	3.57780E+000	10	...........
	41	0.56	9.38142E-001	5.99647E-003	0.00000E+000	5.62554E-003	3.59960E-001	-1.17575E+000	3.57780E+000	10	...........
	42	0.573333	9.44208E-001	5.99517E-003	0.00000E+000	5.66069E-003	3.59960E-001	-1.16507E+000	3.57780E+000	10	...........
	43	0.586667	9.50216E-001	5.99502E-003	0.00000E+000	5.69656E-003	3.59960E-001	-1.16718E+000	3.57780E+000	10	...........
	44	0.6	9.56122E-001	5.98848E-003	0.00000E+000	5.72572E-003	3.59960E-001	-1.17555E+000	3.57780E+000	10	...........
	45	0.613333	9.61981E-001	5.99015E-003	0.00000E+000	5.76241E-003	3.59960E-001	-1.16531E+000	3.57780E+000	10	...........
	46	0.626667	9.67817E-001	5.99464E-003	0.00000E+000	5.80171E-003	3.59960E-001	-1.16726E+000	3.57780E+000	10	...........
	47	0.64	9.73640E-001	5.99201E-003	0.00000E+000	5.83406E-003	3.59960E-001	-1.17555E+000	3.57780E+000	10	...........
	48	0.653333	9.79378E-001	5.99305E-003	0.00000E+000	5.86946E-003	3.59960E-001	-1.16527E+000	3.57780E+000	10	...........
	49	0.666667	9.84985E-001	5.99128E-003	0.00000E+000	5.90132E-003	3.59960E-001	-1.16705E+000	3.57780E+000	10	...........
	50	0.68	9.90602E-001	5.99524E-003	0.00000E+000	5.93890E-003	3.59960E-001	-1.17542E+000	3.57780E+000	10	...........
	51	0.693333	9.96201E-001	5.99474E-003	0.00000E+000	5.97197E-003	3.59960E-001	-1.16483E+000	3.57780E+000	10	...........
	52	0.698333	9.99974E-001	5.98995E-003	0.00000E+000	5.98980E-003	3.59960E-001	-1.17816E+000	3.57780E+000	10	...........
STARTTIMEOFFSET	QUANT	1522.928	Start Time Offset (s)