File: Data/CV_CRGO300517_1/PWRCCD_CRGO300517_1/CHARGE_DISCHARGE/CHARGE_#139.DTA
EXPLAIN
TAG	PWR800_CHARGE
TITLE	LABEL	PWR Cyclic Charge Discharge (Cell) - Charge Step	Test &Identifier
DATE	LABEL	22-6-2017	Date
TIME	LABEL	15:41:13	Time
NOTES	NOTES	3	&Notes...
	supercap test cell
	0.6mg
	6M KOH
PSTAT	PSTAT	IFC5000-01520	Potentiostat
CAPACITY	QUANT	1.00000E-003	Capacity (A-hr)
CELLTYPE	SELECTOR	1	&Cell Type
WORKINGCONNECTION	SELECTOR	0	&Working Lead
MAXCHARGETIME	VARIABLEANDUNITS	1.00000E+002	s	1.00000E+002	second(s)	Max &Charge Time
CHARGECURRENT	QUANT	6.00000E-003	&Charge Current (A)
VOLTAGEFINISH	TWOPARAM	F	1.00000E-003	3.60000E+003	&Voltage Finish	 I (A) < 	Max Time(s)
SAMPLETIME	QUANT	1.00000E-002	Sa&mple Period (s)
CHARGESTOPAT1	MULTIPARAM	4	1.00000E+000	Charge Stop At &1	Voltage > Limit	V
CHARGESTOPAT2	MULTIPARAM	0	0.00000E+000	Charge Stop At &2	None	N/A
AESBHCSELECTOR	TOGGLE	F	Save Both Half Cells
IRCOMP	TOGGLE	F	IR &Measure
EOC	QUANT	0	Open Circuit (V)
SEQUENCER	TOGGLE	TRUE	Run as Sequence
PSTATMODEL	IQUANT	53	Pstat Model
PSTATSECTION	LABEL	IFC5000-01520	Pstat Section
PSTATSERIALNO	LABEL	01520	Pstat Serial Number
CTRLMODE	IQUANT	0	Control Mode
ELECTROMETER	IQUANT	1	RE=0 or CS=1
IESTAB	IQUANT	0	I/E Stability
CASPEED	IQUANT	4	Control Amp Speed
CONVENTION	IQUANT	1	Current Convention
ICHRANGE	IQUANT	2	Ich Range
ICHRANGEMODE	TOGGLE	T	Ich Auto Range
ICHOFFSETENABLE	TOGGLE	F	Ich Offset Enable
ICHOFFSET	QUANT	0	Ich Offset (V)
ICHFILTER	IQUANT	1	Ich Filter
VCHRANGE	IQUANT	2	Vch Range
VCHRANGEMODE	TOGGLE	T	Vch Auto Range
VCHOFFSETENABLE	TOGGLE	F	Vch Offset Enable
VCHOFFSET	QUANT	0	Vch Offset (V)
VCHFILTER	IQUANT	1	Vch Filter
IERANGELOWERLIMIT	IQUANT	9	I/E Range Lower Limit
IERANGEMODE	TOGGLE	F	I/E AutoRange
IERANGE	IQUANT	10	I/E Range
ACHSELECT	IQUANT	1	Ach Select
ACHRANGE	IQUANT	2	Ach Range
ACHOFFSETENABLE	TOGGLE	F	Ach Offset Enable
ACHOFFSET	QUANT	0	Ach Offset (V)
ACHFILTER	IQUANT	1	Ach Filter
CABLEID	IQUANT	14	Cable ID
DCCALDATE	LABEL	20-10-2016	DC Calibration Date
ACCALDATE	LABEL	12/3/2015	AC Calibration Date
FRAMEWORKVERSION	QUANT	7.01	Framework Version
INSTRUMENTVERSION	LABEL	4.00	Instrument Version
CURVE	TABLE	68
	Pt	T	Vf	Im	Vu	Pwr	Sig	Ach	Temp	IERange	Over
	#	s	V	A	V	W	V	V	deg C	#	bits
	0	0.013333	5.95826E-001	5.99375E-003	0.00000E+000	3.57123E-003	3.59960E-001	-1.07014E+000	3.57690E+000	10	...........
	1	0.026667	6.04191E-001	5.99297E-003	0.00000E+000	3.62090E-003	3.59960E-001	-1.07794E+000	3.57708E+000	10	...........
	2	0.04	6.11837E-001	5.99315E-003	0.00000E+000	3.66683E-003	3.59960E-001	-1.07627E+000	3.57710E+000	10	...........
	3	0.053333	6.19147E-001	5.99717E-003	0.00000E+000	3.71313E-003	3.59960E-001	-1.07015E+000	3.57710E+000	10	...........
	4	0.066667	6.26152E-001	5.99570E-003	0.00000E+000	3.75422E-003	3.59960E-001	-1.07760E+000	3.57710E+000	10	...........
	5	0.08	6.32932E-001	5.99351E-003	0.00000E+000	3.79348E-003	3.59960E-001	-1.07594E+000	3.57710E+000	10	...........
	6	0.093333	6.39596E-001	5.99196E-003	0.00000E+000	3.83243E-003	3.59960E-001	-1.06987E+000	3.57710E+000	10	...........
	7	0.106667	6.46161E-001	5.99467E-003	0.00000E+000	3.87352E-003	3.59960E-001	-1.07726E+000	3.57710E+000	10	...........
	8	0.12	6.52621E-001	5.99515E-003	0.00000E+000	3.91256E-003	3.59960E-001	-1.07601E+000	3.57710E+000	10	...........
	9	0.133333	6.59008E-001	5.99312E-003	0.00000E+000	3.94952E-003	3.59960E-001	-1.06957E+000	3.57710E+000	10	...........
	10	0.146667	6.65363E-001	5.99688E-003	0.00000E+000	3.99010E-003	3.59960E-001	-1.07685E+000	3.57710E+000	10	...........
	11	0.16	6.71659E-001	5.99553E-003	0.00000E+000	4.02695E-003	3.59960E-001	-1.07587E+000	3.57710E+000	10	...........
	12	0.173333	6.77910E-001	5.99385E-003	0.00000E+000	4.06329E-003	3.59960E-001	-1.06955E+000	3.57710E+000	10	...........
	13	0.186667	6.84118E-001	5.99408E-003	0.00000E+000	4.10066E-003	3.59960E-001	-1.07703E+000	3.57710E+000	10	...........
	14	0.2	6.90286E-001	5.99541E-003	0.00000E+000	4.13855E-003	3.59960E-001	-1.07577E+000	3.57710E+000	10	...........
	15	0.213333	6.96459E-001	5.99813E-003	0.00000E+000	4.17745E-003	3.59960E-001	-1.06923E+000	3.57710E+000	10	...........
	16	0.226667	7.02597E-001	5.99329E-003	0.00000E+000	4.21087E-003	3.59960E-001	-1.07680E+000	3.57710E+000	10	...........
	17	0.24	7.08644E-001	5.99225E-003	0.00000E+000	4.24637E-003	3.59960E-001	-1.07628E+000	3.57710E+000	10	...........
	18	0.253333	7.14727E-001	5.99508E-003	0.00000E+000	4.28485E-003	3.59960E-001	-1.06943E+000	3.57710E+000	10	...........
	19	0.266667	7.20867E-001	5.99466E-003	0.00000E+000	4.32135E-003	3.59960E-001	-1.07660E+000	3.57710E+000	10	...........
	20	0.28	7.26930E-001	5.99492E-003	0.00000E+000	4.35789E-003	3.59960E-001	-1.07613E+000	3.57710E+000	10	...........
	21	0.293333	7.32985E-001	5.99299E-003	0.00000E+000	4.39277E-003	3.59960E-001	-1.06938E+000	3.57710E+000	10	...........
	22	0.306667	7.39033E-001	5.99252E-003	0.00000E+000	4.42867E-003	3.59960E-001	-1.07710E+000	3.57710E+000	10	...........
	23	0.32	7.45081E-001	5.98965E-003	0.00000E+000	4.46277E-003	3.59960E-001	-1.07672E+000	3.57710E+000	10	...........
	24	0.333333	7.51102E-001	5.99028E-003	0.00000E+000	4.49931E-003	3.59960E-001	-1.06955E+000	3.57710E+000	10	...........
	25	0.346667	7.57158E-001	5.99390E-003	0.00000E+000	4.53833E-003	3.59960E-001	-1.07678E+000	3.57710E+000	10	...........
	26	0.36	7.63165E-001	5.99439E-003	0.00000E+000	4.57471E-003	3.59960E-001	-1.07665E+000	3.57710E+000	10	...........
	27	0.373333	7.69174E-001	5.99276E-003	0.00000E+000	4.60947E-003	3.59960E-001	-1.06966E+000	3.57710E+000	10	...........
	28	0.386667	7.75196E-001	5.99453E-003	0.00000E+000	4.64694E-003	3.59960E-001	-1.07680E+000	3.57710E+000	10	...........
	29	0.4	7.81217E-001	5.99863E-003	0.00000E+000	4.68623E-003	3.59960E-001	-1.07639E+000	3.57710E+000	10	...........
	30	0.413333	7.87162E-001	5.99471E-003	0.00000E+000	4.71880E-003	3.59960E-001	-1.06938E+000	3.57710E+000	10	...........
	31	0.426667	7.93166E-001	5.99286E-003	0.00000E+000	4.75334E-003	3.59960E-001	-1.07626E+000	3.57710E+000	10	...........
	32	0.44	7.99146E-001	5.99227E-003	0.00000E+000	4.78870E-003	3.59960E-001	-1.07614E+000	3.57710E+000	10	...........
	33	0.453333	8.05116E-001	5.99604E-003	0.00000E+000	4.82751E-003	3.59960E-001	-1.06899E+000	3.57710E+000	10	...........
	34	0.466667	8.11100E-001	5.99248E-003	0.00000E+000	4.86050E-003	3.59960E-001	-1.07576E+000	3.57710E+000	10	...........
	35	0.48	8.17060E-001	5.99211E-003	0.00000E+000	4.89592E-003	3.59960E-001	-1.07594E+000	3.57710E+000	10	...........
	36	0.493333	8.23026E-001	5.99547E-003	0.00000E+000	4.93443E-003	3.59960E-001	-1.06883E+000	3.57710E+000	10	...........
	37	0.506667	8.28968E-001	5.99096E-003	0.00000E+000	4.96632E-003	3.59960E-001	-1.07590E+000	3.57710E+000	10	...........
	38	0.52	8.34917E-001	5.99492E-003	0.00000E+000	5.00526E-003	3.59960E-001	-1.07608E+000	3.57710E+000	10	...........
	39	0.533333	8.40849E-001	5.99524E-003	0.00000E+000	5.04109E-003	3.59960E-001	-1.06869E+000	3.57710E+000	10	...........
	40	0.546667	8.46841E-001	5.99141E-003	0.00000E+000	5.07378E-003	3.59960E-001	-1.07559E+000	3.57710E+000	10	...........
	41	0.56	8.52740E-001	5.98985E-003	0.00000E+000	5.10778E-003	3.59960E-001	-1.07602E+000	3.57710E+000	10	...........
	42	0.573333	8.58668E-001	5.99622E-003	0.00000E+000	5.14876E-003	3.59960E-001	-1.06889E+000	3.57710E+000	10	...........
	43	0.586667	8.64575E-001	5.98927E-003	0.00000E+000	5.17818E-003	3.59960E-001	-1.07557E+000	3.57710E+000	10	...........
	44	0.6	8.70500E-001	5.99730E-003	0.00000E+000	5.22065E-003	3.59960E-001	-1.07590E+000	3.57710E+000	10	...........
	45	0.613333	8.76351E-001	5.99320E-003	0.00000E+000	5.25214E-003	3.59960E-001	-1.06844E+000	3.57710E+000	10	...........
	46	0.626667	8.82227E-001	5.99450E-003	0.00000E+000	5.28851E-003	3.59960E-001	-1.07537E+000	3.57710E+000	10	...........
	47	0.64	8.88084E-001	5.99772E-003	0.00000E+000	5.32648E-003	3.59960E-001	-1.07646E+000	3.57710E+000	10	...........
	48	0.653333	8.93922E-001	5.99044E-003	0.00000E+000	5.35499E-003	3.59960E-001	-1.06899E+000	3.57710E+000	10	...........
	49	0.666667	8.99786E-001	5.99694E-003	0.00000E+000	5.39596E-003	3.59960E-001	-1.07556E+000	3.57710E+000	10	...........
	50	0.68	9.05569E-001	5.99592E-003	0.00000E+000	5.42972E-003	3.59960E-001	-1.07629E+000	3.57710E+000	10	...........
	51	0.693333	9.11387E-001	5.99617E-003	0.00000E+000	5.46483E-003	3.59960E-001	-1.06902E+000	3.57710E+000	10	...........
	52	0.706667	9.17151E-001	5.99219E-003	0.00000E+000	5.49574E-003	3.59960E-001	-1.07543E+000	3.57710E+000	10	...........
	53	0.72	9.22935E-001	5.99652E-003	0.00000E+000	5.53440E-003	3.59960E-001	-1.07656E+000	3.57710E+000	10	...........
	54	0.733333	9.28665E-001	5.99480E-003	0.00000E+000	5.56716E-003	3.59960E-001	-1.06893E+000	3.57710E+000	10	...........
	55	0.746667	9.34361E-001	5.99469E-003	0.00000E+000	5.60120E-003	3.59960E-001	-1.07494E+000	3.57710E+000	10	...........
	56	0.76	9.40033E-001	5.99265E-003	0.00000E+000	5.63329E-003	3.59960E-001	-1.07644E+000	3.57710E+000	10	...........
	57	0.773333	9.45698E-001	5.98974E-003	0.00000E+000	5.66449E-003	3.59960E-001	-1.06885E+000	3.57710E+000	10	...........
	58	0.786667	9.51357E-001	5.99401E-003	0.00000E+000	5.70245E-003	3.59960E-001	-1.07487E+000	3.57710E+000	10	...........
	59	0.8	9.56954E-001	5.99126E-003	0.00000E+000	5.73336E-003	3.59960E-001	-1.07618E+000	3.57710E+000	10	...........
	60	0.813333	9.62530E-001	5.99524E-003	0.00000E+000	5.77060E-003	3.59960E-001	-1.06846E+000	3.57710E+000	10	...........
	61	0.826667	9.68087E-001	5.99824E-003	0.00000E+000	5.80682E-003	3.59960E-001	-1.07487E+000	3.57710E+000	10	...........
	62	0.84	9.73673E-001	5.99831E-003	0.00000E+000	5.84039E-003	3.59960E-001	-1.07644E+000	3.57710E+000	10	...........
	63	0.853333	9.79160E-001	5.99491E-003	0.00000E+000	5.86997E-003	3.59960E-001	-1.06870E+000	3.57710E+000	10	...........
	64	0.866667	9.84592E-001	5.99515E-003	0.00000E+000	5.90277E-003	3.59960E-001	-1.07459E+000	3.57710E+000	10	...........
	65	0.88	9.90007E-001	5.99385E-003	0.00000E+000	5.93395E-003	3.59960E-001	-1.07641E+000	3.57710E+000	10	...........
	66	0.893333	9.95407E-001	5.99693E-003	0.00000E+000	5.96939E-003	3.59960E-001	-1.06872E+000	3.57710E+000	10	...........
	67	0.9	9.99419E-001	5.99892E-003	0.00000E+000	5.99544E-003	3.59960E-001	-1.08285E+000	3.57710E+000	10	...........
STARTTIMEOFFSET	QUANT	266.0017	Start Time Offset (s)