File: Data/CV_CRGO300517_1/PWRCCD_CRGO300517_1/CHARGE_DISCHARGE/CHARGE_#757.DTA
EXPLAIN
TAG	PWR800_CHARGE
TITLE	LABEL	PWR Cyclic Charge Discharge (Cell) - Charge Step	Test &Identifier
DATE	LABEL	22-6-2017	Date
TIME	LABEL	16:05:41	Time
NOTES	NOTES	3	&Notes...
	supercap test cell
	0.6mg
	6M KOH
PSTAT	PSTAT	IFC5000-01520	Potentiostat
CAPACITY	QUANT	1.00000E-003	Capacity (A-hr)
CELLTYPE	SELECTOR	1	&Cell Type
WORKINGCONNECTION	SELECTOR	0	&Working Lead
MAXCHARGETIME	VARIABLEANDUNITS	1.00000E+002	s	1.00000E+002	second(s)	Max &Charge Time
CHARGECURRENT	QUANT	6.00000E-003	&Charge Current (A)
VOLTAGEFINISH	TWOPARAM	F	1.00000E-003	3.60000E+003	&Voltage Finish	 I (A) < 	Max Time(s)
SAMPLETIME	QUANT	1.00000E-002	Sa&mple Period (s)
CHARGESTOPAT1	MULTIPARAM	4	1.00000E+000	Charge Stop At &1	Voltage > Limit	V
CHARGESTOPAT2	MULTIPARAM	0	0.00000E+000	Charge Stop At &2	None	N/A
AESBHCSELECTOR	TOGGLE	F	Save Both Half Cells
IRCOMP	TOGGLE	F	IR &Measure
EOC	QUANT	0	Open Circuit (V)
SEQUENCER	TOGGLE	TRUE	Run as Sequence
PSTATMODEL	IQUANT	53	Pstat Model
PSTATSECTION	LABEL	IFC5000-01520	Pstat Section
PSTATSERIALNO	LABEL	01520	Pstat Serial Number
CTRLMODE	IQUANT	0	Control Mode
ELECTROMETER	IQUANT	1	RE=0 or CS=1
IESTAB	IQUANT	0	I/E Stability
CASPEED	IQUANT	4	Control Amp Speed
CONVENTION	IQUANT	1	Current Convention
ICHRANGE	IQUANT	2	Ich Range
ICHRANGEMODE	TOGGLE	T	Ich Auto Range
ICHOFFSETENABLE	TOGGLE	F	Ich Offset Enable
ICHOFFSET	QUANT	0	Ich Offset (V)
ICHFILTER	IQUANT	1	Ich Filter
VCHRANGE	IQUANT	2	Vch Range
VCHRANGEMODE	TOGGLE	T	Vch Auto Range
VCHOFFSETENABLE	TOGGLE	F	Vch Offset Enable
VCHOFFSET	QUANT	0	Vch Offset (V)
VCHFILTER	IQUANT	1	Vch Filter
IERANGELOWERLIMIT	IQUANT	9	I/E Range Lower Limit
IERANGEMODE	TOGGLE	F	I/E AutoRange
IERANGE	IQUANT	10	I/E Range
ACHSELECT	IQUANT	1	Ach Select
ACHRANGE	IQUANT	2	Ach Range
ACHOFFSETENABLE	TOGGLE	F	Ach Offset Enable
ACHOFFSET	QUANT	0	Ach Offset (V)
ACHFILTER	IQUANT	1	Ach Filter
CABLEID	IQUANT	14	Cable ID
DCCALDATE	LABEL	20-10-2016	DC Calibration Date
ACCALDATE	LABEL	12/3/2015	AC Calibration Date
FRAMEWORKVERSION	QUANT	7.01	Framework Version
INSTRUMENTVERSION	LABEL	4.00	Instrument Version
CURVE	TABLE	55
	Pt	T	Vf	Im	Vu	Pwr	Sig	Ach	Temp	IERange	Over
	#	s	V	A	V	W	V	V	deg C	#	bits
	0	0.013333	6.47975E-001	5.99604E-003	0.00000E+000	3.88529E-003	3.59960E-001	-1.15877E+000	3.57780E+000	10	...........
	1	0.026667	6.57006E-001	5.98910E-003	0.00000E+000	3.93487E-003	3.59960E-001	-1.16630E+000	3.57780E+000	10	...........
	2	0.04	6.65341E-001	5.99611E-003	0.00000E+000	3.98946E-003	3.59960E-001	-1.16578E+000	3.57780E+000	10	...........
	3	0.053333	6.73301E-001	5.99344E-003	0.00000E+000	4.03539E-003	3.59960E-001	-1.15879E+000	3.57780E+000	10	...........
	4	0.066667	6.80932E-001	5.99389E-003	0.00000E+000	4.08143E-003	3.59960E-001	-1.16596E+000	3.57780E+000	10	...........
	5	0.08	6.88413E-001	5.99442E-003	0.00000E+000	4.12663E-003	3.59960E-001	-1.16513E+000	3.57780E+000	10	...........
	6	0.093333	6.95769E-001	5.99215E-003	0.00000E+000	4.16916E-003	3.59960E-001	-1.15801E+000	3.57780E+000	10	...........
	7	0.106667	7.03000E-001	5.99826E-003	0.00000E+000	4.21678E-003	3.59960E-001	-1.16622E+000	3.57780E+000	10	...........
	8	0.12	7.10136E-001	5.99508E-003	0.00000E+000	4.25732E-003	3.59960E-001	-1.16516E+000	3.57780E+000	10	...........
	9	0.133333	7.17227E-001	5.99535E-003	0.00000E+000	4.30002E-003	3.59960E-001	-1.15822E+000	3.57780E+000	10	...........
	10	0.146667	7.24222E-001	5.99217E-003	0.00000E+000	4.33967E-003	3.59960E-001	-1.16610E+000	3.57780E+000	10	...........
	11	0.16	7.31167E-001	5.99063E-003	0.00000E+000	4.38015E-003	3.59960E-001	-1.16475E+000	3.57780E+000	10	...........
	12	0.173333	7.38012E-001	5.99223E-003	0.00000E+000	4.42234E-003	3.59960E-001	-1.15801E+000	3.57780E+000	10	...........
	13	0.186667	7.44913E-001	5.99007E-003	0.00000E+000	4.46208E-003	3.59960E-001	-1.16616E+000	3.57780E+000	10	...........
	14	0.2	7.51755E-001	5.99276E-003	0.00000E+000	4.50508E-003	3.59960E-001	-1.16471E+000	3.57780E+000	10	...........
	15	0.213333	7.58568E-001	5.99576E-003	0.00000E+000	4.54820E-003	3.59960E-001	-1.15797E+000	3.57780E+000	10	...........
	16	0.226667	7.65337E-001	5.99392E-003	0.00000E+000	4.58737E-003	3.59960E-001	-1.16611E+000	3.57780E+000	10	...........
	17	0.24	7.72069E-001	5.99111E-003	0.00000E+000	4.62555E-003	3.59960E-001	-1.16471E+000	3.57780E+000	10	...........
	18	0.253333	7.78778E-001	6.00030E-003	0.00000E+000	4.67290E-003	3.59960E-001	-1.15798E+000	3.57780E+000	10	...........
	19	0.266667	7.85440E-001	5.99758E-003	0.00000E+000	4.71074E-003	3.59960E-001	-1.16616E+000	3.57780E+000	10	...........
	20	0.28	7.92096E-001	5.99150E-003	0.00000E+000	4.74584E-003	3.59960E-001	-1.16463E+000	3.57780E+000	10	...........
	21	0.293333	7.98797E-001	5.99731E-003	0.00000E+000	4.79063E-003	3.59960E-001	-1.15820E+000	3.57780E+000	10	...........
	22	0.306667	8.05376E-001	5.99507E-003	0.00000E+000	4.82829E-003	3.59960E-001	-1.16649E+000	3.57780E+000	10	...........
	23	0.32	8.11932E-001	5.99010E-003	0.00000E+000	4.86355E-003	3.59960E-001	-1.16456E+000	3.57780E+000	10	...........
	24	0.333333	8.18537E-001	5.99149E-003	0.00000E+000	4.90425E-003	3.59960E-001	-1.15807E+000	3.57780E+000	10	...........
	25	0.346667	8.25093E-001	5.99229E-003	0.00000E+000	4.94420E-003	3.59960E-001	-1.16617E+000	3.57780E+000	10	...........
	26	0.36	8.31679E-001	5.98944E-003	0.00000E+000	4.98129E-003	3.59960E-001	-1.16434E+000	3.57780E+000	10	...........
	27	0.373333	8.38178E-001	5.99781E-003	0.00000E+000	5.02723E-003	3.59960E-001	-1.15820E+000	3.57780E+000	10	...........
	28	0.386667	8.44700E-001	5.99528E-003	0.00000E+000	5.06422E-003	3.59960E-001	-1.16629E+000	3.57780E+000	10	...........
	29	0.4	8.51163E-001	5.99402E-003	0.00000E+000	5.10189E-003	3.59960E-001	-1.16421E+000	3.57780E+000	10	...........
	30	0.413333	8.57605E-001	5.99193E-003	0.00000E+000	5.13871E-003	3.59960E-001	-1.15756E+000	3.57780E+000	10	...........
	31	0.426667	8.64044E-001	5.99303E-003	0.00000E+000	5.17824E-003	3.59960E-001	-1.16586E+000	3.57780E+000	10	...........
	32	0.44	8.70471E-001	5.99625E-003	0.00000E+000	5.21956E-003	3.59960E-001	-1.16407E+000	3.57780E+000	10	...........
	33	0.453333	8.76791E-001	5.99348E-003	0.00000E+000	5.25503E-003	3.59960E-001	-1.15771E+000	3.57780E+000	10	...........
	34	0.466667	8.83162E-001	5.99321E-003	0.00000E+000	5.29297E-003	3.59960E-001	-1.16596E+000	3.57780E+000	10	...........
	35	0.48	8.89514E-001	5.99473E-003	0.00000E+000	5.33240E-003	3.59960E-001	-1.16400E+000	3.57780E+000	10	...........
	36	0.493333	8.95802E-001	5.99111E-003	0.00000E+000	5.36685E-003	3.59960E-001	-1.15752E+000	3.57780E+000	10	...........
	37	0.506667	9.02045E-001	5.99257E-003	0.00000E+000	5.40557E-003	3.59960E-001	-1.16617E+000	3.57780E+000	10	...........
	38	0.52	9.08224E-001	5.99505E-003	0.00000E+000	5.44485E-003	3.59960E-001	-1.16387E+000	3.57780E+000	10	...........
	39	0.533333	9.14410E-001	5.98996E-003	0.00000E+000	5.47728E-003	3.59960E-001	-1.15753E+000	3.57780E+000	10	...........
	40	0.546667	9.20553E-001	5.98984E-003	0.00000E+000	5.51397E-003	3.59960E-001	-1.16589E+000	3.57780E+000	10	...........
	41	0.56	9.26671E-001	5.99101E-003	0.00000E+000	5.55169E-003	3.59960E-001	-1.16354E+000	3.57780E+000	10	...........
	42	0.573333	9.32710E-001	5.99094E-003	0.00000E+000	5.58782E-003	3.59960E-001	-1.15745E+000	3.57780E+000	10	...........
	43	0.586667	9.38734E-001	5.99398E-003	0.00000E+000	5.62675E-003	3.59960E-001	-1.16618E+000	3.57780E+000	10	...........
	44	0.6	9.44706E-001	5.99113E-003	0.00000E+000	5.65986E-003	3.59960E-001	-1.16393E+000	3.57780E+000	10	...........
	45	0.613333	9.50655E-001	5.99270E-003	0.00000E+000	5.69698E-003	3.59960E-001	-1.15781E+000	3.57780E+000	10	...........
	46	0.626667	9.56534E-001	5.99108E-003	0.00000E+000	5.73067E-003	3.59960E-001	-1.16624E+000	3.57780E+000	10	...........
	47	0.64	9.62360E-001	5.99526E-003	0.00000E+000	5.76960E-003	3.59960E-001	-1.16378E+000	3.57780E+000	10	...........
	48	0.653333	9.68123E-001	5.99782E-003	0.00000E+000	5.80663E-003	3.59960E-001	-1.15787E+000	3.57780E+000	10	...........
	49	0.666667	9.73883E-001	5.99011E-003	0.00000E+000	5.83367E-003	3.59960E-001	-1.16649E+000	3.57780E+000	10	...........
	50	0.68	9.79589E-001	5.99664E-003	0.00000E+000	5.87424E-003	3.59960E-001	-1.16394E+000	3.57780E+000	10	...........
	51	0.693333	9.85251E-001	5.99631E-003	0.00000E+000	5.90787E-003	3.59960E-001	-1.15772E+000	3.57780E+000	10	...........
	52	0.706667	9.90831E-001	5.98887E-003	0.00000E+000	5.93395E-003	3.59960E-001	-1.16630E+000	3.57780E+000	10	...........
	53	0.72	9.96384E-001	5.99686E-003	0.00000E+000	5.97517E-003	3.59960E-001	-1.16332E+000	3.57780E+000	10	...........
	54	0.723333	9.99829E-001	5.98903E-003	0.00000E+000	5.98801E-003	3.59960E-001	-1.16903E+000	3.57780E+000	10	...........
STARTTIMEOFFSET	QUANT	1242.209	Start Time Offset (s)