File: Data/CV_CRGO300517_1/PWRCCD_CRGO300517_1/CHARGE_DISCHARGE/CHARGE_#285.DTA
EXPLAIN
TAG	PWR800_CHARGE
TITLE	LABEL	PWR Cyclic Charge Discharge (Cell) - Charge Step	Test &Identifier
DATE	LABEL	22-6-2017	Date
TIME	LABEL	15:47:19	Time
NOTES	NOTES	3	&Notes...
	supercap test cell
	0.6mg
	6M KOH
PSTAT	PSTAT	IFC5000-01520	Potentiostat
CAPACITY	QUANT	1.00000E-003	Capacity (A-hr)
CELLTYPE	SELECTOR	1	&Cell Type
WORKINGCONNECTION	SELECTOR	0	&Working Lead
MAXCHARGETIME	VARIABLEANDUNITS	1.00000E+002	s	1.00000E+002	second(s)	Max &Charge Time
CHARGECURRENT	QUANT	6.00000E-003	&Charge Current (A)
VOLTAGEFINISH	TWOPARAM	F	1.00000E-003	3.60000E+003	&Voltage Finish	 I (A) < 	Max Time(s)
SAMPLETIME	QUANT	1.00000E-002	Sa&mple Period (s)
CHARGESTOPAT1	MULTIPARAM	4	1.00000E+000	Charge Stop At &1	Voltage > Limit	V
CHARGESTOPAT2	MULTIPARAM	0	0.00000E+000	Charge Stop At &2	None	N/A
AESBHCSELECTOR	TOGGLE	F	Save Both Half Cells
IRCOMP	TOGGLE	F	IR &Measure
EOC	QUANT	0	Open Circuit (V)
SEQUENCER	TOGGLE	TRUE	Run as Sequence
PSTATMODEL	IQUANT	53	Pstat Model
PSTATSECTION	LABEL	IFC5000-01520	Pstat Section
PSTATSERIALNO	LABEL	01520	Pstat Serial Number
CTRLMODE	IQUANT	0	Control Mode
ELECTROMETER	IQUANT	1	RE=0 or CS=1
IESTAB	IQUANT	0	I/E Stability
CASPEED	IQUANT	4	Control Amp Speed
CONVENTION	IQUANT	1	Current Convention
ICHRANGE	IQUANT	2	Ich Range
ICHRANGEMODE	TOGGLE	T	Ich Auto Range
ICHOFFSETENABLE	TOGGLE	F	Ich Offset Enable
ICHOFFSET	QUANT	0	Ich Offset (V)
ICHFILTER	IQUANT	1	Ich Filter
VCHRANGE	IQUANT	2	Vch Range
VCHRANGEMODE	TOGGLE	T	Vch Auto Range
VCHOFFSETENABLE	TOGGLE	F	Vch Offset Enable
VCHOFFSET	QUANT	0	Vch Offset (V)
VCHFILTER	IQUANT	1	Vch Filter
IERANGELOWERLIMIT	IQUANT	9	I/E Range Lower Limit
IERANGEMODE	TOGGLE	F	I/E AutoRange
IERANGE	IQUANT	10	I/E Range
ACHSELECT	IQUANT	1	Ach Select
ACHRANGE	IQUANT	2	Ach Range
ACHOFFSETENABLE	TOGGLE	F	Ach Offset Enable
ACHOFFSET	QUANT	0	Ach Offset (V)
ACHFILTER	IQUANT	1	Ach Filter
CABLEID	IQUANT	14	Cable ID
DCCALDATE	LABEL	20-10-2016	DC Calibration Date
ACCALDATE	LABEL	12/3/2015	AC Calibration Date
FRAMEWORKVERSION	QUANT	7.01	Framework Version
INSTRUMENTVERSION	LABEL	4.00	Instrument Version
CURVE	TABLE	63
	Pt	T	Vf	Im	Vu	Pwr	Sig	Ach	Temp	IERange	Over
	#	s	V	A	V	W	V	V	deg C	#	bits
	0	0.013333	6.14678E-001	5.99171E-003	0.00000E+000	3.68297E-003	3.59960E-001	-1.10557E+000	3.57710E+000	10	...........
	1	0.026667	6.23250E-001	5.99399E-003	0.00000E+000	3.73575E-003	3.59960E-001	-1.10521E+000	3.57710E+000	10	...........
	2	0.04	6.31135E-001	5.99417E-003	0.00000E+000	3.78313E-003	3.59960E-001	-1.11506E+000	3.57710E+000	10	...........
	3	0.053333	6.38589E-001	5.99250E-003	0.00000E+000	3.82674E-003	3.59960E-001	-1.10466E+000	3.57710E+000	10	...........
	4	0.066667	6.45819E-001	5.99116E-003	0.00000E+000	3.86921E-003	3.59960E-001	-1.10480E+000	3.57710E+000	10	...........
	5	0.08	6.52834E-001	5.99516E-003	0.00000E+000	3.91385E-003	3.59960E-001	-1.11539E+000	3.57710E+000	10	...........
	6	0.093333	6.59727E-001	5.99200E-003	0.00000E+000	3.95308E-003	3.59960E-001	-1.10448E+000	3.57710E+000	10	...........
	7	0.106667	6.66512E-001	5.99152E-003	0.00000E+000	3.99342E-003	3.59960E-001	-1.10433E+000	3.57710E+000	10	...........
	8	0.12	6.73239E-001	5.99500E-003	0.00000E+000	4.03607E-003	3.59960E-001	-1.11502E+000	3.57710E+000	10	...........
	9	0.133333	6.79823E-001	5.99017E-003	0.00000E+000	4.07226E-003	3.59960E-001	-1.10500E+000	3.57710E+000	10	...........
	10	0.146667	6.86428E-001	5.99212E-003	0.00000E+000	4.11316E-003	3.59960E-001	-1.10467E+000	3.57710E+000	10	...........
	11	0.16	6.92900E-001	5.99614E-003	0.00000E+000	4.15473E-003	3.59960E-001	-1.11486E+000	3.57710E+000	10	...........
	12	0.173333	6.99329E-001	5.98923E-003	0.00000E+000	4.18844E-003	3.59960E-001	-1.10441E+000	3.57710E+000	10	...........
	13	0.186667	7.05769E-001	5.99585E-003	0.00000E+000	4.23168E-003	3.59960E-001	-1.10443E+000	3.57710E+000	10	...........
	14	0.2	7.12159E-001	5.99428E-003	0.00000E+000	4.26888E-003	3.59960E-001	-1.11507E+000	3.57710E+000	10	...........
	15	0.213333	7.18581E-001	5.98730E-003	0.00000E+000	4.30236E-003	3.59960E-001	-1.10462E+000	3.57710E+000	10	...........
	16	0.226667	7.24965E-001	5.99117E-003	0.00000E+000	4.34339E-003	3.59960E-001	-1.10409E+000	3.57710E+000	10	...........
	17	0.24	7.31300E-001	5.98545E-003	0.00000E+000	4.37716E-003	3.59960E-001	-1.11473E+000	3.57710E+000	10	...........
	18	0.253333	7.37643E-001	5.99482E-003	0.00000E+000	4.42204E-003	3.59960E-001	-1.10475E+000	3.57710E+000	10	...........
	19	0.266667	7.43966E-001	5.99381E-003	0.00000E+000	4.45919E-003	3.59960E-001	-1.10462E+000	3.57710E+000	10	...........
	20	0.28	7.50275E-001	5.99324E-003	0.00000E+000	4.49658E-003	3.59960E-001	-1.11489E+000	3.57710E+000	10	...........
	21	0.293333	7.56581E-001	5.99552E-003	0.00000E+000	4.53610E-003	3.59960E-001	-1.10439E+000	3.57710E+000	10	...........
	22	0.306667	7.62858E-001	5.99325E-003	0.00000E+000	4.57200E-003	3.59960E-001	-1.10400E+000	3.57710E+000	10	...........
	23	0.32	7.69092E-001	5.99304E-003	0.00000E+000	4.60920E-003	3.59960E-001	-1.11477E+000	3.57710E+000	10	...........
	24	0.333333	7.75347E-001	5.99350E-003	0.00000E+000	4.64704E-003	3.59960E-001	-1.10463E+000	3.57710E+000	10	...........
	25	0.346667	7.81590E-001	5.99294E-003	0.00000E+000	4.68402E-003	3.59960E-001	-1.10414E+000	3.57710E+000	10	...........
	26	0.36	7.87824E-001	5.99412E-003	0.00000E+000	4.72231E-003	3.59960E-001	-1.11447E+000	3.57710E+000	10	...........
	27	0.373333	7.94043E-001	5.99328E-003	0.00000E+000	4.75892E-003	3.59960E-001	-1.10372E+000	3.57710E+000	10	...........
	28	0.386667	8.00240E-001	5.99634E-003	0.00000E+000	4.79851E-003	3.59960E-001	-1.10330E+000	3.57710E+000	10	...........
	29	0.4	8.06432E-001	5.98978E-003	0.00000E+000	4.83035E-003	3.59960E-001	-1.11402E+000	3.57710E+000	10	...........
	30	0.413333	8.12607E-001	5.99734E-003	0.00000E+000	4.87348E-003	3.59960E-001	-1.10369E+000	3.57710E+000	10	...........
	31	0.426667	8.18812E-001	5.99424E-003	0.00000E+000	4.90816E-003	3.59960E-001	-1.10283E+000	3.57710E+000	10	...........
	32	0.44	8.24987E-001	5.99561E-003	0.00000E+000	4.94630E-003	3.59960E-001	-1.11354E+000	3.57710E+000	10	...........
	33	0.453333	8.31148E-001	5.99621E-003	0.00000E+000	4.98374E-003	3.59960E-001	-1.10344E+000	3.57710E+000	10	...........
	34	0.466667	8.37291E-001	5.99381E-003	0.00000E+000	5.01857E-003	3.59960E-001	-1.10315E+000	3.57710E+000	10	...........
	35	0.48	8.43431E-001	5.99347E-003	0.00000E+000	5.05508E-003	3.59960E-001	-1.11364E+000	3.57710E+000	10	...........
	36	0.493333	8.49593E-001	5.99402E-003	0.00000E+000	5.09248E-003	3.59960E-001	-1.10331E+000	3.57710E+000	10	...........
	37	0.506667	8.55704E-001	5.99607E-003	0.00000E+000	5.13086E-003	3.59960E-001	-1.10272E+000	3.57710E+000	10	...........
	38	0.52	8.61753E-001	5.99187E-003	0.00000E+000	5.16351E-003	3.59960E-001	-1.11333E+000	3.57710E+000	10	...........
	39	0.533333	8.67860E-001	5.99102E-003	0.00000E+000	5.19936E-003	3.59960E-001	-1.10358E+000	3.57710E+000	10	...........
	40	0.546667	8.73960E-001	5.99085E-003	0.00000E+000	5.23576E-003	3.59960E-001	-1.10292E+000	3.57710E+000	10	...........
	41	0.56	8.79986E-001	5.99895E-003	0.00000E+000	5.27900E-003	3.59960E-001	-1.11329E+000	3.57710E+000	10	...........
	42	0.573333	8.86023E-001	5.99495E-003	0.00000E+000	5.31166E-003	3.59960E-001	-1.10317E+000	3.57710E+000	10	...........
	43	0.586667	8.92013E-001	5.99233E-003	0.00000E+000	5.34524E-003	3.59960E-001	-1.10307E+000	3.57710E+000	10	...........
	44	0.6	8.98006E-001	5.99753E-003	0.00000E+000	5.38582E-003	3.59960E-001	-1.11390E+000	3.57710E+000	10	...........
	45	0.613333	9.03960E-001	5.99506E-003	0.00000E+000	5.41930E-003	3.59960E-001	-1.10377E+000	3.57710E+000	10	...........
	46	0.626667	9.09922E-001	5.99570E-003	0.00000E+000	5.45562E-003	3.59960E-001	-1.10296E+000	3.57710E+000	10	...........
	47	0.64	9.15870E-001	5.99494E-003	0.00000E+000	5.49059E-003	3.59960E-001	-1.11353E+000	3.57710E+000	10	...........
	48	0.653333	9.21791E-001	5.99224E-003	0.00000E+000	5.52359E-003	3.59960E-001	-1.10368E+000	3.57710E+000	10	...........
	49	0.666667	9.27686E-001	5.98969E-003	0.00000E+000	5.55655E-003	3.59960E-001	-1.10319E+000	3.57710E+000	10	...........
	50	0.68	9.33536E-001	5.99263E-003	0.00000E+000	5.59434E-003	3.59960E-001	-1.11347E+000	3.57710E+000	10	...........
	51	0.693333	9.39337E-001	5.99978E-003	0.00000E+000	5.63581E-003	3.59960E-001	-1.10320E+000	3.57710E+000	10	...........
	52	0.706667	9.45086E-001	5.99094E-003	0.00000E+000	5.66196E-003	3.59960E-001	-1.10254E+000	3.57710E+000	10	...........
	53	0.72	9.50871E-001	5.99129E-003	0.00000E+000	5.69694E-003	3.59960E-001	-1.11334E+000	3.57710E+000	10	...........
	54	0.733333	9.56538E-001	5.99583E-003	0.00000E+000	5.73523E-003	3.59960E-001	-1.10358E+000	3.57710E+000	10	...........
	55	0.746667	9.62159E-001	5.99389E-003	0.00000E+000	5.76707E-003	3.59960E-001	-1.10282E+000	3.57710E+000	10	...........
	56	0.76	9.67796E-001	5.99545E-003	0.00000E+000	5.80237E-003	3.59960E-001	-1.11306E+000	3.57710E+000	10	...........
	57	0.773333	9.73443E-001	5.99349E-003	0.00000E+000	5.83432E-003	3.59960E-001	-1.10328E+000	3.57710E+000	10	...........
	58	0.786667	9.79021E-001	5.99167E-003	0.00000E+000	5.86598E-003	3.59960E-001	-1.10281E+000	3.57710E+000	10	...........
	59	0.8	9.84516E-001	5.98981E-003	0.00000E+000	5.89706E-003	3.59960E-001	-1.11354E+000	3.57710E+000	10	...........
	60	0.813333	9.89984E-001	5.99346E-003	0.00000E+000	5.93343E-003	3.59960E-001	-1.10324E+000	3.57785E+000	10	...........
	61	0.826667	9.95434E-001	5.99054E-003	0.00000E+000	5.96318E-003	3.59960E-001	-1.10233E+000	3.57810E+000	10	...........
	62	0.833333	9.99464E-001	5.99878E-003	0.00000E+000	5.99556E-003	3.59960E-001	-1.11375E+000	3.57810E+000	10	...........
STARTTIMEOFFSET	QUANT	516.3667	Start Time Offset (s)