File: Data/CV_CRGO300517_1/PWRCCD_CRGO300517_1/CHARGE_DISCHARGE/CHARGE_#731.DTA
EXPLAIN
TAG	PWR800_CHARGE
TITLE	LABEL	PWR Cyclic Charge Discharge (Cell) - Charge Step	Test &Identifier
DATE	LABEL	22-6-2017	Date
TIME	LABEL	16:04:43	Time
NOTES	NOTES	3	&Notes...
	supercap test cell
	0.6mg
	6M KOH
PSTAT	PSTAT	IFC5000-01520	Potentiostat
CAPACITY	QUANT	1.00000E-003	Capacity (A-hr)
CELLTYPE	SELECTOR	1	&Cell Type
WORKINGCONNECTION	SELECTOR	0	&Working Lead
MAXCHARGETIME	VARIABLEANDUNITS	1.00000E+002	s	1.00000E+002	second(s)	Max &Charge Time
CHARGECURRENT	QUANT	6.00000E-003	&Charge Current (A)
VOLTAGEFINISH	TWOPARAM	F	1.00000E-003	3.60000E+003	&Voltage Finish	 I (A) < 	Max Time(s)
SAMPLETIME	QUANT	1.00000E-002	Sa&mple Period (s)
CHARGESTOPAT1	MULTIPARAM	4	1.00000E+000	Charge Stop At &1	Voltage > Limit	V
CHARGESTOPAT2	MULTIPARAM	0	0.00000E+000	Charge Stop At &2	None	N/A
AESBHCSELECTOR	TOGGLE	F	Save Both Half Cells
IRCOMP	TOGGLE	F	IR &Measure
EOC	QUANT	0	Open Circuit (V)
SEQUENCER	TOGGLE	TRUE	Run as Sequence
PSTATMODEL	IQUANT	53	Pstat Model
PSTATSECTION	LABEL	IFC5000-01520	Pstat Section
PSTATSERIALNO	LABEL	01520	Pstat Serial Number
CTRLMODE	IQUANT	0	Control Mode
ELECTROMETER	IQUANT	1	RE=0 or CS=1
IESTAB	IQUANT	0	I/E Stability
CASPEED	IQUANT	4	Control Amp Speed
CONVENTION	IQUANT	1	Current Convention
ICHRANGE	IQUANT	2	Ich Range
ICHRANGEMODE	TOGGLE	T	Ich Auto Range
ICHOFFSETENABLE	TOGGLE	F	Ich Offset Enable
ICHOFFSET	QUANT	0	Ich Offset (V)
ICHFILTER	IQUANT	1	Ich Filter
VCHRANGE	IQUANT	2	Vch Range
VCHRANGEMODE	TOGGLE	T	Vch Auto Range
VCHOFFSETENABLE	TOGGLE	F	Vch Offset Enable
VCHOFFSET	QUANT	0	Vch Offset (V)
VCHFILTER	IQUANT	1	Vch Filter
IERANGELOWERLIMIT	IQUANT	9	I/E Range Lower Limit
IERANGEMODE	TOGGLE	F	I/E AutoRange
IERANGE	IQUANT	10	I/E Range
ACHSELECT	IQUANT	1	Ach Select
ACHRANGE	IQUANT	2	Ach Range
ACHOFFSETENABLE	TOGGLE	F	Ach Offset Enable
ACHOFFSET	QUANT	0	Ach Offset (V)
ACHFILTER	IQUANT	1	Ach Filter
CABLEID	IQUANT	14	Cable ID
DCCALDATE	LABEL	20-10-2016	DC Calibration Date
ACCALDATE	LABEL	12/3/2015	AC Calibration Date
FRAMEWORKVERSION	QUANT	7.01	Framework Version
INSTRUMENTVERSION	LABEL	4.00	Instrument Version
CURVE	TABLE	55
	Pt	T	Vf	Im	Vu	Pwr	Sig	Ach	Temp	IERange	Over
	#	s	V	A	V	W	V	V	deg C	#	bits
	0	0.013333	6.45020E-001	5.99401E-003	0.00000E+000	3.86626E-003	3.59960E-001	-1.15370E+000	3.57660E+000	10	...........
	1	0.026667	6.54135E-001	5.99283E-003	0.00000E+000	3.92012E-003	3.59960E-001	-1.16204E+000	3.57660E+000	10	...........
	2	0.04	6.62537E-001	5.99315E-003	0.00000E+000	3.97069E-003	3.59960E-001	-1.15914E+000	3.57660E+000	10	...........
	3	0.053333	6.70501E-001	5.99297E-003	0.00000E+000	4.01829E-003	3.59960E-001	-1.15334E+000	3.57660E+000	10	...........
	4	0.066667	6.78190E-001	5.99196E-003	0.00000E+000	4.06368E-003	3.59960E-001	-1.16185E+000	3.57660E+000	10	...........
	5	0.08	6.85629E-001	5.98991E-003	0.00000E+000	4.10686E-003	3.59960E-001	-1.15886E+000	3.57660E+000	10	...........
	6	0.093333	6.93029E-001	5.99737E-003	0.00000E+000	4.15635E-003	3.59960E-001	-1.15322E+000	3.57660E+000	10	...........
	7	0.106667	7.00224E-001	5.98935E-003	0.00000E+000	4.19389E-003	3.59960E-001	-1.16148E+000	3.57660E+000	10	...........
	8	0.12	7.07317E-001	5.99847E-003	0.00000E+000	4.24282E-003	3.59960E-001	-1.15869E+000	3.57660E+000	10	...........
	9	0.133333	7.14370E-001	5.98936E-003	0.00000E+000	4.27862E-003	3.59960E-001	-1.15289E+000	3.57660E+000	10	...........
	10	0.146667	7.21381E-001	5.99514E-003	0.00000E+000	4.32478E-003	3.59960E-001	-1.16114E+000	3.57660E+000	10	...........
	11	0.16	7.28294E-001	5.99423E-003	0.00000E+000	4.36556E-003	3.59960E-001	-1.15848E+000	3.57660E+000	10	...........
	12	0.173333	7.35170E-001	5.99540E-003	0.00000E+000	4.40764E-003	3.59960E-001	-1.15268E+000	3.57660E+000	10	...........
	13	0.186667	7.42057E-001	6.00115E-003	0.00000E+000	4.45319E-003	3.59960E-001	-1.16125E+000	3.57660E+000	10	...........
	14	0.2	7.48857E-001	5.99752E-003	0.00000E+000	4.49128E-003	3.59960E-001	-1.15823E+000	3.57660E+000	10	...........
	15	0.213333	7.55630E-001	5.99725E-003	0.00000E+000	4.53170E-003	3.59960E-001	-1.15256E+000	3.57660E+000	10	...........
	16	0.226667	7.62407E-001	5.99392E-003	0.00000E+000	4.56981E-003	3.59960E-001	-1.16051E+000	3.57660E+000	10	...........
	17	0.24	7.69145E-001	5.99295E-003	0.00000E+000	4.60944E-003	3.59960E-001	-1.15784E+000	3.57660E+000	10	...........
	18	0.253333	7.75851E-001	5.99176E-003	0.00000E+000	4.64871E-003	3.59960E-001	-1.15207E+000	3.57660E+000	10	...........
	19	0.266667	7.82525E-001	5.99707E-003	0.00000E+000	4.69285E-003	3.59960E-001	-1.16032E+000	3.57660E+000	10	...........
	20	0.28	7.89131E-001	5.99641E-003	0.00000E+000	4.73195E-003	3.59960E-001	-1.15729E+000	3.57660E+000	10	...........
	21	0.293333	7.95791E-001	5.99450E-003	0.00000E+000	4.77037E-003	3.59960E-001	-1.15127E+000	3.57660E+000	10	...........
	22	0.306667	8.02350E-001	5.99641E-003	0.00000E+000	4.81122E-003	3.59960E-001	-1.15963E+000	3.57660E+000	10	...........
	23	0.32	8.08940E-001	5.99537E-003	0.00000E+000	4.84989E-003	3.59960E-001	-1.15690E+000	3.57660E+000	10	...........
	24	0.333333	8.15497E-001	5.99236E-003	0.00000E+000	4.88675E-003	3.59960E-001	-1.15091E+000	3.57660E+000	10	...........
	25	0.346667	8.22058E-001	5.99251E-003	0.00000E+000	4.92619E-003	3.59960E-001	-1.15914E+000	3.57660E+000	10	...........
	26	0.36	8.28606E-001	6.00051E-003	0.00000E+000	4.97206E-003	3.59960E-001	-1.15551E+000	3.57660E+000	10	...........
	27	0.373333	8.35102E-001	5.99648E-003	0.00000E+000	5.00767E-003	3.59960E-001	-1.14980E+000	3.57660E+000	10	...........
	28	0.386667	8.41584E-001	5.99358E-003	0.00000E+000	5.04410E-003	3.59960E-001	-1.15853E+000	3.57660E+000	10	...........
	29	0.4	8.48035E-001	5.99928E-003	0.00000E+000	5.08760E-003	3.59960E-001	-1.15545E+000	3.57660E+000	10	...........
	30	0.413333	8.54460E-001	5.99338E-003	0.00000E+000	5.12111E-003	3.59960E-001	-1.14970E+000	3.57660E+000	10	...........
	31	0.426667	8.60896E-001	5.99550E-003	0.00000E+000	5.16151E-003	3.59960E-001	-1.15808E+000	3.57660E+000	10	...........
	32	0.44	8.67254E-001	5.99337E-003	0.00000E+000	5.19778E-003	3.59960E-001	-1.15506E+000	3.57660E+000	10	...........
	33	0.453333	8.73634E-001	5.99208E-003	0.00000E+000	5.23488E-003	3.59960E-001	-1.14952E+000	3.57660E+000	10	...........
	34	0.466667	8.79942E-001	5.98873E-003	0.00000E+000	5.26974E-003	3.59960E-001	-1.15810E+000	3.57660E+000	10	...........
	35	0.48	8.86274E-001	5.99357E-003	0.00000E+000	5.31195E-003	3.59960E-001	-1.15463E+000	3.57660E+000	10	...........
	36	0.493333	8.92522E-001	5.99032E-003	0.00000E+000	5.34649E-003	3.59960E-001	-1.14852E+000	3.57660E+000	10	...........
	37	0.506667	8.98790E-001	5.99783E-003	0.00000E+000	5.39079E-003	3.59960E-001	-1.15706E+000	3.57660E+000	10	...........
	38	0.52	9.05009E-001	5.99426E-003	0.00000E+000	5.42486E-003	3.59960E-001	-1.15409E+000	3.57660E+000	10	...........
	39	0.533333	9.11220E-001	5.99892E-003	0.00000E+000	5.46634E-003	3.59960E-001	-1.14880E+000	3.57660E+000	10	...........
	40	0.546667	9.17336E-001	5.99383E-003	0.00000E+000	5.49836E-003	3.59960E-001	-1.15695E+000	3.57660E+000	10	...........
	41	0.56	9.23481E-001	5.99008E-003	0.00000E+000	5.53172E-003	3.59960E-001	-1.15363E+000	3.57660E+000	10	...........
	42	0.573333	9.29563E-001	5.99463E-003	0.00000E+000	5.57238E-003	3.59960E-001	-1.14816E+000	3.57660E+000	10	...........
	43	0.586667	9.35580E-001	5.99127E-003	0.00000E+000	5.60531E-003	3.59960E-001	-1.15690E+000	3.57660E+000	10	...........
	44	0.6	9.41545E-001	5.99613E-003	0.00000E+000	5.64562E-003	3.59960E-001	-1.15356E+000	3.57660E+000	10	...........
	45	0.613333	9.47531E-001	5.99093E-003	0.00000E+000	5.67659E-003	3.59960E-001	-1.14811E+000	3.57660E+000	10	...........
	46	0.626667	9.53411E-001	5.99431E-003	0.00000E+000	5.71504E-003	3.59960E-001	-1.15645E+000	3.57660E+000	10	...........
	47	0.64	9.59289E-001	5.99354E-003	0.00000E+000	5.74954E-003	3.59960E-001	-1.15304E+000	3.57660E+000	10	...........
	48	0.653333	9.65076E-001	5.99586E-003	0.00000E+000	5.78646E-003	3.59960E-001	-1.14769E+000	3.57660E+000	10	...........
	49	0.666667	9.70867E-001	6.00028E-003	0.00000E+000	5.82547E-003	3.59960E-001	-1.15637E+000	3.57660E+000	10	...........
	50	0.68	9.76618E-001	5.99601E-003	0.00000E+000	5.85581E-003	3.59960E-001	-1.15306E+000	3.57660E+000	10	...........
	51	0.693333	9.82286E-001	5.99431E-003	0.00000E+000	5.88813E-003	3.59960E-001	-1.14768E+000	3.57660E+000	10	...........
	52	0.706667	9.87881E-001	5.99392E-003	0.00000E+000	5.92127E-003	3.59960E-001	-1.15624E+000	3.57660E+000	10	...........
	53	0.72	9.93414E-001	5.99784E-003	0.00000E+000	5.95834E-003	3.59960E-001	-1.15345E+000	3.57660E+000	10	...........
	54	0.73	9.98283E-001	5.99821E-003	0.00000E+000	5.98792E-003	3.59960E-001	-1.14642E+000	3.57660E+000	10	...........
STARTTIMEOFFSET	QUANT	1204.497	Start Time Offset (s)