File: Data/CV_CRGO300517_1/PWRCCD_CRGO300517_1/CHARGE_DISCHARGE/CHARGE_#921.DTA
EXPLAIN
TAG	PWR800_CHARGE
TITLE	LABEL	PWR Cyclic Charge Discharge (Cell) - Charge Step	Test &Identifier
DATE	LABEL	22-6-2017	Date
TIME	LABEL	16:11:45	Time
NOTES	NOTES	3	&Notes...
	supercap test cell
	0.6mg
	6M KOH
PSTAT	PSTAT	IFC5000-01520	Potentiostat
CAPACITY	QUANT	1.00000E-003	Capacity (A-hr)
CELLTYPE	SELECTOR	1	&Cell Type
WORKINGCONNECTION	SELECTOR	0	&Working Lead
MAXCHARGETIME	VARIABLEANDUNITS	1.00000E+002	s	1.00000E+002	second(s)	Max &Charge Time
CHARGECURRENT	QUANT	6.00000E-003	&Charge Current (A)
VOLTAGEFINISH	TWOPARAM	F	1.00000E-003	3.60000E+003	&Voltage Finish	 I (A) < 	Max Time(s)
SAMPLETIME	QUANT	1.00000E-002	Sa&mple Period (s)
CHARGESTOPAT1	MULTIPARAM	4	1.00000E+000	Charge Stop At &1	Voltage > Limit	V
CHARGESTOPAT2	MULTIPARAM	0	0.00000E+000	Charge Stop At &2	None	N/A
AESBHCSELECTOR	TOGGLE	F	Save Both Half Cells
IRCOMP	TOGGLE	F	IR &Measure
EOC	QUANT	0	Open Circuit (V)
SEQUENCER	TOGGLE	TRUE	Run as Sequence
PSTATMODEL	IQUANT	53	Pstat Model
PSTATSECTION	LABEL	IFC5000-01520	Pstat Section
PSTATSERIALNO	LABEL	01520	Pstat Serial Number
CTRLMODE	IQUANT	0	Control Mode
ELECTROMETER	IQUANT	1	RE=0 or CS=1
IESTAB	IQUANT	0	I/E Stability
CASPEED	IQUANT	4	Control Amp Speed
CONVENTION	IQUANT	1	Current Convention
ICHRANGE	IQUANT	2	Ich Range
ICHRANGEMODE	TOGGLE	T	Ich Auto Range
ICHOFFSETENABLE	TOGGLE	F	Ich Offset Enable
ICHOFFSET	QUANT	0	Ich Offset (V)
ICHFILTER	IQUANT	1	Ich Filter
VCHRANGE	IQUANT	2	Vch Range
VCHRANGEMODE	TOGGLE	T	Vch Auto Range
VCHOFFSETENABLE	TOGGLE	F	Vch Offset Enable
VCHOFFSET	QUANT	0	Vch Offset (V)
VCHFILTER	IQUANT	1	Vch Filter
IERANGELOWERLIMIT	IQUANT	9	I/E Range Lower Limit
IERANGEMODE	TOGGLE	F	I/E AutoRange
IERANGE	IQUANT	10	I/E Range
ACHSELECT	IQUANT	1	Ach Select
ACHRANGE	IQUANT	2	Ach Range
ACHOFFSETENABLE	TOGGLE	F	Ach Offset Enable
ACHOFFSET	QUANT	0	Ach Offset (V)
ACHFILTER	IQUANT	1	Ach Filter
CABLEID	IQUANT	14	Cable ID
DCCALDATE	LABEL	20-10-2016	DC Calibration Date
ACCALDATE	LABEL	12/3/2015	AC Calibration Date
FRAMEWORKVERSION	QUANT	7.01	Framework Version
INSTRUMENTVERSION	LABEL	4.00	Instrument Version
CURVE	TABLE	53
	Pt	T	Vf	Im	Vu	Pwr	Sig	Ach	Temp	IERange	Over
	#	s	V	A	V	W	V	V	deg C	#	bits
	0	0.013333	6.54206E-001	5.99305E-003	0.00000E+000	3.92069E-003	3.59960E-001	-1.17147E+000	3.57780E+000	10	...........
	1	0.026667	6.63500E-001	5.99429E-003	0.00000E+000	3.97721E-003	3.59960E-001	-1.17185E+000	3.57780E+000	10	...........
	2	0.04	6.72074E-001	5.99492E-003	0.00000E+000	4.02903E-003	3.59960E-001	-1.18211E+000	3.57780E+000	10	...........
	3	0.053333	6.80172E-001	5.99367E-003	0.00000E+000	4.07672E-003	3.59960E-001	-1.17126E+000	3.57780E+000	10	...........
	4	0.066667	6.87984E-001	5.99074E-003	0.00000E+000	4.12153E-003	3.59960E-001	-1.17129E+000	3.57780E+000	10	...........
	5	0.08	6.95640E-001	5.99208E-003	0.00000E+000	4.16833E-003	3.59960E-001	-1.18186E+000	3.57780E+000	10	...........
	6	0.093333	7.03075E-001	5.99056E-003	0.00000E+000	4.21181E-003	3.59960E-001	-1.17147E+000	3.57780E+000	10	...........
	7	0.106667	7.10398E-001	5.99452E-003	0.00000E+000	4.25850E-003	3.59960E-001	-1.17154E+000	3.57780E+000	10	...........
	8	0.12	7.17686E-001	5.99517E-003	0.00000E+000	4.30265E-003	3.59960E-001	-1.18175E+000	3.57780E+000	10	...........
	9	0.133333	7.24895E-001	5.99498E-003	0.00000E+000	4.34573E-003	3.59960E-001	-1.17117E+000	3.57780E+000	10	...........
	10	0.146667	7.31974E-001	5.99352E-003	0.00000E+000	4.38710E-003	3.59960E-001	-1.17145E+000	3.57780E+000	10	...........
	11	0.16	7.39011E-001	5.99243E-003	0.00000E+000	4.42847E-003	3.59960E-001	-1.18212E+000	3.57780E+000	10	...........
	12	0.173333	7.46018E-001	5.99168E-003	0.00000E+000	4.46990E-003	3.59960E-001	-1.17143E+000	3.57780E+000	10	...........
	13	0.186667	7.53015E-001	5.99634E-003	0.00000E+000	4.51533E-003	3.59960E-001	-1.17127E+000	3.57780E+000	10	...........
	14	0.2	7.59946E-001	5.99387E-003	0.00000E+000	4.55502E-003	3.59960E-001	-1.18181E+000	3.57780E+000	10	...........
	15	0.213333	7.66824E-001	5.98943E-003	0.00000E+000	4.59284E-003	3.59960E-001	-1.17089E+000	3.57780E+000	10	...........
	16	0.226667	7.73658E-001	5.99284E-003	0.00000E+000	4.63641E-003	3.59960E-001	-1.17103E+000	3.57780E+000	10	...........
	17	0.24	7.80498E-001	5.99325E-003	0.00000E+000	4.67772E-003	3.59960E-001	-1.18141E+000	3.57780E+000	10	...........
	18	0.253333	7.87298E-001	5.99050E-003	0.00000E+000	4.71630E-003	3.59960E-001	-1.17080E+000	3.57780E+000	10	...........
	19	0.266667	7.94094E-001	5.99199E-003	0.00000E+000	4.75820E-003	3.59960E-001	-1.17072E+000	3.57780E+000	10	...........
	20	0.28	8.00837E-001	5.99010E-003	0.00000E+000	4.79709E-003	3.59960E-001	-1.18120E+000	3.57780E+000	10	...........
	21	0.293333	8.07563E-001	5.99638E-003	0.00000E+000	4.84245E-003	3.59960E-001	-1.17086E+000	3.57780E+000	10	...........
	22	0.306667	8.14272E-001	5.99184E-003	0.00000E+000	4.87899E-003	3.59960E-001	-1.17080E+000	3.57780E+000	10	...........
	23	0.32	8.20980E-001	5.99070E-003	0.00000E+000	4.91825E-003	3.59960E-001	-1.18116E+000	3.57780E+000	10	...........
	24	0.333333	8.27646E-001	5.99501E-003	0.00000E+000	4.96175E-003	3.59960E-001	-1.17074E+000	3.57780E+000	10	...........
	25	0.346667	8.34249E-001	5.99385E-003	0.00000E+000	5.00037E-003	3.59960E-001	-1.17057E+000	3.57780E+000	10	...........
	26	0.36	8.40799E-001	5.99221E-003	0.00000E+000	5.03824E-003	3.59960E-001	-1.18142E+000	3.57780E+000	10	...........
	27	0.373333	8.47396E-001	5.99380E-003	0.00000E+000	5.07913E-003	3.59960E-001	-1.17083E+000	3.57780E+000	10	...........
	28	0.386667	8.53969E-001	5.99893E-003	0.00000E+000	5.12290E-003	3.59960E-001	-1.17046E+000	3.57780E+000	10	...........
	29	0.4	8.60459E-001	5.99534E-003	0.00000E+000	5.15874E-003	3.59960E-001	-1.18112E+000	3.57780E+000	10	...........
	30	0.413333	8.66924E-001	5.99160E-003	0.00000E+000	5.19426E-003	3.59960E-001	-1.17074E+000	3.57780E+000	10	...........
	31	0.426667	8.73415E-001	5.99351E-003	0.00000E+000	5.23482E-003	3.59960E-001	-1.17074E+000	3.57780E+000	10	...........
	32	0.44	8.79817E-001	5.98821E-003	0.00000E+000	5.26853E-003	3.59960E-001	-1.18137E+000	3.57780E+000	10	...........
	33	0.453333	8.86211E-001	5.99104E-003	0.00000E+000	5.30932E-003	3.59960E-001	-1.17072E+000	3.57780E+000	10	...........
	34	0.466667	8.92589E-001	5.99183E-003	0.00000E+000	5.34824E-003	3.59960E-001	-1.17050E+000	3.57780E+000	10	...........
	35	0.48	8.98924E-001	5.99446E-003	0.00000E+000	5.38856E-003	3.59960E-001	-1.18114E+000	3.57780E+000	10	...........
	36	0.493333	9.05200E-001	5.99529E-003	0.00000E+000	5.42694E-003	3.59960E-001	-1.17094E+000	3.57780E+000	10	...........
	37	0.506667	9.11462E-001	5.99319E-003	0.00000E+000	5.46256E-003	3.59960E-001	-1.17057E+000	3.57780E+000	10	...........
	38	0.52	9.17671E-001	5.99819E-003	0.00000E+000	5.50437E-003	3.59960E-001	-1.18125E+000	3.57780E+000	10	...........
	39	0.533333	9.23902E-001	5.99770E-003	0.00000E+000	5.54129E-003	3.59960E-001	-1.17036E+000	3.57780E+000	10	...........
	40	0.546667	9.30004E-001	5.99746E-003	0.00000E+000	5.57767E-003	3.59960E-001	-1.17022E+000	3.57780E+000	10	...........
	41	0.56	9.36085E-001	5.99500E-003	0.00000E+000	5.61183E-003	3.59960E-001	-1.18101E+000	3.57780E+000	10	...........
	42	0.573333	9.42113E-001	5.99376E-003	0.00000E+000	5.64680E-003	3.59960E-001	-1.17053E+000	3.57780E+000	10	...........
	43	0.586667	9.48090E-001	5.99239E-003	0.00000E+000	5.68133E-003	3.59960E-001	-1.17004E+000	3.57780E+000	10	...........
	44	0.6	9.53994E-001	5.99227E-003	0.00000E+000	5.71659E-003	3.59960E-001	-1.18072E+000	3.57780E+000	10	...........
	45	0.613333	9.59904E-001	5.98932E-003	0.00000E+000	5.74917E-003	3.59960E-001	-1.17055E+000	3.57780E+000	10	...........
	46	0.626667	9.65741E-001	5.99112E-003	0.00000E+000	5.78587E-003	3.59960E-001	-1.17020E+000	3.57780E+000	10	...........
	47	0.64	9.71571E-001	5.99345E-003	0.00000E+000	5.82306E-003	3.59960E-001	-1.18091E+000	3.57780E+000	10	...........
	48	0.653333	9.77326E-001	5.99376E-003	0.00000E+000	5.85786E-003	3.59960E-001	-1.17050E+000	3.57780E+000	10	...........
	49	0.666667	9.82971E-001	5.99673E-003	0.00000E+000	5.89462E-003	3.59960E-001	-1.16992E+000	3.57780E+000	10	...........
	50	0.68	9.88625E-001	6.00273E-003	0.00000E+000	5.93445E-003	3.59960E-001	-1.18096E+000	3.57780E+000	10	...........
	51	0.693333	9.94199E-001	5.99426E-003	0.00000E+000	5.95949E-003	3.59960E-001	-1.17061E+000	3.57780E+000	10	...........
	52	0.701667	9.98717E-001	5.99289E-003	0.00000E+000	5.98520E-003	3.59960E-001	-1.17704E+000	3.57780E+000	10	...........
STARTTIMEOFFSET	QUANT	1475.501	Start Time Offset (s)