File: Data/CV_CRGO300517_1/PWRCCD_CRGO300517_1/CHARGE_DISCHARGE/CHARGE_#871.DTA
EXPLAIN
TAG	PWR800_CHARGE
TITLE	LABEL	PWR Cyclic Charge Discharge (Cell) - Charge Step	Test &Identifier
DATE	LABEL	22-6-2017	Date
TIME	LABEL	16:09:54	Time
NOTES	NOTES	3	&Notes...
	supercap test cell
	0.6mg
	6M KOH
PSTAT	PSTAT	IFC5000-01520	Potentiostat
CAPACITY	QUANT	1.00000E-003	Capacity (A-hr)
CELLTYPE	SELECTOR	1	&Cell Type
WORKINGCONNECTION	SELECTOR	0	&Working Lead
MAXCHARGETIME	VARIABLEANDUNITS	1.00000E+002	s	1.00000E+002	second(s)	Max &Charge Time
CHARGECURRENT	QUANT	6.00000E-003	&Charge Current (A)
VOLTAGEFINISH	TWOPARAM	F	1.00000E-003	3.60000E+003	&Voltage Finish	 I (A) < 	Max Time(s)
SAMPLETIME	QUANT	1.00000E-002	Sa&mple Period (s)
CHARGESTOPAT1	MULTIPARAM	4	1.00000E+000	Charge Stop At &1	Voltage > Limit	V
CHARGESTOPAT2	MULTIPARAM	0	0.00000E+000	Charge Stop At &2	None	N/A
AESBHCSELECTOR	TOGGLE	F	Save Both Half Cells
IRCOMP	TOGGLE	F	IR &Measure
EOC	QUANT	0	Open Circuit (V)
SEQUENCER	TOGGLE	TRUE	Run as Sequence
PSTATMODEL	IQUANT	53	Pstat Model
PSTATSECTION	LABEL	IFC5000-01520	Pstat Section
PSTATSERIALNO	LABEL	01520	Pstat Serial Number
CTRLMODE	IQUANT	0	Control Mode
ELECTROMETER	IQUANT	1	RE=0 or CS=1
IESTAB	IQUANT	0	I/E Stability
CASPEED	IQUANT	4	Control Amp Speed
CONVENTION	IQUANT	1	Current Convention
ICHRANGE	IQUANT	2	Ich Range
ICHRANGEMODE	TOGGLE	T	Ich Auto Range
ICHOFFSETENABLE	TOGGLE	F	Ich Offset Enable
ICHOFFSET	QUANT	0	Ich Offset (V)
ICHFILTER	IQUANT	1	Ich Filter
VCHRANGE	IQUANT	2	Vch Range
VCHRANGEMODE	TOGGLE	T	Vch Auto Range
VCHOFFSETENABLE	TOGGLE	F	Vch Offset Enable
VCHOFFSET	QUANT	0	Vch Offset (V)
VCHFILTER	IQUANT	1	Vch Filter
IERANGELOWERLIMIT	IQUANT	9	I/E Range Lower Limit
IERANGEMODE	TOGGLE	F	I/E AutoRange
IERANGE	IQUANT	10	I/E Range
ACHSELECT	IQUANT	1	Ach Select
ACHRANGE	IQUANT	2	Ach Range
ACHOFFSETENABLE	TOGGLE	F	Ach Offset Enable
ACHOFFSET	QUANT	0	Ach Offset (V)
ACHFILTER	IQUANT	1	Ach Filter
CABLEID	IQUANT	14	Cable ID
DCCALDATE	LABEL	20-10-2016	DC Calibration Date
ACCALDATE	LABEL	12/3/2015	AC Calibration Date
FRAMEWORKVERSION	QUANT	7.01	Framework Version
INSTRUMENTVERSION	LABEL	4.00	Instrument Version
CURVE	TABLE	54
	Pt	T	Vf	Im	Vu	Pwr	Sig	Ach	Temp	IERange	Over
	#	s	V	A	V	W	V	V	deg C	#	bits
	0	0.013333	6.51539E-001	5.99061E-003	0.00000E+000	3.90312E-003	3.59960E-001	-1.16516E+000	3.57630E+000	10	...........
	1	0.026667	6.60782E-001	5.99406E-003	0.00000E+000	3.96077E-003	3.59960E-001	-1.17154E+000	3.57630E+000	10	...........
	2	0.04	6.69333E-001	5.98986E-003	0.00000E+000	4.00921E-003	3.59960E-001	-1.17303E+000	3.57630E+000	10	...........
	3	0.053333	6.77428E-001	5.99584E-003	0.00000E+000	4.06175E-003	3.59960E-001	-1.16516E+000	3.57630E+000	10	...........
	4	0.066667	6.85220E-001	5.99305E-003	0.00000E+000	4.10656E-003	3.59960E-001	-1.17125E+000	3.57630E+000	10	...........
	5	0.08	6.92813E-001	5.99338E-003	0.00000E+000	4.15229E-003	3.59960E-001	-1.17307E+000	3.57630E+000	10	...........
	6	0.093333	7.00253E-001	5.99512E-003	0.00000E+000	4.19810E-003	3.59960E-001	-1.16499E+000	3.57630E+000	10	...........
	7	0.106667	7.07553E-001	5.99204E-003	0.00000E+000	4.23969E-003	3.59960E-001	-1.17137E+000	3.57630E+000	10	...........
	8	0.12	7.14772E-001	5.98949E-003	0.00000E+000	4.28112E-003	3.59960E-001	-1.17287E+000	3.57630E+000	10	...........
	9	0.133333	7.21961E-001	5.99546E-003	0.00000E+000	4.32849E-003	3.59960E-001	-1.16476E+000	3.57630E+000	10	...........
	10	0.146667	7.28993E-001	5.99480E-003	0.00000E+000	4.37017E-003	3.59960E-001	-1.17117E+000	3.57630E+000	10	...........
	11	0.16	7.36021E-001	5.99401E-003	0.00000E+000	4.41172E-003	3.59960E-001	-1.17286E+000	3.57630E+000	10	...........
	12	0.173333	7.43037E-001	5.99514E-003	0.00000E+000	4.45461E-003	3.59960E-001	-1.16479E+000	3.57630E+000	10	...........
	13	0.186667	7.49983E-001	5.99472E-003	0.00000E+000	4.49594E-003	3.59960E-001	-1.17121E+000	3.57630E+000	10	...........
	14	0.2	7.56890E-001	5.99234E-003	0.00000E+000	4.53555E-003	3.59960E-001	-1.17276E+000	3.57630E+000	10	...........
	15	0.213333	7.63729E-001	5.99060E-003	0.00000E+000	4.57520E-003	3.59960E-001	-1.16472E+000	3.57630E+000	10	...........
	16	0.226667	7.70595E-001	5.99420E-003	0.00000E+000	4.61910E-003	3.59960E-001	-1.17109E+000	3.57630E+000	10	...........
	17	0.24	7.77369E-001	5.98989E-003	0.00000E+000	4.65636E-003	3.59960E-001	-1.17237E+000	3.57630E+000	10	...........
	18	0.253333	7.84115E-001	5.99172E-003	0.00000E+000	4.69820E-003	3.59960E-001	-1.16443E+000	3.57630E+000	10	...........
	19	0.266667	7.90843E-001	5.99642E-003	0.00000E+000	4.74223E-003	3.59960E-001	-1.17068E+000	3.57630E+000	10	...........
	20	0.28	7.97618E-001	5.99660E-003	0.00000E+000	4.78299E-003	3.59960E-001	-1.17222E+000	3.57630E+000	10	...........
	21	0.293333	8.04270E-001	5.99261E-003	0.00000E+000	4.81968E-003	3.59960E-001	-1.16444E+000	3.57630E+000	10	...........
	22	0.306667	8.10958E-001	5.99482E-003	0.00000E+000	4.86155E-003	3.59960E-001	-1.17060E+000	3.57630E+000	10	...........
	23	0.32	8.17612E-001	5.99346E-003	0.00000E+000	4.90032E-003	3.59960E-001	-1.17204E+000	3.57630E+000	10	...........
	24	0.333333	8.24255E-001	5.99047E-003	0.00000E+000	4.93768E-003	3.59960E-001	-1.16422E+000	3.57630E+000	10	...........
	25	0.346667	8.30854E-001	5.99163E-003	0.00000E+000	4.97817E-003	3.59960E-001	-1.17072E+000	3.57630E+000	10	...........
	26	0.36	8.37414E-001	5.98910E-003	0.00000E+000	5.01535E-003	3.59960E-001	-1.17213E+000	3.57630E+000	10	...........
	27	0.373333	8.43994E-001	5.99362E-003	0.00000E+000	5.05858E-003	3.59960E-001	-1.16422E+000	3.57647E+000	10	...........
	28	0.386667	8.50510E-001	5.99576E-003	0.00000E+000	5.09946E-003	3.59960E-001	-1.17031E+000	3.57650E+000	10	...........
	29	0.4	8.57007E-001	5.99857E-003	0.00000E+000	5.14082E-003	3.59960E-001	-1.17185E+000	3.57650E+000	10	...........
	30	0.413333	8.63474E-001	5.99336E-003	0.00000E+000	5.17511E-003	3.59960E-001	-1.16397E+000	3.57650E+000	10	...........
	31	0.426667	8.69955E-001	5.99221E-003	0.00000E+000	5.21295E-003	3.59960E-001	-1.17053E+000	3.57650E+000	10	...........
	32	0.44	8.76407E-001	6.00048E-003	0.00000E+000	5.25886E-003	3.59960E-001	-1.17167E+000	3.57650E+000	10	...........
	33	0.453333	8.82811E-001	5.99183E-003	0.00000E+000	5.28965E-003	3.59960E-001	-1.16380E+000	3.57650E+000	10	...........
	34	0.466667	8.89145E-001	5.98821E-003	0.00000E+000	5.32439E-003	3.59960E-001	-1.17035E+000	3.57650E+000	10	...........
	35	0.48	8.95499E-001	5.99746E-003	0.00000E+000	5.37072E-003	3.59960E-001	-1.17189E+000	3.57650E+000	10	...........
	36	0.493333	9.01798E-001	5.98888E-003	0.00000E+000	5.40076E-003	3.59960E-001	-1.16390E+000	3.57650E+000	10	...........
	37	0.506667	9.08028E-001	5.99559E-003	0.00000E+000	5.44416E-003	3.59960E-001	-1.17037E+000	3.57650E+000	10	...........
	38	0.52	9.14250E-001	5.99221E-003	0.00000E+000	5.47837E-003	3.59960E-001	-1.17173E+000	3.57650E+000	10	...........
	39	0.533333	9.20456E-001	5.99221E-003	0.00000E+000	5.51556E-003	3.59960E-001	-1.16408E+000	3.57650E+000	10	...........
	40	0.546667	9.26603E-001	5.99218E-003	0.00000E+000	5.55238E-003	3.59960E-001	-1.17054E+000	3.57650E+000	10	...........
	41	0.56	9.32684E-001	5.99505E-003	0.00000E+000	5.59149E-003	3.59960E-001	-1.17182E+000	3.57650E+000	10	...........
	42	0.573333	9.38736E-001	5.99445E-003	0.00000E+000	5.62721E-003	3.59960E-001	-1.16381E+000	3.57650E+000	10	...........
	43	0.586667	9.44723E-001	5.99041E-003	0.00000E+000	5.65928E-003	3.59960E-001	-1.16983E+000	3.57650E+000	10	...........
	44	0.6	9.50677E-001	5.98933E-003	0.00000E+000	5.69392E-003	3.59960E-001	-1.17129E+000	3.57650E+000	10	...........
	45	0.613333	9.56579E-001	5.99667E-003	0.00000E+000	5.73629E-003	3.59960E-001	-1.16360E+000	3.57650E+000	10	...........
	46	0.626667	9.62400E-001	5.99409E-003	0.00000E+000	5.76872E-003	3.59960E-001	-1.17011E+000	3.57650E+000	10	...........
	47	0.64	9.68246E-001	5.99247E-003	0.00000E+000	5.80218E-003	3.59960E-001	-1.17116E+000	3.57650E+000	10	...........
	48	0.653333	9.73984E-001	5.99597E-003	0.00000E+000	5.83998E-003	3.59960E-001	-1.16346E+000	3.57650E+000	10	...........
	49	0.666667	9.79729E-001	5.99487E-003	0.00000E+000	5.87334E-003	3.59960E-001	-1.16993E+000	3.57650E+000	10	...........
	50	0.68	9.85391E-001	5.98816E-003	0.00000E+000	5.90068E-003	3.59960E-001	-1.17136E+000	3.57650E+000	10	...........
	51	0.693333	9.91006E-001	6.00076E-003	0.00000E+000	5.94679E-003	3.59960E-001	-1.16344E+000	3.57650E+000	10	...........
	52	0.706667	9.96548E-001	5.99208E-003	0.00000E+000	5.97139E-003	3.59960E-001	-1.16981E+000	3.57650E+000	10	...........
	53	0.71	9.99979E-001	5.99884E-003	0.00000E+000	5.99871E-003	3.59960E-001	-1.15483E+000	3.57650E+000	10	...........
STARTTIMEOFFSET	QUANT	1405.191	Start Time Offset (s)