File: Data/CV_CRGO300517_1/PWRCCD_CRGO300517_1/CHARGE_DISCHARGE/CHARGE_#909.DTA
EXPLAIN
TAG	PWR800_CHARGE
TITLE	LABEL	PWR Cyclic Charge Discharge (Cell) - Charge Step	Test &Identifier
DATE	LABEL	22-6-2017	Date
TIME	LABEL	16:11:19	Time
NOTES	NOTES	3	&Notes...
	supercap test cell
	0.6mg
	6M KOH
PSTAT	PSTAT	IFC5000-01520	Potentiostat
CAPACITY	QUANT	1.00000E-003	Capacity (A-hr)
CELLTYPE	SELECTOR	1	&Cell Type
WORKINGCONNECTION	SELECTOR	0	&Working Lead
MAXCHARGETIME	VARIABLEANDUNITS	1.00000E+002	s	1.00000E+002	second(s)	Max &Charge Time
CHARGECURRENT	QUANT	6.00000E-003	&Charge Current (A)
VOLTAGEFINISH	TWOPARAM	F	1.00000E-003	3.60000E+003	&Voltage Finish	 I (A) < 	Max Time(s)
SAMPLETIME	QUANT	1.00000E-002	Sa&mple Period (s)
CHARGESTOPAT1	MULTIPARAM	4	1.00000E+000	Charge Stop At &1	Voltage > Limit	V
CHARGESTOPAT2	MULTIPARAM	0	0.00000E+000	Charge Stop At &2	None	N/A
AESBHCSELECTOR	TOGGLE	F	Save Both Half Cells
IRCOMP	TOGGLE	F	IR &Measure
EOC	QUANT	0	Open Circuit (V)
SEQUENCER	TOGGLE	TRUE	Run as Sequence
PSTATMODEL	IQUANT	53	Pstat Model
PSTATSECTION	LABEL	IFC5000-01520	Pstat Section
PSTATSERIALNO	LABEL	01520	Pstat Serial Number
CTRLMODE	IQUANT	0	Control Mode
ELECTROMETER	IQUANT	1	RE=0 or CS=1
IESTAB	IQUANT	0	I/E Stability
CASPEED	IQUANT	4	Control Amp Speed
CONVENTION	IQUANT	1	Current Convention
ICHRANGE	IQUANT	2	Ich Range
ICHRANGEMODE	TOGGLE	T	Ich Auto Range
ICHOFFSETENABLE	TOGGLE	F	Ich Offset Enable
ICHOFFSET	QUANT	0	Ich Offset (V)
ICHFILTER	IQUANT	1	Ich Filter
VCHRANGE	IQUANT	2	Vch Range
VCHRANGEMODE	TOGGLE	T	Vch Auto Range
VCHOFFSETENABLE	TOGGLE	F	Vch Offset Enable
VCHOFFSET	QUANT	0	Vch Offset (V)
VCHFILTER	IQUANT	1	Vch Filter
IERANGELOWERLIMIT	IQUANT	9	I/E Range Lower Limit
IERANGEMODE	TOGGLE	F	I/E AutoRange
IERANGE	IQUANT	10	I/E Range
ACHSELECT	IQUANT	1	Ach Select
ACHRANGE	IQUANT	2	Ach Range
ACHOFFSETENABLE	TOGGLE	F	Ach Offset Enable
ACHOFFSET	QUANT	0	Ach Offset (V)
ACHFILTER	IQUANT	1	Ach Filter
CABLEID	IQUANT	14	Cable ID
DCCALDATE	LABEL	20-10-2016	DC Calibration Date
ACCALDATE	LABEL	12/3/2015	AC Calibration Date
FRAMEWORKVERSION	QUANT	7.01	Framework Version
INSTRUMENTVERSION	LABEL	4.00	Instrument Version
CURVE	TABLE	53
	Pt	T	Vf	Im	Vu	Pwr	Sig	Ach	Temp	IERange	Over
	#	s	V	A	V	W	V	V	deg C	#	bits
	0	0.013333	6.54157E-001	5.99165E-003	0.00000E+000	3.91948E-003	3.59960E-001	-1.17631E+000	3.57700E+000	10	...........
	1	0.026667	6.63427E-001	5.99243E-003	0.00000E+000	3.97554E-003	3.59960E-001	-1.16650E+000	3.57700E+000	10	...........
	2	0.04	6.71985E-001	5.99871E-003	0.00000E+000	4.03105E-003	3.59960E-001	-1.16509E+000	3.57700E+000	10	...........
	3	0.053333	6.80031E-001	5.99402E-003	0.00000E+000	4.07612E-003	3.59960E-001	-1.17622E+000	3.57700E+000	10	...........
	4	0.066667	6.87842E-001	5.99477E-003	0.00000E+000	4.12346E-003	3.59960E-001	-1.16618E+000	3.57700E+000	10	...........
	5	0.08	6.95438E-001	5.99351E-003	0.00000E+000	4.16811E-003	3.59960E-001	-1.16498E+000	3.57700E+000	10	...........
	6	0.093333	7.02900E-001	5.99636E-003	0.00000E+000	4.21484E-003	3.59960E-001	-1.17635E+000	3.57700E+000	10	...........
	7	0.106667	7.10222E-001	5.99396E-003	0.00000E+000	4.25704E-003	3.59960E-001	-1.16651E+000	3.57700E+000	10	...........
	8	0.12	7.17491E-001	5.99324E-003	0.00000E+000	4.30009E-003	3.59960E-001	-1.16523E+000	3.57700E+000	10	...........
	9	0.133333	7.24653E-001	5.99410E-003	0.00000E+000	4.34365E-003	3.59960E-001	-1.17632E+000	3.57700E+000	10	...........
	10	0.146667	7.31727E-001	5.99353E-003	0.00000E+000	4.38563E-003	3.59960E-001	-1.16655E+000	3.57700E+000	10	...........
	11	0.16	7.38775E-001	5.99005E-003	0.00000E+000	4.42530E-003	3.59960E-001	-1.16528E+000	3.57700E+000	10	...........
	12	0.173333	7.45750E-001	5.99068E-003	0.00000E+000	4.46755E-003	3.59960E-001	-1.17653E+000	3.57700E+000	10	...........
	13	0.186667	7.52694E-001	5.99033E-003	0.00000E+000	4.50888E-003	3.59960E-001	-1.16667E+000	3.57700E+000	10	...........
	14	0.2	7.59644E-001	5.99193E-003	0.00000E+000	4.55174E-003	3.59960E-001	-1.16512E+000	3.57700E+000	10	...........
	15	0.213333	7.66490E-001	5.99256E-003	0.00000E+000	4.59324E-003	3.59960E-001	-1.17599E+000	3.57700E+000	10	...........
	16	0.226667	7.73380E-001	5.99593E-003	0.00000E+000	4.63713E-003	3.59960E-001	-1.16634E+000	3.57700E+000	10	...........
	17	0.24	7.80226E-001	5.99191E-003	0.00000E+000	4.67505E-003	3.59960E-001	-1.16502E+000	3.57700E+000	10	...........
	18	0.253333	7.87005E-001	5.99250E-003	0.00000E+000	4.71613E-003	3.59960E-001	-1.17624E+000	3.57700E+000	10	...........
	19	0.266667	7.93760E-001	5.99043E-003	0.00000E+000	4.75497E-003	3.59960E-001	-1.16611E+000	3.57700E+000	10	...........
	20	0.28	8.00544E-001	5.99664E-003	0.00000E+000	4.80057E-003	3.59960E-001	-1.16479E+000	3.57700E+000	10	...........
	21	0.293333	8.07241E-001	6.00183E-003	0.00000E+000	4.84493E-003	3.59960E-001	-1.17609E+000	3.57700E+000	10	...........
	22	0.306667	8.13923E-001	5.99013E-003	0.00000E+000	4.87550E-003	3.59960E-001	-1.16633E+000	3.57700E+000	10	...........
	23	0.32	8.20589E-001	5.99744E-003	0.00000E+000	4.92143E-003	3.59960E-001	-1.16502E+000	3.57700E+000	10	...........
	24	0.333333	8.27233E-001	5.99639E-003	0.00000E+000	4.96041E-003	3.59960E-001	-1.17602E+000	3.57700E+000	10	...........
	25	0.346667	8.33810E-001	5.99158E-003	0.00000E+000	4.99584E-003	3.59960E-001	-1.16635E+000	3.57700E+000	10	...........
	26	0.36	8.40381E-001	5.99391E-003	0.00000E+000	5.03717E-003	3.59960E-001	-1.16481E+000	3.57700E+000	10	...........
	27	0.373333	8.46931E-001	5.99467E-003	0.00000E+000	5.07707E-003	3.59960E-001	-1.17620E+000	3.57700E+000	10	...........
	28	0.386667	8.53470E-001	5.99228E-003	0.00000E+000	5.11423E-003	3.59960E-001	-1.16633E+000	3.57700E+000	10	...........
	29	0.4	8.59990E-001	5.99489E-003	0.00000E+000	5.15554E-003	3.59960E-001	-1.16488E+000	3.57700E+000	10	...........
	30	0.413333	8.66457E-001	5.99745E-003	0.00000E+000	5.19654E-003	3.59960E-001	-1.17617E+000	3.57700E+000	10	...........
	31	0.426667	8.72893E-001	5.99659E-003	0.00000E+000	5.23438E-003	3.59960E-001	-1.16686E+000	3.57700E+000	10	...........
	32	0.44	8.79337E-001	5.99328E-003	0.00000E+000	5.27011E-003	3.59960E-001	-1.16521E+000	3.57700E+000	10	...........
	33	0.453333	8.85732E-001	5.99469E-003	0.00000E+000	5.30969E-003	3.59960E-001	-1.17656E+000	3.57700E+000	10	...........
	34	0.466667	8.92050E-001	5.99410E-003	0.00000E+000	5.34704E-003	3.59960E-001	-1.16665E+000	3.57700E+000	10	...........
	35	0.48	8.98376E-001	5.99622E-003	0.00000E+000	5.38686E-003	3.59960E-001	-1.16520E+000	3.57700E+000	10	...........
	36	0.493333	9.04626E-001	5.99520E-003	0.00000E+000	5.42341E-003	3.59960E-001	-1.17648E+000	3.57700E+000	10	...........
	37	0.506667	9.10869E-001	5.99014E-003	0.00000E+000	5.45623E-003	3.59960E-001	-1.16674E+000	3.57700E+000	10	...........
	38	0.52	9.17050E-001	5.99075E-003	0.00000E+000	5.49381E-003	3.59960E-001	-1.16518E+000	3.57700E+000	10	...........
	39	0.533333	9.23284E-001	5.99117E-003	0.00000E+000	5.53156E-003	3.59960E-001	-1.17590E+000	3.57700E+000	10	...........
	40	0.546667	9.29400E-001	5.99349E-003	0.00000E+000	5.57035E-003	3.59960E-001	-1.16641E+000	3.57700E+000	10	...........
	41	0.56	9.35441E-001	5.99087E-003	0.00000E+000	5.60411E-003	3.59960E-001	-1.16502E+000	3.57700E+000	10	...........
	42	0.573333	9.41460E-001	5.99199E-003	0.00000E+000	5.64122E-003	3.59960E-001	-1.17617E+000	3.57700E+000	10	...........
	43	0.586667	9.47493E-001	5.99256E-003	0.00000E+000	5.67791E-003	3.59960E-001	-1.16659E+000	3.57700E+000	10	...........
	44	0.6	9.53438E-001	5.99407E-003	0.00000E+000	5.71498E-003	3.59960E-001	-1.16499E+000	3.57700E+000	10	...........
	45	0.613333	9.59291E-001	5.99064E-003	0.00000E+000	5.74677E-003	3.59960E-001	-1.17610E+000	3.57700E+000	10	...........
	46	0.626667	9.65152E-001	5.98945E-003	0.00000E+000	5.78073E-003	3.59960E-001	-1.16655E+000	3.57700E+000	10	...........
	47	0.64	9.70963E-001	5.99687E-003	0.00000E+000	5.82274E-003	3.59960E-001	-1.16509E+000	3.57700E+000	10	...........
	48	0.653333	9.76737E-001	5.99616E-003	0.00000E+000	5.85667E-003	3.59960E-001	-1.17639E+000	3.57700E+000	10	...........
	49	0.666667	9.82430E-001	5.99397E-003	0.00000E+000	5.88865E-003	3.59960E-001	-1.16664E+000	3.57700E+000	10	...........
	50	0.68	9.88091E-001	5.98825E-003	0.00000E+000	5.91694E-003	3.59960E-001	-1.16511E+000	3.57700E+000	10	...........
	51	0.693333	9.93689E-001	5.99726E-003	0.00000E+000	5.95942E-003	3.59960E-001	-1.17632E+000	3.57700E+000	10	...........
	52	0.703333	9.98513E-001	5.99404E-003	0.00000E+000	5.98513E-003	3.59960E-001	-1.16250E+000	3.57700E+000	10	...........
STARTTIMEOFFSET	QUANT	1458.691	Start Time Offset (s)