File: Data/CV_CRGO300517_1/PWRCCD_CRGO300517_1/CHARGE_DISCHARGE/CHARGE_#457.DTA
EXPLAIN
TAG	PWR800_CHARGE
TITLE	LABEL	PWR Cyclic Charge Discharge (Cell) - Charge Step	Test &Identifier
DATE	LABEL	22-6-2017	Date
TIME	LABEL	15:54:14	Time
NOTES	NOTES	3	&Notes...
	supercap test cell
	0.6mg
	6M KOH
PSTAT	PSTAT	IFC5000-01520	Potentiostat
CAPACITY	QUANT	1.00000E-003	Capacity (A-hr)
CELLTYPE	SELECTOR	1	&Cell Type
WORKINGCONNECTION	SELECTOR	0	&Working Lead
MAXCHARGETIME	VARIABLEANDUNITS	1.00000E+002	s	1.00000E+002	second(s)	Max &Charge Time
CHARGECURRENT	QUANT	6.00000E-003	&Charge Current (A)
VOLTAGEFINISH	TWOPARAM	F	1.00000E-003	3.60000E+003	&Voltage Finish	 I (A) < 	Max Time(s)
SAMPLETIME	QUANT	1.00000E-002	Sa&mple Period (s)
CHARGESTOPAT1	MULTIPARAM	4	1.00000E+000	Charge Stop At &1	Voltage > Limit	V
CHARGESTOPAT2	MULTIPARAM	0	0.00000E+000	Charge Stop At &2	None	N/A
AESBHCSELECTOR	TOGGLE	F	Save Both Half Cells
IRCOMP	TOGGLE	F	IR &Measure
EOC	QUANT	0	Open Circuit (V)
SEQUENCER	TOGGLE	TRUE	Run as Sequence
PSTATMODEL	IQUANT	53	Pstat Model
PSTATSECTION	LABEL	IFC5000-01520	Pstat Section
PSTATSERIALNO	LABEL	01520	Pstat Serial Number
CTRLMODE	IQUANT	0	Control Mode
ELECTROMETER	IQUANT	1	RE=0 or CS=1
IESTAB	IQUANT	0	I/E Stability
CASPEED	IQUANT	4	Control Amp Speed
CONVENTION	IQUANT	1	Current Convention
ICHRANGE	IQUANT	2	Ich Range
ICHRANGEMODE	TOGGLE	T	Ich Auto Range
ICHOFFSETENABLE	TOGGLE	F	Ich Offset Enable
ICHOFFSET	QUANT	0	Ich Offset (V)
ICHFILTER	IQUANT	1	Ich Filter
VCHRANGE	IQUANT	2	Vch Range
VCHRANGEMODE	TOGGLE	T	Vch Auto Range
VCHOFFSETENABLE	TOGGLE	F	Vch Offset Enable
VCHOFFSET	QUANT	0	Vch Offset (V)
VCHFILTER	IQUANT	1	Vch Filter
IERANGELOWERLIMIT	IQUANT	9	I/E Range Lower Limit
IERANGEMODE	TOGGLE	F	I/E AutoRange
IERANGE	IQUANT	10	I/E Range
ACHSELECT	IQUANT	1	Ach Select
ACHRANGE	IQUANT	2	Ach Range
ACHOFFSETENABLE	TOGGLE	F	Ach Offset Enable
ACHOFFSET	QUANT	0	Ach Offset (V)
ACHFILTER	IQUANT	1	Ach Filter
CABLEID	IQUANT	14	Cable ID
DCCALDATE	LABEL	20-10-2016	DC Calibration Date
ACCALDATE	LABEL	12/3/2015	AC Calibration Date
FRAMEWORKVERSION	QUANT	7.01	Framework Version
INSTRUMENTVERSION	LABEL	4.00	Instrument Version
CURVE	TABLE	59
	Pt	T	Vf	Im	Vu	Pwr	Sig	Ach	Temp	IERange	Over
	#	s	V	A	V	W	V	V	deg C	#	bits
	0	0.013333	6.28778E-001	5.98947E-003	0.00000E+000	3.76605E-003	3.59960E-001	-1.13376E+000	3.57670E+000	10	...........
	1	0.026667	6.37653E-001	5.99283E-003	0.00000E+000	3.82134E-003	3.59960E-001	-1.13263E+000	3.57670E+000	10	...........
	2	0.04	6.45766E-001	5.99263E-003	0.00000E+000	3.86984E-003	3.59960E-001	-1.12584E+000	3.57670E+000	10	...........
	3	0.053333	6.53472E-001	5.99369E-003	0.00000E+000	3.91671E-003	3.59960E-001	-1.13366E+000	3.57670E+000	10	...........
	4	0.066667	6.60882E-001	5.99446E-003	0.00000E+000	3.96163E-003	3.59960E-001	-1.13281E+000	3.57670E+000	10	...........
	5	0.08	6.68130E-001	5.99667E-003	0.00000E+000	4.00656E-003	3.59960E-001	-1.12605E+000	3.57670E+000	10	...........
	6	0.093333	6.75188E-001	6.00092E-003	0.00000E+000	4.05174E-003	3.59960E-001	-1.13377E+000	3.57670E+000	10	...........
	7	0.106667	6.82134E-001	5.99519E-003	0.00000E+000	4.08952E-003	3.59960E-001	-1.13244E+000	3.57670E+000	10	...........
	8	0.12	6.89020E-001	5.99400E-003	0.00000E+000	4.12999E-003	3.59960E-001	-1.12568E+000	3.57670E+000	10	...........
	9	0.133333	6.95785E-001	5.99375E-003	0.00000E+000	4.17036E-003	3.59960E-001	-1.13367E+000	3.57670E+000	10	...........
	10	0.146667	7.02544E-001	5.99277E-003	0.00000E+000	4.21018E-003	3.59960E-001	-1.13253E+000	3.57670E+000	10	...........
	11	0.16	7.09218E-001	5.99222E-003	0.00000E+000	4.24979E-003	3.59960E-001	-1.12575E+000	3.57670E+000	10	...........
	12	0.173333	7.15886E-001	5.99500E-003	0.00000E+000	4.29174E-003	3.59960E-001	-1.13347E+000	3.57670E+000	10	...........
	13	0.186667	7.22526E-001	5.99511E-003	0.00000E+000	4.33162E-003	3.59960E-001	-1.13262E+000	3.57670E+000	10	...........
	14	0.2	7.29095E-001	5.99315E-003	0.00000E+000	4.36957E-003	3.59960E-001	-1.12617E+000	3.57670E+000	10	...........
	15	0.213333	7.35624E-001	5.99430E-003	0.00000E+000	4.40955E-003	3.59960E-001	-1.13395E+000	3.57670E+000	10	...........
	16	0.226667	7.42216E-001	5.99633E-003	0.00000E+000	4.45057E-003	3.59960E-001	-1.13271E+000	3.57670E+000	10	...........
	17	0.24	7.48700E-001	5.99845E-003	0.00000E+000	4.49104E-003	3.59960E-001	-1.12610E+000	3.57670E+000	10	...........
	18	0.253333	7.55205E-001	5.99182E-003	0.00000E+000	4.52505E-003	3.59960E-001	-1.13395E+000	3.57670E+000	10	...........
	19	0.266667	7.61682E-001	5.99301E-003	0.00000E+000	4.56477E-003	3.59960E-001	-1.13293E+000	3.57670E+000	10	...........
	20	0.28	7.68139E-001	5.99612E-003	0.00000E+000	4.60585E-003	3.59960E-001	-1.12588E+000	3.57670E+000	10	...........
	21	0.293333	7.74572E-001	5.99125E-003	0.00000E+000	4.64065E-003	3.59960E-001	-1.13403E+000	3.57670E+000	10	...........
	22	0.306667	7.81009E-001	5.99246E-003	0.00000E+000	4.68016E-003	3.59960E-001	-1.13283E+000	3.57670E+000	10	...........
	23	0.32	7.87417E-001	6.00005E-003	0.00000E+000	4.72454E-003	3.59960E-001	-1.12635E+000	3.57670E+000	10	...........
	24	0.333333	7.93838E-001	5.99737E-003	0.00000E+000	4.76094E-003	3.59960E-001	-1.13434E+000	3.57670E+000	10	...........
	25	0.346667	8.00194E-001	5.99249E-003	0.00000E+000	4.79515E-003	3.59960E-001	-1.13322E+000	3.57670E+000	10	...........
	26	0.36	8.06589E-001	5.99459E-003	0.00000E+000	4.83517E-003	3.59960E-001	-1.12641E+000	3.57670E+000	10	...........
	27	0.373333	8.12954E-001	5.99563E-003	0.00000E+000	4.87417E-003	3.59960E-001	-1.13432E+000	3.57670E+000	10	...........
	28	0.386667	8.19303E-001	5.99489E-003	0.00000E+000	4.91163E-003	3.59960E-001	-1.13342E+000	3.57670E+000	10	...........
	29	0.4	8.25635E-001	5.99518E-003	0.00000E+000	4.94983E-003	3.59960E-001	-1.12675E+000	3.57670E+000	10	...........
	30	0.413333	8.31956E-001	5.99294E-003	0.00000E+000	4.98586E-003	3.59960E-001	-1.13427E+000	3.57670E+000	10	...........
	31	0.426667	8.38262E-001	5.99292E-003	0.00000E+000	5.02363E-003	3.59960E-001	-1.13310E+000	3.57670E+000	10	...........
	32	0.44	8.44553E-001	5.99378E-003	0.00000E+000	5.06206E-003	3.59960E-001	-1.12645E+000	3.57670E+000	10	...........
	33	0.453333	8.50800E-001	5.99175E-003	0.00000E+000	5.09778E-003	3.59960E-001	-1.13421E+000	3.57670E+000	10	...........
	34	0.466667	8.57046E-001	5.99478E-003	0.00000E+000	5.13780E-003	3.59960E-001	-1.13339E+000	3.57670E+000	10	...........
	35	0.48	8.63311E-001	5.99273E-003	0.00000E+000	5.17359E-003	3.59960E-001	-1.12662E+000	3.57670E+000	10	...........
	36	0.493333	8.69548E-001	5.98707E-003	0.00000E+000	5.20605E-003	3.59960E-001	-1.13443E+000	3.57670E+000	10	...........
	37	0.506667	8.75774E-001	5.99537E-003	0.00000E+000	5.25059E-003	3.59960E-001	-1.13346E+000	3.57670E+000	10	...........
	38	0.52	8.81952E-001	5.99494E-003	0.00000E+000	5.28725E-003	3.59960E-001	-1.12690E+000	3.57670E+000	10	...........
	39	0.533333	8.88073E-001	5.99338E-003	0.00000E+000	5.32256E-003	3.59960E-001	-1.13461E+000	3.57670E+000	10	...........
	40	0.546667	8.94170E-001	5.99360E-003	0.00000E+000	5.35930E-003	3.59960E-001	-1.13360E+000	3.57670E+000	10	...........
	41	0.56	9.00305E-001	5.99254E-003	0.00000E+000	5.39511E-003	3.59960E-001	-1.12699E+000	3.57670E+000	10	...........
	42	0.573333	9.06382E-001	5.99265E-003	0.00000E+000	5.43163E-003	3.59960E-001	-1.13483E+000	3.57670E+000	10	...........
	43	0.586667	9.12463E-001	6.00186E-003	0.00000E+000	5.47648E-003	3.59960E-001	-1.13382E+000	3.57670E+000	10	...........
	44	0.6	9.18458E-001	5.99384E-003	0.00000E+000	5.50509E-003	3.59960E-001	-1.12722E+000	3.57670E+000	10	...........
	45	0.613333	9.24464E-001	5.99648E-003	0.00000E+000	5.54353E-003	3.59960E-001	-1.13472E+000	3.57670E+000	10	...........
	46	0.626667	9.30381E-001	5.99178E-003	0.00000E+000	5.57463E-003	3.59960E-001	-1.13393E+000	3.57670E+000	10	...........
	47	0.64	9.36274E-001	5.99425E-003	0.00000E+000	5.61226E-003	3.59960E-001	-1.12730E+000	3.57670E+000	10	...........
	48	0.653333	9.42153E-001	5.99079E-003	0.00000E+000	5.64424E-003	3.59960E-001	-1.13520E+000	3.57670E+000	10	...........
	49	0.666667	9.48003E-001	5.99530E-003	0.00000E+000	5.68357E-003	3.59960E-001	-1.13433E+000	3.57670E+000	10	...........
	50	0.68	9.53772E-001	5.99057E-003	0.00000E+000	5.71364E-003	3.59960E-001	-1.12748E+000	3.57670E+000	10	...........
	51	0.693333	9.59553E-001	5.99568E-003	0.00000E+000	5.75317E-003	3.59960E-001	-1.13539E+000	3.57670E+000	10	...........
	52	0.706667	9.65251E-001	5.99411E-003	0.00000E+000	5.78583E-003	3.59960E-001	-1.13425E+000	3.57670E+000	10	...........
	53	0.72	9.70947E-001	5.99792E-003	0.00000E+000	5.82366E-003	3.59960E-001	-1.12753E+000	3.57670E+000	10	...........
	54	0.733333	9.76625E-001	5.99470E-003	0.00000E+000	5.85457E-003	3.59960E-001	-1.13529E+000	3.57670E+000	10	...........
	55	0.746667	9.82209E-001	5.99296E-003	0.00000E+000	5.88633E-003	3.59960E-001	-1.13412E+000	3.57670E+000	10	...........
	56	0.76	9.87726E-001	5.99249E-003	0.00000E+000	5.91893E-003	3.59960E-001	-1.12732E+000	3.57670E+000	10	...........
	57	0.773333	9.93265E-001	5.99363E-003	0.00000E+000	5.95327E-003	3.59960E-001	-1.13521E+000	3.57670E+000	10	...........
	58	0.785	9.98425E-001	5.99684E-003	0.00000E+000	5.98740E-003	3.59960E-001	-1.13309E+000	3.57670E+000	10	...........
STARTTIMEOFFSET	QUANT	792.3784	Start Time Offset (s)