File: Data/CV_CRGO300517_1/PWRCCD_CRGO300517_1/CHARGE_DISCHARGE/CHARGE_#854.DTA
EXPLAIN
TAG	PWR800_CHARGE
TITLE	LABEL	PWR Cyclic Charge Discharge (Cell) - Charge Step	Test &Identifier
DATE	LABEL	22-6-2017	Date
TIME	LABEL	16:09:17	Time
NOTES	NOTES	3	&Notes...
	supercap test cell
	0.6mg
	6M KOH
PSTAT	PSTAT	IFC5000-01520	Potentiostat
CAPACITY	QUANT	1.00000E-003	Capacity (A-hr)
CELLTYPE	SELECTOR	1	&Cell Type
WORKINGCONNECTION	SELECTOR	0	&Working Lead
MAXCHARGETIME	VARIABLEANDUNITS	1.00000E+002	s	1.00000E+002	second(s)	Max &Charge Time
CHARGECURRENT	QUANT	6.00000E-003	&Charge Current (A)
VOLTAGEFINISH	TWOPARAM	F	1.00000E-003	3.60000E+003	&Voltage Finish	 I (A) < 	Max Time(s)
SAMPLETIME	QUANT	1.00000E-002	Sa&mple Period (s)
CHARGESTOPAT1	MULTIPARAM	4	1.00000E+000	Charge Stop At &1	Voltage > Limit	V
CHARGESTOPAT2	MULTIPARAM	0	0.00000E+000	Charge Stop At &2	None	N/A
AESBHCSELECTOR	TOGGLE	F	Save Both Half Cells
IRCOMP	TOGGLE	F	IR &Measure
EOC	QUANT	0	Open Circuit (V)
SEQUENCER	TOGGLE	TRUE	Run as Sequence
PSTATMODEL	IQUANT	53	Pstat Model
PSTATSECTION	LABEL	IFC5000-01520	Pstat Section
PSTATSERIALNO	LABEL	01520	Pstat Serial Number
CTRLMODE	IQUANT	0	Control Mode
ELECTROMETER	IQUANT	1	RE=0 or CS=1
IESTAB	IQUANT	0	I/E Stability
CASPEED	IQUANT	4	Control Amp Speed
CONVENTION	IQUANT	1	Current Convention
ICHRANGE	IQUANT	2	Ich Range
ICHRANGEMODE	TOGGLE	T	Ich Auto Range
ICHOFFSETENABLE	TOGGLE	F	Ich Offset Enable
ICHOFFSET	QUANT	0	Ich Offset (V)
ICHFILTER	IQUANT	1	Ich Filter
VCHRANGE	IQUANT	2	Vch Range
VCHRANGEMODE	TOGGLE	T	Vch Auto Range
VCHOFFSETENABLE	TOGGLE	F	Vch Offset Enable
VCHOFFSET	QUANT	0	Vch Offset (V)
VCHFILTER	IQUANT	1	Vch Filter
IERANGELOWERLIMIT	IQUANT	9	I/E Range Lower Limit
IERANGEMODE	TOGGLE	F	I/E AutoRange
IERANGE	IQUANT	10	I/E Range
ACHSELECT	IQUANT	1	Ach Select
ACHRANGE	IQUANT	2	Ach Range
ACHOFFSETENABLE	TOGGLE	F	Ach Offset Enable
ACHOFFSET	QUANT	0	Ach Offset (V)
ACHFILTER	IQUANT	1	Ach Filter
CABLEID	IQUANT	14	Cable ID
DCCALDATE	LABEL	20-10-2016	DC Calibration Date
ACCALDATE	LABEL	12/3/2015	AC Calibration Date
FRAMEWORKVERSION	QUANT	7.01	Framework Version
INSTRUMENTVERSION	LABEL	4.00	Instrument Version
CURVE	TABLE	54
	Pt	T	Vf	Im	Vu	Pwr	Sig	Ach	Temp	IERange	Over
	#	s	V	A	V	W	V	V	deg C	#	bits
	0	0.013333	6.51047E-001	5.99344E-003	0.00000E+000	3.90201E-003	3.59960E-001	-1.16335E+000	3.57660E+000	10	...........
	1	0.026667	6.60267E-001	5.99099E-003	0.00000E+000	3.95565E-003	3.59960E-001	-1.16733E+000	3.57660E+000	10	...........
	2	0.04	6.68755E-001	5.99201E-003	0.00000E+000	4.00719E-003	3.59960E-001	-1.17226E+000	3.57660E+000	10	...........
	3	0.053333	6.76826E-001	5.99378E-003	0.00000E+000	4.05675E-003	3.59960E-001	-1.16266E+000	3.57660E+000	10	...........
	4	0.066667	6.84567E-001	5.99307E-003	0.00000E+000	4.10266E-003	3.59960E-001	-1.16694E+000	3.57660E+000	10	...........
	5	0.08	6.92103E-001	5.99454E-003	0.00000E+000	4.14884E-003	3.59960E-001	-1.17213E+000	3.57660E+000	10	...........
	6	0.093333	6.99535E-001	5.99258E-003	0.00000E+000	4.19202E-003	3.59960E-001	-1.16290E+000	3.57660E+000	10	...........
	7	0.106667	7.06793E-001	5.99221E-003	0.00000E+000	4.23525E-003	3.59960E-001	-1.16688E+000	3.57660E+000	10	...........
	8	0.12	7.14036E-001	5.99615E-003	0.00000E+000	4.28146E-003	3.59960E-001	-1.17184E+000	3.57660E+000	10	...........
	9	0.133333	7.21213E-001	5.99647E-003	0.00000E+000	4.32474E-003	3.59960E-001	-1.16249E+000	3.57660E+000	10	...........
	10	0.146667	7.28284E-001	5.99305E-003	0.00000E+000	4.36464E-003	3.59960E-001	-1.16670E+000	3.57660E+000	10	...........
	11	0.16	7.35297E-001	5.99913E-003	0.00000E+000	4.41115E-003	3.59960E-001	-1.17193E+000	3.57660E+000	10	...........
	12	0.173333	7.42297E-001	5.99690E-003	0.00000E+000	4.45148E-003	3.59960E-001	-1.16261E+000	3.57660E+000	10	...........
	13	0.186667	7.49201E-001	5.99179E-003	0.00000E+000	4.48906E-003	3.59960E-001	-1.16653E+000	3.57660E+000	10	...........
	14	0.2	7.56078E-001	5.98841E-003	0.00000E+000	4.52770E-003	3.59960E-001	-1.17177E+000	3.57660E+000	10	...........
	15	0.213333	7.62930E-001	5.99283E-003	0.00000E+000	4.57211E-003	3.59960E-001	-1.16247E+000	3.57660E+000	10	...........
	16	0.226667	7.69754E-001	5.99468E-003	0.00000E+000	4.61443E-003	3.59960E-001	-1.16670E+000	3.57660E+000	10	...........
	17	0.24	7.76528E-001	5.99850E-003	0.00000E+000	4.65800E-003	3.59960E-001	-1.17181E+000	3.57660E+000	10	...........
	18	0.253333	7.83311E-001	5.99283E-003	0.00000E+000	4.69425E-003	3.59960E-001	-1.16239E+000	3.57660E+000	10	...........
	19	0.266667	7.90073E-001	5.98924E-003	0.00000E+000	4.73194E-003	3.59960E-001	-1.16650E+000	3.57660E+000	10	...........
	20	0.28	7.96816E-001	5.99171E-003	0.00000E+000	4.77429E-003	3.59960E-001	-1.17206E+000	3.57660E+000	10	...........
	21	0.293333	8.03505E-001	5.99369E-003	0.00000E+000	4.81596E-003	3.59960E-001	-1.16253E+000	3.57660E+000	10	...........
	22	0.306667	8.10148E-001	5.99916E-003	0.00000E+000	4.86021E-003	3.59960E-001	-1.16661E+000	3.57660E+000	10	...........
	23	0.32	8.16779E-001	5.99589E-003	0.00000E+000	4.89731E-003	3.59960E-001	-1.17168E+000	3.57660E+000	10	...........
	24	0.333333	8.23417E-001	5.99512E-003	0.00000E+000	4.93648E-003	3.59960E-001	-1.16226E+000	3.57660E+000	10	...........
	25	0.346667	8.30014E-001	5.99256E-003	0.00000E+000	4.97391E-003	3.59960E-001	-1.16625E+000	3.57660E+000	10	...........
	26	0.36	8.36591E-001	5.99243E-003	0.00000E+000	5.01321E-003	3.59960E-001	-1.17133E+000	3.57660E+000	10	...........
	27	0.373333	8.43133E-001	5.99366E-003	0.00000E+000	5.05345E-003	3.59960E-001	-1.16193E+000	3.57660E+000	10	...........
	28	0.386667	8.49653E-001	5.99205E-003	0.00000E+000	5.09117E-003	3.59960E-001	-1.16614E+000	3.57660E+000	10	...........
	29	0.4	8.56137E-001	5.99399E-003	0.00000E+000	5.13168E-003	3.59960E-001	-1.17130E+000	3.57660E+000	10	...........
	30	0.413333	8.62621E-001	5.99488E-003	0.00000E+000	5.17130E-003	3.59960E-001	-1.16196E+000	3.57660E+000	10	...........
	31	0.426667	8.69064E-001	5.99079E-003	0.00000E+000	5.20638E-003	3.59960E-001	-1.16635E+000	3.57660E+000	10	...........
	32	0.44	8.75502E-001	5.99566E-003	0.00000E+000	5.24921E-003	3.59960E-001	-1.17132E+000	3.57660E+000	10	...........
	33	0.453333	8.81900E-001	6.00011E-003	0.00000E+000	5.29150E-003	3.59960E-001	-1.16199E+000	3.57660E+000	10	...........
	34	0.466667	8.88218E-001	5.99200E-003	0.00000E+000	5.32220E-003	3.59960E-001	-1.16586E+000	3.57660E+000	10	...........
	35	0.48	8.94524E-001	5.99245E-003	0.00000E+000	5.36039E-003	3.59960E-001	-1.17108E+000	3.57660E+000	10	...........
	36	0.493333	9.00791E-001	5.99150E-003	0.00000E+000	5.39709E-003	3.59960E-001	-1.16190E+000	3.57660E+000	10	...........
	37	0.506667	9.07040E-001	5.99445E-003	0.00000E+000	5.43720E-003	3.59960E-001	-1.16604E+000	3.57660E+000	10	...........
	38	0.52	9.13306E-001	5.99216E-003	0.00000E+000	5.47268E-003	3.59960E-001	-1.17120E+000	3.57660E+000	10	...........
	39	0.533333	9.19497E-001	5.99441E-003	0.00000E+000	5.51184E-003	3.59960E-001	-1.16177E+000	3.57660E+000	10	...........
	40	0.546667	9.25660E-001	5.99895E-003	0.00000E+000	5.55299E-003	3.59960E-001	-1.16600E+000	3.57660E+000	10	...........
	41	0.56	9.31739E-001	5.99149E-003	0.00000E+000	5.58250E-003	3.59960E-001	-1.17143E+000	3.57660E+000	10	...........
	42	0.573333	9.37783E-001	5.99347E-003	0.00000E+000	5.62058E-003	3.59960E-001	-1.16193E+000	3.57660E+000	10	...........
	43	0.586667	9.43767E-001	5.99282E-003	0.00000E+000	5.65583E-003	3.59960E-001	-1.16609E+000	3.57660E+000	10	...........
	44	0.6	9.49750E-001	5.99654E-003	0.00000E+000	5.69522E-003	3.59960E-001	-1.17113E+000	3.57660E+000	10	...........
	45	0.613333	9.55656E-001	5.99325E-003	0.00000E+000	5.72749E-003	3.59960E-001	-1.16191E+000	3.57660E+000	10	...........
	46	0.626667	9.61525E-001	5.99471E-003	0.00000E+000	5.76406E-003	3.59960E-001	-1.16609E+000	3.57660E+000	10	...........
	47	0.64	9.67342E-001	5.99744E-003	0.00000E+000	5.80158E-003	3.59960E-001	-1.17139E+000	3.57660E+000	10	...........
	48	0.653333	9.73107E-001	5.99380E-003	0.00000E+000	5.83261E-003	3.59960E-001	-1.16183E+000	3.57660E+000	10	...........
	49	0.666667	9.78786E-001	5.99364E-003	0.00000E+000	5.86649E-003	3.59960E-001	-1.16578E+000	3.57660E+000	10	...........
	50	0.68	9.84424E-001	5.99502E-003	0.00000E+000	5.90165E-003	3.59960E-001	-1.17090E+000	3.57660E+000	10	...........
	51	0.693333	9.90057E-001	5.99644E-003	0.00000E+000	5.93682E-003	3.59960E-001	-1.16189E+000	3.57660E+000	10	...........
	52	0.706667	9.95644E-001	5.99559E-003	0.00000E+000	5.96947E-003	3.59960E-001	-1.16587E+000	3.57660E+000	10	...........
	53	0.711667	9.99457E-001	5.98993E-003	0.00000E+000	5.98667E-003	3.59960E-001	-1.16383E+000	3.57660E+000	10	...........
STARTTIMEOFFSET	QUANT	1381.121	Start Time Offset (s)