File: Data/CV_CRGO300517_1/PWRCCD_CRGO300517_1/CHARGE_DISCHARGE/CHARGE_#950.DTA
EXPLAIN
TAG	PWR800_CHARGE
TITLE	LABEL	PWR Cyclic Charge Discharge (Cell) - Charge Step	Test &Identifier
DATE	LABEL	22-6-2017	Date
TIME	LABEL	16:12:49	Time
NOTES	NOTES	3	&Notes...
	supercap test cell
	0.6mg
	6M KOH
PSTAT	PSTAT	IFC5000-01520	Potentiostat
CAPACITY	QUANT	1.00000E-003	Capacity (A-hr)
CELLTYPE	SELECTOR	1	&Cell Type
WORKINGCONNECTION	SELECTOR	0	&Working Lead
MAXCHARGETIME	VARIABLEANDUNITS	1.00000E+002	s	1.00000E+002	second(s)	Max &Charge Time
CHARGECURRENT	QUANT	6.00000E-003	&Charge Current (A)
VOLTAGEFINISH	TWOPARAM	F	1.00000E-003	3.60000E+003	&Voltage Finish	 I (A) < 	Max Time(s)
SAMPLETIME	QUANT	1.00000E-002	Sa&mple Period (s)
CHARGESTOPAT1	MULTIPARAM	4	1.00000E+000	Charge Stop At &1	Voltage > Limit	V
CHARGESTOPAT2	MULTIPARAM	0	0.00000E+000	Charge Stop At &2	None	N/A
AESBHCSELECTOR	TOGGLE	F	Save Both Half Cells
IRCOMP	TOGGLE	F	IR &Measure
EOC	QUANT	0	Open Circuit (V)
SEQUENCER	TOGGLE	TRUE	Run as Sequence
PSTATMODEL	IQUANT	53	Pstat Model
PSTATSECTION	LABEL	IFC5000-01520	Pstat Section
PSTATSERIALNO	LABEL	01520	Pstat Serial Number
CTRLMODE	IQUANT	0	Control Mode
ELECTROMETER	IQUANT	1	RE=0 or CS=1
IESTAB	IQUANT	0	I/E Stability
CASPEED	IQUANT	4	Control Amp Speed
CONVENTION	IQUANT	1	Current Convention
ICHRANGE	IQUANT	2	Ich Range
ICHRANGEMODE	TOGGLE	T	Ich Auto Range
ICHOFFSETENABLE	TOGGLE	F	Ich Offset Enable
ICHOFFSET	QUANT	0	Ich Offset (V)
ICHFILTER	IQUANT	1	Ich Filter
VCHRANGE	IQUANT	2	Vch Range
VCHRANGEMODE	TOGGLE	T	Vch Auto Range
VCHOFFSETENABLE	TOGGLE	F	Vch Offset Enable
VCHOFFSET	QUANT	0	Vch Offset (V)
VCHFILTER	IQUANT	1	Vch Filter
IERANGELOWERLIMIT	IQUANT	9	I/E Range Lower Limit
IERANGEMODE	TOGGLE	F	I/E AutoRange
IERANGE	IQUANT	10	I/E Range
ACHSELECT	IQUANT	1	Ach Select
ACHRANGE	IQUANT	2	Ach Range
ACHOFFSETENABLE	TOGGLE	F	Ach Offset Enable
ACHOFFSET	QUANT	0	Ach Offset (V)
ACHFILTER	IQUANT	1	Ach Filter
CABLEID	IQUANT	14	Cable ID
DCCALDATE	LABEL	20-10-2016	DC Calibration Date
ACCALDATE	LABEL	12/3/2015	AC Calibration Date
FRAMEWORKVERSION	QUANT	7.01	Framework Version
INSTRUMENTVERSION	LABEL	4.00	Instrument Version
CURVE	TABLE	53
	Pt	T	Vf	Im	Vu	Pwr	Sig	Ach	Temp	IERange	Over
	#	s	V	A	V	W	V	V	deg C	#	bits
	0	0.013333	6.55445E-001	5.99612E-003	0.00000E+000	3.93013E-003	3.59960E-001	-1.18322E+000	3.57780E+000	10	...........
	1	0.026667	6.64731E-001	5.99231E-003	0.00000E+000	3.98328E-003	3.59960E-001	-1.17599E+000	3.57780E+000	10	...........
	2	0.04	6.73336E-001	5.99314E-003	0.00000E+000	4.03540E-003	3.59960E-001	-1.17232E+000	3.57780E+000	10	...........
	3	0.053333	6.81404E-001	5.99282E-003	0.00000E+000	4.08353E-003	3.59960E-001	-1.18299E+000	3.57780E+000	10	...........
	4	0.066667	6.89262E-001	5.99004E-003	0.00000E+000	4.12870E-003	3.59960E-001	-1.17609E+000	3.57780E+000	10	...........
	5	0.08	6.96912E-001	5.99032E-003	0.00000E+000	4.17472E-003	3.59960E-001	-1.17181E+000	3.57780E+000	10	...........
	6	0.093333	7.04406E-001	5.99605E-003	0.00000E+000	4.22366E-003	3.59960E-001	-1.18270E+000	3.57780E+000	10	...........
	7	0.106667	7.11746E-001	5.98729E-003	0.00000E+000	4.26143E-003	3.59960E-001	-1.17553E+000	3.57780E+000	10	...........
	8	0.12	7.19075E-001	5.99466E-003	0.00000E+000	4.31061E-003	3.59960E-001	-1.17177E+000	3.57780E+000	10	...........
	9	0.133333	7.26268E-001	5.99101E-003	0.00000E+000	4.35107E-003	3.59960E-001	-1.18257E+000	3.57780E+000	10	...........
	10	0.146667	7.33388E-001	5.99234E-003	0.00000E+000	4.39471E-003	3.59960E-001	-1.17562E+000	3.57780E+000	10	...........
	11	0.16	7.40471E-001	5.99342E-003	0.00000E+000	4.43795E-003	3.59960E-001	-1.17154E+000	3.57780E+000	10	...........
	12	0.173333	7.47476E-001	5.99819E-003	0.00000E+000	4.48350E-003	3.59960E-001	-1.18232E+000	3.57780E+000	10	...........
	13	0.186667	7.54437E-001	5.99085E-003	0.00000E+000	4.51972E-003	3.59960E-001	-1.17557E+000	3.57780E+000	10	...........
	14	0.2	7.61392E-001	5.99442E-003	0.00000E+000	4.56410E-003	3.59960E-001	-1.17157E+000	3.57780E+000	10	...........
	15	0.213333	7.68303E-001	5.99139E-003	0.00000E+000	4.60321E-003	3.59960E-001	-1.18241E+000	3.57780E+000	10	...........
	16	0.226667	7.75180E-001	5.99458E-003	0.00000E+000	4.64688E-003	3.59960E-001	-1.17549E+000	3.57780E+000	10	...........
	17	0.24	7.82026E-001	5.99150E-003	0.00000E+000	4.68550E-003	3.59960E-001	-1.17124E+000	3.57780E+000	10	...........
	18	0.253333	7.88857E-001	5.99563E-003	0.00000E+000	4.72969E-003	3.59960E-001	-1.18221E+000	3.57780E+000	10	...........
	19	0.266667	7.95696E-001	5.99318E-003	0.00000E+000	4.76875E-003	3.59960E-001	-1.17549E+000	3.57780E+000	10	...........
	20	0.28	8.02425E-001	5.99125E-003	0.00000E+000	4.80752E-003	3.59960E-001	-1.17155E+000	3.57780E+000	10	...........
	21	0.293333	8.09127E-001	5.99704E-003	0.00000E+000	4.85236E-003	3.59960E-001	-1.18205E+000	3.57780E+000	10	...........
	22	0.306667	8.15832E-001	5.98846E-003	0.00000E+000	4.88558E-003	3.59960E-001	-1.17532E+000	3.57780E+000	10	...........
	23	0.32	8.22507E-001	5.99253E-003	0.00000E+000	4.92890E-003	3.59960E-001	-1.17150E+000	3.57780E+000	10	...........
	24	0.333333	8.29172E-001	5.98891E-003	0.00000E+000	4.96584E-003	3.59960E-001	-1.18223E+000	3.57780E+000	10	...........
	25	0.346667	8.35813E-001	5.99379E-003	0.00000E+000	5.00969E-003	3.59960E-001	-1.17561E+000	3.57780E+000	10	...........
	26	0.36	8.42394E-001	5.98945E-003	0.00000E+000	5.04548E-003	3.59960E-001	-1.17145E+000	3.57780E+000	10	...........
	27	0.373333	8.48997E-001	5.99217E-003	0.00000E+000	5.08734E-003	3.59960E-001	-1.18188E+000	3.57780E+000	10	...........
	28	0.386667	8.55527E-001	5.99260E-003	0.00000E+000	5.12683E-003	3.59960E-001	-1.17533E+000	3.57780E+000	10	...........
	29	0.4	8.62082E-001	5.99203E-003	0.00000E+000	5.16562E-003	3.59960E-001	-1.17106E+000	3.57780E+000	10	...........
	30	0.413333	8.68595E-001	5.99846E-003	0.00000E+000	5.21024E-003	3.59960E-001	-1.18168E+000	3.57780E+000	10	...........
	31	0.426667	8.75074E-001	5.99298E-003	0.00000E+000	5.24430E-003	3.59960E-001	-1.17513E+000	3.57780E+000	10	...........
	32	0.44	8.81510E-001	5.99685E-003	0.00000E+000	5.28628E-003	3.59960E-001	-1.17082E+000	3.57780E+000	10	...........
	33	0.453333	8.87934E-001	5.99159E-003	0.00000E+000	5.32014E-003	3.59960E-001	-1.18144E+000	3.57780E+000	10	...........
	34	0.466667	8.94276E-001	5.99341E-003	0.00000E+000	5.35976E-003	3.59960E-001	-1.17533E+000	3.57780E+000	10	...........
	35	0.48	9.00587E-001	5.99563E-003	0.00000E+000	5.39959E-003	3.59960E-001	-1.17098E+000	3.57780E+000	10	...........
	36	0.493333	9.06876E-001	5.99564E-003	0.00000E+000	5.43730E-003	3.59960E-001	-1.18122E+000	3.57780E+000	10	...........
	37	0.506667	9.13142E-001	5.99236E-003	0.00000E+000	5.47188E-003	3.59960E-001	-1.17493E+000	3.57780E+000	10	...........
	38	0.52	9.19353E-001	5.99262E-003	0.00000E+000	5.50934E-003	3.59960E-001	-1.17104E+000	3.57780E+000	10	...........
	39	0.533333	9.25564E-001	5.99773E-003	0.00000E+000	5.55129E-003	3.59960E-001	-1.18149E+000	3.57780E+000	10	...........
	40	0.546667	9.31664E-001	5.99153E-003	0.00000E+000	5.58209E-003	3.59960E-001	-1.17528E+000	3.57780E+000	10	...........
	41	0.56	9.37706E-001	5.99289E-003	0.00000E+000	5.61957E-003	3.59960E-001	-1.17070E+000	3.57780E+000	10	...........
	42	0.573333	9.43747E-001	5.99277E-003	0.00000E+000	5.65566E-003	3.59960E-001	-1.18101E+000	3.57780E+000	10	...........
	43	0.586667	9.49750E-001	5.99210E-003	0.00000E+000	5.69100E-003	3.59960E-001	-1.17522E+000	3.57780E+000	10	...........
	44	0.6	9.55706E-001	5.99797E-003	0.00000E+000	5.73230E-003	3.59960E-001	-1.17110E+000	3.57780E+000	10	...........
	45	0.613333	9.61545E-001	5.99370E-003	0.00000E+000	5.76321E-003	3.59960E-001	-1.18137E+000	3.57780E+000	10	...........
	46	0.626667	9.67387E-001	5.99425E-003	0.00000E+000	5.79876E-003	3.59960E-001	-1.17529E+000	3.57780E+000	10	...........
	47	0.64	9.73200E-001	5.98864E-003	0.00000E+000	5.82815E-003	3.59960E-001	-1.17098E+000	3.57780E+000	10	...........
	48	0.653333	9.78987E-001	5.99598E-003	0.00000E+000	5.86999E-003	3.59960E-001	-1.18125E+000	3.57780E+000	10	...........
	49	0.666667	9.84655E-001	5.99483E-003	0.00000E+000	5.90284E-003	3.59960E-001	-1.17559E+000	3.57780E+000	10	...........
	50	0.68	9.90259E-001	5.99234E-003	0.00000E+000	5.93397E-003	3.59960E-001	-1.17086E+000	3.57780E+000	10	...........
	51	0.693333	9.95830E-001	5.99434E-003	0.00000E+000	5.96935E-003	3.59960E-001	-1.18100E+000	3.57780E+000	10	...........
	52	0.698333	9.99600E-001	5.99118E-003	0.00000E+000	5.98878E-003	3.59960E-001	-1.16073E+000	3.57780E+000	10	...........
STARTTIMEOFFSET	QUANT	1515.971	Start Time Offset (s)