File: Data/CV_CRGO300517_1/PWRCCD_CRGO300517_1/CHARGE_DISCHARGE/CHARGE_#632.DTA
EXPLAIN
TAG	PWR800_CHARGE
TITLE	LABEL	PWR Cyclic Charge Discharge (Cell) - Charge Step	Test &Identifier
DATE	LABEL	22-6-2017	Date
TIME	LABEL	16:00:59	Time
NOTES	NOTES	3	&Notes...
	supercap test cell
	0.6mg
	6M KOH
PSTAT	PSTAT	IFC5000-01520	Potentiostat
CAPACITY	QUANT	1.00000E-003	Capacity (A-hr)
CELLTYPE	SELECTOR	1	&Cell Type
WORKINGCONNECTION	SELECTOR	0	&Working Lead
MAXCHARGETIME	VARIABLEANDUNITS	1.00000E+002	s	1.00000E+002	second(s)	Max &Charge Time
CHARGECURRENT	QUANT	6.00000E-003	&Charge Current (A)
VOLTAGEFINISH	TWOPARAM	F	1.00000E-003	3.60000E+003	&Voltage Finish	 I (A) < 	Max Time(s)
SAMPLETIME	QUANT	1.00000E-002	Sa&mple Period (s)
CHARGESTOPAT1	MULTIPARAM	4	1.00000E+000	Charge Stop At &1	Voltage > Limit	V
CHARGESTOPAT2	MULTIPARAM	0	0.00000E+000	Charge Stop At &2	None	N/A
AESBHCSELECTOR	TOGGLE	F	Save Both Half Cells
IRCOMP	TOGGLE	F	IR &Measure
EOC	QUANT	0	Open Circuit (V)
SEQUENCER	TOGGLE	TRUE	Run as Sequence
PSTATMODEL	IQUANT	53	Pstat Model
PSTATSECTION	LABEL	IFC5000-01520	Pstat Section
PSTATSERIALNO	LABEL	01520	Pstat Serial Number
CTRLMODE	IQUANT	0	Control Mode
ELECTROMETER	IQUANT	1	RE=0 or CS=1
IESTAB	IQUANT	0	I/E Stability
CASPEED	IQUANT	4	Control Amp Speed
CONVENTION	IQUANT	1	Current Convention
ICHRANGE	IQUANT	2	Ich Range
ICHRANGEMODE	TOGGLE	T	Ich Auto Range
ICHOFFSETENABLE	TOGGLE	F	Ich Offset Enable
ICHOFFSET	QUANT	0	Ich Offset (V)
ICHFILTER	IQUANT	1	Ich Filter
VCHRANGE	IQUANT	2	Vch Range
VCHRANGEMODE	TOGGLE	T	Vch Auto Range
VCHOFFSETENABLE	TOGGLE	F	Vch Offset Enable
VCHOFFSET	QUANT	0	Vch Offset (V)
VCHFILTER	IQUANT	1	Vch Filter
IERANGELOWERLIMIT	IQUANT	9	I/E Range Lower Limit
IERANGEMODE	TOGGLE	F	I/E AutoRange
IERANGE	IQUANT	10	I/E Range
ACHSELECT	IQUANT	1	Ach Select
ACHRANGE	IQUANT	2	Ach Range
ACHOFFSETENABLE	TOGGLE	F	Ach Offset Enable
ACHOFFSET	QUANT	0	Ach Offset (V)
ACHFILTER	IQUANT	1	Ach Filter
CABLEID	IQUANT	14	Cable ID
DCCALDATE	LABEL	20-10-2016	DC Calibration Date
ACCALDATE	LABEL	12/3/2015	AC Calibration Date
FRAMEWORKVERSION	QUANT	7.01	Framework Version
INSTRUMENTVERSION	LABEL	4.00	Instrument Version
CURVE	TABLE	57
	Pt	T	Vf	Im	Vu	Pwr	Sig	Ach	Temp	IERange	Over
	#	s	V	A	V	W	V	V	deg C	#	bits
	0	0.013333	6.39634E-001	5.99494E-003	0.00000E+000	3.83457E-003	3.59960E-001	-1.15010E+000	3.57660E+000	10	...........
	1	0.026667	6.48633E-001	5.99806E-003	0.00000E+000	3.89054E-003	3.59960E-001	-1.14829E+000	3.57660E+000	10	...........
	2	0.04	6.56891E-001	5.99323E-003	0.00000E+000	3.93690E-003	3.59960E-001	-1.14183E+000	3.57660E+000	10	...........
	3	0.053333	6.64760E-001	5.99192E-003	0.00000E+000	3.98319E-003	3.59960E-001	-1.14998E+000	3.57660E+000	10	...........
	4	0.066667	6.72359E-001	5.99284E-003	0.00000E+000	4.02934E-003	3.59960E-001	-1.14791E+000	3.57660E+000	10	...........
	5	0.08	6.79749E-001	5.99569E-003	0.00000E+000	4.07557E-003	3.59960E-001	-1.14203E+000	3.57660E+000	10	...........
	6	0.093333	6.86993E-001	5.99385E-003	0.00000E+000	4.11774E-003	3.59960E-001	-1.15000E+000	3.57660E+000	10	...........
	7	0.106667	6.94122E-001	5.99789E-003	0.00000E+000	4.16327E-003	3.59960E-001	-1.14777E+000	3.57660E+000	10	...........
	8	0.12	7.01146E-001	5.99051E-003	0.00000E+000	4.20022E-003	3.59960E-001	-1.14166E+000	3.57660E+000	10	...........
	9	0.133333	7.08079E-001	5.98890E-003	0.00000E+000	4.24061E-003	3.59960E-001	-1.14992E+000	3.57660E+000	10	...........
	10	0.146667	7.14985E-001	5.99361E-003	0.00000E+000	4.28534E-003	3.59960E-001	-1.14750E+000	3.57660E+000	10	...........
	11	0.16	7.21894E-001	5.99109E-003	0.00000E+000	4.32493E-003	3.59960E-001	-1.14175E+000	3.57660E+000	10	...........
	12	0.173333	7.28702E-001	5.99249E-003	0.00000E+000	4.36674E-003	3.59960E-001	-1.15015E+000	3.57660E+000	10	...........
	13	0.186667	7.35471E-001	5.99621E-003	0.00000E+000	4.41004E-003	3.59960E-001	-1.14762E+000	3.57660E+000	10	...........
	14	0.2	7.42229E-001	5.99001E-003	0.00000E+000	4.44595E-003	3.59960E-001	-1.14173E+000	3.57660E+000	10	...........
	15	0.213333	7.48941E-001	5.99462E-003	0.00000E+000	4.48961E-003	3.59960E-001	-1.15032E+000	3.57660E+000	10	...........
	16	0.226667	7.55617E-001	5.99272E-003	0.00000E+000	4.52820E-003	3.59960E-001	-1.14771E+000	3.57660E+000	10	...........
	17	0.24	7.62264E-001	5.99365E-003	0.00000E+000	4.56874E-003	3.59960E-001	-1.14173E+000	3.57660E+000	10	...........
	18	0.253333	7.68890E-001	5.99338E-003	0.00000E+000	4.60825E-003	3.59960E-001	-1.14982E+000	3.57660E+000	10	...........
	19	0.266667	7.75520E-001	5.99250E-003	0.00000E+000	4.64730E-003	3.59960E-001	-1.14704E+000	3.57660E+000	10	...........
	20	0.28	7.82128E-001	5.99431E-003	0.00000E+000	4.68832E-003	3.59960E-001	-1.14109E+000	3.57660E+000	10	...........
	21	0.293333	7.88692E-001	5.99634E-003	0.00000E+000	4.72926E-003	3.59960E-001	-1.14979E+000	3.57660E+000	10	...........
	22	0.306667	7.95282E-001	5.99919E-003	0.00000E+000	4.77105E-003	3.59960E-001	-1.14680E+000	3.57660E+000	10	...........
	23	0.32	8.01837E-001	5.99514E-003	0.00000E+000	4.80712E-003	3.59960E-001	-1.14085E+000	3.57660E+000	10	...........
	24	0.333333	8.08333E-001	5.99175E-003	0.00000E+000	4.84333E-003	3.59960E-001	-1.14972E+000	3.57660E+000	10	...........
	25	0.346667	8.14858E-001	5.99588E-003	0.00000E+000	4.88579E-003	3.59960E-001	-1.14661E+000	3.57660E+000	10	...........
	26	0.36	8.21367E-001	5.99641E-003	0.00000E+000	4.92525E-003	3.59960E-001	-1.14107E+000	3.57660E+000	10	...........
	27	0.373333	8.27822E-001	5.99140E-003	0.00000E+000	4.95981E-003	3.59960E-001	-1.14967E+000	3.57660E+000	10	...........
	28	0.386667	8.34234E-001	5.99203E-003	0.00000E+000	4.99875E-003	3.59960E-001	-1.14641E+000	3.57660E+000	10	...........
	29	0.4	8.40715E-001	5.99232E-003	0.00000E+000	5.03783E-003	3.59960E-001	-1.14064E+000	3.57660E+000	10	...........
	30	0.413333	8.47172E-001	5.99536E-003	0.00000E+000	5.07910E-003	3.59960E-001	-1.14968E+000	3.57660E+000	10	...........
	31	0.426667	8.53534E-001	5.99675E-003	0.00000E+000	5.11843E-003	3.59960E-001	-1.14642E+000	3.57660E+000	10	...........
	32	0.44	8.59892E-001	5.99481E-003	0.00000E+000	5.15489E-003	3.59960E-001	-1.14079E+000	3.57660E+000	10	...........
	33	0.453333	8.66196E-001	5.99456E-003	0.00000E+000	5.19247E-003	3.59960E-001	-1.14949E+000	3.57660E+000	10	...........
	34	0.466667	8.72527E-001	5.99244E-003	0.00000E+000	5.22856E-003	3.59960E-001	-1.14622E+000	3.57660E+000	10	...........
	35	0.48	8.78793E-001	5.99451E-003	0.00000E+000	5.26793E-003	3.59960E-001	-1.14080E+000	3.57660E+000	10	...........
	36	0.493333	8.85098E-001	5.99479E-003	0.00000E+000	5.30598E-003	3.59960E-001	-1.14988E+000	3.57660E+000	10	...........
	37	0.506667	8.91281E-001	5.99589E-003	0.00000E+000	5.34402E-003	3.59960E-001	-1.14627E+000	3.57660E+000	10	...........
	38	0.52	8.97490E-001	5.99477E-003	0.00000E+000	5.38025E-003	3.59960E-001	-1.14057E+000	3.57660E+000	10	...........
	39	0.533333	9.03660E-001	5.99591E-003	0.00000E+000	5.41826E-003	3.59960E-001	-1.14973E+000	3.57660E+000	10	...........
	40	0.546667	9.09849E-001	5.99453E-003	0.00000E+000	5.45412E-003	3.59960E-001	-1.14595E+000	3.57660E+000	10	...........
	41	0.56	9.15960E-001	5.98944E-003	0.00000E+000	5.48609E-003	3.59960E-001	-1.14079E+000	3.57660E+000	10	...........
	42	0.573333	9.22031E-001	5.99768E-003	0.00000E+000	5.53005E-003	3.59960E-001	-1.14955E+000	3.57660E+000	10	...........
	43	0.586667	9.28072E-001	5.99323E-003	0.00000E+000	5.56215E-003	3.59960E-001	-1.14551E+000	3.57660E+000	10	...........
	44	0.6	9.34105E-001	5.99257E-003	0.00000E+000	5.59769E-003	3.59960E-001	-1.14010E+000	3.57660E+000	10	...........
	45	0.613333	9.39981E-001	5.99099E-003	0.00000E+000	5.63141E-003	3.59960E-001	-1.14949E+000	3.57660E+000	10	...........
	46	0.626667	9.45929E-001	5.99650E-003	0.00000E+000	5.67227E-003	3.59960E-001	-1.14556E+000	3.57660E+000	10	...........
	47	0.64	9.51864E-001	5.99513E-003	0.00000E+000	5.70654E-003	3.59960E-001	-1.14020E+000	3.57660E+000	10	...........
	48	0.653333	9.57693E-001	5.99052E-003	0.00000E+000	5.73708E-003	3.59960E-001	-1.14945E+000	3.57660E+000	10	...........
	49	0.666667	9.63483E-001	5.99687E-003	0.00000E+000	5.77788E-003	3.59960E-001	-1.14522E+000	3.57660E+000	10	...........
	50	0.68	9.69265E-001	5.99123E-003	0.00000E+000	5.80709E-003	3.59960E-001	-1.14024E+000	3.57660E+000	10	...........
	51	0.693333	9.74985E-001	5.99648E-003	0.00000E+000	5.84648E-003	3.59960E-001	-1.14956E+000	3.57660E+000	10	...........
	52	0.706667	9.80631E-001	5.99622E-003	0.00000E+000	5.88008E-003	3.59960E-001	-1.14531E+000	3.57660E+000	10	...........
	53	0.72	9.86211E-001	5.99054E-003	0.00000E+000	5.90794E-003	3.59960E-001	-1.14017E+000	3.57660E+000	10	...........
	54	0.733333	9.91751E-001	5.99016E-003	0.00000E+000	5.94075E-003	3.59960E-001	-1.14947E+000	3.57660E+000	10	...........
	55	0.746667	9.97297E-001	5.99476E-003	0.00000E+000	5.97856E-003	3.59960E-001	-1.14523E+000	3.57660E+000	10	...........
	56	0.748333	1.00032E+000	5.99705E-003	0.00000E+000	5.99899E-003	3.59960E-001	-1.15275E+000	3.57660E+000	10	...........
STARTTIMEOFFSET	QUANT	1058.727	Start Time Offset (s)