File: Data/CV_CRGO300517_1/PWRCCD_CRGO300517_1/CHARGE_DISCHARGE/CHARGE_#120.DTA
EXPLAIN
TAG	PWR800_CHARGE
TITLE	LABEL	PWR Cyclic Charge Discharge (Cell) - Charge Step	Test &Identifier
DATE	LABEL	22-6-2017	Date
TIME	LABEL	15:40:23	Time
NOTES	NOTES	3	&Notes...
	supercap test cell
	0.6mg
	6M KOH
PSTAT	PSTAT	IFC5000-01520	Potentiostat
CAPACITY	QUANT	1.00000E-003	Capacity (A-hr)
CELLTYPE	SELECTOR	1	&Cell Type
WORKINGCONNECTION	SELECTOR	0	&Working Lead
MAXCHARGETIME	VARIABLEANDUNITS	1.00000E+002	s	1.00000E+002	second(s)	Max &Charge Time
CHARGECURRENT	QUANT	6.00000E-003	&Charge Current (A)
VOLTAGEFINISH	TWOPARAM	F	1.00000E-003	3.60000E+003	&Voltage Finish	 I (A) < 	Max Time(s)
SAMPLETIME	QUANT	1.00000E-002	Sa&mple Period (s)
CHARGESTOPAT1	MULTIPARAM	4	1.00000E+000	Charge Stop At &1	Voltage > Limit	V
CHARGESTOPAT2	MULTIPARAM	0	0.00000E+000	Charge Stop At &2	None	N/A
AESBHCSELECTOR	TOGGLE	F	Save Both Half Cells
IRCOMP	TOGGLE	F	IR &Measure
EOC	QUANT	0	Open Circuit (V)
SEQUENCER	TOGGLE	TRUE	Run as Sequence
PSTATMODEL	IQUANT	53	Pstat Model
PSTATSECTION	LABEL	IFC5000-01520	Pstat Section
PSTATSERIALNO	LABEL	01520	Pstat Serial Number
CTRLMODE	IQUANT	0	Control Mode
ELECTROMETER	IQUANT	1	RE=0 or CS=1
IESTAB	IQUANT	0	I/E Stability
CASPEED	IQUANT	4	Control Amp Speed
CONVENTION	IQUANT	1	Current Convention
ICHRANGE	IQUANT	2	Ich Range
ICHRANGEMODE	TOGGLE	T	Ich Auto Range
ICHOFFSETENABLE	TOGGLE	F	Ich Offset Enable
ICHOFFSET	QUANT	0	Ich Offset (V)
ICHFILTER	IQUANT	1	Ich Filter
VCHRANGE	IQUANT	2	Vch Range
VCHRANGEMODE	TOGGLE	T	Vch Auto Range
VCHOFFSETENABLE	TOGGLE	F	Vch Offset Enable
VCHOFFSET	QUANT	0	Vch Offset (V)
VCHFILTER	IQUANT	1	Vch Filter
IERANGELOWERLIMIT	IQUANT	9	I/E Range Lower Limit
IERANGEMODE	TOGGLE	F	I/E AutoRange
IERANGE	IQUANT	10	I/E Range
ACHSELECT	IQUANT	1	Ach Select
ACHRANGE	IQUANT	2	Ach Range
ACHOFFSETENABLE	TOGGLE	F	Ach Offset Enable
ACHOFFSET	QUANT	0	Ach Offset (V)
ACHFILTER	IQUANT	1	Ach Filter
CABLEID	IQUANT	14	Cable ID
DCCALDATE	LABEL	20-10-2016	DC Calibration Date
ACCALDATE	LABEL	12/3/2015	AC Calibration Date
FRAMEWORKVERSION	QUANT	7.01	Framework Version
INSTRUMENTVERSION	LABEL	4.00	Instrument Version
CURVE	TABLE	69
	Pt	T	Vf	Im	Vu	Pwr	Sig	Ach	Temp	IERange	Over
	#	s	V	A	V	W	V	V	deg C	#	bits
	0	0.013333	5.92850E-001	5.98994E-003	0.00000E+000	3.55114E-003	3.59960E-001	-1.07220E+000	3.57840E+000	10	...........
	1	0.026667	6.01172E-001	5.99181E-003	0.00000E+000	3.60211E-003	3.59960E-001	-1.07830E+000	3.57840E+000	10	...........
	2	0.04	6.08798E-001	5.99519E-003	0.00000E+000	3.64986E-003	3.59960E-001	-1.06763E+000	3.57840E+000	10	...........
	3	0.053333	6.16083E-001	5.99700E-003	0.00000E+000	3.69465E-003	3.59960E-001	-1.07184E+000	3.57840E+000	10	...........
	4	0.066667	6.23000E-001	5.99201E-003	0.00000E+000	3.73302E-003	3.59960E-001	-1.07859E+000	3.57840E+000	10	...........
	5	0.08	6.29736E-001	5.99530E-003	0.00000E+000	3.77546E-003	3.59960E-001	-1.06803E+000	3.57840E+000	10	...........
	6	0.093333	6.36396E-001	5.99845E-003	0.00000E+000	3.81739E-003	3.59960E-001	-1.07176E+000	3.57840E+000	10	...........
	7	0.106667	6.42943E-001	5.99297E-003	0.00000E+000	3.85314E-003	3.59960E-001	-1.07843E+000	3.57840E+000	10	...........
	8	0.12	6.49354E-001	5.99296E-003	0.00000E+000	3.89155E-003	3.59960E-001	-1.06800E+000	3.57840E+000	10	...........
	9	0.133333	6.55689E-001	5.99833E-003	0.00000E+000	3.93304E-003	3.59960E-001	-1.07186E+000	3.57840E+000	10	...........
	10	0.146667	6.61960E-001	5.99288E-003	0.00000E+000	3.96705E-003	3.59960E-001	-1.07864E+000	3.57840E+000	10	...........
	11	0.16	6.68240E-001	5.99177E-003	0.00000E+000	4.00394E-003	3.59960E-001	-1.06774E+000	3.57840E+000	10	...........
	12	0.173333	6.74412E-001	5.99287E-003	0.00000E+000	4.04167E-003	3.59960E-001	-1.07134E+000	3.57840E+000	10	...........
	13	0.186667	6.80538E-001	5.99076E-003	0.00000E+000	4.07694E-003	3.59960E-001	-1.07807E+000	3.57840E+000	10	...........
	14	0.2	6.86671E-001	5.99277E-003	0.00000E+000	4.11506E-003	3.59960E-001	-1.06753E+000	3.57840E+000	10	...........
	15	0.213333	6.92814E-001	5.99466E-003	0.00000E+000	4.15318E-003	3.59960E-001	-1.07118E+000	3.57840E+000	10	...........
	16	0.226667	6.98930E-001	6.00007E-003	0.00000E+000	4.19363E-003	3.59960E-001	-1.07803E+000	3.57840E+000	10	...........
	17	0.24	7.04990E-001	5.99488E-003	0.00000E+000	4.22633E-003	3.59960E-001	-1.06715E+000	3.57840E+000	10	...........
	18	0.253333	7.11017E-001	5.99136E-003	0.00000E+000	4.25996E-003	3.59960E-001	-1.07125E+000	3.57840E+000	10	...........
	19	0.266667	7.17079E-001	5.98998E-003	0.00000E+000	4.29529E-003	3.59960E-001	-1.07814E+000	3.57840E+000	10	...........
	20	0.28	7.23122E-001	5.99657E-003	0.00000E+000	4.33625E-003	3.59960E-001	-1.06727E+000	3.57840E+000	10	...........
	21	0.293333	7.29130E-001	5.99583E-003	0.00000E+000	4.37174E-003	3.59960E-001	-1.07091E+000	3.57840E+000	10	...........
	22	0.306667	7.35097E-001	5.99148E-003	0.00000E+000	4.40432E-003	3.59960E-001	-1.07803E+000	3.57840E+000	10	...........
	23	0.32	7.41077E-001	5.99503E-003	0.00000E+000	4.44278E-003	3.59960E-001	-1.06734E+000	3.57840E+000	10	...........
	24	0.333333	7.47089E-001	5.99566E-003	0.00000E+000	4.47929E-003	3.59960E-001	-1.07090E+000	3.57840E+000	10	...........
	25	0.346667	7.53065E-001	5.99265E-003	0.00000E+000	4.51286E-003	3.59960E-001	-1.07802E+000	3.57840E+000	10	...........
	26	0.36	7.59071E-001	5.99276E-003	0.00000E+000	4.54893E-003	3.59960E-001	-1.06697E+000	3.57840E+000	10	...........
	27	0.373333	7.64988E-001	5.99494E-003	0.00000E+000	4.58606E-003	3.59960E-001	-1.07059E+000	3.57840E+000	10	...........
	28	0.386667	7.70972E-001	5.99442E-003	0.00000E+000	4.62153E-003	3.59960E-001	-1.07813E+000	3.57840E+000	10	...........
	29	0.4	7.76949E-001	5.99530E-003	0.00000E+000	4.65805E-003	3.59960E-001	-1.06721E+000	3.57840E+000	10	...........
	30	0.413333	7.82902E-001	5.99631E-003	0.00000E+000	4.69452E-003	3.59960E-001	-1.07084E+000	3.57840E+000	10	...........
	31	0.426667	7.88808E-001	5.99470E-003	0.00000E+000	4.72867E-003	3.59960E-001	-1.07817E+000	3.57840E+000	10	...........
	32	0.44	7.94792E-001	5.99482E-003	0.00000E+000	4.76464E-003	3.59960E-001	-1.06736E+000	3.57840E+000	10	...........
	33	0.453333	8.00737E-001	5.99404E-003	0.00000E+000	4.79965E-003	3.59960E-001	-1.07085E+000	3.57840E+000	10	...........
	34	0.466667	8.06651E-001	5.99645E-003	0.00000E+000	4.83704E-003	3.59960E-001	-1.07834E+000	3.57812E+000	10	...........
	35	0.48	8.12581E-001	5.99460E-003	0.00000E+000	4.87110E-003	3.59960E-001	-1.06729E+000	3.57730E+000	10	...........
	36	0.493333	8.18524E-001	5.99255E-003	0.00000E+000	4.90505E-003	3.59960E-001	-1.07030E+000	3.57730E+000	10	...........
	37	0.506667	8.24438E-001	5.99142E-003	0.00000E+000	4.93956E-003	3.59960E-001	-1.07776E+000	3.57730E+000	10	...........
	38	0.52	8.30342E-001	5.99260E-003	0.00000E+000	4.97591E-003	3.59960E-001	-1.06696E+000	3.57730E+000	10	...........
	39	0.533333	8.36241E-001	5.99021E-003	0.00000E+000	5.00926E-003	3.59960E-001	-1.07025E+000	3.57730E+000	10	...........
	40	0.546667	8.42177E-001	5.99663E-003	0.00000E+000	5.05022E-003	3.59960E-001	-1.07792E+000	3.57730E+000	10	...........
	41	0.56	8.48088E-001	5.99720E-003	0.00000E+000	5.08615E-003	3.59960E-001	-1.06684E+000	3.57730E+000	10	...........
	42	0.573333	8.53994E-001	5.99546E-003	0.00000E+000	5.12009E-003	3.59960E-001	-1.07015E+000	3.57730E+000	10	...........
	43	0.586667	8.59891E-001	5.98917E-003	0.00000E+000	5.15003E-003	3.59960E-001	-1.07808E+000	3.57730E+000	10	...........
	44	0.6	8.65772E-001	5.99134E-003	0.00000E+000	5.18713E-003	3.59960E-001	-1.06689E+000	3.57730E+000	10	...........
	45	0.613333	8.71672E-001	5.99211E-003	0.00000E+000	5.22315E-003	3.59960E-001	-1.06971E+000	3.57730E+000	10	...........
	46	0.626667	8.77495E-001	5.99181E-003	0.00000E+000	5.25778E-003	3.59960E-001	-1.07766E+000	3.57730E+000	10	...........
	47	0.64	8.83325E-001	5.99513E-003	0.00000E+000	5.29564E-003	3.59960E-001	-1.06662E+000	3.57730E+000	10	...........
	48	0.653333	8.89185E-001	5.99462E-003	0.00000E+000	5.33033E-003	3.59960E-001	-1.07014E+000	3.57730E+000	10	...........
	49	0.666667	8.94991E-001	5.99487E-003	0.00000E+000	5.36535E-003	3.59960E-001	-1.07811E+000	3.57730E+000	10	...........
	50	0.68	9.00805E-001	5.99341E-003	0.00000E+000	5.39889E-003	3.59960E-001	-1.06689E+000	3.57730E+000	10	...........
	51	0.693333	9.06596E-001	5.99344E-003	0.00000E+000	5.43362E-003	3.59960E-001	-1.06984E+000	3.57730E+000	10	...........
	52	0.706667	9.12382E-001	5.99620E-003	0.00000E+000	5.47082E-003	3.59960E-001	-1.07788E+000	3.57730E+000	10	...........
	53	0.72	9.18131E-001	5.99396E-003	0.00000E+000	5.50324E-003	3.59960E-001	-1.06707E+000	3.57730E+000	10	...........
	54	0.733333	9.23910E-001	5.99658E-003	0.00000E+000	5.54029E-003	3.59960E-001	-1.07010E+000	3.57730E+000	10	...........
	55	0.746667	9.29605E-001	5.99259E-003	0.00000E+000	5.57075E-003	3.59960E-001	-1.07799E+000	3.57730E+000	10	...........
	56	0.76	9.35276E-001	5.99519E-003	0.00000E+000	5.60716E-003	3.59960E-001	-1.06678E+000	3.57730E+000	10	...........
	57	0.773333	9.40935E-001	5.99130E-003	0.00000E+000	5.63742E-003	3.59960E-001	-1.06959E+000	3.57730E+000	10	...........
	58	0.786667	9.46577E-001	5.99439E-003	0.00000E+000	5.67415E-003	3.59960E-001	-1.07803E+000	3.57730E+000	10	...........
	59	0.8	9.52221E-001	5.99227E-003	0.00000E+000	5.70597E-003	3.59960E-001	-1.06685E+000	3.57730E+000	10	...........
	60	0.813333	9.57798E-001	5.99756E-003	0.00000E+000	5.74445E-003	3.59960E-001	-1.06960E+000	3.57730E+000	10	...........
	61	0.826667	9.63317E-001	5.99282E-003	0.00000E+000	5.77299E-003	3.59960E-001	-1.07734E+000	3.57730E+000	10	...........
	62	0.84	9.68855E-001	5.99401E-003	0.00000E+000	5.80733E-003	3.59960E-001	-1.06619E+000	3.57730E+000	10	...........
	63	0.853333	9.74424E-001	5.99585E-003	0.00000E+000	5.84250E-003	3.59960E-001	-1.06944E+000	3.57730E+000	10	...........
	64	0.866667	9.79847E-001	5.99819E-003	0.00000E+000	5.87731E-003	3.59960E-001	-1.07774E+000	3.57730E+000	10	...........
	65	0.88	9.85252E-001	5.99770E-003	0.00000E+000	5.90925E-003	3.59960E-001	-1.06663E+000	3.57730E+000	10	...........
	66	0.893333	9.90657E-001	5.99845E-003	0.00000E+000	5.94241E-003	3.59960E-001	-1.06924E+000	3.57730E+000	10	...........
	67	0.906667	9.96006E-001	5.99153E-003	0.00000E+000	5.96760E-003	3.59960E-001	-1.07758E+000	3.57730E+000	10	...........
	68	0.911667	9.99714E-001	5.99763E-003	0.00000E+000	5.99591E-003	3.59960E-001	-1.05976E+000	3.57730E+000	10	...........
STARTTIMEOFFSET	QUANT	231.79	Start Time Offset (s)