File: Data/CV_CRGO300517_1/PWRCCD_CRGO300517_1/CHARGE_DISCHARGE/CHARGE_#5.DTA
EXPLAIN
TAG	PWR800_CHARGE
TITLE	LABEL	PWR Cyclic Charge Discharge (Cell) - Charge Step	Test &Identifier
DATE	LABEL	22-6-2017	Date
TIME	LABEL	15:35:08	Time
NOTES	NOTES	3	&Notes...
	supercap test cell
	0.6mg
	6M KOH
PSTAT	PSTAT	IFC5000-01520	Potentiostat
CAPACITY	QUANT	1.00000E-003	Capacity (A-hr)
CELLTYPE	SELECTOR	1	&Cell Type
WORKINGCONNECTION	SELECTOR	0	&Working Lead
MAXCHARGETIME	VARIABLEANDUNITS	1.00000E+002	s	1.00000E+002	second(s)	Max &Charge Time
CHARGECURRENT	QUANT	6.00000E-003	&Charge Current (A)
VOLTAGEFINISH	TWOPARAM	F	1.00000E-003	3.60000E+003	&Voltage Finish	 I (A) < 	Max Time(s)
SAMPLETIME	QUANT	1.00000E-002	Sa&mple Period (s)
CHARGESTOPAT1	MULTIPARAM	4	1.00000E+000	Charge Stop At &1	Voltage > Limit	V
CHARGESTOPAT2	MULTIPARAM	0	0.00000E+000	Charge Stop At &2	None	N/A
AESBHCSELECTOR	TOGGLE	F	Save Both Half Cells
IRCOMP	TOGGLE	F	IR &Measure
EOC	QUANT	0	Open Circuit (V)
SEQUENCER	TOGGLE	TRUE	Run as Sequence
PSTATMODEL	IQUANT	53	Pstat Model
PSTATSECTION	LABEL	IFC5000-01520	Pstat Section
PSTATSERIALNO	LABEL	01520	Pstat Serial Number
CTRLMODE	IQUANT	0	Control Mode
ELECTROMETER	IQUANT	1	RE=0 or CS=1
IESTAB	IQUANT	0	I/E Stability
CASPEED	IQUANT	4	Control Amp Speed
CONVENTION	IQUANT	1	Current Convention
ICHRANGE	IQUANT	2	Ich Range
ICHRANGEMODE	TOGGLE	T	Ich Auto Range
ICHOFFSETENABLE	TOGGLE	F	Ich Offset Enable
ICHOFFSET	QUANT	0	Ich Offset (V)
ICHFILTER	IQUANT	1	Ich Filter
VCHRANGE	IQUANT	2	Vch Range
VCHRANGEMODE	TOGGLE	T	Vch Auto Range
VCHOFFSETENABLE	TOGGLE	F	Vch Offset Enable
VCHOFFSET	QUANT	0	Vch Offset (V)
VCHFILTER	IQUANT	1	Vch Filter
IERANGELOWERLIMIT	IQUANT	9	I/E Range Lower Limit
IERANGEMODE	TOGGLE	F	I/E AutoRange
IERANGE	IQUANT	10	I/E Range
ACHSELECT	IQUANT	1	Ach Select
ACHRANGE	IQUANT	2	Ach Range
ACHOFFSETENABLE	TOGGLE	F	Ach Offset Enable
ACHOFFSET	QUANT	0	Ach Offset (V)
ACHFILTER	IQUANT	1	Ach Filter
CABLEID	IQUANT	14	Cable ID
DCCALDATE	LABEL	20-10-2016	DC Calibration Date
ACCALDATE	LABEL	12/3/2015	AC Calibration Date
FRAMEWORKVERSION	QUANT	7.01	Framework Version
INSTRUMENTVERSION	LABEL	4.00	Instrument Version
CURVE	TABLE	82
	Pt	T	Vf	Im	Vu	Pwr	Sig	Ach	Temp	IERange	Over
	#	s	V	A	V	W	V	V	deg C	#	bits
	0	0.013333	5.51678E-001	5.99355E-003	0.00000E+000	3.30651E-003	3.59960E-001	-1.00595E+000	3.57770E+000	10	...........
	1	0.026667	5.59544E-001	5.99499E-003	0.00000E+000	3.35446E-003	3.59960E-001	-1.01177E+000	3.57770E+000	10	...........
	2	0.04	5.66805E-001	5.99525E-003	0.00000E+000	3.39814E-003	3.59960E-001	-1.00180E+000	3.57770E+000	10	...........
	3	0.053333	5.73614E-001	5.99700E-003	0.00000E+000	3.43996E-003	3.59960E-001	-1.00598E+000	3.57770E+000	10	...........
	4	0.066667	5.80135E-001	5.99377E-003	0.00000E+000	3.47720E-003	3.59960E-001	-1.01172E+000	3.57770E+000	10	...........
	5	0.08	5.86494E-001	5.99440E-003	0.00000E+000	3.51568E-003	3.59960E-001	-1.00187E+000	3.57770E+000	10	...........
	6	0.093333	5.92706E-001	5.99058E-003	0.00000E+000	3.55065E-003	3.59960E-001	-1.00590E+000	3.57770E+000	10	...........
	7	0.106667	5.98806E-001	5.99546E-003	0.00000E+000	3.59012E-003	3.59960E-001	-1.01185E+000	3.57770E+000	10	...........
	8	0.12	6.04777E-001	5.99102E-003	0.00000E+000	3.62323E-003	3.59960E-001	-1.00168E+000	3.57770E+000	10	...........
	9	0.133333	6.10639E-001	5.99012E-003	0.00000E+000	3.65780E-003	3.59960E-001	-1.00575E+000	3.57770E+000	10	...........
	10	0.146667	6.16515E-001	5.99099E-003	0.00000E+000	3.69353E-003	3.59960E-001	-1.01185E+000	3.57770E+000	10	...........
	11	0.16	6.22284E-001	5.99066E-003	0.00000E+000	3.72790E-003	3.59960E-001	-1.00151E+000	3.57770E+000	10	...........
	12	0.173333	6.28031E-001	5.99566E-003	0.00000E+000	3.76546E-003	3.59960E-001	-1.00538E+000	3.57770E+000	10	...........
	13	0.186667	6.33729E-001	5.99317E-003	0.00000E+000	3.79804E-003	3.59960E-001	-1.01139E+000	3.57770E+000	10	...........
	14	0.2	6.39361E-001	5.99498E-003	0.00000E+000	3.83295E-003	3.59960E-001	-1.00127E+000	3.57770E+000	10	...........
	15	0.213333	6.44966E-001	5.99668E-003	0.00000E+000	3.86766E-003	3.59960E-001	-1.00532E+000	3.57770E+000	10	...........
	16	0.226667	6.50587E-001	5.99444E-003	0.00000E+000	3.89991E-003	3.59960E-001	-1.01146E+000	3.57770E+000	10	...........
	17	0.24	6.56157E-001	5.99418E-003	0.00000E+000	3.93312E-003	3.59960E-001	-1.00143E+000	3.57770E+000	10	...........
	18	0.253333	6.61693E-001	5.99669E-003	0.00000E+000	3.96797E-003	3.59960E-001	-1.00531E+000	3.57770E+000	10	...........
	19	0.266667	6.67287E-001	5.99574E-003	0.00000E+000	4.00088E-003	3.59960E-001	-1.01129E+000	3.57770E+000	10	...........
	20	0.28	6.72755E-001	5.99098E-003	0.00000E+000	4.03046E-003	3.59960E-001	-1.00112E+000	3.57770E+000	10	...........
	21	0.293333	6.78270E-001	5.99256E-003	0.00000E+000	4.06457E-003	3.59960E-001	-1.00535E+000	3.57770E+000	10	...........
	22	0.306667	6.83741E-001	5.99496E-003	0.00000E+000	4.09900E-003	3.59960E-001	-1.01147E+000	3.57770E+000	10	...........
	23	0.32	6.89193E-001	5.99235E-003	0.00000E+000	4.12989E-003	3.59960E-001	-1.00105E+000	3.57770E+000	10	...........
	24	0.333333	6.94670E-001	5.99319E-003	0.00000E+000	4.16329E-003	3.59960E-001	-1.00517E+000	3.57770E+000	10	...........
	25	0.346667	7.00139E-001	5.99383E-003	0.00000E+000	4.19652E-003	3.59960E-001	-1.01142E+000	3.57770E+000	10	...........
	26	0.36	7.05570E-001	5.99235E-003	0.00000E+000	4.22802E-003	3.59960E-001	-1.00120E+000	3.57770E+000	10	...........
	27	0.373333	7.10972E-001	5.99882E-003	0.00000E+000	4.26499E-003	3.59960E-001	-1.00524E+000	3.57770E+000	10	...........
	28	0.386667	7.16449E-001	5.99346E-003	0.00000E+000	4.29401E-003	3.59960E-001	-1.01143E+000	3.57770E+000	10	...........
	29	0.4	7.21922E-001	5.99027E-003	0.00000E+000	4.32451E-003	3.59960E-001	-1.00095E+000	3.57770E+000	10	...........
	30	0.413333	7.27337E-001	5.99500E-003	0.00000E+000	4.36039E-003	3.59960E-001	-1.00509E+000	3.57770E+000	10	...........
	31	0.426667	7.32694E-001	5.99537E-003	0.00000E+000	4.39277E-003	3.59960E-001	-1.01148E+000	3.57770E+000	10	...........
	32	0.44	7.38110E-001	5.99172E-003	0.00000E+000	4.42254E-003	3.59960E-001	-1.00136E+000	3.57770E+000	10	...........
	33	0.453333	7.43568E-001	5.99455E-003	0.00000E+000	4.45736E-003	3.59960E-001	-1.00494E+000	3.57770E+000	10	...........
	34	0.466667	7.48951E-001	5.99239E-003	0.00000E+000	4.48801E-003	3.59960E-001	-1.01119E+000	3.57770E+000	10	...........
	35	0.48	7.54367E-001	5.99731E-003	0.00000E+000	4.52417E-003	3.59960E-001	-1.00084E+000	3.57770E+000	10	...........
	36	0.493333	7.59774E-001	5.99368E-003	0.00000E+000	4.55384E-003	3.59960E-001	-1.00468E+000	3.57770E+000	10	...........
	37	0.506667	7.65200E-001	5.99389E-003	0.00000E+000	4.58652E-003	3.59960E-001	-1.01085E+000	3.57770E+000	10	...........
	38	0.52	7.70613E-001	5.99579E-003	0.00000E+000	4.62044E-003	3.59960E-001	-1.00061E+000	3.57770E+000	10	...........
	39	0.533333	7.76002E-001	5.99420E-003	0.00000E+000	4.65151E-003	3.59960E-001	-1.00420E+000	3.57770E+000	10	...........
	40	0.546667	7.81402E-001	5.99318E-003	0.00000E+000	4.68308E-003	3.59960E-001	-1.01089E+000	3.57770E+000	10	...........
	41	0.56	7.86801E-001	5.99398E-003	0.00000E+000	4.71607E-003	3.59960E-001	-1.00059E+000	3.57770E+000	10	...........
	42	0.573333	7.92226E-001	5.99554E-003	0.00000E+000	4.74983E-003	3.59960E-001	-1.00436E+000	3.57770E+000	10	...........
	43	0.586667	7.97669E-001	5.99445E-003	0.00000E+000	4.78159E-003	3.59960E-001	-1.01073E+000	3.57770E+000	10	...........
	44	0.6	8.03062E-001	5.99479E-003	0.00000E+000	4.81419E-003	3.59960E-001	-1.00036E+000	3.57770E+000	10	...........
	45	0.613333	8.08473E-001	5.99346E-003	0.00000E+000	4.84555E-003	3.59960E-001	-1.00412E+000	3.57770E+000	10	...........
	46	0.626667	8.13846E-001	5.99060E-003	0.00000E+000	4.87543E-003	3.59960E-001	-1.01101E+000	3.57770E+000	10	...........
	47	0.64	8.19300E-001	5.99636E-003	0.00000E+000	4.91281E-003	3.59960E-001	-1.00047E+000	3.57770E+000	10	...........
	48	0.653333	8.24713E-001	5.99155E-003	0.00000E+000	4.94131E-003	3.59960E-001	-1.00413E+000	3.57770E+000	10	...........
	49	0.666667	8.30099E-001	5.99193E-003	0.00000E+000	4.97390E-003	3.59960E-001	-1.01070E+000	3.57770E+000	10	...........
	50	0.68	8.35532E-001	5.99316E-003	0.00000E+000	5.00747E-003	3.59960E-001	-1.00015E+000	3.57837E+000	10	...........
	51	0.693333	8.40963E-001	5.99317E-003	0.00000E+000	5.04003E-003	3.59960E-001	-1.00431E+000	3.57860E+000	10	...........
	52	0.706667	8.46436E-001	5.99254E-003	0.00000E+000	5.07230E-003	3.59960E-001	-1.01083E+000	3.57860E+000	10	...........
	53	0.72	8.51833E-001	5.99289E-003	0.00000E+000	5.10495E-003	3.59960E-001	-1.00041E+000	3.57860E+000	10	...........
	54	0.733333	8.57267E-001	5.99653E-003	0.00000E+000	5.14063E-003	3.59960E-001	-1.00414E+000	3.57860E+000	10	...........
	55	0.746667	8.62684E-001	5.98993E-003	0.00000E+000	5.16742E-003	3.59960E-001	-1.01105E+000	3.57860E+000	10	...........
	56	0.76	8.68068E-001	5.99376E-003	0.00000E+000	5.20299E-003	3.59960E-001	-1.00079E+000	3.57860E+000	10	...........
	57	0.773333	8.73507E-001	5.99402E-003	0.00000E+000	5.23582E-003	3.59960E-001	-1.00425E+000	3.57860E+000	10	...........
	58	0.786667	8.78948E-001	5.99415E-003	0.00000E+000	5.26854E-003	3.59960E-001	-1.01111E+000	3.57860E+000	10	...........
	59	0.8	8.84322E-001	5.99280E-003	0.00000E+000	5.29957E-003	3.59960E-001	-1.00049E+000	3.57860E+000	10	...........
	60	0.813333	8.89727E-001	5.99495E-003	0.00000E+000	5.33387E-003	3.59960E-001	-1.00415E+000	3.57860E+000	10	...........
	61	0.826667	8.95129E-001	5.99290E-003	0.00000E+000	5.36442E-003	3.59960E-001	-1.01115E+000	3.57860E+000	10	...........
	62	0.84	9.00495E-001	5.99061E-003	0.00000E+000	5.39451E-003	3.59960E-001	-1.00061E+000	3.57860E+000	10	...........
	63	0.853333	9.05850E-001	5.99618E-003	0.00000E+000	5.43164E-003	3.59960E-001	-1.00406E+000	3.57860E+000	10	...........
	64	0.866667	9.11235E-001	5.99479E-003	0.00000E+000	5.46266E-003	3.59960E-001	-1.01124E+000	3.57860E+000	10	...........
	65	0.88	9.16581E-001	5.99467E-003	0.00000E+000	5.49460E-003	3.59960E-001	-1.00092E+000	3.57860E+000	10	...........
	66	0.893333	9.21965E-001	5.99716E-003	0.00000E+000	5.52917E-003	3.59960E-001	-1.00440E+000	3.57860E+000	10	...........
	67	0.906667	9.27352E-001	5.99681E-003	0.00000E+000	5.56115E-003	3.59960E-001	-1.01112E+000	3.57860E+000	10	...........
	68	0.92	9.32702E-001	5.99418E-003	0.00000E+000	5.59078E-003	3.59960E-001	-1.00076E+000	3.57860E+000	10	...........
	69	0.933333	9.38022E-001	5.99402E-003	0.00000E+000	5.62253E-003	3.59960E-001	-1.00423E+000	3.57860E+000	10	...........
	70	0.946667	9.43347E-001	5.99511E-003	0.00000E+000	5.65546E-003	3.59960E-001	-1.01124E+000	3.57860E+000	10	...........
	71	0.96	9.48666E-001	5.99665E-003	0.00000E+000	5.68882E-003	3.59960E-001	-1.00090E+000	3.57860E+000	10	...........
	72	0.97333	9.53916E-001	5.99379E-003	0.00000E+000	5.71757E-003	3.59960E-001	-1.00397E+000	3.57860E+000	10	...........
	73	0.98667	9.59143E-001	5.99522E-003	0.00000E+000	5.75027E-003	3.59960E-001	-1.01107E+000	3.57860E+000	10	...........
	74	1	9.64391E-001	5.99310E-003	0.00000E+000	5.77969E-003	3.59960E-001	-1.00049E+000	3.57860E+000	10	...........
	75	1.01333	9.69581E-001	5.99297E-003	0.00000E+000	5.81067E-003	3.59960E-001	-1.00418E+000	3.57860E+000	10	...........
	76	1.02667	9.74851E-001	5.99392E-003	0.00000E+000	5.84318E-003	3.59960E-001	-1.01106E+000	3.57860E+000	10	...........
	77	1.04	9.80017E-001	5.99448E-003	0.00000E+000	5.87469E-003	3.59960E-001	-1.00046E+000	3.57860E+000	10	...........
	78	1.05333	9.85166E-001	5.99380E-003	0.00000E+000	5.90489E-003	3.59960E-001	-1.00384E+000	3.57860E+000	10	...........
	79	1.06667	9.90305E-001	5.99035E-003	0.00000E+000	5.93227E-003	3.59960E-001	-1.01130E+000	3.57860E+000	10	...........
	80	1.08	9.95387E-001	5.99517E-003	0.00000E+000	5.96751E-003	3.59960E-001	-1.00077E+000	3.57860E+000	10	...........
	81	1.08667	9.99189E-001	5.99381E-003	0.00000E+000	5.98895E-003	3.59960E-001	-1.01482E+000	3.57860E+000	10	...........
STARTTIMEOFFSET	QUANT	8.976667	Start Time Offset (s)