File: Data/CV_CRGO300517_1/PWRCCD_CRGO300517_1/CHARGE_DISCHARGE/CHARGE_#282.DTA
EXPLAIN
TAG	PWR800_CHARGE
TITLE	LABEL	PWR Cyclic Charge Discharge (Cell) - Charge Step	Test &Identifier
DATE	LABEL	22-6-2017	Date
TIME	LABEL	15:47:12	Time
NOTES	NOTES	3	&Notes...
	supercap test cell
	0.6mg
	6M KOH
PSTAT	PSTAT	IFC5000-01520	Potentiostat
CAPACITY	QUANT	1.00000E-003	Capacity (A-hr)
CELLTYPE	SELECTOR	1	&Cell Type
WORKINGCONNECTION	SELECTOR	0	&Working Lead
MAXCHARGETIME	VARIABLEANDUNITS	1.00000E+002	s	1.00000E+002	second(s)	Max &Charge Time
CHARGECURRENT	QUANT	6.00000E-003	&Charge Current (A)
VOLTAGEFINISH	TWOPARAM	F	1.00000E-003	3.60000E+003	&Voltage Finish	 I (A) < 	Max Time(s)
SAMPLETIME	QUANT	1.00000E-002	Sa&mple Period (s)
CHARGESTOPAT1	MULTIPARAM	4	1.00000E+000	Charge Stop At &1	Voltage > Limit	V
CHARGESTOPAT2	MULTIPARAM	0	0.00000E+000	Charge Stop At &2	None	N/A
AESBHCSELECTOR	TOGGLE	F	Save Both Half Cells
IRCOMP	TOGGLE	F	IR &Measure
EOC	QUANT	0	Open Circuit (V)
SEQUENCER	TOGGLE	TRUE	Run as Sequence
PSTATMODEL	IQUANT	53	Pstat Model
PSTATSECTION	LABEL	IFC5000-01520	Pstat Section
PSTATSERIALNO	LABEL	01520	Pstat Serial Number
CTRLMODE	IQUANT	0	Control Mode
ELECTROMETER	IQUANT	1	RE=0 or CS=1
IESTAB	IQUANT	0	I/E Stability
CASPEED	IQUANT	4	Control Amp Speed
CONVENTION	IQUANT	1	Current Convention
ICHRANGE	IQUANT	2	Ich Range
ICHRANGEMODE	TOGGLE	T	Ich Auto Range
ICHOFFSETENABLE	TOGGLE	F	Ich Offset Enable
ICHOFFSET	QUANT	0	Ich Offset (V)
ICHFILTER	IQUANT	1	Ich Filter
VCHRANGE	IQUANT	2	Vch Range
VCHRANGEMODE	TOGGLE	T	Vch Auto Range
VCHOFFSETENABLE	TOGGLE	F	Vch Offset Enable
VCHOFFSET	QUANT	0	Vch Offset (V)
VCHFILTER	IQUANT	1	Vch Filter
IERANGELOWERLIMIT	IQUANT	9	I/E Range Lower Limit
IERANGEMODE	TOGGLE	F	I/E AutoRange
IERANGE	IQUANT	10	I/E Range
ACHSELECT	IQUANT	1	Ach Select
ACHRANGE	IQUANT	2	Ach Range
ACHOFFSETENABLE	TOGGLE	F	Ach Offset Enable
ACHOFFSET	QUANT	0	Ach Offset (V)
ACHFILTER	IQUANT	1	Ach Filter
CABLEID	IQUANT	14	Cable ID
DCCALDATE	LABEL	20-10-2016	DC Calibration Date
ACCALDATE	LABEL	12/3/2015	AC Calibration Date
FRAMEWORKVERSION	QUANT	7.01	Framework Version
INSTRUMENTVERSION	LABEL	4.00	Instrument Version
CURVE	TABLE	63
	Pt	T	Vf	Im	Vu	Pwr	Sig	Ach	Temp	IERange	Over
	#	s	V	A	V	W	V	V	deg C	#	bits
	0	0.013333	6.14624E-001	5.99296E-003	0.00000E+000	3.68342E-003	3.59960E-001	-1.11260E+000	3.57720E+000	10	...........
	1	0.026667	6.23205E-001	5.99192E-003	0.00000E+000	3.73420E-003	3.59960E-001	-1.10711E+000	3.57720E+000	10	...........
	2	0.04	6.31066E-001	5.98873E-003	0.00000E+000	3.77929E-003	3.59960E-001	-1.10321E+000	3.57720E+000	10	...........
	3	0.053333	6.38583E-001	5.99239E-003	0.00000E+000	3.82664E-003	3.59960E-001	-1.11254E+000	3.57720E+000	10	...........
	4	0.066667	6.45791E-001	5.99040E-003	0.00000E+000	3.86854E-003	3.59960E-001	-1.10737E+000	3.57720E+000	10	...........
	5	0.08	6.52796E-001	5.99061E-003	0.00000E+000	3.91064E-003	3.59960E-001	-1.10341E+000	3.57720E+000	10	...........
	6	0.093333	6.59729E-001	5.99374E-003	0.00000E+000	3.95425E-003	3.59960E-001	-1.11251E+000	3.57720E+000	10	...........
	7	0.106667	6.66516E-001	5.99217E-003	0.00000E+000	3.99388E-003	3.59960E-001	-1.10729E+000	3.57720E+000	10	...........
	8	0.12	6.73228E-001	5.99421E-003	0.00000E+000	4.03547E-003	3.59960E-001	-1.10347E+000	3.57720E+000	10	...........
	9	0.133333	6.79827E-001	5.99425E-003	0.00000E+000	4.07505E-003	3.59960E-001	-1.11239E+000	3.57726E+000	10	...........
	10	0.146667	6.86399E-001	5.99046E-003	0.00000E+000	4.11185E-003	3.59960E-001	-1.10744E+000	3.57770E+000	10	...........
	11	0.16	6.92930E-001	5.99611E-003	0.00000E+000	4.15489E-003	3.59960E-001	-1.10340E+000	3.57770E+000	10	...........
	12	0.173333	6.99373E-001	5.99605E-003	0.00000E+000	4.19348E-003	3.59960E-001	-1.11254E+000	3.57770E+000	10	...........
	13	0.186667	7.05823E-001	5.99664E-003	0.00000E+000	4.23256E-003	3.59960E-001	-1.10769E+000	3.57770E+000	10	...........
	14	0.2	7.12210E-001	5.99421E-003	0.00000E+000	4.26914E-003	3.59960E-001	-1.10337E+000	3.57770E+000	10	...........
	15	0.213333	7.18632E-001	5.99584E-003	0.00000E+000	4.30880E-003	3.59960E-001	-1.11241E+000	3.57770E+000	10	...........
	16	0.226667	7.24997E-001	5.99064E-003	0.00000E+000	4.34320E-003	3.59960E-001	-1.10721E+000	3.57770E+000	10	...........
	17	0.24	7.31315E-001	5.99516E-003	0.00000E+000	4.38435E-003	3.59960E-001	-1.10329E+000	3.57770E+000	10	...........
	18	0.253333	7.37642E-001	5.99274E-003	0.00000E+000	4.42050E-003	3.59960E-001	-1.11235E+000	3.57770E+000	10	...........
	19	0.266667	7.43972E-001	5.99208E-003	0.00000E+000	4.45794E-003	3.59960E-001	-1.10710E+000	3.57770E+000	10	...........
	20	0.28	7.50239E-001	5.99295E-003	0.00000E+000	4.49614E-003	3.59960E-001	-1.10270E+000	3.57770E+000	10	...........
	21	0.293333	7.56485E-001	5.99378E-003	0.00000E+000	4.53421E-003	3.59960E-001	-1.11140E+000	3.57770E+000	10	...........
	22	0.306667	7.62776E-001	5.99430E-003	0.00000E+000	4.57231E-003	3.59960E-001	-1.10625E+000	3.57770E+000	10	...........
	23	0.32	7.69074E-001	5.99515E-003	0.00000E+000	4.61071E-003	3.59960E-001	-1.10196E+000	3.57770E+000	10	...........
	24	0.333333	7.75331E-001	5.99365E-003	0.00000E+000	4.64706E-003	3.59960E-001	-1.11108E+000	3.57770E+000	10	...........
	25	0.346667	7.81554E-001	5.99585E-003	0.00000E+000	4.68608E-003	3.59960E-001	-1.10600E+000	3.57770E+000	10	...........
	26	0.36	7.87779E-001	5.99491E-003	0.00000E+000	4.72266E-003	3.59960E-001	-1.10171E+000	3.57770E+000	10	...........
	27	0.373333	7.93977E-001	5.98982E-003	0.00000E+000	4.75577E-003	3.59960E-001	-1.11070E+000	3.57770E+000	10	...........
	28	0.386667	8.00215E-001	5.99638E-003	0.00000E+000	4.79839E-003	3.59960E-001	-1.10605E+000	3.57770E+000	10	...........
	29	0.4	8.06344E-001	5.99272E-003	0.00000E+000	4.83219E-003	3.59960E-001	-1.10180E+000	3.57770E+000	10	...........
	30	0.413333	8.12518E-001	5.98622E-003	0.00000E+000	4.86391E-003	3.59960E-001	-1.11042E+000	3.57770E+000	10	...........
	31	0.426667	8.18727E-001	5.99550E-003	0.00000E+000	4.90868E-003	3.59960E-001	-1.10592E+000	3.57770E+000	10	...........
	32	0.44	8.24928E-001	5.99358E-003	0.00000E+000	4.94427E-003	3.59960E-001	-1.10152E+000	3.57770E+000	10	...........
	33	0.453333	8.31058E-001	5.99293E-003	0.00000E+000	4.98047E-003	3.59960E-001	-1.11073E+000	3.57770E+000	10	...........
	34	0.466667	8.37219E-001	5.99104E-003	0.00000E+000	5.01581E-003	3.59960E-001	-1.10619E+000	3.57770E+000	10	...........
	35	0.48	8.43360E-001	5.99041E-003	0.00000E+000	5.05207E-003	3.59960E-001	-1.10193E+000	3.57770E+000	10	...........
	36	0.493333	8.49478E-001	5.99307E-003	0.00000E+000	5.09098E-003	3.59960E-001	-1.11057E+000	3.57770E+000	10	...........
	37	0.506667	8.55584E-001	5.99684E-003	0.00000E+000	5.13080E-003	3.59960E-001	-1.10633E+000	3.57770E+000	10	...........
	38	0.52	8.61685E-001	5.99707E-003	0.00000E+000	5.16758E-003	3.59960E-001	-1.10211E+000	3.57770E+000	10	...........
	39	0.533333	8.67774E-001	5.99539E-003	0.00000E+000	5.20264E-003	3.59960E-001	-1.11126E+000	3.57770E+000	10	...........
	40	0.546667	8.73906E-001	5.99447E-003	0.00000E+000	5.23860E-003	3.59960E-001	-1.10685E+000	3.57770E+000	10	...........
	41	0.56	8.79928E-001	5.99724E-003	0.00000E+000	5.27714E-003	3.59960E-001	-1.10229E+000	3.57770E+000	10	...........
	42	0.573333	8.85992E-001	5.99371E-003	0.00000E+000	5.31038E-003	3.59960E-001	-1.11125E+000	3.57770E+000	10	...........
	43	0.586667	8.91989E-001	5.99621E-003	0.00000E+000	5.34855E-003	3.59960E-001	-1.10686E+000	3.57770E+000	10	...........
	44	0.6	8.97972E-001	5.99471E-003	0.00000E+000	5.38308E-003	3.59960E-001	-1.10235E+000	3.57770E+000	10	...........
	45	0.613333	9.03907E-001	5.99076E-003	0.00000E+000	5.41509E-003	3.59960E-001	-1.11129E+000	3.57770E+000	10	...........
	46	0.626667	9.09883E-001	5.99642E-003	0.00000E+000	5.45604E-003	3.59960E-001	-1.10683E+000	3.57770E+000	10	...........
	47	0.64	9.15732E-001	5.99503E-003	0.00000E+000	5.48984E-003	3.59960E-001	-1.10197E+000	3.57770E+000	10	...........
	48	0.653333	9.21641E-001	5.99299E-003	0.00000E+000	5.52339E-003	3.59960E-001	-1.11091E+000	3.57770E+000	10	...........
	49	0.666667	9.27550E-001	5.99362E-003	0.00000E+000	5.55938E-003	3.59960E-001	-1.10683E+000	3.57770E+000	10	...........
	50	0.68	9.33411E-001	5.99906E-003	0.00000E+000	5.59959E-003	3.59960E-001	-1.10198E+000	3.57770E+000	10	...........
	51	0.693333	9.39180E-001	5.99771E-003	0.00000E+000	5.63293E-003	3.59960E-001	-1.11063E+000	3.57770E+000	10	...........
	52	0.706667	9.44982E-001	5.99911E-003	0.00000E+000	5.66905E-003	3.59960E-001	-1.10611E+000	3.57770E+000	10	...........
	53	0.72	9.50733E-001	5.99152E-003	0.00000E+000	5.69633E-003	3.59960E-001	-1.10187E+000	3.57770E+000	10	...........
	54	0.733333	9.56427E-001	5.99586E-003	0.00000E+000	5.73460E-003	3.59960E-001	-1.11054E+000	3.57770E+000	10	...........
	55	0.746667	9.62092E-001	5.99329E-003	0.00000E+000	5.76610E-003	3.59960E-001	-1.10625E+000	3.57770E+000	10	...........
	56	0.76	9.67720E-001	5.99451E-003	0.00000E+000	5.80101E-003	3.59960E-001	-1.10156E+000	3.57770E+000	10	...........
	57	0.773333	9.73340E-001	6.00111E-003	0.00000E+000	5.84113E-003	3.59960E-001	-1.10993E+000	3.57770E+000	10	...........
	58	0.786667	9.78860E-001	5.99530E-003	0.00000E+000	5.86856E-003	3.59960E-001	-1.10610E+000	3.57770E+000	10	...........
	59	0.8	9.84354E-001	5.99041E-003	0.00000E+000	5.89669E-003	3.59960E-001	-1.10129E+000	3.57770E+000	10	...........
	60	0.813333	9.89824E-001	5.99742E-003	0.00000E+000	5.93639E-003	3.59960E-001	-1.10971E+000	3.57770E+000	10	...........
	61	0.826667	9.95265E-001	5.99595E-003	0.00000E+000	5.96756E-003	3.59960E-001	-1.10539E+000	3.57770E+000	10	...........
	62	0.833333	9.99306E-001	5.99525E-003	0.00000E+000	5.99109E-003	3.59960E-001	-1.10469E+000	3.57770E+000	10	...........
STARTTIMEOFFSET	QUANT	511.3934	Start Time Offset (s)