File: Data/CV_CRGO300517_1/PWRCCD_CRGO300517_1/CHARGE_DISCHARGE/CHARGE_#194.DTA
EXPLAIN
TAG	PWR800_CHARGE
TITLE	LABEL	PWR Cyclic Charge Discharge (Cell) - Charge Step	Test &Identifier
DATE	LABEL	22-6-2017	Date
TIME	LABEL	15:43:33	Time
NOTES	NOTES	3	&Notes...
	supercap test cell
	0.6mg
	6M KOH
PSTAT	PSTAT	IFC5000-01520	Potentiostat
CAPACITY	QUANT	1.00000E-003	Capacity (A-hr)
CELLTYPE	SELECTOR	1	&Cell Type
WORKINGCONNECTION	SELECTOR	0	&Working Lead
MAXCHARGETIME	VARIABLEANDUNITS	1.00000E+002	s	1.00000E+002	second(s)	Max &Charge Time
CHARGECURRENT	QUANT	6.00000E-003	&Charge Current (A)
VOLTAGEFINISH	TWOPARAM	F	1.00000E-003	3.60000E+003	&Voltage Finish	 I (A) < 	Max Time(s)
SAMPLETIME	QUANT	1.00000E-002	Sa&mple Period (s)
CHARGESTOPAT1	MULTIPARAM	4	1.00000E+000	Charge Stop At &1	Voltage > Limit	V
CHARGESTOPAT2	MULTIPARAM	0	0.00000E+000	Charge Stop At &2	None	N/A
AESBHCSELECTOR	TOGGLE	F	Save Both Half Cells
IRCOMP	TOGGLE	F	IR &Measure
EOC	QUANT	0	Open Circuit (V)
SEQUENCER	TOGGLE	TRUE	Run as Sequence
PSTATMODEL	IQUANT	53	Pstat Model
PSTATSECTION	LABEL	IFC5000-01520	Pstat Section
PSTATSERIALNO	LABEL	01520	Pstat Serial Number
CTRLMODE	IQUANT	0	Control Mode
ELECTROMETER	IQUANT	1	RE=0 or CS=1
IESTAB	IQUANT	0	I/E Stability
CASPEED	IQUANT	4	Control Amp Speed
CONVENTION	IQUANT	1	Current Convention
ICHRANGE	IQUANT	2	Ich Range
ICHRANGEMODE	TOGGLE	T	Ich Auto Range
ICHOFFSETENABLE	TOGGLE	F	Ich Offset Enable
ICHOFFSET	QUANT	0	Ich Offset (V)
ICHFILTER	IQUANT	1	Ich Filter
VCHRANGE	IQUANT	2	Vch Range
VCHRANGEMODE	TOGGLE	T	Vch Auto Range
VCHOFFSETENABLE	TOGGLE	F	Vch Offset Enable
VCHOFFSET	QUANT	0	Vch Offset (V)
VCHFILTER	IQUANT	1	Vch Filter
IERANGELOWERLIMIT	IQUANT	9	I/E Range Lower Limit
IERANGEMODE	TOGGLE	F	I/E AutoRange
IERANGE	IQUANT	10	I/E Range
ACHSELECT	IQUANT	1	Ach Select
ACHRANGE	IQUANT	2	Ach Range
ACHOFFSETENABLE	TOGGLE	F	Ach Offset Enable
ACHOFFSET	QUANT	0	Ach Offset (V)
ACHFILTER	IQUANT	1	Ach Filter
CABLEID	IQUANT	14	Cable ID
DCCALDATE	LABEL	20-10-2016	DC Calibration Date
ACCALDATE	LABEL	12/3/2015	AC Calibration Date
FRAMEWORKVERSION	QUANT	7.01	Framework Version
INSTRUMENTVERSION	LABEL	4.00	Instrument Version
CURVE	TABLE	66
	Pt	T	Vf	Im	Vu	Pwr	Sig	Ach	Temp	IERange	Over
	#	s	V	A	V	W	V	V	deg C	#	bits
	0	0.013333	6.04465E-001	5.99324E-003	0.00000E+000	3.62270E-003	3.59960E-001	-1.08513E+000	3.57700E+000	10	...........
	1	0.026667	6.12937E-001	5.99594E-003	0.00000E+000	3.67513E-003	3.59960E-001	-1.08751E+000	3.57700E+000	10	...........
	2	0.04	6.20773E-001	5.99607E-003	0.00000E+000	3.72219E-003	3.59960E-001	-1.09473E+000	3.57700E+000	10	...........
	3	0.053333	6.28098E-001	5.99299E-003	0.00000E+000	3.76418E-003	3.59960E-001	-1.08503E+000	3.57700E+000	10	...........
	4	0.066667	6.35188E-001	5.99555E-003	0.00000E+000	3.80830E-003	3.59960E-001	-1.08730E+000	3.57700E+000	10	...........
	5	0.08	6.42132E-001	5.99189E-003	0.00000E+000	3.84758E-003	3.59960E-001	-1.09472E+000	3.57700E+000	10	...........
	6	0.093333	6.48848E-001	5.99223E-003	0.00000E+000	3.88804E-003	3.59960E-001	-1.08512E+000	3.57700E+000	10	...........
	7	0.106667	6.55533E-001	5.99516E-003	0.00000E+000	3.93002E-003	3.59960E-001	-1.08713E+000	3.57700E+000	10	...........
	8	0.12	6.62059E-001	5.99335E-003	0.00000E+000	3.96795E-003	3.59960E-001	-1.09473E+000	3.57700E+000	10	...........
	9	0.133333	6.68603E-001	5.99173E-003	0.00000E+000	4.00608E-003	3.59960E-001	-1.08501E+000	3.57700E+000	10	...........
	10	0.146667	6.75006E-001	5.99497E-003	0.00000E+000	4.04664E-003	3.59960E-001	-1.08716E+000	3.57700E+000	10	...........
	11	0.16	6.81390E-001	5.99440E-003	0.00000E+000	4.08452E-003	3.59960E-001	-1.09497E+000	3.57700E+000	10	...........
	12	0.173333	6.87722E-001	5.99295E-003	0.00000E+000	4.12148E-003	3.59960E-001	-1.08514E+000	3.57700E+000	10	...........
	13	0.186667	6.94022E-001	5.99084E-003	0.00000E+000	4.15778E-003	3.59960E-001	-1.08697E+000	3.57700E+000	10	...........
	14	0.2	7.00283E-001	5.99309E-003	0.00000E+000	4.19686E-003	3.59960E-001	-1.09517E+000	3.57700E+000	10	...........
	15	0.213333	7.06533E-001	5.99429E-003	0.00000E+000	4.23517E-003	3.59960E-001	-1.08517E+000	3.57700E+000	10	...........
	16	0.226667	7.12757E-001	5.99455E-003	0.00000E+000	4.27266E-003	3.59960E-001	-1.08667E+000	3.57700E+000	10	...........
	17	0.24	7.19025E-001	5.99438E-003	0.00000E+000	4.31011E-003	3.59960E-001	-1.09499E+000	3.57700E+000	10	...........
	18	0.253333	7.25190E-001	5.99758E-003	0.00000E+000	4.34938E-003	3.59960E-001	-1.08504E+000	3.57700E+000	10	...........
	19	0.266667	7.31368E-001	5.99455E-003	0.00000E+000	4.38423E-003	3.59960E-001	-1.08627E+000	3.57700E+000	10	...........
	20	0.28	7.37532E-001	5.99334E-003	0.00000E+000	4.42028E-003	3.59960E-001	-1.09466E+000	3.57700E+000	10	...........
	21	0.293333	7.43723E-001	5.99419E-003	0.00000E+000	4.45802E-003	3.59960E-001	-1.08470E+000	3.57700E+000	10	...........
	22	0.306667	7.49859E-001	5.99365E-003	0.00000E+000	4.49439E-003	3.59960E-001	-1.08611E+000	3.57700E+000	10	...........
	23	0.32	7.56026E-001	5.99808E-003	0.00000E+000	4.53470E-003	3.59960E-001	-1.09473E+000	3.57700E+000	10	...........
	24	0.333333	7.62151E-001	5.99520E-003	0.00000E+000	4.56925E-003	3.59960E-001	-1.08474E+000	3.57700E+000	10	...........
	25	0.346667	7.68235E-001	5.99154E-003	0.00000E+000	4.60291E-003	3.59960E-001	-1.08582E+000	3.57700E+000	10	...........
	26	0.36	7.74364E-001	5.99809E-003	0.00000E+000	4.64471E-003	3.59960E-001	-1.09446E+000	3.57700E+000	10	...........
	27	0.373333	7.80448E-001	5.99176E-003	0.00000E+000	4.67625E-003	3.59960E-001	-1.08466E+000	3.57700E+000	10	...........
	28	0.386667	7.86569E-001	5.99284E-003	0.00000E+000	4.71378E-003	3.59960E-001	-1.08596E+000	3.57700E+000	10	...........
	29	0.4	7.92654E-001	5.99866E-003	0.00000E+000	4.75486E-003	3.59960E-001	-1.09468E+000	3.57700E+000	10	...........
	30	0.413333	7.98737E-001	5.99539E-003	0.00000E+000	4.78874E-003	3.59960E-001	-1.08466E+000	3.57700E+000	10	...........
	31	0.426667	8.04813E-001	5.99438E-003	0.00000E+000	4.82435E-003	3.59960E-001	-1.08555E+000	3.57700E+000	10	...........
	32	0.44	8.10875E-001	5.99453E-003	0.00000E+000	4.86082E-003	3.59960E-001	-1.09481E+000	3.57700E+000	10	...........
	33	0.453333	8.16999E-001	5.99062E-003	0.00000E+000	4.89433E-003	3.59960E-001	-1.08483E+000	3.57700E+000	10	...........
	34	0.466667	8.23041E-001	5.99137E-003	0.00000E+000	4.93114E-003	3.59960E-001	-1.08552E+000	3.57700E+000	10	...........
	35	0.48	8.29107E-001	5.99422E-003	0.00000E+000	4.96985E-003	3.59960E-001	-1.09476E+000	3.57700E+000	10	...........
	36	0.493333	8.35162E-001	5.99522E-003	0.00000E+000	5.00698E-003	3.59960E-001	-1.08489E+000	3.57700E+000	10	...........
	37	0.506667	8.41189E-001	5.99362E-003	0.00000E+000	5.04177E-003	3.59960E-001	-1.08551E+000	3.57700E+000	10	...........
	38	0.52	8.47214E-001	5.99236E-003	0.00000E+000	5.07681E-003	3.59960E-001	-1.09491E+000	3.57700E+000	10	...........
	39	0.533333	8.53192E-001	5.99562E-003	0.00000E+000	5.11541E-003	3.59960E-001	-1.08528E+000	3.57700E+000	10	...........
	40	0.546667	8.59177E-001	5.99220E-003	0.00000E+000	5.14836E-003	3.59960E-001	-1.08571E+000	3.57700E+000	10	...........
	41	0.56	8.65172E-001	5.99754E-003	0.00000E+000	5.18890E-003	3.59960E-001	-1.09503E+000	3.57700E+000	10	...........
	42	0.573333	8.71150E-001	5.99217E-003	0.00000E+000	5.22008E-003	3.59960E-001	-1.08534E+000	3.57700E+000	10	...........
	43	0.586667	8.77071E-001	5.99137E-003	0.00000E+000	5.25486E-003	3.59960E-001	-1.08541E+000	3.57700E+000	10	...........
	44	0.6	8.83011E-001	5.99188E-003	0.00000E+000	5.29090E-003	3.59960E-001	-1.09536E+000	3.57700E+000	10	...........
	45	0.613333	8.88932E-001	5.99769E-003	0.00000E+000	5.33154E-003	3.59960E-001	-1.08578E+000	3.57700E+000	10	...........
	46	0.626667	8.94838E-001	5.99172E-003	0.00000E+000	5.36161E-003	3.59960E-001	-1.08621E+000	3.57700E+000	10	...........
	47	0.64	9.00736E-001	5.99409E-003	0.00000E+000	5.39910E-003	3.59960E-001	-1.09620E+000	3.57700E+000	10	...........
	48	0.653333	9.06653E-001	5.99538E-003	0.00000E+000	5.43573E-003	3.59960E-001	-1.08715E+000	3.57700E+000	10	...........
	49	0.666667	9.12487E-001	5.99147E-003	0.00000E+000	5.46713E-003	3.59960E-001	-1.08759E+000	3.57700E+000	10	...........
	50	0.68	9.18333E-001	5.99711E-003	0.00000E+000	5.50734E-003	3.59960E-001	-1.09786E+000	3.57700E+000	10	...........
	51	0.693333	9.24202E-001	5.99469E-003	0.00000E+000	5.54030E-003	3.59960E-001	-1.08908E+000	3.57700E+000	10	...........
	52	0.706667	9.29967E-001	5.99245E-003	0.00000E+000	5.57278E-003	3.59960E-001	-1.08952E+000	3.57700E+000	10	...........
	53	0.72	9.35713E-001	5.98742E-003	0.00000E+000	5.60250E-003	3.59960E-001	-1.10007E+000	3.57700E+000	10	...........
	54	0.733333	9.41425E-001	5.99131E-003	0.00000E+000	5.64037E-003	3.59960E-001	-1.09165E+000	3.57700E+000	10	...........
	55	0.746667	9.47134E-001	5.99411E-003	0.00000E+000	5.67723E-003	3.59960E-001	-1.09224E+000	3.57815E+000	10	...........
	56	0.76	9.52810E-001	5.99177E-003	0.00000E+000	5.70902E-003	3.59960E-001	-1.10280E+000	3.57820E+000	10	...........
	57	0.773333	9.58449E-001	5.98995E-003	0.00000E+000	5.74106E-003	3.59960E-001	-1.09406E+000	3.57820E+000	10	...........
	58	0.786667	9.64059E-001	5.99405E-003	0.00000E+000	5.77862E-003	3.59960E-001	-1.09425E+000	3.57820E+000	10	...........
	59	0.8	9.69609E-001	5.99518E-003	0.00000E+000	5.81298E-003	3.59960E-001	-1.10466E+000	3.57820E+000	10	...........
	60	0.813333	9.75194E-001	5.99070E-003	0.00000E+000	5.84210E-003	3.59960E-001	-1.09521E+000	3.57820E+000	10	...........
	61	0.826667	9.80687E-001	5.99534E-003	0.00000E+000	5.87955E-003	3.59960E-001	-1.09472E+000	3.57820E+000	10	...........
	62	0.84	9.86113E-001	5.99591E-003	0.00000E+000	5.91264E-003	3.59960E-001	-1.10467E+000	3.57820E+000	10	...........
	63	0.853333	9.91546E-001	5.99715E-003	0.00000E+000	5.94645E-003	3.59960E-001	-1.09585E+000	3.57820E+000	10	...........
	64	0.866667	9.96932E-001	5.99283E-003	0.00000E+000	5.97444E-003	3.59960E-001	-1.09526E+000	3.57820E+000	10	...........
	65	0.87	1.00026E+000	5.99133E-003	0.00000E+000	5.99291E-003	3.59960E-001	-1.10404E+000	3.57820E+000	10	...........
STARTTIMEOFFSET	QUANT	362.6167	Start Time Offset (s)