File: Data/CV_CRGO300517_1/PWRCCD_CRGO300517_1/CHARGE_DISCHARGE/CHARGE_#537.DTA
EXPLAIN
TAG	PWR800_CHARGE
TITLE	LABEL	PWR Cyclic Charge Discharge (Cell) - Charge Step	Test &Identifier
DATE	LABEL	22-6-2017	Date
TIME	LABEL	15:57:21	Time
NOTES	NOTES	3	&Notes...
	supercap test cell
	0.6mg
	6M KOH
PSTAT	PSTAT	IFC5000-01520	Potentiostat
CAPACITY	QUANT	1.00000E-003	Capacity (A-hr)
CELLTYPE	SELECTOR	1	&Cell Type
WORKINGCONNECTION	SELECTOR	0	&Working Lead
MAXCHARGETIME	VARIABLEANDUNITS	1.00000E+002	s	1.00000E+002	second(s)	Max &Charge Time
CHARGECURRENT	QUANT	6.00000E-003	&Charge Current (A)
VOLTAGEFINISH	TWOPARAM	F	1.00000E-003	3.60000E+003	&Voltage Finish	 I (A) < 	Max Time(s)
SAMPLETIME	QUANT	1.00000E-002	Sa&mple Period (s)
CHARGESTOPAT1	MULTIPARAM	4	1.00000E+000	Charge Stop At &1	Voltage > Limit	V
CHARGESTOPAT2	MULTIPARAM	0	0.00000E+000	Charge Stop At &2	None	N/A
AESBHCSELECTOR	TOGGLE	F	Save Both Half Cells
IRCOMP	TOGGLE	F	IR &Measure
EOC	QUANT	0	Open Circuit (V)
SEQUENCER	TOGGLE	TRUE	Run as Sequence
PSTATMODEL	IQUANT	53	Pstat Model
PSTATSECTION	LABEL	IFC5000-01520	Pstat Section
PSTATSERIALNO	LABEL	01520	Pstat Serial Number
CTRLMODE	IQUANT	0	Control Mode
ELECTROMETER	IQUANT	1	RE=0 or CS=1
IESTAB	IQUANT	0	I/E Stability
CASPEED	IQUANT	4	Control Amp Speed
CONVENTION	IQUANT	1	Current Convention
ICHRANGE	IQUANT	2	Ich Range
ICHRANGEMODE	TOGGLE	T	Ich Auto Range
ICHOFFSETENABLE	TOGGLE	F	Ich Offset Enable
ICHOFFSET	QUANT	0	Ich Offset (V)
ICHFILTER	IQUANT	1	Ich Filter
VCHRANGE	IQUANT	2	Vch Range
VCHRANGEMODE	TOGGLE	T	Vch Auto Range
VCHOFFSETENABLE	TOGGLE	F	Vch Offset Enable
VCHOFFSET	QUANT	0	Vch Offset (V)
VCHFILTER	IQUANT	1	Vch Filter
IERANGELOWERLIMIT	IQUANT	9	I/E Range Lower Limit
IERANGEMODE	TOGGLE	F	I/E AutoRange
IERANGE	IQUANT	10	I/E Range
ACHSELECT	IQUANT	1	Ach Select
ACHRANGE	IQUANT	2	Ach Range
ACHOFFSETENABLE	TOGGLE	F	Ach Offset Enable
ACHOFFSET	QUANT	0	Ach Offset (V)
ACHFILTER	IQUANT	1	Ach Filter
CABLEID	IQUANT	14	Cable ID
DCCALDATE	LABEL	20-10-2016	DC Calibration Date
ACCALDATE	LABEL	12/3/2015	AC Calibration Date
FRAMEWORKVERSION	QUANT	7.01	Framework Version
INSTRUMENTVERSION	LABEL	4.00	Instrument Version
CURVE	TABLE	58
	Pt	T	Vf	Im	Vu	Pwr	Sig	Ach	Temp	IERange	Over
	#	s	V	A	V	W	V	V	deg C	#	bits
	0	0.013333	6.34594E-001	5.99410E-003	0.00000E+000	3.80382E-003	3.59960E-001	-1.13880E+000	3.57700E+000	10	...........
	1	0.026667	6.43568E-001	5.99394E-003	0.00000E+000	3.85751E-003	3.59960E-001	-1.12947E+000	3.57700E+000	10	...........
	2	0.04	6.51748E-001	5.99300E-003	0.00000E+000	3.90592E-003	3.59960E-001	-1.12787E+000	3.57700E+000	10	...........
	3	0.053333	6.59539E-001	5.99392E-003	0.00000E+000	3.95322E-003	3.59960E-001	-1.13908E+000	3.57700E+000	10	...........
	4	0.066667	6.67033E-001	5.99574E-003	0.00000E+000	3.99936E-003	3.59960E-001	-1.12962E+000	3.57700E+000	10	...........
	5	0.08	6.74334E-001	5.99270E-003	0.00000E+000	4.04108E-003	3.59960E-001	-1.12793E+000	3.57700E+000	10	...........
	6	0.093333	6.81499E-001	5.99519E-003	0.00000E+000	4.08571E-003	3.59960E-001	-1.13881E+000	3.57700E+000	10	...........
	7	0.106667	6.88530E-001	5.99375E-003	0.00000E+000	4.12688E-003	3.59960E-001	-1.12920E+000	3.57700E+000	10	...........
	8	0.12	6.95501E-001	5.99655E-003	0.00000E+000	4.17061E-003	3.59960E-001	-1.12766E+000	3.57700E+000	10	...........
	9	0.133333	7.02356E-001	5.99416E-003	0.00000E+000	4.21003E-003	3.59960E-001	-1.13835E+000	3.57700E+000	10	...........
	10	0.146667	7.09185E-001	5.99251E-003	0.00000E+000	4.24980E-003	3.59960E-001	-1.12837E+000	3.57700E+000	10	...........
	11	0.16	7.15984E-001	5.99643E-003	0.00000E+000	4.29335E-003	3.59960E-001	-1.12655E+000	3.57700E+000	10	...........
	12	0.173333	7.22751E-001	5.99159E-003	0.00000E+000	4.33043E-003	3.59960E-001	-1.13758E+000	3.57700E+000	10	...........
	13	0.186667	7.29438E-001	5.99755E-003	0.00000E+000	4.37484E-003	3.59960E-001	-1.12801E+000	3.57700E+000	10	...........
	14	0.2	7.36098E-001	5.99358E-003	0.00000E+000	4.41186E-003	3.59960E-001	-1.12676E+000	3.57700E+000	10	...........
	15	0.213333	7.42718E-001	5.99395E-003	0.00000E+000	4.45181E-003	3.59960E-001	-1.13749E+000	3.57700E+000	10	...........
	16	0.226667	7.49359E-001	5.99680E-003	0.00000E+000	4.49375E-003	3.59960E-001	-1.12740E+000	3.57700E+000	10	...........
	17	0.24	7.55991E-001	5.99258E-003	0.00000E+000	4.53034E-003	3.59960E-001	-1.12634E+000	3.57700E+000	10	...........
	18	0.253333	7.62517E-001	5.99382E-003	0.00000E+000	4.57039E-003	3.59960E-001	-1.13735E+000	3.57700E+000	10	...........
	19	0.266667	7.69075E-001	5.99520E-003	0.00000E+000	4.61076E-003	3.59960E-001	-1.12724E+000	3.57700E+000	10	...........
	20	0.28	7.75604E-001	5.99534E-003	0.00000E+000	4.65000E-003	3.59960E-001	-1.12577E+000	3.57700E+000	10	...........
	21	0.293333	7.82115E-001	5.99129E-003	0.00000E+000	4.68587E-003	3.59960E-001	-1.13625E+000	3.57700E+000	10	...........
	22	0.306667	7.88595E-001	5.99545E-003	0.00000E+000	4.72798E-003	3.59960E-001	-1.12637E+000	3.57700E+000	10	...........
	23	0.32	7.95079E-001	5.99400E-003	0.00000E+000	4.76571E-003	3.59960E-001	-1.12561E+000	3.57700E+000	10	...........
	24	0.333333	8.01547E-001	5.99493E-003	0.00000E+000	4.80522E-003	3.59960E-001	-1.13636E+000	3.57700E+000	10	...........
	25	0.346667	8.08004E-001	5.99362E-003	0.00000E+000	4.84287E-003	3.59960E-001	-1.12609E+000	3.57700E+000	10	...........
	26	0.36	8.14393E-001	5.99845E-003	0.00000E+000	4.88510E-003	3.59960E-001	-1.12525E+000	3.57700E+000	10	...........
	27	0.373333	8.20830E-001	5.99022E-003	0.00000E+000	4.91696E-003	3.59960E-001	-1.13579E+000	3.57700E+000	10	...........
	28	0.386667	8.27229E-001	5.99597E-003	0.00000E+000	4.96004E-003	3.59960E-001	-1.12603E+000	3.57700E+000	10	...........
	29	0.4	8.33614E-001	5.99998E-003	0.00000E+000	5.00166E-003	3.59960E-001	-1.12517E+000	3.57700E+000	10	...........
	30	0.413333	8.39951E-001	5.99212E-003	0.00000E+000	5.03309E-003	3.59960E-001	-1.13529E+000	3.57700E+000	10	...........
	31	0.426667	8.46297E-001	5.99224E-003	0.00000E+000	5.07121E-003	3.59960E-001	-1.12486E+000	3.57700E+000	10	...........
	32	0.44	8.52639E-001	5.99541E-003	0.00000E+000	5.11192E-003	3.59960E-001	-1.12388E+000	3.57700E+000	10	...........
	33	0.453333	8.58949E-001	5.99063E-003	0.00000E+000	5.14565E-003	3.59960E-001	-1.13435E+000	3.57700E+000	10	...........
	34	0.466667	8.65218E-001	5.98947E-003	0.00000E+000	5.18220E-003	3.59960E-001	-1.12419E+000	3.57700E+000	10	...........
	35	0.48	8.71518E-001	5.99779E-003	0.00000E+000	5.22718E-003	3.59960E-001	-1.12356E+000	3.57700E+000	10	...........
	36	0.493333	8.77745E-001	5.99564E-003	0.00000E+000	5.26264E-003	3.59960E-001	-1.13397E+000	3.57700E+000	10	...........
	37	0.506667	8.83986E-001	5.98791E-003	0.00000E+000	5.29323E-003	3.59960E-001	-1.12370E+000	3.57700E+000	10	...........
	38	0.52	8.90182E-001	5.99346E-003	0.00000E+000	5.33527E-003	3.59960E-001	-1.12355E+000	3.57700E+000	10	...........
	39	0.533333	8.96344E-001	5.99239E-003	0.00000E+000	5.37125E-003	3.59960E-001	-1.13425E+000	3.57700E+000	10	...........
	40	0.546667	9.02469E-001	5.99527E-003	0.00000E+000	5.41055E-003	3.59960E-001	-1.12385E+000	3.57700E+000	10	...........
	41	0.56	9.08594E-001	5.99822E-003	0.00000E+000	5.44995E-003	3.59960E-001	-1.12332E+000	3.57700E+000	10	...........
	42	0.573333	9.14670E-001	5.99787E-003	0.00000E+000	5.48607E-003	3.59960E-001	-1.13355E+000	3.57700E+000	10	...........
	43	0.586667	9.20746E-001	5.99331E-003	0.00000E+000	5.51832E-003	3.59960E-001	-1.12352E+000	3.57700E+000	10	...........
	44	0.6	9.26778E-001	5.99689E-003	0.00000E+000	5.55779E-003	3.59960E-001	-1.12350E+000	3.57700E+000	10	...........
	45	0.613333	9.32725E-001	5.99264E-003	0.00000E+000	5.58949E-003	3.59960E-001	-1.13358E+000	3.57700E+000	10	...........
	46	0.626667	9.38683E-001	5.98994E-003	0.00000E+000	5.62265E-003	3.59960E-001	-1.12304E+000	3.57700E+000	10	...........
	47	0.64	9.44601E-001	5.99479E-003	0.00000E+000	5.66269E-003	3.59960E-001	-1.12252E+000	3.57700E+000	10	...........
	48	0.653333	9.50473E-001	5.99195E-003	0.00000E+000	5.69518E-003	3.59960E-001	-1.13310E+000	3.57700E+000	10	...........
	49	0.666667	9.56257E-001	5.99212E-003	0.00000E+000	5.73001E-003	3.59960E-001	-1.12277E+000	3.57700E+000	10	...........
	50	0.68	9.62039E-001	5.99660E-003	0.00000E+000	5.76896E-003	3.59960E-001	-1.12235E+000	3.57700E+000	10	...........
	51	0.693333	9.67777E-001	5.99527E-003	0.00000E+000	5.80209E-003	3.59960E-001	-1.13268E+000	3.57700E+000	10	...........
	52	0.706667	9.73457E-001	5.99410E-003	0.00000E+000	5.83500E-003	3.59960E-001	-1.12224E+000	3.57700E+000	10	...........
	53	0.72	9.79124E-001	5.99649E-003	0.00000E+000	5.87131E-003	3.59960E-001	-1.12248E+000	3.57700E+000	10	...........
	54	0.733333	9.84692E-001	5.99629E-003	0.00000E+000	5.90450E-003	3.59960E-001	-1.13287E+000	3.57700E+000	10	...........
	55	0.746667	9.90248E-001	5.99694E-003	0.00000E+000	5.93846E-003	3.59960E-001	-1.12261E+000	3.57700E+000	10	...........
	56	0.76	9.95777E-001	5.99696E-003	0.00000E+000	5.97164E-003	3.59960E-001	-1.12266E+000	3.57700E+000	10	...........
	57	0.765	9.99541E-001	5.99727E-003	0.00000E+000	5.99451E-003	3.59960E-001	-1.13113E+000	3.57700E+000	10	...........
STARTTIMEOFFSET	QUANT	915.7267	Start Time Offset (s)