File: Data/CV_CRGO300517_1/PWRCCD_CRGO300517_1/CHARGE_DISCHARGE/CHARGE_#908.DTA
EXPLAIN
TAG	PWR800_CHARGE
TITLE	LABEL	PWR Cyclic Charge Discharge (Cell) - Charge Step	Test &Identifier
DATE	LABEL	22-6-2017	Date
TIME	LABEL	16:11:17	Time
NOTES	NOTES	3	&Notes...
	supercap test cell
	0.6mg
	6M KOH
PSTAT	PSTAT	IFC5000-01520	Potentiostat
CAPACITY	QUANT	1.00000E-003	Capacity (A-hr)
CELLTYPE	SELECTOR	1	&Cell Type
WORKINGCONNECTION	SELECTOR	0	&Working Lead
MAXCHARGETIME	VARIABLEANDUNITS	1.00000E+002	s	1.00000E+002	second(s)	Max &Charge Time
CHARGECURRENT	QUANT	6.00000E-003	&Charge Current (A)
VOLTAGEFINISH	TWOPARAM	F	1.00000E-003	3.60000E+003	&Voltage Finish	 I (A) < 	Max Time(s)
SAMPLETIME	QUANT	1.00000E-002	Sa&mple Period (s)
CHARGESTOPAT1	MULTIPARAM	4	1.00000E+000	Charge Stop At &1	Voltage > Limit	V
CHARGESTOPAT2	MULTIPARAM	0	0.00000E+000	Charge Stop At &2	None	N/A
AESBHCSELECTOR	TOGGLE	F	Save Both Half Cells
IRCOMP	TOGGLE	F	IR &Measure
EOC	QUANT	0	Open Circuit (V)
SEQUENCER	TOGGLE	TRUE	Run as Sequence
PSTATMODEL	IQUANT	53	Pstat Model
PSTATSECTION	LABEL	IFC5000-01520	Pstat Section
PSTATSERIALNO	LABEL	01520	Pstat Serial Number
CTRLMODE	IQUANT	0	Control Mode
ELECTROMETER	IQUANT	1	RE=0 or CS=1
IESTAB	IQUANT	0	I/E Stability
CASPEED	IQUANT	4	Control Amp Speed
CONVENTION	IQUANT	1	Current Convention
ICHRANGE	IQUANT	2	Ich Range
ICHRANGEMODE	TOGGLE	T	Ich Auto Range
ICHOFFSETENABLE	TOGGLE	F	Ich Offset Enable
ICHOFFSET	QUANT	0	Ich Offset (V)
ICHFILTER	IQUANT	1	Ich Filter
VCHRANGE	IQUANT	2	Vch Range
VCHRANGEMODE	TOGGLE	T	Vch Auto Range
VCHOFFSETENABLE	TOGGLE	F	Vch Offset Enable
VCHOFFSET	QUANT	0	Vch Offset (V)
VCHFILTER	IQUANT	1	Vch Filter
IERANGELOWERLIMIT	IQUANT	9	I/E Range Lower Limit
IERANGEMODE	TOGGLE	F	I/E AutoRange
IERANGE	IQUANT	10	I/E Range
ACHSELECT	IQUANT	1	Ach Select
ACHRANGE	IQUANT	2	Ach Range
ACHOFFSETENABLE	TOGGLE	F	Ach Offset Enable
ACHOFFSET	QUANT	0	Ach Offset (V)
ACHFILTER	IQUANT	1	Ach Filter
CABLEID	IQUANT	14	Cable ID
DCCALDATE	LABEL	20-10-2016	DC Calibration Date
ACCALDATE	LABEL	12/3/2015	AC Calibration Date
FRAMEWORKVERSION	QUANT	7.01	Framework Version
INSTRUMENTVERSION	LABEL	4.00	Instrument Version
CURVE	TABLE	53
	Pt	T	Vf	Im	Vu	Pwr	Sig	Ach	Temp	IERange	Over
	#	s	V	A	V	W	V	V	deg C	#	bits
	0	0.013333	6.53660E-001	5.99273E-003	0.00000E+000	3.91720E-003	3.59960E-001	-1.16401E+000	3.57630E+000	10	...........
	1	0.026667	6.62916E-001	5.99527E-003	0.00000E+000	3.97436E-003	3.59960E-001	-1.17502E+000	3.57630E+000	10	...........
	2	0.04	6.71463E-001	5.99107E-003	0.00000E+000	4.02278E-003	3.59960E-001	-1.16500E+000	3.57630E+000	10	...........
	3	0.053333	6.79563E-001	5.99791E-003	0.00000E+000	4.07596E-003	3.59960E-001	-1.16404E+000	3.57630E+000	10	...........
	4	0.066667	6.87380E-001	5.99468E-003	0.00000E+000	4.12062E-003	3.59960E-001	-1.17497E+000	3.57630E+000	10	...........
	5	0.08	6.94965E-001	5.99520E-003	0.00000E+000	4.16645E-003	3.59960E-001	-1.16473E+000	3.57630E+000	10	...........
	6	0.093333	7.02413E-001	5.99829E-003	0.00000E+000	4.21327E-003	3.59960E-001	-1.16386E+000	3.57630E+000	10	...........
	7	0.106667	7.09744E-001	5.99517E-003	0.00000E+000	4.25504E-003	3.59960E-001	-1.17511E+000	3.57630E+000	10	...........
	8	0.12	7.17014E-001	5.99476E-003	0.00000E+000	4.29833E-003	3.59960E-001	-1.16515E+000	3.57630E+000	10	...........
	9	0.133333	7.24177E-001	5.98810E-003	0.00000E+000	4.33644E-003	3.59960E-001	-1.16386E+000	3.57630E+000	10	...........
	10	0.146667	7.31271E-001	5.99253E-003	0.00000E+000	4.38216E-003	3.59960E-001	-1.17484E+000	3.57630E+000	10	...........
	11	0.16	7.38301E-001	5.99026E-003	0.00000E+000	4.42261E-003	3.59960E-001	-1.16497E+000	3.57630E+000	10	...........
	12	0.173333	7.45299E-001	5.99208E-003	0.00000E+000	4.46589E-003	3.59960E-001	-1.16386E+000	3.57630E+000	10	...........
	13	0.186667	7.52217E-001	5.98947E-003	0.00000E+000	4.50539E-003	3.59960E-001	-1.17461E+000	3.57630E+000	10	...........
	14	0.2	7.59159E-001	5.99074E-003	0.00000E+000	4.54792E-003	3.59960E-001	-1.16456E+000	3.57652E+000	10	...........
	15	0.213333	7.66021E-001	5.98839E-003	0.00000E+000	4.58723E-003	3.59960E-001	-1.16346E+000	3.57660E+000	10	...........
	16	0.226667	7.72916E-001	5.99320E-003	0.00000E+000	4.63224E-003	3.59960E-001	-1.17471E+000	3.57660E+000	10	...........
	17	0.24	7.79779E-001	5.99263E-003	0.00000E+000	4.67293E-003	3.59960E-001	-1.16463E+000	3.57660E+000	10	...........
	18	0.253333	7.86545E-001	5.99440E-003	0.00000E+000	4.71486E-003	3.59960E-001	-1.16365E+000	3.57660E+000	10	...........
	19	0.266667	7.93369E-001	5.99691E-003	0.00000E+000	4.75776E-003	3.59960E-001	-1.17463E+000	3.57660E+000	10	...........
	20	0.28	8.00133E-001	5.99098E-003	0.00000E+000	4.79357E-003	3.59960E-001	-1.16424E+000	3.57660E+000	10	...........
	21	0.293333	8.06836E-001	5.99089E-003	0.00000E+000	4.83367E-003	3.59960E-001	-1.16353E+000	3.57660E+000	10	...........
	22	0.306667	8.13521E-001	5.99675E-003	0.00000E+000	4.87849E-003	3.59960E-001	-1.17475E+000	3.57660E+000	10	...........
	23	0.32	8.20180E-001	5.99306E-003	0.00000E+000	4.91539E-003	3.59960E-001	-1.16448E+000	3.57660E+000	10	...........
	24	0.333333	8.26789E-001	5.99257E-003	0.00000E+000	4.95459E-003	3.59960E-001	-1.16345E+000	3.57660E+000	10	...........
	25	0.346667	8.33389E-001	5.99298E-003	0.00000E+000	4.99448E-003	3.59960E-001	-1.17431E+000	3.57660E+000	10	...........
	26	0.36	8.39942E-001	5.99036E-003	0.00000E+000	5.03156E-003	3.59960E-001	-1.16433E+000	3.57660E+000	10	...........
	27	0.373333	8.46562E-001	5.99495E-003	0.00000E+000	5.07510E-003	3.59960E-001	-1.16349E+000	3.57660E+000	10	...........
	28	0.386667	8.53157E-001	5.99478E-003	0.00000E+000	5.11449E-003	3.59960E-001	-1.17451E+000	3.57660E+000	10	...........
	29	0.4	8.59638E-001	5.99311E-003	0.00000E+000	5.15191E-003	3.59960E-001	-1.16448E+000	3.57660E+000	10	...........
	30	0.413333	8.66106E-001	5.99344E-003	0.00000E+000	5.19095E-003	3.59960E-001	-1.16334E+000	3.57660E+000	10	...........
	31	0.426667	8.72598E-001	5.99233E-003	0.00000E+000	5.22890E-003	3.59960E-001	-1.17461E+000	3.57660E+000	10	...........
	32	0.44	8.78952E-001	5.99185E-003	0.00000E+000	5.26655E-003	3.59960E-001	-1.16452E+000	3.57660E+000	10	...........
	33	0.453333	8.85397E-001	5.99285E-003	0.00000E+000	5.30605E-003	3.59960E-001	-1.16342E+000	3.57660E+000	10	...........
	34	0.466667	8.91750E-001	5.99354E-003	0.00000E+000	5.34474E-003	3.59960E-001	-1.17442E+000	3.57660E+000	10	...........
	35	0.48	8.98093E-001	5.99454E-003	0.00000E+000	5.38365E-003	3.59960E-001	-1.16410E+000	3.57660E+000	10	...........
	36	0.493333	9.04372E-001	5.99064E-003	0.00000E+000	5.41777E-003	3.59960E-001	-1.16289E+000	3.57660E+000	10	...........
	37	0.506667	9.10633E-001	5.99214E-003	0.00000E+000	5.45665E-003	3.59960E-001	-1.17402E+000	3.57660E+000	10	...........
	38	0.52	9.16858E-001	5.99814E-003	0.00000E+000	5.49944E-003	3.59960E-001	-1.16398E+000	3.57660E+000	10	...........
	39	0.533333	9.23104E-001	5.99423E-003	0.00000E+000	5.53330E-003	3.59960E-001	-1.16289E+000	3.57660E+000	10	...........
	40	0.546667	9.29187E-001	5.99406E-003	0.00000E+000	5.56960E-003	3.59960E-001	-1.17397E+000	3.57660E+000	10	...........
	41	0.56	9.35286E-001	5.98996E-003	0.00000E+000	5.60233E-003	3.59960E-001	-1.16404E+000	3.57660E+000	10	...........
	42	0.573333	9.41297E-001	5.98885E-003	0.00000E+000	5.63729E-003	3.59960E-001	-1.16303E+000	3.57660E+000	10	...........
	43	0.586667	9.47303E-001	5.99437E-003	0.00000E+000	5.67848E-003	3.59960E-001	-1.17410E+000	3.57660E+000	10	...........
	44	0.6	9.53265E-001	5.99712E-003	0.00000E+000	5.71685E-003	3.59960E-001	-1.16388E+000	3.57660E+000	10	...........
	45	0.613333	9.59141E-001	5.99152E-003	0.00000E+000	5.74671E-003	3.59960E-001	-1.16286E+000	3.57660E+000	10	...........
	46	0.626667	9.64965E-001	5.99026E-003	0.00000E+000	5.78039E-003	3.59960E-001	-1.17410E+000	3.57660E+000	10	...........
	47	0.64	9.70812E-001	5.99514E-003	0.00000E+000	5.82015E-003	3.59960E-001	-1.16405E+000	3.57660E+000	10	...........
	48	0.653333	9.76573E-001	5.99081E-003	0.00000E+000	5.85046E-003	3.59960E-001	-1.16304E+000	3.57660E+000	10	...........
	49	0.666667	9.82229E-001	5.99517E-003	0.00000E+000	5.88863E-003	3.59960E-001	-1.17395E+000	3.57660E+000	10	...........
	50	0.68	9.87834E-001	5.99256E-003	0.00000E+000	5.91966E-003	3.59960E-001	-1.16397E+000	3.57660E+000	10	...........
	51	0.693333	9.93417E-001	5.99783E-003	0.00000E+000	5.95834E-003	3.59960E-001	-1.16309E+000	3.57660E+000	10	...........
	52	0.703333	9.98293E-001	5.99397E-003	0.00000E+000	5.98374E-003	3.59960E-001	-1.17540E+000	3.57660E+000	10	...........
STARTTIMEOFFSET	QUANT	1457.291	Start Time Offset (s)