File: Data/CV_CRGO300517_1/PWRCCD_CRGO300517_1/CHARGE_DISCHARGE/CHARGE_#44.DTA
EXPLAIN
TAG	PWR800_CHARGE
TITLE	LABEL	PWR Cyclic Charge Discharge (Cell) - Charge Step	Test &Identifier
DATE	LABEL	22-6-2017	Date
TIME	LABEL	15:36:59	Time
NOTES	NOTES	3	&Notes...
	supercap test cell
	0.6mg
	6M KOH
PSTAT	PSTAT	IFC5000-01520	Potentiostat
CAPACITY	QUANT	1.00000E-003	Capacity (A-hr)
CELLTYPE	SELECTOR	1	&Cell Type
WORKINGCONNECTION	SELECTOR	0	&Working Lead
MAXCHARGETIME	VARIABLEANDUNITS	1.00000E+002	s	1.00000E+002	second(s)	Max &Charge Time
CHARGECURRENT	QUANT	6.00000E-003	&Charge Current (A)
VOLTAGEFINISH	TWOPARAM	F	1.00000E-003	3.60000E+003	&Voltage Finish	 I (A) < 	Max Time(s)
SAMPLETIME	QUANT	1.00000E-002	Sa&mple Period (s)
CHARGESTOPAT1	MULTIPARAM	4	1.00000E+000	Charge Stop At &1	Voltage > Limit	V
CHARGESTOPAT2	MULTIPARAM	0	0.00000E+000	Charge Stop At &2	None	N/A
AESBHCSELECTOR	TOGGLE	F	Save Both Half Cells
IRCOMP	TOGGLE	F	IR &Measure
EOC	QUANT	0	Open Circuit (V)
SEQUENCER	TOGGLE	TRUE	Run as Sequence
PSTATMODEL	IQUANT	53	Pstat Model
PSTATSECTION	LABEL	IFC5000-01520	Pstat Section
PSTATSERIALNO	LABEL	01520	Pstat Serial Number
CTRLMODE	IQUANT	0	Control Mode
ELECTROMETER	IQUANT	1	RE=0 or CS=1
IESTAB	IQUANT	0	I/E Stability
CASPEED	IQUANT	4	Control Amp Speed
CONVENTION	IQUANT	1	Current Convention
ICHRANGE	IQUANT	2	Ich Range
ICHRANGEMODE	TOGGLE	T	Ich Auto Range
ICHOFFSETENABLE	TOGGLE	F	Ich Offset Enable
ICHOFFSET	QUANT	0	Ich Offset (V)
ICHFILTER	IQUANT	1	Ich Filter
VCHRANGE	IQUANT	2	Vch Range
VCHRANGEMODE	TOGGLE	T	Vch Auto Range
VCHOFFSETENABLE	TOGGLE	F	Vch Offset Enable
VCHOFFSET	QUANT	0	Vch Offset (V)
VCHFILTER	IQUANT	1	Vch Filter
IERANGELOWERLIMIT	IQUANT	9	I/E Range Lower Limit
IERANGEMODE	TOGGLE	F	I/E AutoRange
IERANGE	IQUANT	10	I/E Range
ACHSELECT	IQUANT	1	Ach Select
ACHRANGE	IQUANT	2	Ach Range
ACHOFFSETENABLE	TOGGLE	F	Ach Offset Enable
ACHOFFSET	QUANT	0	Ach Offset (V)
ACHFILTER	IQUANT	1	Ach Filter
CABLEID	IQUANT	14	Cable ID
DCCALDATE	LABEL	20-10-2016	DC Calibration Date
ACCALDATE	LABEL	12/3/2015	AC Calibration Date
FRAMEWORKVERSION	QUANT	7.01	Framework Version
INSTRUMENTVERSION	LABEL	4.00	Instrument Version
CURVE	TABLE	75
	Pt	T	Vf	Im	Vu	Pwr	Sig	Ach	Temp	IERange	Over
	#	s	V	A	V	W	V	V	deg C	#	bits
	0	0.013333	5.72391E-001	5.99018E-003	0.00000E+000	3.42873E-003	3.59960E-001	-1.04334E+000	3.57860E+000	10	...........
	1	0.026667	5.80450E-001	5.99247E-003	0.00000E+000	3.47833E-003	3.59960E-001	-1.03551E+000	3.57860E+000	10	...........
	2	0.04	5.87862E-001	5.99382E-003	0.00000E+000	3.52354E-003	3.59960E-001	-1.03120E+000	3.57860E+000	10	...........
	3	0.053333	5.94879E-001	5.99451E-003	0.00000E+000	3.56601E-003	3.59960E-001	-1.04298E+000	3.57860E+000	10	...........
	4	0.066667	6.01584E-001	5.99468E-003	0.00000E+000	3.60630E-003	3.59960E-001	-1.03569E+000	3.57860E+000	10	...........
	5	0.08	6.08132E-001	5.99756E-003	0.00000E+000	3.64730E-003	3.59960E-001	-1.03142E+000	3.57860E+000	10	...........
	6	0.093333	6.14548E-001	5.99452E-003	0.00000E+000	3.68392E-003	3.59960E-001	-1.04309E+000	3.57860E+000	10	...........
	7	0.106667	6.20879E-001	5.99638E-003	0.00000E+000	3.72302E-003	3.59960E-001	-1.03576E+000	3.57860E+000	10	...........
	8	0.12	6.27051E-001	5.99489E-003	0.00000E+000	3.75910E-003	3.59960E-001	-1.03119E+000	3.57860E+000	10	...........
	9	0.133333	6.33160E-001	5.99064E-003	0.00000E+000	3.79303E-003	3.59960E-001	-1.04304E+000	3.57860E+000	10	...........
	10	0.146667	6.39221E-001	5.99353E-003	0.00000E+000	3.83119E-003	3.59960E-001	-1.03590E+000	3.57860E+000	10	...........
	11	0.16	6.45262E-001	5.99811E-003	0.00000E+000	3.87035E-003	3.59960E-001	-1.03119E+000	3.57860E+000	10	...........
	12	0.173333	6.51219E-001	5.99316E-003	0.00000E+000	3.90286E-003	3.59960E-001	-1.04285E+000	3.57860E+000	10	...........
	13	0.186667	6.57156E-001	5.99096E-003	0.00000E+000	3.93700E-003	3.59960E-001	-1.03544E+000	3.57860E+000	10	...........
	14	0.2	6.63028E-001	5.99351E-003	0.00000E+000	3.97387E-003	3.59960E-001	-1.03116E+000	3.57860E+000	10	...........
	15	0.213333	6.68932E-001	5.99671E-003	0.00000E+000	4.01139E-003	3.59960E-001	-1.04290E+000	3.57860E+000	10	...........
	16	0.226667	6.74801E-001	5.99420E-003	0.00000E+000	4.04489E-003	3.59960E-001	-1.03571E+000	3.57860E+000	10	...........
	17	0.24	6.80593E-001	5.99176E-003	0.00000E+000	4.07795E-003	3.59960E-001	-1.03110E+000	3.57811E+000	10	...........
	18	0.253333	6.86384E-001	5.99819E-003	0.00000E+000	4.11707E-003	3.59960E-001	-1.04292E+000	3.57730E+000	10	...........
	19	0.266667	6.92156E-001	5.99432E-003	0.00000E+000	4.14901E-003	3.59960E-001	-1.03582E+000	3.57730E+000	10	...........
	20	0.28	6.97924E-001	5.99514E-003	0.00000E+000	4.18415E-003	3.59960E-001	-1.03136E+000	3.57730E+000	10	...........
	21	0.293333	7.03667E-001	5.99164E-003	0.00000E+000	4.21612E-003	3.59960E-001	-1.04273E+000	3.57730E+000	10	...........
	22	0.306667	7.09428E-001	5.99534E-003	0.00000E+000	4.25326E-003	3.59960E-001	-1.03542E+000	3.57730E+000	10	...........
	23	0.32	7.15174E-001	5.99988E-003	0.00000E+000	4.29096E-003	3.59960E-001	-1.03060E+000	3.57730E+000	10	...........
	24	0.333333	7.20932E-001	5.99208E-003	0.00000E+000	4.31988E-003	3.59960E-001	-1.04229E+000	3.57730E+000	10	...........
	25	0.346667	7.26693E-001	5.99551E-003	0.00000E+000	4.35690E-003	3.59960E-001	-1.03530E+000	3.57730E+000	10	...........
	26	0.36	7.32376E-001	5.99526E-003	0.00000E+000	4.39079E-003	3.59960E-001	-1.03060E+000	3.57730E+000	10	...........
	27	0.373333	7.38118E-001	5.99934E-003	0.00000E+000	4.42822E-003	3.59960E-001	-1.04194E+000	3.57730E+000	10	...........
	28	0.386667	7.43841E-001	5.99633E-003	0.00000E+000	4.46031E-003	3.59960E-001	-1.03500E+000	3.57730E+000	10	...........
	29	0.4	7.49539E-001	5.99383E-003	0.00000E+000	4.49261E-003	3.59960E-001	-1.03064E+000	3.57730E+000	10	...........
	30	0.413333	7.55264E-001	5.99257E-003	0.00000E+000	4.52597E-003	3.59960E-001	-1.04222E+000	3.57730E+000	10	...........
	31	0.426667	7.60996E-001	5.99537E-003	0.00000E+000	4.56245E-003	3.59960E-001	-1.03508E+000	3.57730E+000	10	...........
	32	0.44	7.66660E-001	5.99500E-003	0.00000E+000	4.59613E-003	3.59960E-001	-1.03036E+000	3.57730E+000	10	...........
	33	0.453333	7.72417E-001	5.99399E-003	0.00000E+000	4.62986E-003	3.59960E-001	-1.04190E+000	3.57730E+000	10	...........
	34	0.466667	7.78087E-001	5.99209E-003	0.00000E+000	4.66237E-003	3.59960E-001	-1.03512E+000	3.57730E+000	10	...........
	35	0.48	7.83833E-001	5.99602E-003	0.00000E+000	4.69988E-003	3.59960E-001	-1.03060E+000	3.57730E+000	10	...........
	36	0.493333	7.89510E-001	5.99465E-003	0.00000E+000	4.73283E-003	3.59960E-001	-1.04199E+000	3.57730E+000	10	...........
	37	0.506667	7.95260E-001	5.99427E-003	0.00000E+000	4.76700E-003	3.59960E-001	-1.03490E+000	3.57730E+000	10	...........
	38	0.52	8.00955E-001	5.99187E-003	0.00000E+000	4.79922E-003	3.59960E-001	-1.03032E+000	3.57730E+000	10	...........
	39	0.533333	8.06657E-001	5.99438E-003	0.00000E+000	4.83541E-003	3.59960E-001	-1.04223E+000	3.57730E+000	10	...........
	40	0.546667	8.12365E-001	5.99521E-003	0.00000E+000	4.87030E-003	3.59960E-001	-1.03564E+000	3.57730E+000	10	...........
	41	0.56	8.18069E-001	5.99708E-003	0.00000E+000	4.90602E-003	3.59960E-001	-1.03063E+000	3.57730E+000	10	...........
	42	0.573333	8.23756E-001	5.99669E-003	0.00000E+000	4.93981E-003	3.59960E-001	-1.04202E+000	3.57730E+000	10	...........
	43	0.586667	8.29447E-001	5.99503E-003	0.00000E+000	4.97256E-003	3.59960E-001	-1.03518E+000	3.57730E+000	10	...........
	44	0.6	8.35144E-001	5.99383E-003	0.00000E+000	5.00572E-003	3.59960E-001	-1.03055E+000	3.57730E+000	10	...........
	45	0.613333	8.40818E-001	5.99641E-003	0.00000E+000	5.04189E-003	3.59960E-001	-1.04205E+000	3.57730E+000	10	...........
	46	0.626667	8.46526E-001	5.99058E-003	0.00000E+000	5.07118E-003	3.59960E-001	-1.03522E+000	3.57730E+000	10	...........
	47	0.64	8.52228E-001	5.99640E-003	0.00000E+000	5.11030E-003	3.59960E-001	-1.02994E+000	3.57730E+000	10	...........
	48	0.653333	8.57921E-001	5.99187E-003	0.00000E+000	5.14056E-003	3.59960E-001	-1.04132E+000	3.57730E+000	10	...........
	49	0.666667	8.63624E-001	5.99652E-003	0.00000E+000	5.17874E-003	3.59960E-001	-1.03479E+000	3.57730E+000	10	...........
	50	0.68	8.69308E-001	5.99381E-003	0.00000E+000	5.21047E-003	3.59960E-001	-1.02990E+000	3.57730E+000	10	...........
	51	0.693333	8.74994E-001	5.99555E-003	0.00000E+000	5.24607E-003	3.59960E-001	-1.04146E+000	3.57730E+000	10	...........
	52	0.706667	8.80665E-001	5.99715E-003	0.00000E+000	5.28148E-003	3.59960E-001	-1.03479E+000	3.57730E+000	10	...........
	53	0.72	8.86347E-001	5.99313E-003	0.00000E+000	5.31200E-003	3.59960E-001	-1.02977E+000	3.57730E+000	10	...........
	54	0.733333	8.91984E-001	5.99374E-003	0.00000E+000	5.34632E-003	3.59960E-001	-1.04143E+000	3.57730E+000	10	...........
	55	0.746667	8.97612E-001	5.99700E-003	0.00000E+000	5.38298E-003	3.59960E-001	-1.03499E+000	3.57730E+000	10	...........
	56	0.76	9.03247E-001	5.99803E-003	0.00000E+000	5.41770E-003	3.59960E-001	-1.02997E+000	3.57730E+000	10	...........
	57	0.773333	9.08859E-001	5.99573E-003	0.00000E+000	5.44927E-003	3.59960E-001	-1.04090E+000	3.57730E+000	10	...........
	58	0.786667	9.14466E-001	5.99574E-003	0.00000E+000	5.48290E-003	3.59960E-001	-1.03472E+000	3.57730E+000	10	...........
	59	0.8	9.20064E-001	5.99450E-003	0.00000E+000	5.51533E-003	3.59960E-001	-1.02989E+000	3.57730E+000	10	...........
	60	0.813333	9.25665E-001	5.99344E-003	0.00000E+000	5.54792E-003	3.59960E-001	-1.04141E+000	3.57730E+000	10	...........
	61	0.826667	9.31226E-001	5.99481E-003	0.00000E+000	5.58253E-003	3.59960E-001	-1.03494E+000	3.57730E+000	10	...........
	62	0.84	9.36783E-001	5.99441E-003	0.00000E+000	5.61546E-003	3.59960E-001	-1.02962E+000	3.57730E+000	10	...........
	63	0.853333	9.42328E-001	5.99368E-003	0.00000E+000	5.64801E-003	3.59960E-001	-1.04123E+000	3.57730E+000	10	...........
	64	0.866667	9.47838E-001	5.99557E-003	0.00000E+000	5.68283E-003	3.59960E-001	-1.03516E+000	3.57730E+000	10	...........
	65	0.88	9.53329E-001	5.99202E-003	0.00000E+000	5.71237E-003	3.59960E-001	-1.03009E+000	3.57730E+000	10	...........
	66	0.893333	9.58826E-001	5.99128E-003	0.00000E+000	5.74459E-003	3.59960E-001	-1.04150E+000	3.57730E+000	10	...........
	67	0.906667	9.64239E-001	5.99441E-003	0.00000E+000	5.78004E-003	3.59960E-001	-1.03511E+000	3.57730E+000	10	...........
	68	0.92	9.69651E-001	5.99564E-003	0.00000E+000	5.81368E-003	3.59960E-001	-1.03000E+000	3.57730E+000	10	...........
	69	0.933333	9.75093E-001	5.99110E-003	0.00000E+000	5.84188E-003	3.59960E-001	-1.04127E+000	3.57730E+000	10	...........
	70	0.946667	9.80425E-001	5.99465E-003	0.00000E+000	5.87730E-003	3.59960E-001	-1.03522E+000	3.57730E+000	10	...........
	71	0.96	9.85762E-001	5.99542E-003	0.00000E+000	5.91006E-003	3.59960E-001	-1.03011E+000	3.57730E+000	10	...........
	72	0.97333	9.91059E-001	5.99788E-003	0.00000E+000	5.94426E-003	3.59960E-001	-1.04077E+000	3.57730E+000	10	...........
	73	0.98667	9.96331E-001	5.99504E-003	0.00000E+000	5.97305E-003	3.59960E-001	-1.03459E+000	3.57730E+000	10	...........
	74	0.99167	9.99981E-001	5.99446E-003	0.00000E+000	5.99434E-003	3.59960E-001	-1.04056E+000	3.57730E+000	10	...........
STARTTIMEOFFSET	QUANT	88.78	Start Time Offset (s)