File: Data/CV_CRGO300517_1/PWRCCD_CRGO300517_1/CHARGE_DISCHARGE/CHARGE_#297.DTA
EXPLAIN
TAG	PWR800_CHARGE
TITLE	LABEL	PWR Cyclic Charge Discharge (Cell) - Charge Step	Test &Identifier
DATE	LABEL	22-6-2017	Date
TIME	LABEL	15:47:48	Time
NOTES	NOTES	3	&Notes...
	supercap test cell
	0.6mg
	6M KOH
PSTAT	PSTAT	IFC5000-01520	Potentiostat
CAPACITY	QUANT	1.00000E-003	Capacity (A-hr)
CELLTYPE	SELECTOR	1	&Cell Type
WORKINGCONNECTION	SELECTOR	0	&Working Lead
MAXCHARGETIME	VARIABLEANDUNITS	1.00000E+002	s	1.00000E+002	second(s)	Max &Charge Time
CHARGECURRENT	QUANT	6.00000E-003	&Charge Current (A)
VOLTAGEFINISH	TWOPARAM	F	1.00000E-003	3.60000E+003	&Voltage Finish	 I (A) < 	Max Time(s)
SAMPLETIME	QUANT	1.00000E-002	Sa&mple Period (s)
CHARGESTOPAT1	MULTIPARAM	4	1.00000E+000	Charge Stop At &1	Voltage > Limit	V
CHARGESTOPAT2	MULTIPARAM	0	0.00000E+000	Charge Stop At &2	None	N/A
AESBHCSELECTOR	TOGGLE	F	Save Both Half Cells
IRCOMP	TOGGLE	F	IR &Measure
EOC	QUANT	0	Open Circuit (V)
SEQUENCER	TOGGLE	TRUE	Run as Sequence
PSTATMODEL	IQUANT	53	Pstat Model
PSTATSECTION	LABEL	IFC5000-01520	Pstat Section
PSTATSERIALNO	LABEL	01520	Pstat Serial Number
CTRLMODE	IQUANT	0	Control Mode
ELECTROMETER	IQUANT	1	RE=0 or CS=1
IESTAB	IQUANT	0	I/E Stability
CASPEED	IQUANT	4	Control Amp Speed
CONVENTION	IQUANT	1	Current Convention
ICHRANGE	IQUANT	2	Ich Range
ICHRANGEMODE	TOGGLE	T	Ich Auto Range
ICHOFFSETENABLE	TOGGLE	F	Ich Offset Enable
ICHOFFSET	QUANT	0	Ich Offset (V)
ICHFILTER	IQUANT	1	Ich Filter
VCHRANGE	IQUANT	2	Vch Range
VCHRANGEMODE	TOGGLE	T	Vch Auto Range
VCHOFFSETENABLE	TOGGLE	F	Vch Offset Enable
VCHOFFSET	QUANT	0	Vch Offset (V)
VCHFILTER	IQUANT	1	Vch Filter
IERANGELOWERLIMIT	IQUANT	9	I/E Range Lower Limit
IERANGEMODE	TOGGLE	F	I/E AutoRange
IERANGE	IQUANT	10	I/E Range
ACHSELECT	IQUANT	1	Ach Select
ACHRANGE	IQUANT	2	Ach Range
ACHOFFSETENABLE	TOGGLE	F	Ach Offset Enable
ACHOFFSET	QUANT	0	Ach Offset (V)
ACHFILTER	IQUANT	1	Ach Filter
CABLEID	IQUANT	14	Cable ID
DCCALDATE	LABEL	20-10-2016	DC Calibration Date
ACCALDATE	LABEL	12/3/2015	AC Calibration Date
FRAMEWORKVERSION	QUANT	7.01	Framework Version
INSTRUMENTVERSION	LABEL	4.00	Instrument Version
CURVE	TABLE	63
	Pt	T	Vf	Im	Vu	Pwr	Sig	Ach	Temp	IERange	Over
	#	s	V	A	V	W	V	V	deg C	#	bits
	0	0.013333	6.15951E-001	5.99394E-003	0.00000E+000	3.69197E-003	3.59960E-001	-1.11463E+000	3.57810E+000	10	...........
	1	0.026667	6.24553E-001	5.99137E-003	0.00000E+000	3.74193E-003	3.59960E-001	-1.10460E+000	3.57810E+000	10	...........
	2	0.04	6.32481E-001	5.99329E-003	0.00000E+000	3.79064E-003	3.59960E-001	-1.10590E+000	3.57810E+000	10	...........
	3	0.053333	6.40016E-001	5.98975E-003	0.00000E+000	3.83354E-003	3.59960E-001	-1.11466E+000	3.57810E+000	10	...........
	4	0.066667	6.47250E-001	5.99235E-003	0.00000E+000	3.87855E-003	3.59960E-001	-1.10468E+000	3.57810E+000	10	...........
	5	0.08	6.54305E-001	5.98951E-003	0.00000E+000	3.91897E-003	3.59960E-001	-1.10553E+000	3.57810E+000	10	...........
	6	0.093333	6.61187E-001	5.99133E-003	0.00000E+000	3.96139E-003	3.59960E-001	-1.11466E+000	3.57810E+000	10	...........
	7	0.106667	6.67983E-001	5.99620E-003	0.00000E+000	4.00536E-003	3.59960E-001	-1.10485E+000	3.57810E+000	10	...........
	8	0.12	6.74646E-001	5.99288E-003	0.00000E+000	4.04308E-003	3.59960E-001	-1.10575E+000	3.57810E+000	10	...........
	9	0.133333	6.81286E-001	5.99402E-003	0.00000E+000	4.08364E-003	3.59960E-001	-1.11474E+000	3.57810E+000	10	...........
	10	0.146667	6.87845E-001	5.99236E-003	0.00000E+000	4.12182E-003	3.59960E-001	-1.10489E+000	3.57810E+000	10	...........
	11	0.16	6.94363E-001	5.99138E-003	0.00000E+000	4.16020E-003	3.59960E-001	-1.10580E+000	3.57810E+000	10	...........
	12	0.173333	7.00850E-001	5.99548E-003	0.00000E+000	4.20193E-003	3.59960E-001	-1.11474E+000	3.57810E+000	10	...........
	13	0.186667	7.07271E-001	5.99227E-003	0.00000E+000	4.23816E-003	3.59960E-001	-1.10443E+000	3.57810E+000	10	...........
	14	0.2	7.13682E-001	5.99322E-003	0.00000E+000	4.27725E-003	3.59960E-001	-1.10525E+000	3.57810E+000	10	...........
	15	0.213333	7.20133E-001	5.99094E-003	0.00000E+000	4.31428E-003	3.59960E-001	-1.11412E+000	3.57810E+000	10	...........
	16	0.226667	7.26533E-001	5.99126E-003	0.00000E+000	4.35285E-003	3.59960E-001	-1.10383E+000	3.57810E+000	10	...........
	17	0.24	7.32829E-001	5.99264E-003	0.00000E+000	4.39158E-003	3.59960E-001	-1.10481E+000	3.57810E+000	10	...........
	18	0.253333	7.39166E-001	5.99227E-003	0.00000E+000	4.42928E-003	3.59960E-001	-1.11403E+000	3.57810E+000	10	...........
	19	0.266667	7.45522E-001	5.99539E-003	0.00000E+000	4.46970E-003	3.59960E-001	-1.10401E+000	3.57810E+000	10	...........
	20	0.28	7.51821E-001	5.99527E-003	0.00000E+000	4.50737E-003	3.59960E-001	-1.10487E+000	3.57810E+000	10	...........
	21	0.293333	7.58118E-001	5.99329E-003	0.00000E+000	4.54362E-003	3.59960E-001	-1.11372E+000	3.57810E+000	10	...........
	22	0.306667	7.64389E-001	5.99084E-003	0.00000E+000	4.57933E-003	3.59960E-001	-1.10367E+000	3.57810E+000	10	...........
	23	0.32	7.70695E-001	5.99435E-003	0.00000E+000	4.61982E-003	3.59960E-001	-1.10464E+000	3.57810E+000	10	...........
	24	0.333333	7.76908E-001	5.99449E-003	0.00000E+000	4.65717E-003	3.59960E-001	-1.11371E+000	3.57810E+000	10	...........
	25	0.346667	7.83199E-001	5.99460E-003	0.00000E+000	4.69497E-003	3.59960E-001	-1.10342E+000	3.57810E+000	10	...........
	26	0.36	7.89419E-001	5.99199E-003	0.00000E+000	4.73019E-003	3.59960E-001	-1.10416E+000	3.57810E+000	10	...........
	27	0.373333	7.95710E-001	5.99205E-003	0.00000E+000	4.76793E-003	3.59960E-001	-1.11346E+000	3.57810E+000	10	...........
	28	0.386667	8.01899E-001	5.99259E-003	0.00000E+000	4.80546E-003	3.59960E-001	-1.10320E+000	3.57810E+000	10	...........
	29	0.4	8.08092E-001	5.99273E-003	0.00000E+000	4.84267E-003	3.59960E-001	-1.10386E+000	3.57810E+000	10	...........
	30	0.413333	8.14287E-001	5.99462E-003	0.00000E+000	4.88133E-003	3.59960E-001	-1.11295E+000	3.57810E+000	10	...........
	31	0.426667	8.20504E-001	5.99197E-003	0.00000E+000	4.91643E-003	3.59960E-001	-1.10275E+000	3.57810E+000	10	...........
	32	0.44	8.26716E-001	5.99536E-003	0.00000E+000	4.95646E-003	3.59960E-001	-1.10372E+000	3.57810E+000	10	...........
	33	0.453333	8.32872E-001	5.99245E-003	0.00000E+000	4.99094E-003	3.59960E-001	-1.11275E+000	3.57810E+000	10	...........
	34	0.466667	8.39009E-001	5.99361E-003	0.00000E+000	5.02870E-003	3.59960E-001	-1.10237E+000	3.57802E+000	10	...........
	35	0.48	8.45200E-001	5.98980E-003	0.00000E+000	5.06258E-003	3.59960E-001	-1.10299E+000	3.57700E+000	10	...........
	36	0.493333	8.51358E-001	5.99088E-003	0.00000E+000	5.10038E-003	3.59960E-001	-1.11203E+000	3.57700E+000	10	...........
	37	0.506667	8.57443E-001	5.99474E-003	0.00000E+000	5.14015E-003	3.59960E-001	-1.10194E+000	3.57700E+000	10	...........
	38	0.52	8.63562E-001	5.99715E-003	0.00000E+000	5.17891E-003	3.59960E-001	-1.10255E+000	3.57700E+000	10	...........
	39	0.533333	8.69652E-001	5.99299E-003	0.00000E+000	5.21181E-003	3.59960E-001	-1.11137E+000	3.57700E+000	10	...........
	40	0.546667	8.75701E-001	5.99711E-003	0.00000E+000	5.25167E-003	3.59960E-001	-1.10076E+000	3.57700E+000	10	...........
	41	0.56	8.81769E-001	5.99646E-003	0.00000E+000	5.28749E-003	3.59960E-001	-1.10173E+000	3.57700E+000	10	...........
	42	0.573333	8.87804E-001	5.99494E-003	0.00000E+000	5.32233E-003	3.59960E-001	-1.11124E+000	3.57700E+000	10	...........
	43	0.586667	8.93800E-001	5.99410E-003	0.00000E+000	5.35753E-003	3.59960E-001	-1.10109E+000	3.57700E+000	10	...........
	44	0.6	8.99782E-001	5.99590E-003	0.00000E+000	5.39500E-003	3.59960E-001	-1.10159E+000	3.57700E+000	10	...........
	45	0.613333	9.05822E-001	5.99490E-003	0.00000E+000	5.43031E-003	3.59960E-001	-1.11087E+000	3.57700E+000	10	...........
	46	0.626667	9.11784E-001	5.99400E-003	0.00000E+000	5.46523E-003	3.59960E-001	-1.10072E+000	3.57700E+000	10	...........
	47	0.64	9.17675E-001	5.99651E-003	0.00000E+000	5.50285E-003	3.59960E-001	-1.10167E+000	3.57700E+000	10	...........
	48	0.653333	9.23623E-001	5.99536E-003	0.00000E+000	5.53745E-003	3.59960E-001	-1.11120E+000	3.57700E+000	10	...........
	49	0.666667	9.29502E-001	5.99493E-003	0.00000E+000	5.57230E-003	3.59960E-001	-1.10083E+000	3.57700E+000	10	...........
	50	0.68	9.35276E-001	5.99175E-003	0.00000E+000	5.60394E-003	3.59960E-001	-1.10155E+000	3.57700E+000	10	...........
	51	0.693333	9.41046E-001	5.99234E-003	0.00000E+000	5.63907E-003	3.59960E-001	-1.11112E+000	3.57700E+000	10	...........
	52	0.706667	9.46876E-001	5.99223E-003	0.00000E+000	5.67389E-003	3.59960E-001	-1.10114E+000	3.57700E+000	10	...........
	53	0.72	9.52673E-001	5.99450E-003	0.00000E+000	5.71080E-003	3.59960E-001	-1.10195E+000	3.57700E+000	10	...........
	54	0.733333	9.58337E-001	5.98794E-003	0.00000E+000	5.73847E-003	3.59960E-001	-1.11108E+000	3.57700E+000	10	...........
	55	0.746667	9.63966E-001	5.99031E-003	0.00000E+000	5.77445E-003	3.59960E-001	-1.10094E+000	3.57700E+000	10	...........
	56	0.76	9.69566E-001	5.99783E-003	0.00000E+000	5.81529E-003	3.59960E-001	-1.10191E+000	3.57700E+000	10	...........
	57	0.773333	9.75170E-001	5.99285E-003	0.00000E+000	5.84405E-003	3.59960E-001	-1.11145E+000	3.57700E+000	10	...........
	58	0.786667	9.80728E-001	5.99539E-003	0.00000E+000	5.87984E-003	3.59960E-001	-1.10129E+000	3.57700E+000	10	...........
	59	0.8	9.86219E-001	5.99006E-003	0.00000E+000	5.90751E-003	3.59960E-001	-1.10195E+000	3.57700E+000	10	...........
	60	0.813333	9.91717E-001	5.99029E-003	0.00000E+000	5.94067E-003	3.59960E-001	-1.11117E+000	3.57700E+000	10	...........
	61	0.826667	9.97160E-001	5.99307E-003	0.00000E+000	5.97605E-003	3.59960E-001	-1.10109E+000	3.57700E+000	10	...........
	62	0.828333	1.00020E+000	5.98954E-003	0.00000E+000	5.99076E-003	3.59960E-001	-1.11427E+000	3.57700E+000	10	...........
STARTTIMEOFFSET	QUANT	536.1949	Start Time Offset (s)