File: Data/CV_CRGO300517_1/PWRCCD_CRGO300517_1/CHARGE_DISCHARGE/CHARGE_#94.DTA
EXPLAIN
TAG	PWR800_CHARGE
TITLE	LABEL	PWR Cyclic Charge Discharge (Cell) - Charge Step	Test &Identifier
DATE	LABEL	22-6-2017	Date
TIME	LABEL	15:39:14	Time
NOTES	NOTES	3	&Notes...
	supercap test cell
	0.6mg
	6M KOH
PSTAT	PSTAT	IFC5000-01520	Potentiostat
CAPACITY	QUANT	1.00000E-003	Capacity (A-hr)
CELLTYPE	SELECTOR	1	&Cell Type
WORKINGCONNECTION	SELECTOR	0	&Working Lead
MAXCHARGETIME	VARIABLEANDUNITS	1.00000E+002	s	1.00000E+002	second(s)	Max &Charge Time
CHARGECURRENT	QUANT	6.00000E-003	&Charge Current (A)
VOLTAGEFINISH	TWOPARAM	F	1.00000E-003	3.60000E+003	&Voltage Finish	 I (A) < 	Max Time(s)
SAMPLETIME	QUANT	1.00000E-002	Sa&mple Period (s)
CHARGESTOPAT1	MULTIPARAM	4	1.00000E+000	Charge Stop At &1	Voltage > Limit	V
CHARGESTOPAT2	MULTIPARAM	0	0.00000E+000	Charge Stop At &2	None	N/A
AESBHCSELECTOR	TOGGLE	F	Save Both Half Cells
IRCOMP	TOGGLE	F	IR &Measure
EOC	QUANT	0	Open Circuit (V)
SEQUENCER	TOGGLE	TRUE	Run as Sequence
PSTATMODEL	IQUANT	53	Pstat Model
PSTATSECTION	LABEL	IFC5000-01520	Pstat Section
PSTATSERIALNO	LABEL	01520	Pstat Serial Number
CTRLMODE	IQUANT	0	Control Mode
ELECTROMETER	IQUANT	1	RE=0 or CS=1
IESTAB	IQUANT	0	I/E Stability
CASPEED	IQUANT	4	Control Amp Speed
CONVENTION	IQUANT	1	Current Convention
ICHRANGE	IQUANT	2	Ich Range
ICHRANGEMODE	TOGGLE	T	Ich Auto Range
ICHOFFSETENABLE	TOGGLE	F	Ich Offset Enable
ICHOFFSET	QUANT	0	Ich Offset (V)
ICHFILTER	IQUANT	1	Ich Filter
VCHRANGE	IQUANT	2	Vch Range
VCHRANGEMODE	TOGGLE	T	Vch Auto Range
VCHOFFSETENABLE	TOGGLE	F	Vch Offset Enable
VCHOFFSET	QUANT	0	Vch Offset (V)
VCHFILTER	IQUANT	1	Vch Filter
IERANGELOWERLIMIT	IQUANT	9	I/E Range Lower Limit
IERANGEMODE	TOGGLE	F	I/E AutoRange
IERANGE	IQUANT	10	I/E Range
ACHSELECT	IQUANT	1	Ach Select
ACHRANGE	IQUANT	2	Ach Range
ACHOFFSETENABLE	TOGGLE	F	Ach Offset Enable
ACHOFFSET	QUANT	0	Ach Offset (V)
ACHFILTER	IQUANT	1	Ach Filter
CABLEID	IQUANT	14	Cable ID
DCCALDATE	LABEL	20-10-2016	DC Calibration Date
ACCALDATE	LABEL	12/3/2015	AC Calibration Date
FRAMEWORKVERSION	QUANT	7.01	Framework Version
INSTRUMENTVERSION	LABEL	4.00	Instrument Version
CURVE	TABLE	70
	Pt	T	Vf	Im	Vu	Pwr	Sig	Ach	Temp	IERange	Over
	#	s	V	A	V	W	V	V	deg C	#	bits
	0	0.013333	5.87260E-001	5.99007E-003	0.00000E+000	3.51773E-003	3.59960E-001	-1.05601E+000	3.57840E+000	10	...........
	1	0.026667	5.95499E-001	5.99336E-003	0.00000E+000	3.56904E-003	3.59960E-001	-1.06803E+000	3.57840E+000	10	...........
	2	0.04	6.03038E-001	5.99497E-003	0.00000E+000	3.61520E-003	3.59960E-001	-1.05737E+000	3.57840E+000	10	...........
	3	0.053333	6.10182E-001	5.99261E-003	0.00000E+000	3.65659E-003	3.59960E-001	-1.05559E+000	3.57840E+000	10	...........
	4	0.066667	6.17117E-001	5.99250E-003	0.00000E+000	3.69808E-003	3.59960E-001	-1.06759E+000	3.57840E+000	10	...........
	5	0.08	6.23844E-001	5.99145E-003	0.00000E+000	3.73773E-003	3.59960E-001	-1.05697E+000	3.57840E+000	10	...........
	6	0.093333	6.30402E-001	5.99768E-003	0.00000E+000	3.78095E-003	3.59960E-001	-1.05561E+000	3.57840E+000	10	...........
	7	0.106667	6.36810E-001	5.99343E-003	0.00000E+000	3.81667E-003	3.59960E-001	-1.06771E+000	3.57840E+000	10	...........
	8	0.12	6.43165E-001	5.99355E-003	0.00000E+000	3.85484E-003	3.59960E-001	-1.05704E+000	3.57840E+000	10	...........
	9	0.133333	6.49441E-001	5.99311E-003	0.00000E+000	3.89217E-003	3.59960E-001	-1.05515E+000	3.57840E+000	10	...........
	10	0.146667	6.55673E-001	5.98801E-003	0.00000E+000	3.92618E-003	3.59960E-001	-1.06745E+000	3.57840E+000	10	...........
	11	0.16	6.61803E-001	5.99717E-003	0.00000E+000	3.96894E-003	3.59960E-001	-1.05728E+000	3.57840E+000	10	...........
	12	0.173333	6.67989E-001	5.99586E-003	0.00000E+000	4.00516E-003	3.59960E-001	-1.05551E+000	3.57840E+000	10	...........
	13	0.186667	6.74050E-001	5.99580E-003	0.00000E+000	4.04147E-003	3.59960E-001	-1.06733E+000	3.57840E+000	10	...........
	14	0.2	6.80116E-001	5.99326E-003	0.00000E+000	4.07611E-003	3.59960E-001	-1.05709E+000	3.57840E+000	10	...........
	15	0.213333	6.86137E-001	5.99501E-003	0.00000E+000	4.11340E-003	3.59960E-001	-1.05504E+000	3.57840E+000	10	...........
	16	0.226667	6.92141E-001	5.99475E-003	0.00000E+000	4.14922E-003	3.59960E-001	-1.06727E+000	3.57840E+000	10	...........
	17	0.24	6.98150E-001	5.99407E-003	0.00000E+000	4.18476E-003	3.59960E-001	-1.05713E+000	3.57840E+000	10	...........
	18	0.253333	7.04125E-001	5.99258E-003	0.00000E+000	4.21952E-003	3.59960E-001	-1.05474E+000	3.57840E+000	10	...........
	19	0.266667	7.10089E-001	5.99329E-003	0.00000E+000	4.25577E-003	3.59960E-001	-1.06659E+000	3.57840E+000	10	...........
	20	0.28	7.16074E-001	5.99531E-003	0.00000E+000	4.29309E-003	3.59960E-001	-1.05677E+000	3.57840E+000	10	...........
	21	0.293333	7.22042E-001	5.99387E-003	0.00000E+000	4.32783E-003	3.59960E-001	-1.05470E+000	3.57840E+000	10	...........
	22	0.306667	7.27991E-001	5.99462E-003	0.00000E+000	4.36403E-003	3.59960E-001	-1.06655E+000	3.57840E+000	10	...........
	23	0.32	7.33899E-001	5.99530E-003	0.00000E+000	4.39995E-003	3.59960E-001	-1.05682E+000	3.57840E+000	10	...........
	24	0.333333	7.39800E-001	5.99746E-003	0.00000E+000	4.43693E-003	3.59960E-001	-1.05420E+000	3.57840E+000	10	...........
	25	0.346667	7.45705E-001	5.99493E-003	0.00000E+000	4.47045E-003	3.59960E-001	-1.06615E+000	3.57840E+000	10	...........
	26	0.36	7.51600E-001	5.99667E-003	0.00000E+000	4.50710E-003	3.59960E-001	-1.05688E+000	3.57840E+000	10	...........
	27	0.373333	7.57521E-001	5.99244E-003	0.00000E+000	4.53939E-003	3.59960E-001	-1.05453E+000	3.57840E+000	10	...........
	28	0.386667	7.63408E-001	5.99043E-003	0.00000E+000	4.57314E-003	3.59960E-001	-1.06634E+000	3.57840E+000	10	...........
	29	0.4	7.69306E-001	5.99320E-003	0.00000E+000	4.61060E-003	3.59960E-001	-1.05681E+000	3.57840E+000	10	...........
	30	0.413333	7.75163E-001	5.99389E-003	0.00000E+000	4.64624E-003	3.59960E-001	-1.05431E+000	3.57840E+000	10	...........
	31	0.426667	7.81046E-001	5.99598E-003	0.00000E+000	4.68314E-003	3.59960E-001	-1.06628E+000	3.57840E+000	10	...........
	32	0.44	7.86928E-001	5.99478E-003	0.00000E+000	4.71746E-003	3.59960E-001	-1.05727E+000	3.57840E+000	10	...........
	33	0.453333	7.92824E-001	5.99675E-003	0.00000E+000	4.75437E-003	3.59960E-001	-1.05434E+000	3.57840E+000	10	...........
	34	0.466667	7.98710E-001	5.99936E-003	0.00000E+000	4.79175E-003	3.59960E-001	-1.06612E+000	3.57840E+000	10	...........
	35	0.48	8.04579E-001	5.99496E-003	0.00000E+000	4.82342E-003	3.59960E-001	-1.05735E+000	3.57815E+000	10	...........
	36	0.493333	8.10455E-001	5.99706E-003	0.00000E+000	4.86034E-003	3.59960E-001	-1.05470E+000	3.57740E+000	10	...........
	37	0.506667	8.16295E-001	5.99401E-003	0.00000E+000	4.89288E-003	3.59960E-001	-1.06646E+000	3.57740E+000	10	...........
	38	0.52	8.22202E-001	5.99467E-003	0.00000E+000	4.92883E-003	3.59960E-001	-1.05736E+000	3.57740E+000	10	...........
	39	0.533333	8.28069E-001	5.99495E-003	0.00000E+000	4.96423E-003	3.59960E-001	-1.05409E+000	3.57740E+000	10	...........
	40	0.546667	8.33888E-001	5.99601E-003	0.00000E+000	5.00000E-003	3.59960E-001	-1.06592E+000	3.57740E+000	10	...........
	41	0.56	8.39676E-001	5.99316E-003	0.00000E+000	5.03231E-003	3.59960E-001	-1.05699E+000	3.57740E+000	10	...........
	42	0.573333	8.45568E-001	5.99247E-003	0.00000E+000	5.06704E-003	3.59960E-001	-1.05378E+000	3.57740E+000	10	...........
	43	0.586667	8.51387E-001	5.99422E-003	0.00000E+000	5.10340E-003	3.59960E-001	-1.06525E+000	3.57740E+000	10	...........
	44	0.6	8.57225E-001	5.99299E-003	0.00000E+000	5.13734E-003	3.59960E-001	-1.05637E+000	3.57740E+000	10	...........
	45	0.613333	8.63030E-001	5.99471E-003	0.00000E+000	5.17361E-003	3.59960E-001	-1.05344E+000	3.57740E+000	10	...........
	46	0.626667	8.68863E-001	5.99019E-003	0.00000E+000	5.20466E-003	3.59960E-001	-1.06524E+000	3.57740E+000	10	...........
	47	0.64	8.74665E-001	5.99413E-003	0.00000E+000	5.24285E-003	3.59960E-001	-1.05694E+000	3.57740E+000	10	...........
	48	0.653333	8.80435E-001	5.99126E-003	0.00000E+000	5.27491E-003	3.59960E-001	-1.05343E+000	3.57740E+000	10	...........
	49	0.666667	8.86231E-001	5.99786E-003	0.00000E+000	5.31549E-003	3.59960E-001	-1.06460E+000	3.57740E+000	10	...........
	50	0.68	8.91969E-001	5.99200E-003	0.00000E+000	5.34468E-003	3.59960E-001	-1.05645E+000	3.57740E+000	10	...........
	51	0.693333	8.97720E-001	5.99549E-003	0.00000E+000	5.38227E-003	3.59960E-001	-1.05336E+000	3.57740E+000	10	...........
	52	0.706667	9.03491E-001	5.99410E-003	0.00000E+000	5.41562E-003	3.59960E-001	-1.06439E+000	3.57740E+000	10	...........
	53	0.72	9.09229E-001	5.99226E-003	0.00000E+000	5.44834E-003	3.59960E-001	-1.05628E+000	3.57740E+000	10	...........
	54	0.733333	9.14921E-001	5.99459E-003	0.00000E+000	5.48458E-003	3.59960E-001	-1.05250E+000	3.57740E+000	10	...........
	55	0.746667	9.20653E-001	5.99523E-003	0.00000E+000	5.51953E-003	3.59960E-001	-1.06356E+000	3.57740E+000	10	...........
	56	0.76	9.26374E-001	5.99518E-003	0.00000E+000	5.55378E-003	3.59960E-001	-1.05581E+000	3.57740E+000	10	...........
	57	0.773333	9.32011E-001	5.99285E-003	0.00000E+000	5.58541E-003	3.59960E-001	-1.05208E+000	3.57740E+000	10	...........
	58	0.786667	9.37630E-001	5.99253E-003	0.00000E+000	5.61877E-003	3.59960E-001	-1.06258E+000	3.57740E+000	10	...........
	59	0.8	9.43244E-001	5.99296E-003	0.00000E+000	5.65282E-003	3.59960E-001	-1.05480E+000	3.57740E+000	10	...........
	60	0.813333	9.48868E-001	5.99299E-003	0.00000E+000	5.68655E-003	3.59960E-001	-1.05095E+000	3.57740E+000	10	...........
	61	0.826667	9.54475E-001	5.99376E-003	0.00000E+000	5.72089E-003	3.59960E-001	-1.06155E+000	3.57740E+000	10	...........
	62	0.84	9.60000E-001	5.99286E-003	0.00000E+000	5.75315E-003	3.59960E-001	-1.05388E+000	3.57740E+000	10	...........
	63	0.853333	9.65507E-001	5.99656E-003	0.00000E+000	5.78972E-003	3.59960E-001	-1.04971E+000	3.57740E+000	10	...........
	64	0.866667	9.70971E-001	5.99347E-003	0.00000E+000	5.81948E-003	3.59960E-001	-1.06021E+000	3.57740E+000	10	...........
	65	0.88	9.76467E-001	5.99265E-003	0.00000E+000	5.85163E-003	3.59960E-001	-1.05311E+000	3.57740E+000	10	...........
	66	0.893333	9.81853E-001	5.99343E-003	0.00000E+000	5.88467E-003	3.59960E-001	-1.04871E+000	3.57740E+000	10	...........
	67	0.906667	9.87249E-001	5.99511E-003	0.00000E+000	5.91866E-003	3.59960E-001	-1.05946E+000	3.57740E+000	10	...........
	68	0.92	9.92559E-001	5.99390E-003	0.00000E+000	5.94929E-003	3.59960E-001	-1.05237E+000	3.57740E+000	10	...........
	69	0.933333	9.97877E-001	5.99248E-003	0.00000E+000	5.97975E-003	3.59960E-001	-1.04809E+000	3.57740E+000	10	...........
STARTTIMEOFFSET	QUANT	184.1083	Start Time Offset (s)