File: Data/CV_CRGO300517_1/PWRCCD_CRGO300517_1/CHARGE_DISCHARGE/CHARGE_#305.DTA
EXPLAIN
TAG	PWR800_CHARGE
TITLE	LABEL	PWR Cyclic Charge Discharge (Cell) - Charge Step	Test &Identifier
DATE	LABEL	22-6-2017	Date
TIME	LABEL	15:48:08	Time
NOTES	NOTES	3	&Notes...
	supercap test cell
	0.6mg
	6M KOH
PSTAT	PSTAT	IFC5000-01520	Potentiostat
CAPACITY	QUANT	1.00000E-003	Capacity (A-hr)
CELLTYPE	SELECTOR	1	&Cell Type
WORKINGCONNECTION	SELECTOR	0	&Working Lead
MAXCHARGETIME	VARIABLEANDUNITS	1.00000E+002	s	1.00000E+002	second(s)	Max &Charge Time
CHARGECURRENT	QUANT	6.00000E-003	&Charge Current (A)
VOLTAGEFINISH	TWOPARAM	F	1.00000E-003	3.60000E+003	&Voltage Finish	 I (A) < 	Max Time(s)
SAMPLETIME	QUANT	1.00000E-002	Sa&mple Period (s)
CHARGESTOPAT1	MULTIPARAM	4	1.00000E+000	Charge Stop At &1	Voltage > Limit	V
CHARGESTOPAT2	MULTIPARAM	0	0.00000E+000	Charge Stop At &2	None	N/A
AESBHCSELECTOR	TOGGLE	F	Save Both Half Cells
IRCOMP	TOGGLE	F	IR &Measure
EOC	QUANT	0	Open Circuit (V)
SEQUENCER	TOGGLE	TRUE	Run as Sequence
PSTATMODEL	IQUANT	53	Pstat Model
PSTATSECTION	LABEL	IFC5000-01520	Pstat Section
PSTATSERIALNO	LABEL	01520	Pstat Serial Number
CTRLMODE	IQUANT	0	Control Mode
ELECTROMETER	IQUANT	1	RE=0 or CS=1
IESTAB	IQUANT	0	I/E Stability
CASPEED	IQUANT	4	Control Amp Speed
CONVENTION	IQUANT	1	Current Convention
ICHRANGE	IQUANT	2	Ich Range
ICHRANGEMODE	TOGGLE	T	Ich Auto Range
ICHOFFSETENABLE	TOGGLE	F	Ich Offset Enable
ICHOFFSET	QUANT	0	Ich Offset (V)
ICHFILTER	IQUANT	1	Ich Filter
VCHRANGE	IQUANT	2	Vch Range
VCHRANGEMODE	TOGGLE	T	Vch Auto Range
VCHOFFSETENABLE	TOGGLE	F	Vch Offset Enable
VCHOFFSET	QUANT	0	Vch Offset (V)
VCHFILTER	IQUANT	1	Vch Filter
IERANGELOWERLIMIT	IQUANT	9	I/E Range Lower Limit
IERANGEMODE	TOGGLE	F	I/E AutoRange
IERANGE	IQUANT	10	I/E Range
ACHSELECT	IQUANT	1	Ach Select
ACHRANGE	IQUANT	2	Ach Range
ACHOFFSETENABLE	TOGGLE	F	Ach Offset Enable
ACHOFFSET	QUANT	0	Ach Offset (V)
ACHFILTER	IQUANT	1	Ach Filter
CABLEID	IQUANT	14	Cable ID
DCCALDATE	LABEL	20-10-2016	DC Calibration Date
ACCALDATE	LABEL	12/3/2015	AC Calibration Date
FRAMEWORKVERSION	QUANT	7.01	Framework Version
INSTRUMENTVERSION	LABEL	4.00	Instrument Version
CURVE	TABLE	62
	Pt	T	Vf	Im	Vu	Pwr	Sig	Ach	Temp	IERange	Over
	#	s	V	A	V	W	V	V	deg C	#	bits
	0	0.013333	6.16301E-001	5.99484E-003	0.00000E+000	3.69463E-003	3.59960E-001	-1.10983E+000	3.57690E+000	10	...........
	1	0.026667	6.24965E-001	5.99677E-003	0.00000E+000	3.74778E-003	3.59960E-001	-1.10895E+000	3.57690E+000	10	...........
	2	0.04	6.32863E-001	5.99140E-003	0.00000E+000	3.79174E-003	3.59960E-001	-1.11926E+000	3.57690E+000	10	...........
	3	0.053333	6.40385E-001	5.99119E-003	0.00000E+000	3.83667E-003	3.59960E-001	-1.10996E+000	3.57690E+000	10	...........
	4	0.066667	6.47640E-001	5.99185E-003	0.00000E+000	3.88056E-003	3.59960E-001	-1.10916E+000	3.57690E+000	10	...........
	5	0.08	6.54718E-001	5.99105E-003	0.00000E+000	3.92244E-003	3.59960E-001	-1.11984E+000	3.57690E+000	10	...........
	6	0.093333	6.61639E-001	5.99307E-003	0.00000E+000	3.96525E-003	3.59960E-001	-1.11050E+000	3.57690E+000	10	...........
	7	0.106667	6.68505E-001	5.99699E-003	0.00000E+000	4.00902E-003	3.59960E-001	-1.10901E+000	3.57690E+000	10	...........
	8	0.12	6.75225E-001	5.99264E-003	0.00000E+000	4.04638E-003	3.59960E-001	-1.11946E+000	3.57690E+000	10	...........
	9	0.133333	6.81849E-001	5.98947E-003	0.00000E+000	4.08392E-003	3.59960E-001	-1.11058E+000	3.57690E+000	10	...........
	10	0.146667	6.88450E-001	5.99474E-003	0.00000E+000	4.12708E-003	3.59960E-001	-1.10922E+000	3.57690E+000	10	...........
	11	0.16	6.94970E-001	5.99138E-003	0.00000E+000	4.16383E-003	3.59960E-001	-1.11917E+000	3.57690E+000	10	...........
	12	0.173333	7.01465E-001	5.99870E-003	0.00000E+000	4.20788E-003	3.59960E-001	-1.11002E+000	3.57690E+000	10	...........
	13	0.186667	7.07978E-001	5.99204E-003	0.00000E+000	4.24223E-003	3.59960E-001	-1.10804E+000	3.57690E+000	10	...........
	14	0.2	7.14391E-001	5.99256E-003	0.00000E+000	4.28103E-003	3.59960E-001	-1.11815E+000	3.57690E+000	10	...........
	15	0.213333	7.20807E-001	5.99505E-003	0.00000E+000	4.32128E-003	3.59960E-001	-1.10889E+000	3.57690E+000	10	...........
	16	0.226667	7.27171E-001	5.99383E-003	0.00000E+000	4.35854E-003	3.59960E-001	-1.10676E+000	3.57690E+000	10	...........
	17	0.24	7.33494E-001	5.99682E-003	0.00000E+000	4.39863E-003	3.59960E-001	-1.11645E+000	3.57690E+000	10	...........
	18	0.253333	7.39855E-001	5.99216E-003	0.00000E+000	4.43333E-003	3.59960E-001	-1.10726E+000	3.57690E+000	10	...........
	19	0.266667	7.46208E-001	5.99243E-003	0.00000E+000	4.47159E-003	3.59960E-001	-1.10532E+000	3.57690E+000	10	...........
	20	0.28	7.52510E-001	5.99522E-003	0.00000E+000	4.51146E-003	3.59960E-001	-1.11544E+000	3.57690E+000	10	...........
	21	0.293333	7.58815E-001	5.99582E-003	0.00000E+000	4.54971E-003	3.59960E-001	-1.10658E+000	3.57690E+000	10	...........
	22	0.306667	7.65035E-001	5.99305E-003	0.00000E+000	4.58489E-003	3.59960E-001	-1.10456E+000	3.57690E+000	10	...........
	23	0.32	7.71312E-001	5.98929E-003	0.00000E+000	4.61961E-003	3.59960E-001	-1.11469E+000	3.57690E+000	10	...........
	24	0.333333	7.77586E-001	5.99474E-003	0.00000E+000	4.66142E-003	3.59960E-001	-1.10680E+000	3.57690E+000	10	...........
	25	0.346667	7.83848E-001	5.99829E-003	0.00000E+000	4.70174E-003	3.59960E-001	-1.10524E+000	3.57690E+000	10	...........
	26	0.36	7.90070E-001	5.99492E-003	0.00000E+000	4.73641E-003	3.59960E-001	-1.11523E+000	3.57690E+000	10	...........
	27	0.373333	7.96347E-001	5.99648E-003	0.00000E+000	4.77528E-003	3.59960E-001	-1.10714E+000	3.57690E+000	10	...........
	28	0.386667	8.02602E-001	5.99359E-003	0.00000E+000	4.81047E-003	3.59960E-001	-1.10544E+000	3.57690E+000	10	...........
	29	0.4	8.08802E-001	5.99263E-003	0.00000E+000	4.84685E-003	3.59960E-001	-1.11595E+000	3.57690E+000	10	...........
	30	0.413333	8.15013E-001	5.99465E-003	0.00000E+000	4.88572E-003	3.59960E-001	-1.10836E+000	3.57690E+000	10	...........
	31	0.426667	8.21238E-001	5.99416E-003	0.00000E+000	4.92263E-003	3.59960E-001	-1.10634E+000	3.57690E+000	10	...........
	32	0.44	8.27456E-001	5.99656E-003	0.00000E+000	4.96189E-003	3.59960E-001	-1.11639E+000	3.57690E+000	10	...........
	33	0.453333	8.33635E-001	5.99584E-003	0.00000E+000	4.99834E-003	3.59960E-001	-1.10837E+000	3.57690E+000	10	...........
	34	0.466667	8.39772E-001	5.99618E-003	0.00000E+000	5.03543E-003	3.59960E-001	-1.10652E+000	3.57690E+000	10	...........
	35	0.48	8.45955E-001	5.99263E-003	0.00000E+000	5.06950E-003	3.59960E-001	-1.11691E+000	3.57690E+000	10	...........
	36	0.493333	8.52126E-001	5.99474E-003	0.00000E+000	5.10827E-003	3.59960E-001	-1.10873E+000	3.57690E+000	10	...........
	37	0.506667	8.58242E-001	5.99577E-003	0.00000E+000	5.14582E-003	3.59960E-001	-1.10626E+000	3.57690E+000	10	...........
	38	0.52	8.64348E-001	5.99448E-003	0.00000E+000	5.18131E-003	3.59960E-001	-1.11611E+000	3.57690E+000	10	...........
	39	0.533333	8.70422E-001	5.99448E-003	0.00000E+000	5.21773E-003	3.59960E-001	-1.10826E+000	3.57690E+000	10	...........
	40	0.546667	8.76537E-001	5.99138E-003	0.00000E+000	5.25167E-003	3.59960E-001	-1.10618E+000	3.57690E+000	10	...........
	41	0.56	8.82582E-001	5.99387E-003	0.00000E+000	5.29008E-003	3.59960E-001	-1.11619E+000	3.57690E+000	10	...........
	42	0.573333	8.88649E-001	5.99220E-003	0.00000E+000	5.32496E-003	3.59960E-001	-1.10789E+000	3.57690E+000	10	...........
	43	0.586667	8.94630E-001	5.99043E-003	0.00000E+000	5.35922E-003	3.59960E-001	-1.10564E+000	3.57690E+000	10	...........
	44	0.6	9.00606E-001	5.99452E-003	0.00000E+000	5.39870E-003	3.59960E-001	-1.11594E+000	3.57690E+000	10	...........
	45	0.613333	9.06594E-001	5.99642E-003	0.00000E+000	5.43632E-003	3.59960E-001	-1.10828E+000	3.57690E+000	10	...........
	46	0.626667	9.12549E-001	5.99463E-003	0.00000E+000	5.47039E-003	3.59960E-001	-1.10566E+000	3.57690E+000	10	...........
	47	0.64	9.18518E-001	5.99724E-003	0.00000E+000	5.50857E-003	3.59960E-001	-1.11552E+000	3.57690E+000	10	...........
	48	0.653333	9.24479E-001	5.99094E-003	0.00000E+000	5.53850E-003	3.59960E-001	-1.10800E+000	3.57690E+000	10	...........
	49	0.666667	9.30339E-001	5.99592E-003	0.00000E+000	5.57824E-003	3.59960E-001	-1.10569E+000	3.57690E+000	10	...........
	50	0.68	9.36193E-001	5.99306E-003	0.00000E+000	5.61066E-003	3.59960E-001	-1.11577E+000	3.57690E+000	10	...........
	51	0.693333	9.41969E-001	5.99709E-003	0.00000E+000	5.64907E-003	3.59960E-001	-1.10804E+000	3.57690E+000	10	...........
	52	0.706667	9.47795E-001	5.99521E-003	0.00000E+000	5.68223E-003	3.59960E-001	-1.10565E+000	3.57690E+000	10	...........
	53	0.72	9.53533E-001	5.99312E-003	0.00000E+000	5.71464E-003	3.59960E-001	-1.11574E+000	3.57690E+000	10	...........
	54	0.733333	9.59216E-001	5.99574E-003	0.00000E+000	5.75121E-003	3.59960E-001	-1.10863E+000	3.57690E+000	10	...........
	55	0.746667	9.64833E-001	5.99526E-003	0.00000E+000	5.78443E-003	3.59960E-001	-1.10620E+000	3.57690E+000	10	...........
	56	0.76	9.70478E-001	5.99272E-003	0.00000E+000	5.81580E-003	3.59960E-001	-1.11619E+000	3.57690E+000	10	...........
	57	0.773333	9.76123E-001	5.99316E-003	0.00000E+000	5.85005E-003	3.59960E-001	-1.10910E+000	3.57690E+000	10	...........
	58	0.786667	9.81628E-001	5.99321E-003	0.00000E+000	5.88310E-003	3.59960E-001	-1.10662E+000	3.57690E+000	10	...........
	59	0.8	9.87123E-001	5.99456E-003	0.00000E+000	5.91737E-003	3.59960E-001	-1.11707E+000	3.57690E+000	10	...........
	60	0.813333	9.92612E-001	5.99859E-003	0.00000E+000	5.95427E-003	3.59960E-001	-1.11008E+000	3.57690E+000	10	...........
	61	0.826667	9.98016E-001	5.99099E-003	0.00000E+000	5.97910E-003	3.59960E-001	-1.10739E+000	3.57690E+000	10	...........
STARTTIMEOFFSET	QUANT	549.3633	Start Time Offset (s)