File: Data/CV_CRGO300517_1/PWRCCD_CRGO300517_1/CHARGE_DISCHARGE/CHARGE_#461.DTA
EXPLAIN
TAG	PWR800_CHARGE
TITLE	LABEL	PWR Cyclic Charge Discharge (Cell) - Charge Step	Test &Identifier
DATE	LABEL	22-6-2017	Date
TIME	LABEL	15:54:23	Time
NOTES	NOTES	3	&Notes...
	supercap test cell
	0.6mg
	6M KOH
PSTAT	PSTAT	IFC5000-01520	Potentiostat
CAPACITY	QUANT	1.00000E-003	Capacity (A-hr)
CELLTYPE	SELECTOR	1	&Cell Type
WORKINGCONNECTION	SELECTOR	0	&Working Lead
MAXCHARGETIME	VARIABLEANDUNITS	1.00000E+002	s	1.00000E+002	second(s)	Max &Charge Time
CHARGECURRENT	QUANT	6.00000E-003	&Charge Current (A)
VOLTAGEFINISH	TWOPARAM	F	1.00000E-003	3.60000E+003	&Voltage Finish	 I (A) < 	Max Time(s)
SAMPLETIME	QUANT	1.00000E-002	Sa&mple Period (s)
CHARGESTOPAT1	MULTIPARAM	4	1.00000E+000	Charge Stop At &1	Voltage > Limit	V
CHARGESTOPAT2	MULTIPARAM	0	0.00000E+000	Charge Stop At &2	None	N/A
AESBHCSELECTOR	TOGGLE	F	Save Both Half Cells
IRCOMP	TOGGLE	F	IR &Measure
EOC	QUANT	0	Open Circuit (V)
SEQUENCER	TOGGLE	TRUE	Run as Sequence
PSTATMODEL	IQUANT	53	Pstat Model
PSTATSECTION	LABEL	IFC5000-01520	Pstat Section
PSTATSERIALNO	LABEL	01520	Pstat Serial Number
CTRLMODE	IQUANT	0	Control Mode
ELECTROMETER	IQUANT	1	RE=0 or CS=1
IESTAB	IQUANT	0	I/E Stability
CASPEED	IQUANT	4	Control Amp Speed
CONVENTION	IQUANT	1	Current Convention
ICHRANGE	IQUANT	2	Ich Range
ICHRANGEMODE	TOGGLE	T	Ich Auto Range
ICHOFFSETENABLE	TOGGLE	F	Ich Offset Enable
ICHOFFSET	QUANT	0	Ich Offset (V)
ICHFILTER	IQUANT	1	Ich Filter
VCHRANGE	IQUANT	2	Vch Range
VCHRANGEMODE	TOGGLE	T	Vch Auto Range
VCHOFFSETENABLE	TOGGLE	F	Vch Offset Enable
VCHOFFSET	QUANT	0	Vch Offset (V)
VCHFILTER	IQUANT	1	Vch Filter
IERANGELOWERLIMIT	IQUANT	9	I/E Range Lower Limit
IERANGEMODE	TOGGLE	F	I/E AutoRange
IERANGE	IQUANT	10	I/E Range
ACHSELECT	IQUANT	1	Ach Select
ACHRANGE	IQUANT	2	Ach Range
ACHOFFSETENABLE	TOGGLE	F	Ach Offset Enable
ACHOFFSET	QUANT	0	Ach Offset (V)
ACHFILTER	IQUANT	1	Ach Filter
CABLEID	IQUANT	14	Cable ID
DCCALDATE	LABEL	20-10-2016	DC Calibration Date
ACCALDATE	LABEL	12/3/2015	AC Calibration Date
FRAMEWORKVERSION	QUANT	7.01	Framework Version
INSTRUMENTVERSION	LABEL	4.00	Instrument Version
CURVE	TABLE	59
	Pt	T	Vf	Im	Vu	Pwr	Sig	Ach	Temp	IERange	Over
	#	s	V	A	V	W	V	V	deg C	#	bits
	0	0.013333	6.29353E-001	5.99286E-003	0.00000E+000	3.77163E-003	3.59960E-001	-1.12591E+000	3.57790E+000	10	...........
	1	0.026667	6.38170E-001	6.00269E-003	0.00000E+000	3.83074E-003	3.59960E-001	-1.12727E+000	3.57790E+000	10	...........
	2	0.04	6.46282E-001	5.99048E-003	0.00000E+000	3.87154E-003	3.59960E-001	-1.13628E+000	3.57790E+000	10	...........
	3	0.053333	6.53990E-001	5.99361E-003	0.00000E+000	3.91976E-003	3.59960E-001	-1.12575E+000	3.57790E+000	10	...........
	4	0.066667	6.61451E-001	5.99358E-003	0.00000E+000	3.96446E-003	3.59960E-001	-1.12742E+000	3.57790E+000	10	...........
	5	0.08	6.68715E-001	5.99050E-003	0.00000E+000	4.00594E-003	3.59960E-001	-1.13638E+000	3.57790E+000	10	...........
	6	0.093333	6.75787E-001	5.99318E-003	0.00000E+000	4.05011E-003	3.59960E-001	-1.12586E+000	3.57790E+000	10	...........
	7	0.106667	6.82755E-001	5.99355E-003	0.00000E+000	4.09213E-003	3.59960E-001	-1.12721E+000	3.57790E+000	10	...........
	8	0.12	6.89642E-001	5.98982E-003	0.00000E+000	4.13083E-003	3.59960E-001	-1.13611E+000	3.57790E+000	10	...........
	9	0.133333	6.96444E-001	5.98770E-003	0.00000E+000	4.17010E-003	3.59960E-001	-1.12574E+000	3.57790E+000	10	...........
	10	0.146667	7.03189E-001	5.99773E-003	0.00000E+000	4.21754E-003	3.59960E-001	-1.12742E+000	3.57790E+000	10	...........
	11	0.16	7.09889E-001	5.99531E-003	0.00000E+000	4.25601E-003	3.59960E-001	-1.13659E+000	3.57790E+000	10	...........
	12	0.173333	7.16567E-001	6.00360E-003	0.00000E+000	4.30198E-003	3.59960E-001	-1.12599E+000	3.57790E+000	10	...........
	13	0.186667	7.23223E-001	5.99119E-003	0.00000E+000	4.33297E-003	3.59960E-001	-1.12699E+000	3.57790E+000	10	...........
	14	0.2	7.29819E-001	5.99237E-003	0.00000E+000	4.37335E-003	3.59960E-001	-1.13662E+000	3.57790E+000	10	...........
	15	0.213333	7.36380E-001	5.99332E-003	0.00000E+000	4.41336E-003	3.59960E-001	-1.12624E+000	3.57790E+000	10	...........
	16	0.226667	7.42916E-001	5.99607E-003	0.00000E+000	4.45458E-003	3.59960E-001	-1.12758E+000	3.57790E+000	10	...........
	17	0.24	7.49445E-001	5.99295E-003	0.00000E+000	4.49138E-003	3.59960E-001	-1.13668E+000	3.57790E+000	10	...........
	18	0.253333	7.55981E-001	5.99040E-003	0.00000E+000	4.52863E-003	3.59960E-001	-1.12610E+000	3.57790E+000	10	...........
	19	0.266667	7.62442E-001	5.99090E-003	0.00000E+000	4.56772E-003	3.59960E-001	-1.12757E+000	3.57790E+000	10	...........
	20	0.28	7.68954E-001	5.99526E-003	0.00000E+000	4.61008E-003	3.59960E-001	-1.13686E+000	3.57790E+000	10	...........
	21	0.293333	7.75418E-001	5.99520E-003	0.00000E+000	4.64879E-003	3.59960E-001	-1.12610E+000	3.57790E+000	10	...........
	22	0.306667	7.81847E-001	5.99557E-003	0.00000E+000	4.68762E-003	3.59960E-001	-1.12705E+000	3.57790E+000	10	...........
	23	0.32	7.88284E-001	5.99500E-003	0.00000E+000	4.72577E-003	3.59960E-001	-1.13625E+000	3.57790E+000	10	...........
	24	0.333333	7.94731E-001	5.99519E-003	0.00000E+000	4.76456E-003	3.59960E-001	-1.12576E+000	3.57790E+000	10	...........
	25	0.346667	8.01107E-001	5.99095E-003	0.00000E+000	4.79939E-003	3.59960E-001	-1.12701E+000	3.57790E+000	10	...........
	26	0.36	8.07473E-001	5.98848E-003	0.00000E+000	4.83554E-003	3.59960E-001	-1.13633E+000	3.57790E+000	10	...........
	27	0.373333	8.13821E-001	5.99353E-003	0.00000E+000	4.87766E-003	3.59960E-001	-1.12575E+000	3.57790E+000	10	...........
	28	0.386667	8.20231E-001	5.99095E-003	0.00000E+000	4.91397E-003	3.59960E-001	-1.12697E+000	3.57790E+000	10	...........
	29	0.4	8.26595E-001	5.99629E-003	0.00000E+000	4.95651E-003	3.59960E-001	-1.13635E+000	3.57790E+000	10	...........
	30	0.413333	8.32861E-001	5.99117E-003	0.00000E+000	4.98981E-003	3.59960E-001	-1.12603E+000	3.57790E+000	10	...........
	31	0.426667	8.39145E-001	5.99362E-003	0.00000E+000	5.02952E-003	3.59960E-001	-1.12729E+000	3.57790E+000	10	...........
	32	0.44	8.45474E-001	5.99494E-003	0.00000E+000	5.06857E-003	3.59960E-001	-1.13664E+000	3.57790E+000	10	...........
	33	0.453333	8.51760E-001	5.99456E-003	0.00000E+000	5.10593E-003	3.59960E-001	-1.12585E+000	3.57790E+000	10	...........
	34	0.466667	8.58024E-001	5.99264E-003	0.00000E+000	5.14183E-003	3.59960E-001	-1.12736E+000	3.57790E+000	10	...........
	35	0.48	8.64275E-001	5.99584E-003	0.00000E+000	5.18205E-003	3.59960E-001	-1.13659E+000	3.57790E+000	10	...........
	36	0.493333	8.70504E-001	5.99638E-003	0.00000E+000	5.21987E-003	3.59960E-001	-1.12623E+000	3.57790E+000	10	...........
	37	0.506667	8.76702E-001	5.99028E-003	0.00000E+000	5.25169E-003	3.59960E-001	-1.12744E+000	3.57790E+000	10	...........
	38	0.52	8.82941E-001	5.99784E-003	0.00000E+000	5.29574E-003	3.59960E-001	-1.13677E+000	3.57790E+000	10	...........
	39	0.533333	8.89066E-001	5.99406E-003	0.00000E+000	5.32911E-003	3.59960E-001	-1.12643E+000	3.57790E+000	10	...........
	40	0.546667	8.95176E-001	5.99136E-003	0.00000E+000	5.36333E-003	3.59960E-001	-1.12763E+000	3.57762E+000	10	...........
	41	0.56	9.01285E-001	5.99498E-003	0.00000E+000	5.40319E-003	3.59960E-001	-1.13706E+000	3.57680E+000	10	...........
	42	0.573333	9.07372E-001	5.98997E-003	0.00000E+000	5.43514E-003	3.59960E-001	-1.12633E+000	3.57680E+000	10	...........
	43	0.586667	9.13389E-001	5.99032E-003	0.00000E+000	5.47149E-003	3.59960E-001	-1.12748E+000	3.57680E+000	10	...........
	44	0.6	9.19399E-001	5.99292E-003	0.00000E+000	5.50988E-003	3.59960E-001	-1.13722E+000	3.57680E+000	10	...........
	45	0.613333	9.25415E-001	5.99634E-003	0.00000E+000	5.54910E-003	3.59960E-001	-1.12696E+000	3.57680E+000	10	...........
	46	0.626667	9.31347E-001	5.99259E-003	0.00000E+000	5.58118E-003	3.59960E-001	-1.12795E+000	3.57680E+000	10	...........
	47	0.64	9.37263E-001	5.99834E-003	0.00000E+000	5.62202E-003	3.59960E-001	-1.13745E+000	3.57680E+000	10	...........
	48	0.653333	9.43138E-001	5.99675E-003	0.00000E+000	5.65577E-003	3.59960E-001	-1.12663E+000	3.57680E+000	10	...........
	49	0.666667	9.49015E-001	5.99545E-003	0.00000E+000	5.68977E-003	3.59960E-001	-1.12774E+000	3.57680E+000	10	...........
	50	0.68	9.54795E-001	5.99259E-003	0.00000E+000	5.72170E-003	3.59960E-001	-1.13773E+000	3.57680E+000	10	...........
	51	0.693333	9.60548E-001	5.99601E-003	0.00000E+000	5.75946E-003	3.59960E-001	-1.12702E+000	3.57680E+000	10	...........
	52	0.706667	9.66269E-001	5.99605E-003	0.00000E+000	5.79380E-003	3.59960E-001	-1.12804E+000	3.57680E+000	10	...........
	53	0.72	9.71954E-001	5.99523E-003	0.00000E+000	5.82709E-003	3.59960E-001	-1.13746E+000	3.57680E+000	10	...........
	54	0.733333	9.77593E-001	5.99506E-003	0.00000E+000	5.86073E-003	3.59960E-001	-1.12660E+000	3.57680E+000	10	...........
	55	0.746667	9.83202E-001	5.99286E-003	0.00000E+000	5.89219E-003	3.59960E-001	-1.12795E+000	3.57680E+000	10	...........
	56	0.76	9.88766E-001	5.99623E-003	0.00000E+000	5.92887E-003	3.59960E-001	-1.13729E+000	3.57680E+000	10	...........
	57	0.773333	9.94207E-001	5.99520E-003	0.00000E+000	5.96047E-003	3.59960E-001	-1.12651E+000	3.57680E+000	10	...........
	58	0.783333	9.98992E-001	5.99524E-003	0.00000E+000	5.98919E-003	3.59960E-001	-1.13137E+000	3.57680E+000	10	...........
STARTTIMEOFFSET	QUANT	798.6184	Start Time Offset (s)