File: Data/CV_CRGO300517_1/PWRCCD_CRGO300517_1/CHARGE_DISCHARGE/CHARGE_#102.DTA
EXPLAIN
TAG	PWR800_CHARGE
TITLE	LABEL	PWR Cyclic Charge Discharge (Cell) - Charge Step	Test &Identifier
DATE	LABEL	22-6-2017	Date
TIME	LABEL	15:39:35	Time
NOTES	NOTES	3	&Notes...
	supercap test cell
	0.6mg
	6M KOH
PSTAT	PSTAT	IFC5000-01520	Potentiostat
CAPACITY	QUANT	1.00000E-003	Capacity (A-hr)
CELLTYPE	SELECTOR	1	&Cell Type
WORKINGCONNECTION	SELECTOR	0	&Working Lead
MAXCHARGETIME	VARIABLEANDUNITS	1.00000E+002	s	1.00000E+002	second(s)	Max &Charge Time
CHARGECURRENT	QUANT	6.00000E-003	&Charge Current (A)
VOLTAGEFINISH	TWOPARAM	F	1.00000E-003	3.60000E+003	&Voltage Finish	 I (A) < 	Max Time(s)
SAMPLETIME	QUANT	1.00000E-002	Sa&mple Period (s)
CHARGESTOPAT1	MULTIPARAM	4	1.00000E+000	Charge Stop At &1	Voltage > Limit	V
CHARGESTOPAT2	MULTIPARAM	0	0.00000E+000	Charge Stop At &2	None	N/A
AESBHCSELECTOR	TOGGLE	F	Save Both Half Cells
IRCOMP	TOGGLE	F	IR &Measure
EOC	QUANT	0	Open Circuit (V)
SEQUENCER	TOGGLE	TRUE	Run as Sequence
PSTATMODEL	IQUANT	53	Pstat Model
PSTATSECTION	LABEL	IFC5000-01520	Pstat Section
PSTATSERIALNO	LABEL	01520	Pstat Serial Number
CTRLMODE	IQUANT	0	Control Mode
ELECTROMETER	IQUANT	1	RE=0 or CS=1
IESTAB	IQUANT	0	I/E Stability
CASPEED	IQUANT	4	Control Amp Speed
CONVENTION	IQUANT	1	Current Convention
ICHRANGE	IQUANT	2	Ich Range
ICHRANGEMODE	TOGGLE	T	Ich Auto Range
ICHOFFSETENABLE	TOGGLE	F	Ich Offset Enable
ICHOFFSET	QUANT	0	Ich Offset (V)
ICHFILTER	IQUANT	1	Ich Filter
VCHRANGE	IQUANT	2	Vch Range
VCHRANGEMODE	TOGGLE	T	Vch Auto Range
VCHOFFSETENABLE	TOGGLE	F	Vch Offset Enable
VCHOFFSET	QUANT	0	Vch Offset (V)
VCHFILTER	IQUANT	1	Vch Filter
IERANGELOWERLIMIT	IQUANT	9	I/E Range Lower Limit
IERANGEMODE	TOGGLE	F	I/E AutoRange
IERANGE	IQUANT	10	I/E Range
ACHSELECT	IQUANT	1	Ach Select
ACHRANGE	IQUANT	2	Ach Range
ACHOFFSETENABLE	TOGGLE	F	Ach Offset Enable
ACHOFFSET	QUANT	0	Ach Offset (V)
ACHFILTER	IQUANT	1	Ach Filter
CABLEID	IQUANT	14	Cable ID
DCCALDATE	LABEL	20-10-2016	DC Calibration Date
ACCALDATE	LABEL	12/3/2015	AC Calibration Date
FRAMEWORKVERSION	QUANT	7.01	Framework Version
INSTRUMENTVERSION	LABEL	4.00	Instrument Version
CURVE	TABLE	70
	Pt	T	Vf	Im	Vu	Pwr	Sig	Ach	Temp	IERange	Over
	#	s	V	A	V	W	V	V	deg C	#	bits
	0	0.013333	5.88717E-001	5.99662E-003	0.00000E+000	3.53031E-003	3.59960E-001	-1.06856E+000	3.57840E+000	10	...........
	1	0.026667	5.96969E-001	5.99521E-003	0.00000E+000	3.57895E-003	3.59960E-001	-1.05906E+000	3.57840E+000	10	...........
	2	0.04	6.04562E-001	5.99513E-003	0.00000E+000	3.62442E-003	3.59960E-001	-1.06089E+000	3.57840E+000	10	...........
	3	0.053333	6.11729E-001	5.99318E-003	0.00000E+000	3.66620E-003	3.59960E-001	-1.06833E+000	3.57840E+000	10	...........
	4	0.066667	6.18712E-001	5.99465E-003	0.00000E+000	3.70896E-003	3.59960E-001	-1.05914E+000	3.57840E+000	10	...........
	5	0.08	6.25403E-001	5.99480E-003	0.00000E+000	3.74917E-003	3.59960E-001	-1.06078E+000	3.57840E+000	10	...........
	6	0.093333	6.31992E-001	5.99422E-003	0.00000E+000	3.78830E-003	3.59960E-001	-1.06804E+000	3.57840E+000	10	...........
	7	0.106667	6.38453E-001	5.99031E-003	0.00000E+000	3.82453E-003	3.59960E-001	-1.05873E+000	3.57840E+000	10	...........
	8	0.12	6.44836E-001	5.99409E-003	0.00000E+000	3.86521E-003	3.59960E-001	-1.06074E+000	3.57840E+000	10	...........
	9	0.133333	6.51135E-001	5.99206E-003	0.00000E+000	3.90164E-003	3.59960E-001	-1.06827E+000	3.57840E+000	10	...........
	10	0.146667	6.57407E-001	5.99124E-003	0.00000E+000	3.93868E-003	3.59960E-001	-1.05884E+000	3.57840E+000	10	...........
	11	0.16	6.63572E-001	5.99636E-003	0.00000E+000	3.97902E-003	3.59960E-001	-1.06030E+000	3.57840E+000	10	...........
	12	0.173333	6.69789E-001	5.99356E-003	0.00000E+000	4.01442E-003	3.59960E-001	-1.06791E+000	3.57840E+000	10	...........
	13	0.186667	6.75892E-001	5.99743E-003	0.00000E+000	4.05361E-003	3.59960E-001	-1.05855E+000	3.57840E+000	10	...........
	14	0.2	6.81973E-001	5.99361E-003	0.00000E+000	4.08748E-003	3.59960E-001	-1.06003E+000	3.57840E+000	10	...........
	15	0.213333	6.88015E-001	5.99591E-003	0.00000E+000	4.12527E-003	3.59960E-001	-1.06788E+000	3.57840E+000	10	...........
	16	0.226667	6.94052E-001	5.99740E-003	0.00000E+000	4.16251E-003	3.59960E-001	-1.05838E+000	3.57840E+000	10	...........
	17	0.24	7.00056E-001	5.99583E-003	0.00000E+000	4.19741E-003	3.59960E-001	-1.05998E+000	3.57840E+000	10	...........
	18	0.253333	7.06057E-001	5.99275E-003	0.00000E+000	4.23122E-003	3.59960E-001	-1.06771E+000	3.57840E+000	10	...........
	19	0.266667	7.12046E-001	5.99195E-003	0.00000E+000	4.26654E-003	3.59960E-001	-1.05831E+000	3.57840E+000	10	...........
	20	0.28	7.18080E-001	5.99159E-003	0.00000E+000	4.30244E-003	3.59960E-001	-1.05980E+000	3.57840E+000	10	...........
	21	0.293333	7.24056E-001	5.99555E-003	0.00000E+000	4.34112E-003	3.59960E-001	-1.06757E+000	3.57840E+000	10	...........
	22	0.306667	7.29969E-001	5.99249E-003	0.00000E+000	4.37433E-003	3.59960E-001	-1.05821E+000	3.57840E+000	10	...........
	23	0.32	7.35945E-001	5.99299E-003	0.00000E+000	4.41051E-003	3.59960E-001	-1.05945E+000	3.57840E+000	10	...........
	24	0.333333	7.41901E-001	5.99152E-003	0.00000E+000	4.44511E-003	3.59960E-001	-1.06724E+000	3.57840E+000	10	...........
	25	0.346667	7.47829E-001	5.99648E-003	0.00000E+000	4.48435E-003	3.59960E-001	-1.05792E+000	3.57840E+000	10	...........
	26	0.36	7.53760E-001	5.99501E-003	0.00000E+000	4.51880E-003	3.59960E-001	-1.05919E+000	3.57840E+000	10	...........
	27	0.373333	7.59710E-001	5.99551E-003	0.00000E+000	4.55485E-003	3.59960E-001	-1.06714E+000	3.57840E+000	10	...........
	28	0.386667	7.65620E-001	5.99184E-003	0.00000E+000	4.58747E-003	3.59960E-001	-1.05802E+000	3.57826E+000	10	...........
	29	0.4	7.71547E-001	5.99655E-003	0.00000E+000	4.62662E-003	3.59960E-001	-1.05960E+000	3.57720E+000	10	...........
	30	0.413333	7.77477E-001	5.99330E-003	0.00000E+000	4.65965E-003	3.59960E-001	-1.06716E+000	3.57720E+000	10	...........
	31	0.426667	7.83389E-001	5.99488E-003	0.00000E+000	4.69632E-003	3.59960E-001	-1.05780E+000	3.57720E+000	10	...........
	32	0.44	7.89269E-001	5.99318E-003	0.00000E+000	4.73023E-003	3.59960E-001	-1.05926E+000	3.57720E+000	10	...........
	33	0.453333	7.95167E-001	5.98670E-003	0.00000E+000	4.76043E-003	3.59960E-001	-1.06734E+000	3.57720E+000	10	...........
	34	0.466667	8.01078E-001	5.99663E-003	0.00000E+000	4.80377E-003	3.59960E-001	-1.05781E+000	3.57720E+000	10	...........
	35	0.48	8.06988E-001	5.99036E-003	0.00000E+000	4.83415E-003	3.59960E-001	-1.05904E+000	3.57720E+000	10	...........
	36	0.493333	8.12869E-001	5.99415E-003	0.00000E+000	4.87245E-003	3.59960E-001	-1.06695E+000	3.57720E+000	10	...........
	37	0.506667	8.18737E-001	5.99343E-003	0.00000E+000	4.90704E-003	3.59960E-001	-1.05761E+000	3.57720E+000	10	...........
	38	0.52	8.24624E-001	5.99460E-003	0.00000E+000	4.94330E-003	3.59960E-001	-1.05893E+000	3.57720E+000	10	...........
	39	0.533333	8.30485E-001	5.99320E-003	0.00000E+000	4.97726E-003	3.59960E-001	-1.06735E+000	3.57720E+000	10	...........
	40	0.546667	8.36358E-001	5.99074E-003	0.00000E+000	5.01040E-003	3.59960E-001	-1.05777E+000	3.57720E+000	10	...........
	41	0.56	8.42212E-001	5.99605E-003	0.00000E+000	5.04995E-003	3.59960E-001	-1.05880E+000	3.57720E+000	10	...........
	42	0.573333	8.48134E-001	5.99602E-003	0.00000E+000	5.08543E-003	3.59960E-001	-1.06728E+000	3.57720E+000	10	...........
	43	0.586667	8.53978E-001	6.00031E-003	0.00000E+000	5.12413E-003	3.59960E-001	-1.05773E+000	3.57720E+000	10	...........
	44	0.6	8.59798E-001	5.99521E-003	0.00000E+000	5.15467E-003	3.59960E-001	-1.05885E+000	3.57720E+000	10	...........
	45	0.613333	8.65621E-001	5.99345E-003	0.00000E+000	5.18805E-003	3.59960E-001	-1.06703E+000	3.57720E+000	10	...........
	46	0.626667	8.71458E-001	5.99289E-003	0.00000E+000	5.22255E-003	3.59960E-001	-1.05748E+000	3.57720E+000	10	...........
	47	0.64	8.77247E-001	5.99497E-003	0.00000E+000	5.25907E-003	3.59960E-001	-1.05851E+000	3.57720E+000	10	...........
	48	0.653333	8.83038E-001	5.99367E-003	0.00000E+000	5.29264E-003	3.59960E-001	-1.06681E+000	3.57720E+000	10	...........
	49	0.666667	8.88832E-001	5.99309E-003	0.00000E+000	5.32685E-003	3.59960E-001	-1.05719E+000	3.57720E+000	10	...........
	50	0.68	8.94616E-001	5.99345E-003	0.00000E+000	5.36184E-003	3.59960E-001	-1.05827E+000	3.57720E+000	10	...........
	51	0.693333	9.00372E-001	5.99488E-003	0.00000E+000	5.39762E-003	3.59960E-001	-1.06660E+000	3.57720E+000	10	...........
	52	0.706667	9.06139E-001	5.99689E-003	0.00000E+000	5.43402E-003	3.59960E-001	-1.05717E+000	3.57720E+000	10	...........
	53	0.72	9.11888E-001	5.99427E-003	0.00000E+000	5.46610E-003	3.59960E-001	-1.05834E+000	3.57720E+000	10	...........
	54	0.733333	9.17600E-001	5.99494E-003	0.00000E+000	5.50095E-003	3.59960E-001	-1.06680E+000	3.57720E+000	10	...........
	55	0.746667	9.23386E-001	5.99608E-003	0.00000E+000	5.53669E-003	3.59960E-001	-1.05701E+000	3.57720E+000	10	...........
	56	0.76	9.29043E-001	5.99325E-003	0.00000E+000	5.56798E-003	3.59960E-001	-1.05788E+000	3.57720E+000	10	...........
	57	0.773333	9.34670E-001	5.99217E-003	0.00000E+000	5.60070E-003	3.59960E-001	-1.06633E+000	3.57720E+000	10	...........
	58	0.786667	9.40297E-001	5.99180E-003	0.00000E+000	5.63407E-003	3.59960E-001	-1.05729E+000	3.57720E+000	10	...........
	59	0.8	9.45949E-001	5.99526E-003	0.00000E+000	5.67121E-003	3.59960E-001	-1.05811E+000	3.57720E+000	10	...........
	60	0.813333	9.51540E-001	5.99569E-003	0.00000E+000	5.70514E-003	3.59960E-001	-1.06646E+000	3.57720E+000	10	...........
	61	0.826667	9.57082E-001	5.98954E-003	0.00000E+000	5.73248E-003	3.59960E-001	-1.05706E+000	3.57720E+000	10	...........
	62	0.84	9.62624E-001	5.99096E-003	0.00000E+000	5.76705E-003	3.59960E-001	-1.05781E+000	3.57720E+000	10	...........
	63	0.853333	9.68160E-001	5.99446E-003	0.00000E+000	5.80359E-003	3.59960E-001	-1.06668E+000	3.57720E+000	10	...........
	64	0.866667	9.73649E-001	5.99300E-003	0.00000E+000	5.83508E-003	3.59960E-001	-1.05716E+000	3.57720E+000	10	...........
	65	0.88	9.79121E-001	5.99656E-003	0.00000E+000	5.87135E-003	3.59960E-001	-1.05780E+000	3.57720E+000	10	...........
	66	0.893333	9.84524E-001	5.99451E-003	0.00000E+000	5.90174E-003	3.59960E-001	-1.06649E+000	3.57720E+000	10	...........
	67	0.906667	9.89899E-001	5.99172E-003	0.00000E+000	5.93119E-003	3.59960E-001	-1.05715E+000	3.57720E+000	10	...........
	68	0.92	9.95257E-001	5.99356E-003	0.00000E+000	5.96514E-003	3.59960E-001	-1.05800E+000	3.57720E+000	10	...........
	69	0.926667	9.99266E-001	5.99008E-003	0.00000E+000	5.98568E-003	3.59960E-001	-1.06616E+000	3.57720E+000	10	...........
STARTTIMEOFFSET	QUANT	198.9	Start Time Offset (s)