File: Data/CV_CRGO300517_1/PWRCCD_CRGO300517_1/CHARGE_DISCHARGE/CHARGE_#810.DTA
EXPLAIN
TAG	PWR800_CHARGE
TITLE	LABEL	PWR Cyclic Charge Discharge (Cell) - Charge Step	Test &Identifier
DATE	LABEL	22-6-2017	Date
TIME	LABEL	16:07:39	Time
NOTES	NOTES	3	&Notes...
	supercap test cell
	0.6mg
	6M KOH
PSTAT	PSTAT	IFC5000-01520	Potentiostat
CAPACITY	QUANT	1.00000E-003	Capacity (A-hr)
CELLTYPE	SELECTOR	1	&Cell Type
WORKINGCONNECTION	SELECTOR	0	&Working Lead
MAXCHARGETIME	VARIABLEANDUNITS	1.00000E+002	s	1.00000E+002	second(s)	Max &Charge Time
CHARGECURRENT	QUANT	6.00000E-003	&Charge Current (A)
VOLTAGEFINISH	TWOPARAM	F	1.00000E-003	3.60000E+003	&Voltage Finish	 I (A) < 	Max Time(s)
SAMPLETIME	QUANT	1.00000E-002	Sa&mple Period (s)
CHARGESTOPAT1	MULTIPARAM	4	1.00000E+000	Charge Stop At &1	Voltage > Limit	V
CHARGESTOPAT2	MULTIPARAM	0	0.00000E+000	Charge Stop At &2	None	N/A
AESBHCSELECTOR	TOGGLE	F	Save Both Half Cells
IRCOMP	TOGGLE	F	IR &Measure
EOC	QUANT	0	Open Circuit (V)
SEQUENCER	TOGGLE	TRUE	Run as Sequence
PSTATMODEL	IQUANT	53	Pstat Model
PSTATSECTION	LABEL	IFC5000-01520	Pstat Section
PSTATSERIALNO	LABEL	01520	Pstat Serial Number
CTRLMODE	IQUANT	0	Control Mode
ELECTROMETER	IQUANT	1	RE=0 or CS=1
IESTAB	IQUANT	0	I/E Stability
CASPEED	IQUANT	4	Control Amp Speed
CONVENTION	IQUANT	1	Current Convention
ICHRANGE	IQUANT	2	Ich Range
ICHRANGEMODE	TOGGLE	T	Ich Auto Range
ICHOFFSETENABLE	TOGGLE	F	Ich Offset Enable
ICHOFFSET	QUANT	0	Ich Offset (V)
ICHFILTER	IQUANT	1	Ich Filter
VCHRANGE	IQUANT	2	Vch Range
VCHRANGEMODE	TOGGLE	T	Vch Auto Range
VCHOFFSETENABLE	TOGGLE	F	Vch Offset Enable
VCHOFFSET	QUANT	0	Vch Offset (V)
VCHFILTER	IQUANT	1	Vch Filter
IERANGELOWERLIMIT	IQUANT	9	I/E Range Lower Limit
IERANGEMODE	TOGGLE	F	I/E AutoRange
IERANGE	IQUANT	10	I/E Range
ACHSELECT	IQUANT	1	Ach Select
ACHRANGE	IQUANT	2	Ach Range
ACHOFFSETENABLE	TOGGLE	F	Ach Offset Enable
ACHOFFSET	QUANT	0	Ach Offset (V)
ACHFILTER	IQUANT	1	Ach Filter
CABLEID	IQUANT	14	Cable ID
DCCALDATE	LABEL	20-10-2016	DC Calibration Date
ACCALDATE	LABEL	12/3/2015	AC Calibration Date
FRAMEWORKVERSION	QUANT	7.01	Framework Version
INSTRUMENTVERSION	LABEL	4.00	Instrument Version
CURVE	TABLE	54
	Pt	T	Vf	Im	Vu	Pwr	Sig	Ach	Temp	IERange	Over
	#	s	V	A	V	W	V	V	deg C	#	bits
	0	0.013333	6.48453E-001	5.99615E-003	0.00000E+000	3.88822E-003	3.59960E-001	-1.15951E+000	3.57630E+000	10	...........
	1	0.026667	6.57677E-001	5.99079E-003	0.00000E+000	3.94001E-003	3.59960E-001	-1.17038E+000	3.57630E+000	10	...........
	2	0.04	6.66157E-001	5.99758E-003	0.00000E+000	3.99533E-003	3.59960E-001	-1.15977E+000	3.57630E+000	10	...........
	3	0.053333	6.74156E-001	5.99661E-003	0.00000E+000	4.04265E-003	3.59960E-001	-1.15922E+000	3.57630E+000	10	...........
	4	0.066667	6.81846E-001	5.98966E-003	0.00000E+000	4.08403E-003	3.59960E-001	-1.17008E+000	3.57630E+000	10	...........
	5	0.08	6.89373E-001	5.99482E-003	0.00000E+000	4.13267E-003	3.59960E-001	-1.15988E+000	3.57630E+000	10	...........
	6	0.093333	6.96773E-001	5.99343E-003	0.00000E+000	4.17606E-003	3.59960E-001	-1.15899E+000	3.57630E+000	10	...........
	7	0.106667	7.04048E-001	5.99482E-003	0.00000E+000	4.22065E-003	3.59960E-001	-1.16995E+000	3.57630E+000	10	...........
	8	0.12	7.11198E-001	5.99318E-003	0.00000E+000	4.26234E-003	3.59960E-001	-1.15992E+000	3.57630E+000	10	...........
	9	0.133333	7.18320E-001	5.98898E-003	0.00000E+000	4.30201E-003	3.59960E-001	-1.15934E+000	3.57630E+000	10	...........
	10	0.146667	7.25341E-001	5.99186E-003	0.00000E+000	4.34614E-003	3.59960E-001	-1.17024E+000	3.57630E+000	10	...........
	11	0.16	7.32368E-001	5.99375E-003	0.00000E+000	4.38963E-003	3.59960E-001	-1.15979E+000	3.57630E+000	10	...........
	12	0.173333	7.39310E-001	5.99489E-003	0.00000E+000	4.43208E-003	3.59960E-001	-1.15937E+000	3.57630E+000	10	...........
	13	0.186667	7.46215E-001	5.99355E-003	0.00000E+000	4.47248E-003	3.59960E-001	-1.17001E+000	3.57630E+000	10	...........
	14	0.2	7.53045E-001	5.99664E-003	0.00000E+000	4.51574E-003	3.59960E-001	-1.15986E+000	3.57630E+000	10	...........
	15	0.213333	7.59823E-001	5.99127E-003	0.00000E+000	4.55230E-003	3.59960E-001	-1.15922E+000	3.57630E+000	10	...........
	16	0.226667	7.66620E-001	5.99839E-003	0.00000E+000	4.59849E-003	3.59960E-001	-1.16996E+000	3.57630E+000	10	...........
	17	0.24	7.73399E-001	5.99790E-003	0.00000E+000	4.63877E-003	3.59960E-001	-1.15979E+000	3.57630E+000	10	...........
	18	0.253333	7.80176E-001	5.99355E-003	0.00000E+000	4.67603E-003	3.59960E-001	-1.15950E+000	3.57630E+000	10	...........
	19	0.266667	7.86884E-001	5.99450E-003	0.00000E+000	4.71698E-003	3.59960E-001	-1.17042E+000	3.57630E+000	10	...........
	20	0.28	7.93546E-001	5.99289E-003	0.00000E+000	4.75564E-003	3.59960E-001	-1.16000E+000	3.57630E+000	10	...........
	21	0.293333	8.00198E-001	5.99744E-003	0.00000E+000	4.79914E-003	3.59960E-001	-1.15928E+000	3.57630E+000	10	...........
	22	0.306667	8.06845E-001	5.99311E-003	0.00000E+000	4.83551E-003	3.59960E-001	-1.17022E+000	3.57630E+000	10	...........
	23	0.32	8.13510E-001	5.99724E-003	0.00000E+000	4.87882E-003	3.59960E-001	-1.15983E+000	3.57630E+000	10	...........
	24	0.333333	8.20139E-001	5.99628E-003	0.00000E+000	4.91779E-003	3.59960E-001	-1.15934E+000	3.57630E+000	10	...........
	25	0.346667	8.26699E-001	5.99542E-003	0.00000E+000	4.95640E-003	3.59960E-001	-1.17017E+000	3.57630E+000	10	...........
	26	0.36	8.33231E-001	5.99464E-003	0.00000E+000	4.99492E-003	3.59960E-001	-1.15964E+000	3.57630E+000	10	...........
	27	0.373333	8.39751E-001	5.99222E-003	0.00000E+000	5.03197E-003	3.59960E-001	-1.15910E+000	3.57630E+000	10	...........
	28	0.386667	8.46321E-001	5.99253E-003	0.00000E+000	5.07160E-003	3.59960E-001	-1.17005E+000	3.57630E+000	10	...........
	29	0.4	8.52806E-001	5.99292E-003	0.00000E+000	5.11079E-003	3.59960E-001	-1.15954E+000	3.57630E+000	10	...........
	30	0.413333	8.59239E-001	5.99301E-003	0.00000E+000	5.14943E-003	3.59960E-001	-1.15928E+000	3.57630E+000	10	...........
	31	0.426667	8.65652E-001	5.99447E-003	0.00000E+000	5.18912E-003	3.59960E-001	-1.16993E+000	3.57630E+000	10	...........
	32	0.44	8.72130E-001	5.99544E-003	0.00000E+000	5.22881E-003	3.59960E-001	-1.15961E+000	3.57630E+000	10	...........
	33	0.453333	8.78512E-001	5.99713E-003	0.00000E+000	5.26855E-003	3.59960E-001	-1.15927E+000	3.57630E+000	10	...........
	34	0.466667	8.84850E-001	5.99399E-003	0.00000E+000	5.30378E-003	3.59960E-001	-1.17008E+000	3.57648E+000	10	...........
	35	0.48	8.91196E-001	5.99580E-003	0.00000E+000	5.34344E-003	3.59960E-001	-1.15974E+000	3.57660E+000	10	...........
	36	0.493333	8.97439E-001	5.98805E-003	0.00000E+000	5.37391E-003	3.59960E-001	-1.15916E+000	3.57660E+000	10	...........
	37	0.506667	9.03701E-001	5.99785E-003	0.00000E+000	5.42026E-003	3.59960E-001	-1.17002E+000	3.57660E+000	10	...........
	38	0.52	9.09919E-001	5.99387E-003	0.00000E+000	5.45394E-003	3.59960E-001	-1.15983E+000	3.57660E+000	10	...........
	39	0.533333	9.16079E-001	5.99214E-003	0.00000E+000	5.48928E-003	3.59960E-001	-1.15933E+000	3.57660E+000	10	...........
	40	0.546667	9.22305E-001	5.99275E-003	0.00000E+000	5.52714E-003	3.59960E-001	-1.17000E+000	3.57660E+000	10	...........
	41	0.56	9.28405E-001	5.99266E-003	0.00000E+000	5.56362E-003	3.59960E-001	-1.15944E+000	3.57660E+000	10	...........
	42	0.573333	9.34431E-001	5.99601E-003	0.00000E+000	5.60286E-003	3.59960E-001	-1.15952E+000	3.57660E+000	10	...........
	43	0.586667	9.40469E-001	5.99611E-003	0.00000E+000	5.63916E-003	3.59960E-001	-1.17033E+000	3.57660E+000	10	...........
	44	0.6	9.46482E-001	6.00342E-003	0.00000E+000	5.68213E-003	3.59960E-001	-1.15990E+000	3.57660E+000	10	...........
	45	0.613333	9.52400E-001	5.99250E-003	0.00000E+000	5.70726E-003	3.59960E-001	-1.15949E+000	3.57660E+000	10	...........
	46	0.626667	9.58250E-001	5.99073E-003	0.00000E+000	5.74061E-003	3.59960E-001	-1.17019E+000	3.57660E+000	10	...........
	47	0.64	9.64086E-001	5.99398E-003	0.00000E+000	5.77871E-003	3.59960E-001	-1.15977E+000	3.57660E+000	10	...........
	48	0.653333	9.69884E-001	5.99166E-003	0.00000E+000	5.81122E-003	3.59960E-001	-1.15942E+000	3.57660E+000	10	...........
	49	0.666667	9.75626E-001	5.99181E-003	0.00000E+000	5.84577E-003	3.59960E-001	-1.17024E+000	3.57660E+000	10	...........
	50	0.68	9.81272E-001	5.99464E-003	0.00000E+000	5.88237E-003	3.59960E-001	-1.15976E+000	3.57660E+000	10	...........
	51	0.693333	9.86890E-001	5.99507E-003	0.00000E+000	5.91648E-003	3.59960E-001	-1.15922E+000	3.57660E+000	10	...........
	52	0.706667	9.92481E-001	5.99513E-003	0.00000E+000	5.95005E-003	3.59960E-001	-1.16994E+000	3.57660E+000	10	...........
	53	0.72	9.98020E-001	5.99278E-003	0.00000E+000	5.98091E-003	3.59960E-001	-1.15974E+000	3.57660E+000	10	...........
STARTTIMEOFFSET	QUANT	1318.444	Start Time Offset (s)