File: Data/CV_CRGO300517_1/PWRCCD_CRGO300517_1/CHARGE_DISCHARGE/CHARGE_#56.DTA
EXPLAIN
TAG	PWR800_CHARGE
TITLE	LABEL	PWR Cyclic Charge Discharge (Cell) - Charge Step	Test &Identifier
DATE	LABEL	22-6-2017	Date
TIME	LABEL	15:37:32	Time
NOTES	NOTES	3	&Notes...
	supercap test cell
	0.6mg
	6M KOH
PSTAT	PSTAT	IFC5000-01520	Potentiostat
CAPACITY	QUANT	1.00000E-003	Capacity (A-hr)
CELLTYPE	SELECTOR	1	&Cell Type
WORKINGCONNECTION	SELECTOR	0	&Working Lead
MAXCHARGETIME	VARIABLEANDUNITS	1.00000E+002	s	1.00000E+002	second(s)	Max &Charge Time
CHARGECURRENT	QUANT	6.00000E-003	&Charge Current (A)
VOLTAGEFINISH	TWOPARAM	F	1.00000E-003	3.60000E+003	&Voltage Finish	 I (A) < 	Max Time(s)
SAMPLETIME	QUANT	1.00000E-002	Sa&mple Period (s)
CHARGESTOPAT1	MULTIPARAM	4	1.00000E+000	Charge Stop At &1	Voltage > Limit	V
CHARGESTOPAT2	MULTIPARAM	0	0.00000E+000	Charge Stop At &2	None	N/A
AESBHCSELECTOR	TOGGLE	F	Save Both Half Cells
IRCOMP	TOGGLE	F	IR &Measure
EOC	QUANT	0	Open Circuit (V)
SEQUENCER	TOGGLE	TRUE	Run as Sequence
PSTATMODEL	IQUANT	53	Pstat Model
PSTATSECTION	LABEL	IFC5000-01520	Pstat Section
PSTATSERIALNO	LABEL	01520	Pstat Serial Number
CTRLMODE	IQUANT	0	Control Mode
ELECTROMETER	IQUANT	1	RE=0 or CS=1
IESTAB	IQUANT	0	I/E Stability
CASPEED	IQUANT	4	Control Amp Speed
CONVENTION	IQUANT	1	Current Convention
ICHRANGE	IQUANT	2	Ich Range
ICHRANGEMODE	TOGGLE	T	Ich Auto Range
ICHOFFSETENABLE	TOGGLE	F	Ich Offset Enable
ICHOFFSET	QUANT	0	Ich Offset (V)
ICHFILTER	IQUANT	1	Ich Filter
VCHRANGE	IQUANT	2	Vch Range
VCHRANGEMODE	TOGGLE	T	Vch Auto Range
VCHOFFSETENABLE	TOGGLE	F	Vch Offset Enable
VCHOFFSET	QUANT	0	Vch Offset (V)
VCHFILTER	IQUANT	1	Vch Filter
IERANGELOWERLIMIT	IQUANT	9	I/E Range Lower Limit
IERANGEMODE	TOGGLE	F	I/E AutoRange
IERANGE	IQUANT	10	I/E Range
ACHSELECT	IQUANT	1	Ach Select
ACHRANGE	IQUANT	2	Ach Range
ACHOFFSETENABLE	TOGGLE	F	Ach Offset Enable
ACHOFFSET	QUANT	0	Ach Offset (V)
ACHFILTER	IQUANT	1	Ach Filter
CABLEID	IQUANT	14	Cable ID
DCCALDATE	LABEL	20-10-2016	DC Calibration Date
ACCALDATE	LABEL	12/3/2015	AC Calibration Date
FRAMEWORKVERSION	QUANT	7.01	Framework Version
INSTRUMENTVERSION	LABEL	4.00	Instrument Version
CURVE	TABLE	74
	Pt	T	Vf	Im	Vu	Pwr	Sig	Ach	Temp	IERange	Over
	#	s	V	A	V	W	V	V	deg C	#	bits
	0	0.013333	5.75920E-001	5.99447E-003	0.00000E+000	3.45233E-003	3.59960E-001	-1.05187E+000	3.57850E+000	10	...........
	1	0.026667	5.84076E-001	5.99373E-003	0.00000E+000	3.50080E-003	3.59960E-001	-1.04115E+000	3.57850E+000	10	...........
	2	0.04	5.91595E-001	5.99296E-003	0.00000E+000	3.54541E-003	3.59960E-001	-1.04555E+000	3.57850E+000	10	...........
	3	0.053333	5.98651E-001	5.99627E-003	0.00000E+000	3.58967E-003	3.59960E-001	-1.05228E+000	3.57850E+000	10	...........
	4	0.066667	6.05388E-001	5.99073E-003	0.00000E+000	3.62671E-003	3.59960E-001	-1.04143E+000	3.57850E+000	10	...........
	5	0.08	6.12022E-001	5.99400E-003	0.00000E+000	3.66846E-003	3.59960E-001	-1.04526E+000	3.57850E+000	10	...........
	6	0.093333	6.18534E-001	5.99779E-003	0.00000E+000	3.70984E-003	3.59960E-001	-1.05210E+000	3.57850E+000	10	...........
	7	0.106667	6.24868E-001	5.99229E-003	0.00000E+000	3.74439E-003	3.59960E-001	-1.04137E+000	3.57850E+000	10	...........
	8	0.12	6.31088E-001	5.99361E-003	0.00000E+000	3.78250E-003	3.59960E-001	-1.04509E+000	3.57850E+000	10	...........
	9	0.133333	6.37272E-001	5.99579E-003	0.00000E+000	3.82095E-003	3.59960E-001	-1.05225E+000	3.57850E+000	10	...........
	10	0.146667	6.43362E-001	5.99288E-003	0.00000E+000	3.85559E-003	3.59960E-001	-1.04096E+000	3.57850E+000	10	...........
	11	0.16	6.49423E-001	5.99264E-003	0.00000E+000	3.89176E-003	3.59960E-001	-1.04443E+000	3.57850E+000	10	...........
	12	0.173333	6.55493E-001	5.99336E-003	0.00000E+000	3.92861E-003	3.59960E-001	-1.05173E+000	3.57850E+000	10	...........
	13	0.186667	6.61434E-001	5.99506E-003	0.00000E+000	3.96534E-003	3.59960E-001	-1.04092E+000	3.57850E+000	10	...........
	14	0.2	6.67449E-001	5.99512E-003	0.00000E+000	4.00143E-003	3.59960E-001	-1.04433E+000	3.57850E+000	10	...........
	15	0.213333	6.73360E-001	5.99681E-003	0.00000E+000	4.03801E-003	3.59960E-001	-1.05196E+000	3.57850E+000	10	...........
	16	0.226667	6.79254E-001	5.99349E-003	0.00000E+000	4.07110E-003	3.59960E-001	-1.04056E+000	3.57850E+000	10	...........
	17	0.24	6.85133E-001	5.99468E-003	0.00000E+000	4.10715E-003	3.59960E-001	-1.04416E+000	3.57850E+000	10	...........
	18	0.253333	6.91023E-001	5.99559E-003	0.00000E+000	4.14309E-003	3.59960E-001	-1.05207E+000	3.57850E+000	10	...........
	19	0.266667	6.96832E-001	5.99659E-003	0.00000E+000	4.17861E-003	3.59960E-001	-1.04086E+000	3.57850E+000	10	...........
	20	0.28	7.02670E-001	5.99531E-003	0.00000E+000	4.21273E-003	3.59960E-001	-1.04399E+000	3.57850E+000	10	...........
	21	0.293333	7.08481E-001	5.99569E-003	0.00000E+000	4.24783E-003	3.59960E-001	-1.05166E+000	3.57850E+000	10	...........
	22	0.306667	7.14257E-001	5.99275E-003	0.00000E+000	4.28036E-003	3.59960E-001	-1.04055E+000	3.57850E+000	10	...........
	23	0.32	7.20115E-001	5.99422E-003	0.00000E+000	4.31653E-003	3.59960E-001	-1.04387E+000	3.57850E+000	10	...........
	24	0.333333	7.25951E-001	5.98972E-003	0.00000E+000	4.34825E-003	3.59960E-001	-1.05221E+000	3.57850E+000	10	...........
	25	0.346667	7.31751E-001	5.99707E-003	0.00000E+000	4.38836E-003	3.59960E-001	-1.04057E+000	3.57830E+000	10	...........
	26	0.36	7.37499E-001	5.99215E-003	0.00000E+000	4.41921E-003	3.59960E-001	-1.04357E+000	3.57730E+000	10	...........
	27	0.373333	7.43312E-001	5.99349E-003	0.00000E+000	4.45503E-003	3.59960E-001	-1.05195E+000	3.57730E+000	10	...........
	28	0.386667	7.49107E-001	5.99244E-003	0.00000E+000	4.48898E-003	3.59960E-001	-1.04084E+000	3.57730E+000	10	...........
	29	0.4	7.54871E-001	5.99625E-003	0.00000E+000	4.52640E-003	3.59960E-001	-1.04359E+000	3.57730E+000	10	...........
	30	0.413333	7.60684E-001	5.99700E-003	0.00000E+000	4.56183E-003	3.59960E-001	-1.05221E+000	3.57730E+000	10	...........
	31	0.426667	7.66434E-001	5.99300E-003	0.00000E+000	4.59324E-003	3.59960E-001	-1.04062E+000	3.57730E+000	10	...........
	32	0.44	7.72198E-001	5.99365E-003	0.00000E+000	4.62828E-003	3.59960E-001	-1.04337E+000	3.57730E+000	10	...........
	33	0.453333	7.77912E-001	5.99135E-003	0.00000E+000	4.66074E-003	3.59960E-001	-1.05233E+000	3.57730E+000	10	...........
	34	0.466667	7.83673E-001	5.99134E-003	0.00000E+000	4.69525E-003	3.59960E-001	-1.04048E+000	3.57730E+000	10	...........
	35	0.48	7.89402E-001	5.99201E-003	0.00000E+000	4.73011E-003	3.59960E-001	-1.04271E+000	3.57730E+000	10	...........
	36	0.493333	7.95212E-001	5.99316E-003	0.00000E+000	4.76583E-003	3.59960E-001	-1.05160E+000	3.57730E+000	10	...........
	37	0.506667	8.00942E-001	5.99272E-003	0.00000E+000	4.79982E-003	3.59960E-001	-1.04010E+000	3.57730E+000	10	...........
	38	0.52	8.06692E-001	5.99792E-003	0.00000E+000	4.83848E-003	3.59960E-001	-1.04284E+000	3.57730E+000	10	...........
	39	0.533333	8.12417E-001	5.99608E-003	0.00000E+000	4.87131E-003	3.59960E-001	-1.05204E+000	3.57730E+000	10	...........
	40	0.546667	8.18219E-001	5.99493E-003	0.00000E+000	4.90517E-003	3.59960E-001	-1.04025E+000	3.57730E+000	10	...........
	41	0.56	8.23953E-001	5.99387E-003	0.00000E+000	4.93867E-003	3.59960E-001	-1.04235E+000	3.57730E+000	10	...........
	42	0.573333	8.29705E-001	5.99456E-003	0.00000E+000	4.97372E-003	3.59960E-001	-1.05168E+000	3.57730E+000	10	...........
	43	0.586667	8.35443E-001	5.99331E-003	0.00000E+000	5.00707E-003	3.59960E-001	-1.04023E+000	3.57730E+000	10	...........
	44	0.6	8.41164E-001	5.99456E-003	0.00000E+000	5.04241E-003	3.59960E-001	-1.04259E+000	3.57730E+000	10	...........
	45	0.613333	8.46910E-001	5.99298E-003	0.00000E+000	5.07551E-003	3.59960E-001	-1.05201E+000	3.57730E+000	10	...........
	46	0.626667	8.52651E-001	5.99385E-003	0.00000E+000	5.11066E-003	3.59960E-001	-1.04017E+000	3.57730E+000	10	...........
	47	0.64	8.58395E-001	5.99318E-003	0.00000E+000	5.14452E-003	3.59960E-001	-1.04234E+000	3.57730E+000	10	...........
	48	0.653333	8.64120E-001	5.99812E-003	0.00000E+000	5.18310E-003	3.59960E-001	-1.05213E+000	3.57730E+000	10	...........
	49	0.666667	8.69853E-001	5.99301E-003	0.00000E+000	5.21304E-003	3.59960E-001	-1.04067E+000	3.57730E+000	10	...........
	50	0.68	8.75549E-001	5.99526E-003	0.00000E+000	5.24915E-003	3.59960E-001	-1.04237E+000	3.57730E+000	10	...........
	51	0.693333	8.81273E-001	5.99583E-003	0.00000E+000	5.28396E-003	3.59960E-001	-1.05224E+000	3.57730E+000	10	...........
	52	0.706667	8.86993E-001	5.99418E-003	0.00000E+000	5.31680E-003	3.59960E-001	-1.04053E+000	3.57730E+000	10	...........
	53	0.72	8.92648E-001	5.99479E-003	0.00000E+000	5.35124E-003	3.59960E-001	-1.04223E+000	3.57730E+000	10	...........
	54	0.733333	8.98319E-001	5.99550E-003	0.00000E+000	5.38587E-003	3.59960E-001	-1.05262E+000	3.57730E+000	10	...........
	55	0.746667	9.03969E-001	5.99588E-003	0.00000E+000	5.42008E-003	3.59960E-001	-1.04070E+000	3.57730E+000	10	...........
	56	0.76	9.09647E-001	5.99539E-003	0.00000E+000	5.45369E-003	3.59960E-001	-1.04173E+000	3.57730E+000	10	...........
	57	0.773333	9.15268E-001	5.98923E-003	0.00000E+000	5.48175E-003	3.59960E-001	-1.05189E+000	3.57730E+000	10	...........
	58	0.786667	9.20930E-001	5.99398E-003	0.00000E+000	5.52003E-003	3.59960E-001	-1.04006E+000	3.57730E+000	10	...........
	59	0.8	9.26544E-001	5.99131E-003	0.00000E+000	5.55121E-003	3.59960E-001	-1.04134E+000	3.57730E+000	10	...........
	60	0.813333	9.32118E-001	6.00027E-003	0.00000E+000	5.59296E-003	3.59960E-001	-1.05157E+000	3.57730E+000	10	...........
	61	0.826667	9.37662E-001	5.99373E-003	0.00000E+000	5.62009E-003	3.59960E-001	-1.03973E+000	3.57730E+000	10	...........
	62	0.84	9.43230E-001	5.99006E-003	0.00000E+000	5.65000E-003	3.59960E-001	-1.04109E+000	3.57730E+000	10	...........
	63	0.853333	9.48774E-001	5.99552E-003	0.00000E+000	5.68840E-003	3.59960E-001	-1.05182E+000	3.57730E+000	10	...........
	64	0.866667	9.54290E-001	5.99530E-003	0.00000E+000	5.72126E-003	3.59960E-001	-1.04004E+000	3.57730E+000	10	...........
	65	0.88	9.59763E-001	5.99492E-003	0.00000E+000	5.75370E-003	3.59960E-001	-1.04097E+000	3.57730E+000	10	...........
	66	0.893333	9.65189E-001	5.99355E-003	0.00000E+000	5.78491E-003	3.59960E-001	-1.05171E+000	3.57730E+000	10	...........
	67	0.906667	9.70641E-001	5.99409E-003	0.00000E+000	5.81811E-003	3.59960E-001	-1.03986E+000	3.57730E+000	10	...........
	68	0.92	9.76061E-001	5.99484E-003	0.00000E+000	5.85134E-003	3.59960E-001	-1.04097E+000	3.57730E+000	10	...........
	69	0.933333	9.81441E-001	5.99659E-003	0.00000E+000	5.88530E-003	3.59960E-001	-1.05201E+000	3.57730E+000	10	...........
	70	0.946667	9.86789E-001	5.99111E-003	0.00000E+000	5.91196E-003	3.59960E-001	-1.04003E+000	3.57730E+000	10	...........
	71	0.96	9.92077E-001	5.99074E-003	0.00000E+000	5.94327E-003	3.59960E-001	-1.04048E+000	3.57730E+000	10	...........
	72	0.97333	9.97372E-001	5.99402E-003	0.00000E+000	5.97827E-003	3.59960E-001	-1.05166E+000	3.57730E+000	10	...........
	73	0.975	1.00036E+000	6.00305E-003	0.00000E+000	6.00524E-003	3.59960E-001	-1.03534E+000	3.57730E+000	10	...........
STARTTIMEOFFSET	QUANT	112.2083	Start Time Offset (s)