File: Data/CV_CRGO300517_1/PWRCCD_CRGO300517_1/CHARGE_DISCHARGE/CHARGE_#95.DTA
EXPLAIN
TAG	PWR800_CHARGE
TITLE	LABEL	PWR Cyclic Charge Discharge (Cell) - Charge Step	Test &Identifier
DATE	LABEL	22-6-2017	Date
TIME	LABEL	15:39:17	Time
NOTES	NOTES	3	&Notes...
	supercap test cell
	0.6mg
	6M KOH
PSTAT	PSTAT	IFC5000-01520	Potentiostat
CAPACITY	QUANT	1.00000E-003	Capacity (A-hr)
CELLTYPE	SELECTOR	1	&Cell Type
WORKINGCONNECTION	SELECTOR	0	&Working Lead
MAXCHARGETIME	VARIABLEANDUNITS	1.00000E+002	s	1.00000E+002	second(s)	Max &Charge Time
CHARGECURRENT	QUANT	6.00000E-003	&Charge Current (A)
VOLTAGEFINISH	TWOPARAM	F	1.00000E-003	3.60000E+003	&Voltage Finish	 I (A) < 	Max Time(s)
SAMPLETIME	QUANT	1.00000E-002	Sa&mple Period (s)
CHARGESTOPAT1	MULTIPARAM	4	1.00000E+000	Charge Stop At &1	Voltage > Limit	V
CHARGESTOPAT2	MULTIPARAM	0	0.00000E+000	Charge Stop At &2	None	N/A
AESBHCSELECTOR	TOGGLE	F	Save Both Half Cells
IRCOMP	TOGGLE	F	IR &Measure
EOC	QUANT	0	Open Circuit (V)
SEQUENCER	TOGGLE	TRUE	Run as Sequence
PSTATMODEL	IQUANT	53	Pstat Model
PSTATSECTION	LABEL	IFC5000-01520	Pstat Section
PSTATSERIALNO	LABEL	01520	Pstat Serial Number
CTRLMODE	IQUANT	0	Control Mode
ELECTROMETER	IQUANT	1	RE=0 or CS=1
IESTAB	IQUANT	0	I/E Stability
CASPEED	IQUANT	4	Control Amp Speed
CONVENTION	IQUANT	1	Current Convention
ICHRANGE	IQUANT	2	Ich Range
ICHRANGEMODE	TOGGLE	T	Ich Auto Range
ICHOFFSETENABLE	TOGGLE	F	Ich Offset Enable
ICHOFFSET	QUANT	0	Ich Offset (V)
ICHFILTER	IQUANT	1	Ich Filter
VCHRANGE	IQUANT	2	Vch Range
VCHRANGEMODE	TOGGLE	T	Vch Auto Range
VCHOFFSETENABLE	TOGGLE	F	Vch Offset Enable
VCHOFFSET	QUANT	0	Vch Offset (V)
VCHFILTER	IQUANT	1	Vch Filter
IERANGELOWERLIMIT	IQUANT	9	I/E Range Lower Limit
IERANGEMODE	TOGGLE	F	I/E AutoRange
IERANGE	IQUANT	10	I/E Range
ACHSELECT	IQUANT	1	Ach Select
ACHRANGE	IQUANT	2	Ach Range
ACHOFFSETENABLE	TOGGLE	F	Ach Offset Enable
ACHOFFSET	QUANT	0	Ach Offset (V)
ACHFILTER	IQUANT	1	Ach Filter
CABLEID	IQUANT	14	Cable ID
DCCALDATE	LABEL	20-10-2016	DC Calibration Date
ACCALDATE	LABEL	12/3/2015	AC Calibration Date
FRAMEWORKVERSION	QUANT	7.01	Framework Version
INSTRUMENTVERSION	LABEL	4.00	Instrument Version
CURVE	TABLE	70
	Pt	T	Vf	Im	Vu	Pwr	Sig	Ach	Temp	IERange	Over
	#	s	V	A	V	W	V	V	deg C	#	bits
	0	0.013333	5.87388E-001	5.99414E-003	0.00000E+000	3.52088E-003	3.59960E-001	-1.04729E+000	3.57730E+000	10	...........
	1	0.026667	5.95622E-001	5.98905E-003	0.00000E+000	3.56721E-003	3.59960E-001	-1.05706E+000	3.57730E+000	10	...........
	2	0.04	6.03199E-001	5.99030E-003	0.00000E+000	3.61334E-003	3.59960E-001	-1.05089E+000	3.57730E+000	10	...........
	3	0.053333	6.10352E-001	5.99578E-003	0.00000E+000	3.65954E-003	3.59960E-001	-1.04748E+000	3.57730E+000	10	...........
	4	0.066667	6.17286E-001	5.99379E-003	0.00000E+000	3.69989E-003	3.59960E-001	-1.05751E+000	3.57730E+000	10	...........
	5	0.08	6.23981E-001	5.99373E-003	0.00000E+000	3.73997E-003	3.59960E-001	-1.05139E+000	3.57730E+000	10	...........
	6	0.093333	6.30552E-001	5.99367E-003	0.00000E+000	3.77932E-003	3.59960E-001	-1.04740E+000	3.57730E+000	10	...........
	7	0.106667	6.37027E-001	5.99228E-003	0.00000E+000	3.81725E-003	3.59960E-001	-1.05741E+000	3.57730E+000	10	...........
	8	0.12	6.43341E-001	5.99406E-003	0.00000E+000	3.85623E-003	3.59960E-001	-1.05162E+000	3.57730E+000	10	...........
	9	0.133333	6.49608E-001	5.99395E-003	0.00000E+000	3.89372E-003	3.59960E-001	-1.04790E+000	3.57730E+000	10	...........
	10	0.146667	6.55822E-001	5.99014E-003	0.00000E+000	3.92846E-003	3.59960E-001	-1.05773E+000	3.57730E+000	10	...........
	11	0.16	6.62003E-001	5.99520E-003	0.00000E+000	3.96884E-003	3.59960E-001	-1.05181E+000	3.57730E+000	10	...........
	12	0.173333	6.68138E-001	5.99536E-003	0.00000E+000	4.00572E-003	3.59960E-001	-1.04778E+000	3.57730E+000	10	...........
	13	0.186667	6.74259E-001	5.99276E-003	0.00000E+000	4.04067E-003	3.59960E-001	-1.05757E+000	3.57730E+000	10	...........
	14	0.2	6.80290E-001	5.99363E-003	0.00000E+000	4.07741E-003	3.59960E-001	-1.05215E+000	3.57730E+000	10	...........
	15	0.213333	6.86353E-001	5.99818E-003	0.00000E+000	4.11687E-003	3.59960E-001	-1.04786E+000	3.57730E+000	10	...........
	16	0.226667	6.92389E-001	5.99575E-003	0.00000E+000	4.15139E-003	3.59960E-001	-1.05752E+000	3.57730E+000	10	...........
	17	0.24	6.98362E-001	5.99448E-003	0.00000E+000	4.18632E-003	3.59960E-001	-1.05219E+000	3.57730E+000	10	...........
	18	0.253333	7.04355E-001	5.99968E-003	0.00000E+000	4.22591E-003	3.59960E-001	-1.04820E+000	3.57730E+000	10	...........
	19	0.266667	7.10307E-001	5.99270E-003	0.00000E+000	4.25665E-003	3.59960E-001	-1.05798E+000	3.57730E+000	10	...........
	20	0.28	7.16254E-001	5.99341E-003	0.00000E+000	4.29280E-003	3.59960E-001	-1.05247E+000	3.57730E+000	10	...........
	21	0.293333	7.22243E-001	5.99307E-003	0.00000E+000	4.32845E-003	3.59960E-001	-1.04814E+000	3.57730E+000	10	...........
	22	0.306667	7.28146E-001	5.99178E-003	0.00000E+000	4.36289E-003	3.59960E-001	-1.05778E+000	3.57730E+000	10	...........
	23	0.32	7.34091E-001	5.99301E-003	0.00000E+000	4.39941E-003	3.59960E-001	-1.05296E+000	3.57730E+000	10	...........
	24	0.333333	7.40005E-001	5.99290E-003	0.00000E+000	4.43478E-003	3.59960E-001	-1.04878E+000	3.57730E+000	10	...........
	25	0.346667	7.45943E-001	5.99761E-003	0.00000E+000	4.47387E-003	3.59960E-001	-1.05805E+000	3.57730E+000	10	...........
	26	0.36	7.51852E-001	5.99702E-003	0.00000E+000	4.50888E-003	3.59960E-001	-1.05338E+000	3.57730E+000	10	...........
	27	0.373333	7.57807E-001	6.00101E-003	0.00000E+000	4.54761E-003	3.59960E-001	-1.04878E+000	3.57730E+000	10	...........
	28	0.386667	7.63687E-001	5.99193E-003	0.00000E+000	4.57596E-003	3.59960E-001	-1.05841E+000	3.57730E+000	10	...........
	29	0.4	7.69578E-001	5.98899E-003	0.00000E+000	4.60900E-003	3.59960E-001	-1.05379E+000	3.57730E+000	10	...........
	30	0.413333	7.75541E-001	5.99530E-003	0.00000E+000	4.64960E-003	3.59960E-001	-1.04922E+000	3.57730E+000	10	...........
	31	0.426667	7.81411E-001	5.99350E-003	0.00000E+000	4.68338E-003	3.59960E-001	-1.05824E+000	3.57730E+000	10	...........
	32	0.44	7.87285E-001	5.99237E-003	0.00000E+000	4.71771E-003	3.59960E-001	-1.05377E+000	3.57730E+000	10	...........
	33	0.453333	7.93164E-001	5.99730E-003	0.00000E+000	4.75684E-003	3.59960E-001	-1.04942E+000	3.57730E+000	10	...........
	34	0.466667	7.99007E-001	5.99488E-003	0.00000E+000	4.78995E-003	3.59960E-001	-1.05873E+000	3.57730E+000	10	...........
	35	0.48	8.04883E-001	5.99691E-003	0.00000E+000	4.82681E-003	3.59960E-001	-1.05415E+000	3.57730E+000	10	...........
	36	0.493333	8.10725E-001	5.99050E-003	0.00000E+000	4.85665E-003	3.59960E-001	-1.04920E+000	3.57730E+000	10	...........
	37	0.506667	8.16601E-001	5.99575E-003	0.00000E+000	4.89614E-003	3.59960E-001	-1.05809E+000	3.57730E+000	10	...........
	38	0.52	8.22493E-001	5.99834E-003	0.00000E+000	4.93359E-003	3.59960E-001	-1.05413E+000	3.57730E+000	10	...........
	39	0.533333	8.28342E-001	5.99459E-003	0.00000E+000	4.96557E-003	3.59960E-001	-1.04962E+000	3.57730E+000	10	...........
	40	0.546667	8.34189E-001	5.99303E-003	0.00000E+000	4.99932E-003	3.59960E-001	-1.05829E+000	3.57730E+000	10	...........
	41	0.56	8.39990E-001	5.99293E-003	0.00000E+000	5.03400E-003	3.59960E-001	-1.05429E+000	3.57730E+000	10	...........
	42	0.573333	8.45917E-001	5.99029E-003	0.00000E+000	5.06729E-003	3.59960E-001	-1.04953E+000	3.57730E+000	10	...........
	43	0.586667	8.51765E-001	5.99520E-003	0.00000E+000	5.10650E-003	3.59960E-001	-1.05825E+000	3.57730E+000	10	...........
	44	0.6	8.57576E-001	5.99475E-003	0.00000E+000	5.14096E-003	3.59960E-001	-1.05486E+000	3.57730E+000	10	...........
	45	0.613333	8.63370E-001	5.99343E-003	0.00000E+000	5.17454E-003	3.59960E-001	-1.04984E+000	3.57730E+000	10	...........
	46	0.626667	8.69237E-001	5.99806E-003	0.00000E+000	5.21373E-003	3.59960E-001	-1.05835E+000	3.57730E+000	10	...........
	47	0.64	8.75041E-001	5.99293E-003	0.00000E+000	5.24406E-003	3.59960E-001	-1.05507E+000	3.57730E+000	10	...........
	48	0.653333	8.80789E-001	5.99132E-003	0.00000E+000	5.27709E-003	3.59960E-001	-1.04991E+000	3.57730E+000	10	...........
	49	0.666667	8.86607E-001	5.99249E-003	0.00000E+000	5.31298E-003	3.59960E-001	-1.05874E+000	3.57730E+000	10	...........
	50	0.68	8.92358E-001	5.99055E-003	0.00000E+000	5.34571E-003	3.59960E-001	-1.05531E+000	3.57730E+000	10	...........
	51	0.693333	8.98128E-001	5.99303E-003	0.00000E+000	5.38251E-003	3.59960E-001	-1.05004E+000	3.57730E+000	10	...........
	52	0.706667	9.03893E-001	5.99694E-003	0.00000E+000	5.42060E-003	3.59960E-001	-1.05857E+000	3.57730E+000	10	...........
	53	0.72	9.09648E-001	5.99531E-003	0.00000E+000	5.45363E-003	3.59960E-001	-1.05563E+000	3.57730E+000	10	...........
	54	0.733333	9.15325E-001	5.99501E-003	0.00000E+000	5.48739E-003	3.59960E-001	-1.05061E+000	3.57730E+000	10	...........
	55	0.746667	9.21066E-001	5.99580E-003	0.00000E+000	5.52253E-003	3.59960E-001	-1.05873E+000	3.57730E+000	10	...........
	56	0.76	9.26793E-001	5.99479E-003	0.00000E+000	5.55593E-003	3.59960E-001	-1.05592E+000	3.57730E+000	10	...........
	57	0.773333	9.32419E-001	5.99449E-003	0.00000E+000	5.58938E-003	3.59960E-001	-1.05079E+000	3.57730E+000	10	...........
	58	0.786667	9.38041E-001	5.99517E-003	0.00000E+000	5.62371E-003	3.59960E-001	-1.05887E+000	3.57730E+000	10	...........
	59	0.8	9.43636E-001	5.99456E-003	0.00000E+000	5.65668E-003	3.59960E-001	-1.05649E+000	3.57730E+000	10	...........
	60	0.813333	9.49271E-001	5.99227E-003	0.00000E+000	5.68829E-003	3.59960E-001	-1.05079E+000	3.57730E+000	10	...........
	61	0.826667	9.54829E-001	5.99410E-003	0.00000E+000	5.72334E-003	3.59960E-001	-1.05846E+000	3.57730E+000	10	...........
	62	0.84	9.60354E-001	5.99398E-003	0.00000E+000	5.75634E-003	3.59960E-001	-1.05616E+000	3.57740E+000	10	...........
	63	0.853333	9.65840E-001	5.99158E-003	0.00000E+000	5.78691E-003	3.59960E-001	-1.05082E+000	3.57840E+000	10	...........
	64	0.866667	9.71342E-001	5.99783E-003	0.00000E+000	5.82594E-003	3.59960E-001	-1.05880E+000	3.57840E+000	10	...........
	65	0.88	9.76793E-001	5.99374E-003	0.00000E+000	5.85464E-003	3.59960E-001	-1.05640E+000	3.57840E+000	10	...........
	66	0.893333	9.82157E-001	5.99841E-003	0.00000E+000	5.89139E-003	3.59960E-001	-1.05080E+000	3.57840E+000	10	...........
	67	0.906667	9.87527E-001	5.99376E-003	0.00000E+000	5.91900E-003	3.59960E-001	-1.05846E+000	3.57840E+000	10	...........
	68	0.92	9.92926E-001	5.99225E-003	0.00000E+000	5.94986E-003	3.59960E-001	-1.05671E+000	3.57840E+000	10	...........
	69	0.933333	9.98273E-001	5.99256E-003	0.00000E+000	5.98221E-003	3.59960E-001	-1.05116E+000	3.57840E+000	10	...........
STARTTIMEOFFSET	QUANT	185.9633	Start Time Offset (s)