File: Data/CV_CRGO300517_1/PWRCCD_CRGO300517_1/CHARGE_DISCHARGE/CHARGE_#946.DTA
EXPLAIN
TAG	PWR800_CHARGE
TITLE	LABEL	PWR Cyclic Charge Discharge (Cell) - Charge Step	Test &Identifier
DATE	LABEL	22-6-2017	Date
TIME	LABEL	16:12:40	Time
NOTES	NOTES	3	&Notes...
	supercap test cell
	0.6mg
	6M KOH
PSTAT	PSTAT	IFC5000-01520	Potentiostat
CAPACITY	QUANT	1.00000E-003	Capacity (A-hr)
CELLTYPE	SELECTOR	1	&Cell Type
WORKINGCONNECTION	SELECTOR	0	&Working Lead
MAXCHARGETIME	VARIABLEANDUNITS	1.00000E+002	s	1.00000E+002	second(s)	Max &Charge Time
CHARGECURRENT	QUANT	6.00000E-003	&Charge Current (A)
VOLTAGEFINISH	TWOPARAM	F	1.00000E-003	3.60000E+003	&Voltage Finish	 I (A) < 	Max Time(s)
SAMPLETIME	QUANT	1.00000E-002	Sa&mple Period (s)
CHARGESTOPAT1	MULTIPARAM	4	1.00000E+000	Charge Stop At &1	Voltage > Limit	V
CHARGESTOPAT2	MULTIPARAM	0	0.00000E+000	Charge Stop At &2	None	N/A
AESBHCSELECTOR	TOGGLE	F	Save Both Half Cells
IRCOMP	TOGGLE	F	IR &Measure
EOC	QUANT	0	Open Circuit (V)
SEQUENCER	TOGGLE	TRUE	Run as Sequence
PSTATMODEL	IQUANT	53	Pstat Model
PSTATSECTION	LABEL	IFC5000-01520	Pstat Section
PSTATSERIALNO	LABEL	01520	Pstat Serial Number
CTRLMODE	IQUANT	0	Control Mode
ELECTROMETER	IQUANT	1	RE=0 or CS=1
IESTAB	IQUANT	0	I/E Stability
CASPEED	IQUANT	4	Control Amp Speed
CONVENTION	IQUANT	1	Current Convention
ICHRANGE	IQUANT	2	Ich Range
ICHRANGEMODE	TOGGLE	T	Ich Auto Range
ICHOFFSETENABLE	TOGGLE	F	Ich Offset Enable
ICHOFFSET	QUANT	0	Ich Offset (V)
ICHFILTER	IQUANT	1	Ich Filter
VCHRANGE	IQUANT	2	Vch Range
VCHRANGEMODE	TOGGLE	T	Vch Auto Range
VCHOFFSETENABLE	TOGGLE	F	Vch Offset Enable
VCHOFFSET	QUANT	0	Vch Offset (V)
VCHFILTER	IQUANT	1	Vch Filter
IERANGELOWERLIMIT	IQUANT	9	I/E Range Lower Limit
IERANGEMODE	TOGGLE	F	I/E AutoRange
IERANGE	IQUANT	10	I/E Range
ACHSELECT	IQUANT	1	Ach Select
ACHRANGE	IQUANT	2	Ach Range
ACHOFFSETENABLE	TOGGLE	F	Ach Offset Enable
ACHOFFSET	QUANT	0	Ach Offset (V)
ACHFILTER	IQUANT	1	Ach Filter
CABLEID	IQUANT	14	Cable ID
DCCALDATE	LABEL	20-10-2016	DC Calibration Date
ACCALDATE	LABEL	12/3/2015	AC Calibration Date
FRAMEWORKVERSION	QUANT	7.01	Framework Version
INSTRUMENTVERSION	LABEL	4.00	Instrument Version
CURVE	TABLE	53
	Pt	T	Vf	Im	Vu	Pwr	Sig	Ach	Temp	IERange	Over
	#	s	V	A	V	W	V	V	deg C	#	bits
	0	0.013333	6.54600E-001	5.99346E-003	0.00000E+000	3.92332E-003	3.59960E-001	-1.17211E+000	3.57630E+000	10	...........
	1	0.026667	6.63890E-001	5.99251E-003	0.00000E+000	3.97836E-003	3.59960E-001	-1.18317E+000	3.57630E+000	10	...........
	2	0.04	6.72470E-001	5.99301E-003	0.00000E+000	4.03012E-003	3.59960E-001	-1.17507E+000	3.57630E+000	10	...........
	3	0.053333	6.80605E-001	5.99285E-003	0.00000E+000	4.07876E-003	3.59960E-001	-1.17205E+000	3.57630E+000	10	...........
	4	0.066667	6.88389E-001	5.99175E-003	0.00000E+000	4.12465E-003	3.59960E-001	-1.18284E+000	3.57630E+000	10	...........
	5	0.08	6.96014E-001	5.99096E-003	0.00000E+000	4.16980E-003	3.59960E-001	-1.17479E+000	3.57630E+000	10	...........
	6	0.093333	7.03509E-001	5.99019E-003	0.00000E+000	4.21416E-003	3.59960E-001	-1.17184E+000	3.57630E+000	10	...........
	7	0.106667	7.10852E-001	5.99045E-003	0.00000E+000	4.25833E-003	3.59960E-001	-1.18284E+000	3.57630E+000	10	...........
	8	0.12	7.18180E-001	5.99427E-003	0.00000E+000	4.30496E-003	3.59960E-001	-1.17440E+000	3.57630E+000	10	...........
	9	0.133333	7.25345E-001	5.98930E-003	0.00000E+000	4.34431E-003	3.59960E-001	-1.17148E+000	3.57630E+000	10	...........
	10	0.146667	7.32439E-001	5.99176E-003	0.00000E+000	4.38860E-003	3.59960E-001	-1.18239E+000	3.57630E+000	10	...........
	11	0.16	7.39526E-001	5.98953E-003	0.00000E+000	4.42941E-003	3.59960E-001	-1.17458E+000	3.57630E+000	10	...........
	12	0.173333	7.46603E-001	5.99498E-003	0.00000E+000	4.47587E-003	3.59960E-001	-1.17158E+000	3.57630E+000	10	...........
	13	0.186667	7.53560E-001	5.99506E-003	0.00000E+000	4.51764E-003	3.59960E-001	-1.18224E+000	3.57630E+000	10	...........
	14	0.2	7.60477E-001	5.99128E-003	0.00000E+000	4.55623E-003	3.59960E-001	-1.17433E+000	3.57630E+000	10	...........
	15	0.213333	7.67437E-001	5.99175E-003	0.00000E+000	4.59829E-003	3.59960E-001	-1.17130E+000	3.57630E+000	10	...........
	16	0.226667	7.74317E-001	5.99813E-003	0.00000E+000	4.64445E-003	3.59960E-001	-1.18230E+000	3.57630E+000	10	...........
	17	0.24	7.81157E-001	5.99365E-003	0.00000E+000	4.68198E-003	3.59960E-001	-1.17443E+000	3.57630E+000	10	...........
	18	0.253333	7.87959E-001	5.98991E-003	0.00000E+000	4.71981E-003	3.59960E-001	-1.17096E+000	3.57630E+000	10	...........
	19	0.266667	7.94772E-001	5.99392E-003	0.00000E+000	4.76380E-003	3.59960E-001	-1.18165E+000	3.57630E+000	10	...........
	20	0.28	8.01547E-001	5.98847E-003	0.00000E+000	4.80004E-003	3.59960E-001	-1.17423E+000	3.57630E+000	10	...........
	21	0.293333	8.08272E-001	5.99546E-003	0.00000E+000	4.84596E-003	3.59960E-001	-1.17119E+000	3.57630E+000	10	...........
	22	0.306667	8.14942E-001	5.99530E-003	0.00000E+000	4.88582E-003	3.59960E-001	-1.18192E+000	3.57630E+000	10	...........
	23	0.32	8.21684E-001	5.99142E-003	0.00000E+000	4.92306E-003	3.59960E-001	-1.17409E+000	3.57630E+000	10	...........
	24	0.333333	8.28367E-001	5.99252E-003	0.00000E+000	4.96400E-003	3.59960E-001	-1.17088E+000	3.57630E+000	10	...........
	25	0.346667	8.34957E-001	5.99636E-003	0.00000E+000	5.00670E-003	3.59960E-001	-1.18169E+000	3.57630E+000	10	...........
	26	0.36	8.41578E-001	5.99506E-003	0.00000E+000	5.04531E-003	3.59960E-001	-1.17443E+000	3.57630E+000	10	...........
	27	0.373333	8.48165E-001	5.99467E-003	0.00000E+000	5.08447E-003	3.59960E-001	-1.17078E+000	3.57630E+000	10	...........
	28	0.386667	8.54737E-001	5.99705E-003	0.00000E+000	5.12589E-003	3.59960E-001	-1.18162E+000	3.57630E+000	10	...........
	29	0.4	8.61235E-001	5.99618E-003	0.00000E+000	5.16412E-003	3.59960E-001	-1.17407E+000	3.57630E+000	10	...........
	30	0.413333	8.67729E-001	5.99444E-003	0.00000E+000	5.20155E-003	3.59960E-001	-1.17054E+000	3.57630E+000	10	...........
	31	0.426667	8.74232E-001	5.99619E-003	0.00000E+000	5.24206E-003	3.59960E-001	-1.18150E+000	3.57630E+000	10	...........
	32	0.44	8.80671E-001	5.99628E-003	0.00000E+000	5.28075E-003	3.59960E-001	-1.17396E+000	3.57630E+000	10	...........
	33	0.453333	8.87055E-001	5.99140E-003	0.00000E+000	5.31470E-003	3.59960E-001	-1.17007E+000	3.57649E+000	10	...........
	34	0.466667	8.93418E-001	5.99486E-003	0.00000E+000	5.35591E-003	3.59960E-001	-1.18097E+000	3.57660E+000	10	...........
	35	0.48	8.99743E-001	5.99452E-003	0.00000E+000	5.39353E-003	3.59960E-001	-1.17403E+000	3.57660E+000	10	...........
	36	0.493333	9.06057E-001	5.99442E-003	0.00000E+000	5.43128E-003	3.59960E-001	-1.17042E+000	3.57660E+000	10	...........
	37	0.506667	9.12284E-001	5.99326E-003	0.00000E+000	5.46756E-003	3.59960E-001	-1.18094E+000	3.57660E+000	10	...........
	38	0.52	9.18504E-001	5.99406E-003	0.00000E+000	5.50557E-003	3.59960E-001	-1.17380E+000	3.57660E+000	10	...........
	39	0.533333	9.24746E-001	5.99377E-003	0.00000E+000	5.54272E-003	3.59960E-001	-1.17025E+000	3.57660E+000	10	...........
	40	0.546667	9.30857E-001	5.99135E-003	0.00000E+000	5.57709E-003	3.59960E-001	-1.18073E+000	3.57660E+000	10	...........
	41	0.56	9.36904E-001	6.00058E-003	0.00000E+000	5.62197E-003	3.59960E-001	-1.17397E+000	3.57660E+000	10	...........
	42	0.573333	9.42932E-001	5.99564E-003	0.00000E+000	5.65348E-003	3.59960E-001	-1.17024E+000	3.57660E+000	10	...........
	43	0.586667	9.48943E-001	5.99438E-003	0.00000E+000	5.68832E-003	3.59960E-001	-1.18090E+000	3.57660E+000	10	...........
	44	0.6	9.54885E-001	5.99442E-003	0.00000E+000	5.72398E-003	3.59960E-001	-1.17372E+000	3.57660E+000	10	...........
	45	0.613333	9.60732E-001	5.99151E-003	0.00000E+000	5.75623E-003	3.59960E-001	-1.17020E+000	3.57660E+000	10	...........
	46	0.626667	9.66594E-001	5.99566E-003	0.00000E+000	5.79537E-003	3.59960E-001	-1.18102E+000	3.57660E+000	10	...........
	47	0.64	9.72426E-001	5.99598E-003	0.00000E+000	5.83065E-003	3.59960E-001	-1.17397E+000	3.57660E+000	10	...........
	48	0.653333	9.78165E-001	5.99627E-003	0.00000E+000	5.86534E-003	3.59960E-001	-1.17035E+000	3.57660E+000	10	...........
	49	0.666667	9.83863E-001	5.99243E-003	0.00000E+000	5.89573E-003	3.59960E-001	-1.18104E+000	3.57660E+000	10	...........
	50	0.68	9.89440E-001	5.99679E-003	0.00000E+000	5.93346E-003	3.59960E-001	-1.17427E+000	3.57660E+000	10	...........
	51	0.693333	9.95031E-001	5.99716E-003	0.00000E+000	5.96736E-003	3.59960E-001	-1.17049E+000	3.57660E+000	10	...........
	52	0.7	9.99201E-001	5.98632E-003	0.00000E+000	5.98154E-003	3.59960E-001	-1.18497E+000	3.57660E+000	10	...........
STARTTIMEOFFSET	QUANT	1510.4	Start Time Offset (s)