File: Data/CV_CRGO300517_1/PWRCCD_CRGO300517_1/CHARGE_DISCHARGE/CHARGE_#271.DTA
EXPLAIN
TAG	PWR800_CHARGE
TITLE	LABEL	PWR Cyclic Charge Discharge (Cell) - Charge Step	Test &Identifier
DATE	LABEL	22-6-2017	Date
TIME	LABEL	15:46:44	Time
NOTES	NOTES	3	&Notes...
	supercap test cell
	0.6mg
	6M KOH
PSTAT	PSTAT	IFC5000-01520	Potentiostat
CAPACITY	QUANT	1.00000E-003	Capacity (A-hr)
CELLTYPE	SELECTOR	1	&Cell Type
WORKINGCONNECTION	SELECTOR	0	&Working Lead
MAXCHARGETIME	VARIABLEANDUNITS	1.00000E+002	s	1.00000E+002	second(s)	Max &Charge Time
CHARGECURRENT	QUANT	6.00000E-003	&Charge Current (A)
VOLTAGEFINISH	TWOPARAM	F	1.00000E-003	3.60000E+003	&Voltage Finish	 I (A) < 	Max Time(s)
SAMPLETIME	QUANT	1.00000E-002	Sa&mple Period (s)
CHARGESTOPAT1	MULTIPARAM	4	1.00000E+000	Charge Stop At &1	Voltage > Limit	V
CHARGESTOPAT2	MULTIPARAM	0	0.00000E+000	Charge Stop At &2	None	N/A
AESBHCSELECTOR	TOGGLE	F	Save Both Half Cells
IRCOMP	TOGGLE	F	IR &Measure
EOC	QUANT	0	Open Circuit (V)
SEQUENCER	TOGGLE	TRUE	Run as Sequence
PSTATMODEL	IQUANT	53	Pstat Model
PSTATSECTION	LABEL	IFC5000-01520	Pstat Section
PSTATSERIALNO	LABEL	01520	Pstat Serial Number
CTRLMODE	IQUANT	0	Control Mode
ELECTROMETER	IQUANT	1	RE=0 or CS=1
IESTAB	IQUANT	0	I/E Stability
CASPEED	IQUANT	4	Control Amp Speed
CONVENTION	IQUANT	1	Current Convention
ICHRANGE	IQUANT	2	Ich Range
ICHRANGEMODE	TOGGLE	T	Ich Auto Range
ICHOFFSETENABLE	TOGGLE	F	Ich Offset Enable
ICHOFFSET	QUANT	0	Ich Offset (V)
ICHFILTER	IQUANT	1	Ich Filter
VCHRANGE	IQUANT	2	Vch Range
VCHRANGEMODE	TOGGLE	T	Vch Auto Range
VCHOFFSETENABLE	TOGGLE	F	Vch Offset Enable
VCHOFFSET	QUANT	0	Vch Offset (V)
VCHFILTER	IQUANT	1	Vch Filter
IERANGELOWERLIMIT	IQUANT	9	I/E Range Lower Limit
IERANGEMODE	TOGGLE	F	I/E AutoRange
IERANGE	IQUANT	10	I/E Range
ACHSELECT	IQUANT	1	Ach Select
ACHRANGE	IQUANT	2	Ach Range
ACHOFFSETENABLE	TOGGLE	F	Ach Offset Enable
ACHOFFSET	QUANT	0	Ach Offset (V)
ACHFILTER	IQUANT	1	Ach Filter
CABLEID	IQUANT	14	Cable ID
DCCALDATE	LABEL	20-10-2016	DC Calibration Date
ACCALDATE	LABEL	12/3/2015	AC Calibration Date
FRAMEWORKVERSION	QUANT	7.01	Framework Version
INSTRUMENTVERSION	LABEL	4.00	Instrument Version
CURVE	TABLE	63
	Pt	T	Vf	Im	Vu	Pwr	Sig	Ach	Temp	IERange	Over
	#	s	V	A	V	W	V	V	deg C	#	bits
	0	0.013333	6.13234E-001	5.99250E-003	0.00000E+000	3.67480E-003	3.59960E-001	-1.09975E+000	3.57670E+000	10	...........
	1	0.026667	6.21878E-001	5.99716E-003	0.00000E+000	3.72950E-003	3.59960E-001	-1.10948E+000	3.57670E+000	10	...........
	2	0.04	6.29717E-001	5.99784E-003	0.00000E+000	3.77694E-003	3.59960E-001	-1.10185E+000	3.57670E+000	10	...........
	3	0.053333	6.37177E-001	5.99605E-003	0.00000E+000	3.82055E-003	3.59960E-001	-1.09904E+000	3.57670E+000	10	...........
	4	0.066667	6.44415E-001	5.99467E-003	0.00000E+000	3.86305E-003	3.59960E-001	-1.10883E+000	3.57670E+000	10	...........
	5	0.08	6.51404E-001	5.99516E-003	0.00000E+000	3.90527E-003	3.59960E-001	-1.10144E+000	3.57670E+000	10	...........
	6	0.093333	6.58294E-001	5.99201E-003	0.00000E+000	3.94450E-003	3.59960E-001	-1.09866E+000	3.57670E+000	10	...........
	7	0.106667	6.65044E-001	5.99504E-003	0.00000E+000	3.98697E-003	3.59960E-001	-1.10835E+000	3.57670E+000	10	...........
	8	0.12	6.71735E-001	5.99174E-003	0.00000E+000	4.02486E-003	3.59960E-001	-1.10114E+000	3.57670E+000	10	...........
	9	0.133333	6.78331E-001	5.99569E-003	0.00000E+000	4.06706E-003	3.59960E-001	-1.09833E+000	3.57670E+000	10	...........
	10	0.146667	6.84846E-001	5.99623E-003	0.00000E+000	4.10650E-003	3.59960E-001	-1.10834E+000	3.57670E+000	10	...........
	11	0.16	6.91281E-001	5.99113E-003	0.00000E+000	4.14156E-003	3.59960E-001	-1.10109E+000	3.57670E+000	10	...........
	12	0.173333	6.97730E-001	5.99263E-003	0.00000E+000	4.18124E-003	3.59960E-001	-1.09803E+000	3.57670E+000	10	...........
	13	0.186667	7.04195E-001	5.99305E-003	0.00000E+000	4.22027E-003	3.59960E-001	-1.10780E+000	3.57670E+000	10	...........
	14	0.2	7.10513E-001	5.99443E-003	0.00000E+000	4.25912E-003	3.59960E-001	-1.10058E+000	3.57670E+000	10	...........
	15	0.213333	7.16937E-001	5.99455E-003	0.00000E+000	4.29772E-003	3.59960E-001	-1.09753E+000	3.57670E+000	10	...........
	16	0.226667	7.23262E-001	5.99503E-003	0.00000E+000	4.33598E-003	3.59960E-001	-1.10711E+000	3.57670E+000	10	...........
	17	0.24	7.29638E-001	5.99139E-003	0.00000E+000	4.37155E-003	3.59960E-001	-1.09999E+000	3.57670E+000	10	...........
	18	0.253333	7.35936E-001	5.99197E-003	0.00000E+000	4.40971E-003	3.59960E-001	-1.09682E+000	3.57670E+000	10	...........
	19	0.266667	7.42234E-001	5.99478E-003	0.00000E+000	4.44953E-003	3.59960E-001	-1.10683E+000	3.57670E+000	10	...........
	20	0.28	7.48532E-001	5.99131E-003	0.00000E+000	4.48469E-003	3.59960E-001	-1.09958E+000	3.57670E+000	10	...........
	21	0.293333	7.54832E-001	5.98935E-003	0.00000E+000	4.52095E-003	3.59960E-001	-1.09670E+000	3.57674E+000	10	...........
	22	0.306667	7.61043E-001	5.99424E-003	0.00000E+000	4.56188E-003	3.59960E-001	-1.10671E+000	3.57680E+000	10	...........
	23	0.32	7.67295E-001	5.99296E-003	0.00000E+000	4.59837E-003	3.59960E-001	-1.09922E+000	3.57680E+000	10	...........
	24	0.333333	7.73488E-001	5.99110E-003	0.00000E+000	4.63404E-003	3.59960E-001	-1.09628E+000	3.57680E+000	10	...........
	25	0.346667	7.79738E-001	5.99596E-003	0.00000E+000	4.67528E-003	3.59960E-001	-1.10641E+000	3.57680E+000	10	...........
	26	0.36	7.85967E-001	5.99550E-003	0.00000E+000	4.71227E-003	3.59960E-001	-1.09950E+000	3.57680E+000	10	...........
	27	0.373333	7.92132E-001	5.99677E-003	0.00000E+000	4.75024E-003	3.59960E-001	-1.09631E+000	3.57680E+000	10	...........
	28	0.386667	7.98372E-001	5.99344E-003	0.00000E+000	4.78499E-003	3.59960E-001	-1.10610E+000	3.57680E+000	10	...........
	29	0.4	8.04520E-001	5.99356E-003	0.00000E+000	4.82194E-003	3.59960E-001	-1.09913E+000	3.57680E+000	10	...........
	30	0.413333	8.10708E-001	5.99266E-003	0.00000E+000	4.85830E-003	3.59960E-001	-1.09606E+000	3.57680E+000	10	...........
	31	0.426667	8.16875E-001	5.99426E-003	0.00000E+000	4.89656E-003	3.59960E-001	-1.10598E+000	3.57680E+000	10	...........
	32	0.44	8.23055E-001	5.99538E-003	0.00000E+000	4.93452E-003	3.59960E-001	-1.09903E+000	3.57680E+000	10	...........
	33	0.453333	8.29178E-001	5.99397E-003	0.00000E+000	4.97007E-003	3.59960E-001	-1.09615E+000	3.57680E+000	10	...........
	34	0.466667	8.35259E-001	5.99313E-003	0.00000E+000	5.00582E-003	3.59960E-001	-1.10598E+000	3.57680E+000	10	...........
	35	0.48	8.41415E-001	5.99380E-003	0.00000E+000	5.04328E-003	3.59960E-001	-1.09909E+000	3.57680E+000	10	...........
	36	0.493333	8.47600E-001	5.99259E-003	0.00000E+000	5.07932E-003	3.59960E-001	-1.09620E+000	3.57680E+000	10	...........
	37	0.506667	8.53675E-001	5.99139E-003	0.00000E+000	5.11470E-003	3.59960E-001	-1.10622E+000	3.57680E+000	10	...........
	38	0.52	8.59783E-001	5.99655E-003	0.00000E+000	5.15573E-003	3.59960E-001	-1.09927E+000	3.57680E+000	10	...........
	39	0.533333	8.65841E-001	5.99396E-003	0.00000E+000	5.18981E-003	3.59960E-001	-1.09625E+000	3.57680E+000	10	...........
	40	0.546667	8.71940E-001	5.99838E-003	0.00000E+000	5.23023E-003	3.59960E-001	-1.10604E+000	3.57680E+000	10	...........
	41	0.56	8.77984E-001	5.99240E-003	0.00000E+000	5.26123E-003	3.59960E-001	-1.09940E+000	3.57680E+000	10	...........
	42	0.573333	8.83982E-001	5.99754E-003	0.00000E+000	5.30172E-003	3.59960E-001	-1.09628E+000	3.57680E+000	10	...........
	43	0.586667	8.89996E-001	5.99014E-003	0.00000E+000	5.33120E-003	3.59960E-001	-1.10610E+000	3.57680E+000	10	...........
	44	0.6	8.95988E-001	5.99579E-003	0.00000E+000	5.37216E-003	3.59960E-001	-1.09965E+000	3.57680E+000	10	...........
	45	0.613333	9.01948E-001	5.99127E-003	0.00000E+000	5.40381E-003	3.59960E-001	-1.09677E+000	3.57680E+000	10	...........
	46	0.626667	9.07885E-001	5.99195E-003	0.00000E+000	5.44000E-003	3.59960E-001	-1.10682E+000	3.57680E+000	10	...........
	47	0.64	9.13797E-001	5.99481E-003	0.00000E+000	5.47804E-003	3.59960E-001	-1.10031E+000	3.57680E+000	10	...........
	48	0.653333	9.19708E-001	5.99511E-003	0.00000E+000	5.51375E-003	3.59960E-001	-1.09735E+000	3.57680E+000	10	...........
	49	0.666667	9.25619E-001	5.99063E-003	0.00000E+000	5.54504E-003	3.59960E-001	-1.10741E+000	3.57680E+000	10	...........
	50	0.68	9.31455E-001	5.99094E-003	0.00000E+000	5.58029E-003	3.59960E-001	-1.10120E+000	3.57680E+000	10	...........
	51	0.693333	9.37266E-001	5.99397E-003	0.00000E+000	5.61794E-003	3.59960E-001	-1.09821E+000	3.57680E+000	10	...........
	52	0.706667	9.43042E-001	5.99684E-003	0.00000E+000	5.65527E-003	3.59960E-001	-1.10824E+000	3.57680E+000	10	...........
	53	0.72	9.48811E-001	5.99006E-003	0.00000E+000	5.68343E-003	3.59960E-001	-1.10184E+000	3.57680E+000	10	...........
	54	0.733333	9.54543E-001	5.99837E-003	0.00000E+000	5.72571E-003	3.59960E-001	-1.09909E+000	3.57680E+000	10	...........
	55	0.746667	9.60219E-001	5.99412E-003	0.00000E+000	5.75566E-003	3.59960E-001	-1.10924E+000	3.57680E+000	10	...........
	56	0.76	9.65821E-001	5.99676E-003	0.00000E+000	5.79180E-003	3.59960E-001	-1.10320E+000	3.57680E+000	10	...........
	57	0.773333	9.71383E-001	5.99017E-003	0.00000E+000	5.81875E-003	3.59960E-001	-1.10046E+000	3.57680E+000	10	...........
	58	0.786667	9.77015E-001	5.99426E-003	0.00000E+000	5.85649E-003	3.59960E-001	-1.11048E+000	3.57680E+000	10	...........
	59	0.8	9.82563E-001	5.99175E-003	0.00000E+000	5.88727E-003	3.59960E-001	-1.10441E+000	3.57680E+000	10	...........
	60	0.813333	9.88052E-001	5.99063E-003	0.00000E+000	5.91906E-003	3.59960E-001	-1.10134E+000	3.57680E+000	10	...........
	61	0.826667	9.93497E-001	5.99297E-003	0.00000E+000	5.95399E-003	3.59960E-001	-1.11154E+000	3.57680E+000	10	...........
	62	0.838333	9.98566E-001	5.99228E-003	0.00000E+000	5.98369E-003	3.59960E-001	-1.10364E+000	3.57680E+000	10	...........
STARTTIMEOFFSET	QUANT	493.105	Start Time Offset (s)