File: Data/CV_CRGO300517_1/PWRCCD_CRGO300517_1/CHARGE_DISCHARGE/CHARGE_#633.DTA
EXPLAIN
TAG	PWR800_CHARGE
TITLE	LABEL	PWR Cyclic Charge Discharge (Cell) - Charge Step	Test &Identifier
DATE	LABEL	22-6-2017	Date
TIME	LABEL	16:01:01	Time
NOTES	NOTES	3	&Notes...
	supercap test cell
	0.6mg
	6M KOH
PSTAT	PSTAT	IFC5000-01520	Potentiostat
CAPACITY	QUANT	1.00000E-003	Capacity (A-hr)
CELLTYPE	SELECTOR	1	&Cell Type
WORKINGCONNECTION	SELECTOR	0	&Working Lead
MAXCHARGETIME	VARIABLEANDUNITS	1.00000E+002	s	1.00000E+002	second(s)	Max &Charge Time
CHARGECURRENT	QUANT	6.00000E-003	&Charge Current (A)
VOLTAGEFINISH	TWOPARAM	F	1.00000E-003	3.60000E+003	&Voltage Finish	 I (A) < 	Max Time(s)
SAMPLETIME	QUANT	1.00000E-002	Sa&mple Period (s)
CHARGESTOPAT1	MULTIPARAM	4	1.00000E+000	Charge Stop At &1	Voltage > Limit	V
CHARGESTOPAT2	MULTIPARAM	0	0.00000E+000	Charge Stop At &2	None	N/A
AESBHCSELECTOR	TOGGLE	F	Save Both Half Cells
IRCOMP	TOGGLE	F	IR &Measure
EOC	QUANT	0	Open Circuit (V)
SEQUENCER	TOGGLE	TRUE	Run as Sequence
PSTATMODEL	IQUANT	53	Pstat Model
PSTATSECTION	LABEL	IFC5000-01520	Pstat Section
PSTATSERIALNO	LABEL	01520	Pstat Serial Number
CTRLMODE	IQUANT	0	Control Mode
ELECTROMETER	IQUANT	1	RE=0 or CS=1
IESTAB	IQUANT	0	I/E Stability
CASPEED	IQUANT	4	Control Amp Speed
CONVENTION	IQUANT	1	Current Convention
ICHRANGE	IQUANT	2	Ich Range
ICHRANGEMODE	TOGGLE	T	Ich Auto Range
ICHOFFSETENABLE	TOGGLE	F	Ich Offset Enable
ICHOFFSET	QUANT	0	Ich Offset (V)
ICHFILTER	IQUANT	1	Ich Filter
VCHRANGE	IQUANT	2	Vch Range
VCHRANGEMODE	TOGGLE	T	Vch Auto Range
VCHOFFSETENABLE	TOGGLE	F	Vch Offset Enable
VCHOFFSET	QUANT	0	Vch Offset (V)
VCHFILTER	IQUANT	1	Vch Filter
IERANGELOWERLIMIT	IQUANT	9	I/E Range Lower Limit
IERANGEMODE	TOGGLE	F	I/E AutoRange
IERANGE	IQUANT	10	I/E Range
ACHSELECT	IQUANT	1	Ach Select
ACHRANGE	IQUANT	2	Ach Range
ACHOFFSETENABLE	TOGGLE	F	Ach Offset Enable
ACHOFFSET	QUANT	0	Ach Offset (V)
ACHFILTER	IQUANT	1	Ach Filter
CABLEID	IQUANT	14	Cable ID
DCCALDATE	LABEL	20-10-2016	DC Calibration Date
ACCALDATE	LABEL	12/3/2015	AC Calibration Date
FRAMEWORKVERSION	QUANT	7.01	Framework Version
INSTRUMENTVERSION	LABEL	4.00	Instrument Version
CURVE	TABLE	56
	Pt	T	Vf	Im	Vu	Pwr	Sig	Ach	Temp	IERange	Over
	#	s	V	A	V	W	V	V	deg C	#	bits
	0	0.013333	6.39946E-001	5.99147E-003	0.00000E+000	3.83421E-003	3.59960E-001	-1.15362E+000	3.57780E+000	10	...........
	1	0.026667	6.49012E-001	5.99577E-003	0.00000E+000	3.89133E-003	3.59960E-001	-1.14320E+000	3.57780E+000	10	...........
	2	0.04	6.57295E-001	5.99519E-003	0.00000E+000	3.94061E-003	3.59960E-001	-1.14330E+000	3.57780E+000	10	...........
	3	0.053333	6.65150E-001	5.99175E-003	0.00000E+000	3.98541E-003	3.59960E-001	-1.15337E+000	3.57780E+000	10	...........
	4	0.066667	6.72793E-001	5.99286E-003	0.00000E+000	4.03196E-003	3.59960E-001	-1.14282E+000	3.57780E+000	10	...........
	5	0.08	6.80172E-001	5.99623E-003	0.00000E+000	4.07847E-003	3.59960E-001	-1.14327E+000	3.57780E+000	10	...........
	6	0.093333	6.87386E-001	5.99186E-003	0.00000E+000	4.11872E-003	3.59960E-001	-1.15341E+000	3.57780E+000	10	...........
	7	0.106667	6.94562E-001	5.98970E-003	0.00000E+000	4.16022E-003	3.59960E-001	-1.14292E+000	3.57780E+000	10	...........
	8	0.12	7.01604E-001	5.98683E-003	0.00000E+000	4.20038E-003	3.59960E-001	-1.14291E+000	3.57780E+000	10	...........
	9	0.133333	7.08573E-001	5.99228E-003	0.00000E+000	4.24596E-003	3.59960E-001	-1.15329E+000	3.57780E+000	10	...........
	10	0.146667	7.15499E-001	5.99854E-003	0.00000E+000	4.29195E-003	3.59960E-001	-1.14296E+000	3.57780E+000	10	...........
	11	0.16	7.22389E-001	5.99548E-003	0.00000E+000	4.33107E-003	3.59960E-001	-1.14333E+000	3.57780E+000	10	...........
	12	0.173333	7.29223E-001	5.99582E-003	0.00000E+000	4.37228E-003	3.59960E-001	-1.15336E+000	3.57780E+000	10	...........
	13	0.186667	7.35966E-001	5.99103E-003	0.00000E+000	4.40919E-003	3.59960E-001	-1.14263E+000	3.57780E+000	10	...........
	14	0.2	7.42715E-001	5.98693E-003	0.00000E+000	4.44658E-003	3.59960E-001	-1.14300E+000	3.57780E+000	10	...........
	15	0.213333	7.49430E-001	5.99335E-003	0.00000E+000	4.49160E-003	3.59960E-001	-1.15343E+000	3.57780E+000	10	...........
	16	0.226667	7.56169E-001	5.99497E-003	0.00000E+000	4.53321E-003	3.59960E-001	-1.14241E+000	3.57780E+000	10	...........
	17	0.24	7.62821E-001	5.99957E-003	0.00000E+000	4.57660E-003	3.59960E-001	-1.14283E+000	3.57780E+000	10	...........
	18	0.253333	7.69474E-001	5.99166E-003	0.00000E+000	4.61043E-003	3.59960E-001	-1.15272E+000	3.57780E+000	10	...........
	19	0.266667	7.76084E-001	5.99640E-003	0.00000E+000	4.65371E-003	3.59960E-001	-1.14229E+000	3.57780E+000	10	...........
	20	0.28	7.82660E-001	5.99288E-003	0.00000E+000	4.69039E-003	3.59960E-001	-1.14294E+000	3.57780E+000	10	...........
	21	0.293333	7.89212E-001	5.99077E-003	0.00000E+000	4.72799E-003	3.59960E-001	-1.15280E+000	3.57780E+000	10	...........
	22	0.306667	7.95817E-001	5.99418E-003	0.00000E+000	4.77027E-003	3.59960E-001	-1.14226E+000	3.57780E+000	10	...........
	23	0.32	8.02341E-001	5.99498E-003	0.00000E+000	4.81002E-003	3.59960E-001	-1.14279E+000	3.57780E+000	10	...........
	24	0.333333	8.08825E-001	5.99277E-003	0.00000E+000	4.84710E-003	3.59960E-001	-1.15257E+000	3.57780E+000	10	...........
	25	0.346667	8.15326E-001	5.99505E-003	0.00000E+000	4.88792E-003	3.59960E-001	-1.14243E+000	3.57780E+000	10	...........
	26	0.36	8.21806E-001	5.99187E-003	0.00000E+000	4.92415E-003	3.59960E-001	-1.14287E+000	3.57780E+000	10	...........
	27	0.373333	8.28258E-001	5.99202E-003	0.00000E+000	4.96294E-003	3.59960E-001	-1.15275E+000	3.57780E+000	10	...........
	28	0.386667	8.34699E-001	5.98918E-003	0.00000E+000	4.99916E-003	3.59960E-001	-1.14198E+000	3.57780E+000	10	...........
	29	0.4	8.41155E-001	5.99493E-003	0.00000E+000	5.04267E-003	3.59960E-001	-1.14279E+000	3.57780E+000	10	...........
	30	0.413333	8.47578E-001	5.99644E-003	0.00000E+000	5.08245E-003	3.59960E-001	-1.15275E+000	3.57780E+000	10	...........
	31	0.426667	8.53940E-001	5.99672E-003	0.00000E+000	5.12084E-003	3.59960E-001	-1.14222E+000	3.57780E+000	10	...........
	32	0.44	8.60321E-001	5.99707E-003	0.00000E+000	5.15940E-003	3.59960E-001	-1.14290E+000	3.57780E+000	10	...........
	33	0.453333	8.66717E-001	5.99560E-003	0.00000E+000	5.19649E-003	3.59960E-001	-1.15256E+000	3.57780E+000	10	...........
	34	0.466667	8.73048E-001	5.99331E-003	0.00000E+000	5.23245E-003	3.59960E-001	-1.14200E+000	3.57780E+000	10	...........
	35	0.48	8.79334E-001	5.99178E-003	0.00000E+000	5.26878E-003	3.59960E-001	-1.14286E+000	3.57780E+000	10	...........
	36	0.493333	8.85607E-001	5.98913E-003	0.00000E+000	5.30401E-003	3.59960E-001	-1.15278E+000	3.57780E+000	10	...........
	37	0.506667	8.91858E-001	5.99635E-003	0.00000E+000	5.34789E-003	3.59960E-001	-1.14185E+000	3.57780E+000	10	...........
	38	0.52	8.98070E-001	5.99554E-003	0.00000E+000	5.38442E-003	3.59960E-001	-1.14285E+000	3.57780E+000	10	...........
	39	0.533333	9.04219E-001	5.98919E-003	0.00000E+000	5.41554E-003	3.59960E-001	-1.15253E+000	3.57780E+000	10	...........
	40	0.546667	9.10387E-001	5.99279E-003	0.00000E+000	5.45576E-003	3.59960E-001	-1.14172E+000	3.57780E+000	10	...........
	41	0.56	9.16503E-001	5.99749E-003	0.00000E+000	5.49672E-003	3.59960E-001	-1.14276E+000	3.57780E+000	10	...........
	42	0.573333	9.22605E-001	5.99599E-003	0.00000E+000	5.53193E-003	3.59960E-001	-1.15229E+000	3.57699E+000	10	...........
	43	0.586667	9.28578E-001	5.99942E-003	0.00000E+000	5.57093E-003	3.59960E-001	-1.14164E+000	3.57680E+000	10	...........
	44	0.6	9.34542E-001	5.99066E-003	0.00000E+000	5.59853E-003	3.59960E-001	-1.14273E+000	3.57680E+000	10	...........
	45	0.613333	9.40492E-001	5.99526E-003	0.00000E+000	5.63850E-003	3.59960E-001	-1.15235E+000	3.57680E+000	10	...........
	46	0.626667	9.46439E-001	5.99515E-003	0.00000E+000	5.67404E-003	3.59960E-001	-1.14177E+000	3.57680E+000	10	...........
	47	0.64	9.52349E-001	5.99595E-003	0.00000E+000	5.71024E-003	3.59960E-001	-1.14284E+000	3.57680E+000	10	...........
	48	0.653333	9.58184E-001	5.98993E-003	0.00000E+000	5.73945E-003	3.59960E-001	-1.15207E+000	3.57680E+000	10	...........
	49	0.666667	9.63963E-001	5.99688E-003	0.00000E+000	5.78077E-003	3.59960E-001	-1.14152E+000	3.57680E+000	10	...........
	50	0.68	9.69695E-001	5.99418E-003	0.00000E+000	5.81253E-003	3.59960E-001	-1.14295E+000	3.57680E+000	10	...........
	51	0.693333	9.75436E-001	5.99344E-003	0.00000E+000	5.84621E-003	3.59960E-001	-1.15238E+000	3.57680E+000	10	...........
	52	0.706667	9.81079E-001	5.99066E-003	0.00000E+000	5.87732E-003	3.59960E-001	-1.14160E+000	3.57680E+000	10	...........
	53	0.72	9.86663E-001	5.99119E-003	0.00000E+000	5.91129E-003	3.59960E-001	-1.14265E+000	3.57680E+000	10	...........
	54	0.733333	9.92215E-001	5.99653E-003	0.00000E+000	5.94985E-003	3.59960E-001	-1.15213E+000	3.57680E+000	10	...........
	55	0.746667	9.97737E-001	5.99807E-003	0.00000E+000	5.98449E-003	3.59960E-001	-1.14181E+000	3.57680E+000	10	...........
STARTTIMEOFFSET	QUANT	1060.215	Start Time Offset (s)