File: Data/CV_CRGO300517_1/PWRCCD_CRGO300517_1/CHARGE_DISCHARGE/CHARGE_#822.DTA
EXPLAIN
TAG	PWR800_CHARGE
TITLE	LABEL	PWR Cyclic Charge Discharge (Cell) - Charge Step	Test &Identifier
DATE	LABEL	22-6-2017	Date
TIME	LABEL	16:08:06	Time
NOTES	NOTES	3	&Notes...
	supercap test cell
	0.6mg
	6M KOH
PSTAT	PSTAT	IFC5000-01520	Potentiostat
CAPACITY	QUANT	1.00000E-003	Capacity (A-hr)
CELLTYPE	SELECTOR	1	&Cell Type
WORKINGCONNECTION	SELECTOR	0	&Working Lead
MAXCHARGETIME	VARIABLEANDUNITS	1.00000E+002	s	1.00000E+002	second(s)	Max &Charge Time
CHARGECURRENT	QUANT	6.00000E-003	&Charge Current (A)
VOLTAGEFINISH	TWOPARAM	F	1.00000E-003	3.60000E+003	&Voltage Finish	 I (A) < 	Max Time(s)
SAMPLETIME	QUANT	1.00000E-002	Sa&mple Period (s)
CHARGESTOPAT1	MULTIPARAM	4	1.00000E+000	Charge Stop At &1	Voltage > Limit	V
CHARGESTOPAT2	MULTIPARAM	0	0.00000E+000	Charge Stop At &2	None	N/A
AESBHCSELECTOR	TOGGLE	F	Save Both Half Cells
IRCOMP	TOGGLE	F	IR &Measure
EOC	QUANT	0	Open Circuit (V)
SEQUENCER	TOGGLE	TRUE	Run as Sequence
PSTATMODEL	IQUANT	53	Pstat Model
PSTATSECTION	LABEL	IFC5000-01520	Pstat Section
PSTATSERIALNO	LABEL	01520	Pstat Serial Number
CTRLMODE	IQUANT	0	Control Mode
ELECTROMETER	IQUANT	1	RE=0 or CS=1
IESTAB	IQUANT	0	I/E Stability
CASPEED	IQUANT	4	Control Amp Speed
CONVENTION	IQUANT	1	Current Convention
ICHRANGE	IQUANT	2	Ich Range
ICHRANGEMODE	TOGGLE	T	Ich Auto Range
ICHOFFSETENABLE	TOGGLE	F	Ich Offset Enable
ICHOFFSET	QUANT	0	Ich Offset (V)
ICHFILTER	IQUANT	1	Ich Filter
VCHRANGE	IQUANT	2	Vch Range
VCHRANGEMODE	TOGGLE	T	Vch Auto Range
VCHOFFSETENABLE	TOGGLE	F	Vch Offset Enable
VCHOFFSET	QUANT	0	Vch Offset (V)
VCHFILTER	IQUANT	1	Vch Filter
IERANGELOWERLIMIT	IQUANT	9	I/E Range Lower Limit
IERANGEMODE	TOGGLE	F	I/E AutoRange
IERANGE	IQUANT	10	I/E Range
ACHSELECT	IQUANT	1	Ach Select
ACHRANGE	IQUANT	2	Ach Range
ACHOFFSETENABLE	TOGGLE	F	Ach Offset Enable
ACHOFFSET	QUANT	0	Ach Offset (V)
ACHFILTER	IQUANT	1	Ach Filter
CABLEID	IQUANT	14	Cable ID
DCCALDATE	LABEL	20-10-2016	DC Calibration Date
ACCALDATE	LABEL	12/3/2015	AC Calibration Date
FRAMEWORKVERSION	QUANT	7.01	Framework Version
INSTRUMENTVERSION	LABEL	4.00	Instrument Version
CURVE	TABLE	54
	Pt	T	Vf	Im	Vu	Pwr	Sig	Ach	Temp	IERange	Over
	#	s	V	A	V	W	V	V	deg C	#	bits
	0	0.013333	6.50028E-001	5.99505E-003	0.00000E+000	3.89695E-003	3.59960E-001	-1.16266E+000	3.57650E+000	10	...........
	1	0.026667	6.59193E-001	5.99305E-003	0.00000E+000	3.95058E-003	3.59960E-001	-1.16790E+000	3.57650E+000	10	...........
	2	0.04	6.67669E-001	5.99044E-003	0.00000E+000	3.99963E-003	3.59960E-001	-1.17064E+000	3.57650E+000	10	...........
	3	0.053333	6.75714E-001	5.99366E-003	0.00000E+000	4.05000E-003	3.59960E-001	-1.16200E+000	3.57650E+000	10	...........
	4	0.066667	6.83448E-001	5.99853E-003	0.00000E+000	4.09968E-003	3.59960E-001	-1.16746E+000	3.57650E+000	10	...........
	5	0.08	6.90965E-001	5.99010E-003	0.00000E+000	4.13895E-003	3.59960E-001	-1.17044E+000	3.57650E+000	10	...........
	6	0.093333	6.98332E-001	5.99330E-003	0.00000E+000	4.18532E-003	3.59960E-001	-1.16207E+000	3.57650E+000	10	...........
	7	0.106667	7.05604E-001	5.99887E-003	0.00000E+000	4.23283E-003	3.59960E-001	-1.16757E+000	3.57650E+000	10	...........
	8	0.12	7.12765E-001	5.99233E-003	0.00000E+000	4.27113E-003	3.59960E-001	-1.17019E+000	3.57650E+000	10	...........
	9	0.133333	7.19930E-001	5.98924E-003	0.00000E+000	4.31184E-003	3.59960E-001	-1.16177E+000	3.57650E+000	10	...........
	10	0.146667	7.26979E-001	5.99406E-003	0.00000E+000	4.35756E-003	3.59960E-001	-1.16761E+000	3.57650E+000	10	...........
	11	0.16	7.33932E-001	5.99368E-003	0.00000E+000	4.39895E-003	3.59960E-001	-1.17021E+000	3.57650E+000	10	...........
	12	0.173333	7.40849E-001	5.99474E-003	0.00000E+000	4.44120E-003	3.59960E-001	-1.16164E+000	3.57650E+000	10	...........
	13	0.186667	7.47779E-001	6.00141E-003	0.00000E+000	4.48773E-003	3.59960E-001	-1.16741E+000	3.57650E+000	10	...........
	14	0.2	7.54632E-001	5.98979E-003	0.00000E+000	4.52008E-003	3.59960E-001	-1.17000E+000	3.57650E+000	10	...........
	15	0.213333	7.61501E-001	5.99885E-003	0.00000E+000	4.56813E-003	3.59960E-001	-1.16176E+000	3.57650E+000	10	...........
	16	0.226667	7.68296E-001	5.99001E-003	0.00000E+000	4.60210E-003	3.59960E-001	-1.16735E+000	3.57650E+000	10	...........
	17	0.24	7.75025E-001	5.99794E-003	0.00000E+000	4.64855E-003	3.59960E-001	-1.16971E+000	3.57650E+000	10	...........
	18	0.253333	7.81760E-001	5.99139E-003	0.00000E+000	4.68383E-003	3.59960E-001	-1.16165E+000	3.57650E+000	10	...........
	19	0.266667	7.88466E-001	5.99104E-003	0.00000E+000	4.72373E-003	3.59960E-001	-1.16759E+000	3.57650E+000	10	...........
	20	0.28	7.95188E-001	5.99393E-003	0.00000E+000	4.76630E-003	3.59960E-001	-1.16987E+000	3.57650E+000	10	...........
	21	0.293333	8.01874E-001	5.99394E-003	0.00000E+000	4.80639E-003	3.59960E-001	-1.16156E+000	3.57650E+000	10	...........
	22	0.306667	8.08509E-001	5.99688E-003	0.00000E+000	4.84853E-003	3.59960E-001	-1.16770E+000	3.57650E+000	10	...........
	23	0.32	8.15162E-001	5.99146E-003	0.00000E+000	4.88401E-003	3.59960E-001	-1.16993E+000	3.57650E+000	10	...........
	24	0.333333	8.21787E-001	5.99757E-003	0.00000E+000	4.92872E-003	3.59960E-001	-1.16163E+000	3.57650E+000	10	...........
	25	0.346667	8.28333E-001	5.99092E-003	0.00000E+000	4.96248E-003	3.59960E-001	-1.16783E+000	3.57650E+000	10	...........
	26	0.36	8.34913E-001	5.99447E-003	0.00000E+000	5.00486E-003	3.59960E-001	-1.16955E+000	3.57650E+000	10	...........
	27	0.373333	8.41417E-001	5.99257E-003	0.00000E+000	5.04225E-003	3.59960E-001	-1.16093E+000	3.57650E+000	10	...........
	28	0.386667	8.47979E-001	5.99488E-003	0.00000E+000	5.08353E-003	3.59960E-001	-1.16724E+000	3.57650E+000	10	...........
	29	0.4	8.54475E-001	5.99752E-003	0.00000E+000	5.12473E-003	3.59960E-001	-1.16915E+000	3.57650E+000	10	...........
	30	0.413333	8.60965E-001	5.99435E-003	0.00000E+000	5.16093E-003	3.59960E-001	-1.16105E+000	3.57650E+000	10	...........
	31	0.426667	8.67395E-001	5.99762E-003	0.00000E+000	5.20230E-003	3.59960E-001	-1.16742E+000	3.57650E+000	10	...........
	32	0.44	8.73821E-001	5.99530E-003	0.00000E+000	5.23882E-003	3.59960E-001	-1.16902E+000	3.57650E+000	10	...........
	33	0.453333	8.80182E-001	5.99382E-003	0.00000E+000	5.27566E-003	3.59960E-001	-1.16127E+000	3.57650E+000	10	...........
	34	0.466667	8.86558E-001	5.99433E-003	0.00000E+000	5.31433E-003	3.59960E-001	-1.16731E+000	3.57650E+000	10	...........
	35	0.48	8.92834E-001	5.99338E-003	0.00000E+000	5.35110E-003	3.59960E-001	-1.16895E+000	3.57650E+000	10	...........
	36	0.493333	8.99098E-001	5.99424E-003	0.00000E+000	5.38941E-003	3.59960E-001	-1.16084E+000	3.57650E+000	10	...........
	37	0.506667	9.05342E-001	5.99017E-003	0.00000E+000	5.42315E-003	3.59960E-001	-1.16716E+000	3.57650E+000	10	...........
	38	0.52	9.11559E-001	5.98780E-003	0.00000E+000	5.45824E-003	3.59960E-001	-1.16865E+000	3.57650E+000	10	...........
	39	0.533333	9.17701E-001	5.99413E-003	0.00000E+000	5.50082E-003	3.59960E-001	-1.16080E+000	3.57650E+000	10	...........
	40	0.546667	9.23896E-001	5.98980E-003	0.00000E+000	5.53395E-003	3.59960E-001	-1.16760E+000	3.57650E+000	10	...........
	41	0.56	9.30008E-001	5.99279E-003	0.00000E+000	5.57334E-003	3.59960E-001	-1.16890E+000	3.57650E+000	10	...........
	42	0.573333	9.36023E-001	5.99688E-003	0.00000E+000	5.61322E-003	3.59960E-001	-1.16096E+000	3.57650E+000	10	...........
	43	0.586667	9.42008E-001	5.99156E-003	0.00000E+000	5.64409E-003	3.59960E-001	-1.16747E+000	3.57650E+000	10	...........
	44	0.6	9.47991E-001	5.99292E-003	0.00000E+000	5.68123E-003	3.59960E-001	-1.16907E+000	3.57650E+000	10	...........
	45	0.613333	9.53927E-001	5.99029E-003	0.00000E+000	5.71430E-003	3.59960E-001	-1.16113E+000	3.57650E+000	10	...........
	46	0.626667	9.59773E-001	5.99250E-003	0.00000E+000	5.75144E-003	3.59960E-001	-1.16767E+000	3.57650E+000	10	...........
	47	0.64	9.65584E-001	5.99380E-003	0.00000E+000	5.78752E-003	3.59960E-001	-1.16864E+000	3.57650E+000	10	...........
	48	0.653333	9.71380E-001	5.99538E-003	0.00000E+000	5.82379E-003	3.59960E-001	-1.16103E+000	3.57650E+000	10	...........
	49	0.666667	9.77129E-001	5.99525E-003	0.00000E+000	5.85814E-003	3.59960E-001	-1.16787E+000	3.57650E+000	10	...........
	50	0.68	9.82789E-001	5.99147E-003	0.00000E+000	5.88835E-003	3.59960E-001	-1.16875E+000	3.57650E+000	10	...........
	51	0.693333	9.88437E-001	5.99386E-003	0.00000E+000	5.92456E-003	3.59960E-001	-1.16066E+000	3.57650E+000	10	...........
	52	0.706667	9.93988E-001	5.99374E-003	0.00000E+000	5.95770E-003	3.59960E-001	-1.16766E+000	3.57650E+000	10	...........
	53	0.716667	9.98845E-001	5.99549E-003	0.00000E+000	5.98856E-003	3.59960E-001	-1.16647E+000	3.57650E+000	10	...........
STARTTIMEOFFSET	QUANT	1335.591	Start Time Offset (s)