File: Data/CV_CRGO300517_1/PWRCCD_CRGO300517_1/CHARGE_DISCHARGE/CHARGE_#811.DTA
EXPLAIN
TAG	PWR800_CHARGE
TITLE	LABEL	PWR Cyclic Charge Discharge (Cell) - Charge Step	Test &Identifier
DATE	LABEL	22-6-2017	Date
TIME	LABEL	16:07:41	Time
NOTES	NOTES	3	&Notes...
	supercap test cell
	0.6mg
	6M KOH
PSTAT	PSTAT	IFC5000-01520	Potentiostat
CAPACITY	QUANT	1.00000E-003	Capacity (A-hr)
CELLTYPE	SELECTOR	1	&Cell Type
WORKINGCONNECTION	SELECTOR	0	&Working Lead
MAXCHARGETIME	VARIABLEANDUNITS	1.00000E+002	s	1.00000E+002	second(s)	Max &Charge Time
CHARGECURRENT	QUANT	6.00000E-003	&Charge Current (A)
VOLTAGEFINISH	TWOPARAM	F	1.00000E-003	3.60000E+003	&Voltage Finish	 I (A) < 	Max Time(s)
SAMPLETIME	QUANT	1.00000E-002	Sa&mple Period (s)
CHARGESTOPAT1	MULTIPARAM	4	1.00000E+000	Charge Stop At &1	Voltage > Limit	V
CHARGESTOPAT2	MULTIPARAM	0	0.00000E+000	Charge Stop At &2	None	N/A
AESBHCSELECTOR	TOGGLE	F	Save Both Half Cells
IRCOMP	TOGGLE	F	IR &Measure
EOC	QUANT	0	Open Circuit (V)
SEQUENCER	TOGGLE	TRUE	Run as Sequence
PSTATMODEL	IQUANT	53	Pstat Model
PSTATSECTION	LABEL	IFC5000-01520	Pstat Section
PSTATSERIALNO	LABEL	01520	Pstat Serial Number
CTRLMODE	IQUANT	0	Control Mode
ELECTROMETER	IQUANT	1	RE=0 or CS=1
IESTAB	IQUANT	0	I/E Stability
CASPEED	IQUANT	4	Control Amp Speed
CONVENTION	IQUANT	1	Current Convention
ICHRANGE	IQUANT	2	Ich Range
ICHRANGEMODE	TOGGLE	T	Ich Auto Range
ICHOFFSETENABLE	TOGGLE	F	Ich Offset Enable
ICHOFFSET	QUANT	0	Ich Offset (V)
ICHFILTER	IQUANT	1	Ich Filter
VCHRANGE	IQUANT	2	Vch Range
VCHRANGEMODE	TOGGLE	T	Vch Auto Range
VCHOFFSETENABLE	TOGGLE	F	Vch Offset Enable
VCHOFFSET	QUANT	0	Vch Offset (V)
VCHFILTER	IQUANT	1	Vch Filter
IERANGELOWERLIMIT	IQUANT	9	I/E Range Lower Limit
IERANGEMODE	TOGGLE	F	I/E AutoRange
IERANGE	IQUANT	10	I/E Range
ACHSELECT	IQUANT	1	Ach Select
ACHRANGE	IQUANT	2	Ach Range
ACHOFFSETENABLE	TOGGLE	F	Ach Offset Enable
ACHOFFSET	QUANT	0	Ach Offset (V)
ACHFILTER	IQUANT	1	Ach Filter
CABLEID	IQUANT	14	Cable ID
DCCALDATE	LABEL	20-10-2016	DC Calibration Date
ACCALDATE	LABEL	12/3/2015	AC Calibration Date
FRAMEWORKVERSION	QUANT	7.01	Framework Version
INSTRUMENTVERSION	LABEL	4.00	Instrument Version
CURVE	TABLE	54
	Pt	T	Vf	Im	Vu	Pwr	Sig	Ach	Temp	IERange	Over
	#	s	V	A	V	W	V	V	deg C	#	bits
	0	0.013333	6.48947E-001	5.99712E-003	0.00000E+000	3.89181E-003	3.59960E-001	-1.16782E+000	3.57640E+000	10	...........
	1	0.026667	6.58133E-001	5.99429E-003	0.00000E+000	3.94504E-003	3.59960E-001	-1.16974E+000	3.57640E+000	10	...........
	2	0.04	6.66624E-001	5.98949E-003	0.00000E+000	3.99274E-003	3.59960E-001	-1.16157E+000	3.57640E+000	10	...........
	3	0.053333	6.74610E-001	5.99136E-003	0.00000E+000	4.04183E-003	3.59960E-001	-1.16760E+000	3.57640E+000	10	...........
	4	0.066667	6.82357E-001	5.99397E-003	0.00000E+000	4.09002E-003	3.59960E-001	-1.16952E+000	3.57640E+000	10	...........
	5	0.08	6.89878E-001	5.99263E-003	0.00000E+000	4.13419E-003	3.59960E-001	-1.16102E+000	3.57640E+000	10	...........
	6	0.093333	6.97271E-001	5.99415E-003	0.00000E+000	4.17954E-003	3.59960E-001	-1.16693E+000	3.57640E+000	10	...........
	7	0.106667	7.04557E-001	5.99744E-003	0.00000E+000	4.22554E-003	3.59960E-001	-1.16929E+000	3.57640E+000	10	...........
	8	0.12	7.11722E-001	5.99424E-003	0.00000E+000	4.26624E-003	3.59960E-001	-1.16118E+000	3.57640E+000	10	...........
	9	0.133333	7.18825E-001	5.99165E-003	0.00000E+000	4.30695E-003	3.59960E-001	-1.16712E+000	3.57640E+000	10	...........
	10	0.146667	7.25874E-001	5.99299E-003	0.00000E+000	4.35015E-003	3.59960E-001	-1.16905E+000	3.57640E+000	10	...........
	11	0.16	7.32825E-001	5.99513E-003	0.00000E+000	4.39338E-003	3.59960E-001	-1.16102E+000	3.57640E+000	10	...........
	12	0.173333	7.39744E-001	5.99305E-003	0.00000E+000	4.43332E-003	3.59960E-001	-1.16698E+000	3.57640E+000	10	...........
	13	0.186667	7.46677E-001	5.98681E-003	0.00000E+000	4.47021E-003	3.59960E-001	-1.16886E+000	3.57640E+000	10	...........
	14	0.2	7.53557E-001	5.99724E-003	0.00000E+000	4.51926E-003	3.59960E-001	-1.16079E+000	3.57640E+000	10	...........
	15	0.213333	7.60403E-001	5.99499E-003	0.00000E+000	4.55861E-003	3.59960E-001	-1.16672E+000	3.57640E+000	10	...........
	16	0.226667	7.67189E-001	5.99076E-003	0.00000E+000	4.59604E-003	3.59960E-001	-1.16891E+000	3.57640E+000	10	...........
	17	0.24	7.73958E-001	5.99428E-003	0.00000E+000	4.63932E-003	3.59960E-001	-1.16094E+000	3.57640E+000	10	...........
	18	0.253333	7.80675E-001	5.99129E-003	0.00000E+000	4.67725E-003	3.59960E-001	-1.16698E+000	3.57675E+000	10	...........
	19	0.266667	7.87379E-001	5.99424E-003	0.00000E+000	4.71974E-003	3.59960E-001	-1.16880E+000	3.57680E+000	10	...........
	20	0.28	7.94089E-001	5.99210E-003	0.00000E+000	4.75826E-003	3.59960E-001	-1.16076E+000	3.57680E+000	10	...........
	21	0.293333	8.00768E-001	5.99299E-003	0.00000E+000	4.79899E-003	3.59960E-001	-1.16687E+000	3.57680E+000	10	...........
	22	0.306667	8.07374E-001	5.99484E-003	0.00000E+000	4.84008E-003	3.59960E-001	-1.16902E+000	3.57680E+000	10	...........
	23	0.32	8.14015E-001	5.99120E-003	0.00000E+000	4.87693E-003	3.59960E-001	-1.16115E+000	3.57680E+000	10	...........
	24	0.333333	8.20639E-001	5.99766E-003	0.00000E+000	4.92191E-003	3.59960E-001	-1.16700E+000	3.57680E+000	10	...........
	25	0.346667	8.27210E-001	5.99517E-003	0.00000E+000	4.95926E-003	3.59960E-001	-1.16894E+000	3.57680E+000	10	...........
	26	0.36	8.33783E-001	5.99634E-003	0.00000E+000	4.99964E-003	3.59960E-001	-1.16085E+000	3.57680E+000	10	...........
	27	0.373333	8.40304E-001	5.99480E-003	0.00000E+000	5.03746E-003	3.59960E-001	-1.16684E+000	3.57680E+000	10	...........
	28	0.386667	8.46876E-001	5.99464E-003	0.00000E+000	5.07671E-003	3.59960E-001	-1.16892E+000	3.57680E+000	10	...........
	29	0.4	8.53372E-001	5.99283E-003	0.00000E+000	5.11412E-003	3.59960E-001	-1.16032E+000	3.57680E+000	10	...........
	30	0.413333	8.59798E-001	5.99414E-003	0.00000E+000	5.15375E-003	3.59960E-001	-1.16641E+000	3.57680E+000	10	...........
	31	0.426667	8.66223E-001	5.99031E-003	0.00000E+000	5.18894E-003	3.59960E-001	-1.16839E+000	3.57680E+000	10	...........
	32	0.44	8.72647E-001	5.99298E-003	0.00000E+000	5.22975E-003	3.59960E-001	-1.16030E+000	3.57680E+000	10	...........
	33	0.453333	8.79027E-001	5.99431E-003	0.00000E+000	5.26916E-003	3.59960E-001	-1.16652E+000	3.57680E+000	10	...........
	34	0.466667	8.85380E-001	5.99326E-003	0.00000E+000	5.30631E-003	3.59960E-001	-1.16840E+000	3.57680E+000	10	...........
	35	0.48	8.91669E-001	5.99218E-003	0.00000E+000	5.34305E-003	3.59960E-001	-1.16011E+000	3.57680E+000	10	...........
	36	0.493333	8.97967E-001	5.99511E-003	0.00000E+000	5.38341E-003	3.59960E-001	-1.16629E+000	3.57680E+000	10	...........
	37	0.506667	9.04191E-001	5.99287E-003	0.00000E+000	5.41870E-003	3.59960E-001	-1.16834E+000	3.57680E+000	10	...........
	38	0.52	9.10438E-001	5.99572E-003	0.00000E+000	5.45873E-003	3.59960E-001	-1.16032E+000	3.57680E+000	10	...........
	39	0.533333	9.16616E-001	5.99672E-003	0.00000E+000	5.49669E-003	3.59960E-001	-1.16626E+000	3.57680E+000	10	...........
	40	0.546667	9.22804E-001	5.99730E-003	0.00000E+000	5.53433E-003	3.59960E-001	-1.16807E+000	3.57680E+000	10	...........
	41	0.56	9.28860E-001	5.99294E-003	0.00000E+000	5.56660E-003	3.59960E-001	-1.16017E+000	3.57680E+000	10	...........
	42	0.573333	9.34952E-001	5.99624E-003	0.00000E+000	5.60620E-003	3.59960E-001	-1.16642E+000	3.57680E+000	10	...........
	43	0.586667	9.40932E-001	5.99203E-003	0.00000E+000	5.63809E-003	3.59960E-001	-1.16821E+000	3.57680E+000	10	...........
	44	0.6	9.46944E-001	5.99757E-003	0.00000E+000	5.67936E-003	3.59960E-001	-1.16022E+000	3.57680E+000	10	...........
	45	0.613333	9.52880E-001	5.99255E-003	0.00000E+000	5.71018E-003	3.59960E-001	-1.16642E+000	3.57680E+000	10	...........
	46	0.626667	9.58765E-001	5.99552E-003	0.00000E+000	5.74830E-003	3.59960E-001	-1.16840E+000	3.57680E+000	10	...........
	47	0.64	9.64568E-001	5.98962E-003	0.00000E+000	5.77740E-003	3.59960E-001	-1.16031E+000	3.57680E+000	10	...........
	48	0.653333	9.70328E-001	5.99722E-003	0.00000E+000	5.81927E-003	3.59960E-001	-1.16664E+000	3.57680E+000	10	...........
	49	0.666667	9.76123E-001	5.99295E-003	0.00000E+000	5.84985E-003	3.59960E-001	-1.16837E+000	3.57680E+000	10	...........
	50	0.68	9.81790E-001	5.99440E-003	0.00000E+000	5.88524E-003	3.59960E-001	-1.16024E+000	3.57680E+000	10	...........
	51	0.693333	9.87404E-001	5.99271E-003	0.00000E+000	5.91722E-003	3.59960E-001	-1.16650E+000	3.57680E+000	10	...........
	52	0.706667	9.93005E-001	5.99351E-003	0.00000E+000	5.95159E-003	3.59960E-001	-1.16834E+000	3.57680E+000	10	...........
	53	0.718333	9.98179E-001	5.99050E-003	0.00000E+000	5.97959E-003	3.59960E-001	-1.15820E+000	3.57680E+000	10	...........
STARTTIMEOFFSET	QUANT	1319.877	Start Time Offset (s)