File: Data/CV_CRGO300517_1/PWRCCD_CRGO300517_1/CHARGE_DISCHARGE/CHARGE_#236.DTA
EXPLAIN
TAG	PWR800_CHARGE
TITLE	LABEL	PWR Cyclic Charge Discharge (Cell) - Charge Step	Test &Identifier
DATE	LABEL	22-6-2017	Date
TIME	LABEL	15:45:18	Time
NOTES	NOTES	3	&Notes...
	supercap test cell
	0.6mg
	6M KOH
PSTAT	PSTAT	IFC5000-01520	Potentiostat
CAPACITY	QUANT	1.00000E-003	Capacity (A-hr)
CELLTYPE	SELECTOR	1	&Cell Type
WORKINGCONNECTION	SELECTOR	0	&Working Lead
MAXCHARGETIME	VARIABLEANDUNITS	1.00000E+002	s	1.00000E+002	second(s)	Max &Charge Time
CHARGECURRENT	QUANT	6.00000E-003	&Charge Current (A)
VOLTAGEFINISH	TWOPARAM	F	1.00000E-003	3.60000E+003	&Voltage Finish	 I (A) < 	Max Time(s)
SAMPLETIME	QUANT	1.00000E-002	Sa&mple Period (s)
CHARGESTOPAT1	MULTIPARAM	4	1.00000E+000	Charge Stop At &1	Voltage > Limit	V
CHARGESTOPAT2	MULTIPARAM	0	0.00000E+000	Charge Stop At &2	None	N/A
AESBHCSELECTOR	TOGGLE	F	Save Both Half Cells
IRCOMP	TOGGLE	F	IR &Measure
EOC	QUANT	0	Open Circuit (V)
SEQUENCER	TOGGLE	TRUE	Run as Sequence
PSTATMODEL	IQUANT	53	Pstat Model
PSTATSECTION	LABEL	IFC5000-01520	Pstat Section
PSTATSERIALNO	LABEL	01520	Pstat Serial Number
CTRLMODE	IQUANT	0	Control Mode
ELECTROMETER	IQUANT	1	RE=0 or CS=1
IESTAB	IQUANT	0	I/E Stability
CASPEED	IQUANT	4	Control Amp Speed
CONVENTION	IQUANT	1	Current Convention
ICHRANGE	IQUANT	2	Ich Range
ICHRANGEMODE	TOGGLE	T	Ich Auto Range
ICHOFFSETENABLE	TOGGLE	F	Ich Offset Enable
ICHOFFSET	QUANT	0	Ich Offset (V)
ICHFILTER	IQUANT	1	Ich Filter
VCHRANGE	IQUANT	2	Vch Range
VCHRANGEMODE	TOGGLE	T	Vch Auto Range
VCHOFFSETENABLE	TOGGLE	F	Vch Offset Enable
VCHOFFSET	QUANT	0	Vch Offset (V)
VCHFILTER	IQUANT	1	Vch Filter
IERANGELOWERLIMIT	IQUANT	9	I/E Range Lower Limit
IERANGEMODE	TOGGLE	F	I/E AutoRange
IERANGE	IQUANT	10	I/E Range
ACHSELECT	IQUANT	1	Ach Select
ACHRANGE	IQUANT	2	Ach Range
ACHOFFSETENABLE	TOGGLE	F	Ach Offset Enable
ACHOFFSET	QUANT	0	Ach Offset (V)
ACHFILTER	IQUANT	1	Ach Filter
CABLEID	IQUANT	14	Cable ID
DCCALDATE	LABEL	20-10-2016	DC Calibration Date
ACCALDATE	LABEL	12/3/2015	AC Calibration Date
FRAMEWORKVERSION	QUANT	7.01	Framework Version
INSTRUMENTVERSION	LABEL	4.00	Instrument Version
CURVE	TABLE	64
	Pt	T	Vf	Im	Vu	Pwr	Sig	Ach	Temp	IERange	Over
	#	s	V	A	V	W	V	V	deg C	#	bits
	0	0.013333	6.10521E-001	5.99692E-003	0.00000E+000	3.66125E-003	3.59960E-001	-1.09095E+000	3.57700E+000	10	...........
	1	0.026667	6.19116E-001	5.99712E-003	0.00000E+000	3.71291E-003	3.59960E-001	-1.09970E+000	3.57700E+000	10	...........
	2	0.04	6.26915E-001	5.99717E-003	0.00000E+000	3.75972E-003	3.59960E-001	-1.09583E+000	3.57700E+000	10	...........
	3	0.053333	6.34309E-001	5.99120E-003	0.00000E+000	3.80027E-003	3.59960E-001	-1.09143E+000	3.57700E+000	10	...........
	4	0.066667	6.41503E-001	5.99214E-003	0.00000E+000	3.84398E-003	3.59960E-001	-1.09988E+000	3.57700E+000	10	...........
	5	0.08	6.48454E-001	5.99391E-003	0.00000E+000	3.88677E-003	3.59960E-001	-1.09642E+000	3.57700E+000	10	...........
	6	0.093333	6.55264E-001	5.99659E-003	0.00000E+000	3.92935E-003	3.59960E-001	-1.09216E+000	3.57700E+000	10	...........
	7	0.106667	6.61964E-001	5.99344E-003	0.00000E+000	3.96744E-003	3.59960E-001	-1.10122E+000	3.57700E+000	10	...........
	8	0.12	6.68609E-001	5.99538E-003	0.00000E+000	4.00856E-003	3.59960E-001	-1.09779E+000	3.57700E+000	10	...........
	9	0.133333	6.75128E-001	5.99271E-003	0.00000E+000	4.04584E-003	3.59960E-001	-1.09367E+000	3.57700E+000	10	...........
	10	0.146667	6.81598E-001	5.99133E-003	0.00000E+000	4.08368E-003	3.59960E-001	-1.10324E+000	3.57700E+000	10	...........
	11	0.16	6.88065E-001	5.99587E-003	0.00000E+000	4.12555E-003	3.59960E-001	-1.10038E+000	3.57700E+000	10	...........
	12	0.173333	6.94502E-001	5.99400E-003	0.00000E+000	4.16285E-003	3.59960E-001	-1.09643E+000	3.57700E+000	10	...........
	13	0.186667	7.00870E-001	5.99331E-003	0.00000E+000	4.20053E-003	3.59960E-001	-1.10563E+000	3.57700E+000	10	...........
	14	0.2	7.07221E-001	5.99311E-003	0.00000E+000	4.23845E-003	3.59960E-001	-1.10198E+000	3.57700E+000	10	...........
	15	0.213333	7.13503E-001	5.99238E-003	0.00000E+000	4.27558E-003	3.59960E-001	-1.09771E+000	3.57700E+000	10	...........
	16	0.226667	7.19852E-001	5.99278E-003	0.00000E+000	4.31391E-003	3.59960E-001	-1.10633E+000	3.57700E+000	10	...........
	17	0.24	7.26099E-001	5.99629E-003	0.00000E+000	4.35390E-003	3.59960E-001	-1.10265E+000	3.57700E+000	10	...........
	18	0.253333	7.32364E-001	5.99674E-003	0.00000E+000	4.39180E-003	3.59960E-001	-1.09803E+000	3.57700E+000	10	...........
	19	0.266667	7.38589E-001	5.98955E-003	0.00000E+000	4.42381E-003	3.59960E-001	-1.10637E+000	3.57700E+000	10	...........
	20	0.28	7.44842E-001	5.99613E-003	0.00000E+000	4.46617E-003	3.59960E-001	-1.10280E+000	3.57700E+000	10	...........
	21	0.293333	7.51053E-001	5.99666E-003	0.00000E+000	4.50381E-003	3.59960E-001	-1.09808E+000	3.57700E+000	10	...........
	22	0.306667	7.57268E-001	5.99530E-003	0.00000E+000	4.54005E-003	3.59960E-001	-1.10640E+000	3.57700E+000	10	...........
	23	0.32	7.63460E-001	5.99547E-003	0.00000E+000	4.57730E-003	3.59960E-001	-1.10265E+000	3.57700E+000	10	...........
	24	0.333333	7.69666E-001	5.99349E-003	0.00000E+000	4.61299E-003	3.59960E-001	-1.09793E+000	3.57700E+000	10	...........
	25	0.346667	7.75800E-001	5.99167E-003	0.00000E+000	4.64834E-003	3.59960E-001	-1.10609E+000	3.57700E+000	10	...........
	26	0.36	7.81976E-001	5.99392E-003	0.00000E+000	4.68710E-003	3.59960E-001	-1.10249E+000	3.57700E+000	10	...........
	27	0.373333	7.88094E-001	5.99471E-003	0.00000E+000	4.72440E-003	3.59960E-001	-1.09757E+000	3.57700E+000	10	...........
	28	0.386667	7.94245E-001	5.99489E-003	0.00000E+000	4.76141E-003	3.59960E-001	-1.10604E+000	3.57700E+000	10	...........
	29	0.4	8.00350E-001	5.98926E-003	0.00000E+000	4.79351E-003	3.59960E-001	-1.10202E+000	3.57700E+000	10	...........
	30	0.413333	8.06505E-001	5.99471E-003	0.00000E+000	4.83476E-003	3.59960E-001	-1.09714E+000	3.57700E+000	10	...........
	31	0.426667	8.12638E-001	5.99670E-003	0.00000E+000	4.87315E-003	3.59960E-001	-1.10540E+000	3.57700E+000	10	...........
	32	0.44	8.18759E-001	5.99214E-003	0.00000E+000	4.90612E-003	3.59960E-001	-1.10166E+000	3.57700E+000	10	...........
	33	0.453333	8.24889E-001	5.99500E-003	0.00000E+000	4.94521E-003	3.59960E-001	-1.09660E+000	3.57700E+000	10	...........
	34	0.466667	8.30929E-001	5.98953E-003	0.00000E+000	4.97687E-003	3.59960E-001	-1.10470E+000	3.57700E+000	10	...........
	35	0.48	8.37039E-001	5.99811E-003	0.00000E+000	5.02065E-003	3.59960E-001	-1.10097E+000	3.57700E+000	10	...........
	36	0.493333	8.43121E-001	5.99748E-003	0.00000E+000	5.05660E-003	3.59960E-001	-1.09584E+000	3.57700E+000	10	...........
	37	0.506667	8.49199E-001	5.99811E-003	0.00000E+000	5.09359E-003	3.59960E-001	-1.10401E+000	3.57700E+000	10	...........
	38	0.52	8.55305E-001	5.99545E-003	0.00000E+000	5.12794E-003	3.59960E-001	-1.10052E+000	3.57700E+000	10	...........
	39	0.533333	8.61314E-001	5.99426E-003	0.00000E+000	5.16294E-003	3.59960E-001	-1.09554E+000	3.57700E+000	10	...........
	40	0.546667	8.67336E-001	5.99292E-003	0.00000E+000	5.19787E-003	3.59960E-001	-1.10376E+000	3.57700E+000	10	...........
	41	0.56	8.73400E-001	5.99320E-003	0.00000E+000	5.23446E-003	3.59960E-001	-1.10014E+000	3.57700E+000	10	...........
	42	0.573333	8.79383E-001	5.99655E-003	0.00000E+000	5.27326E-003	3.59960E-001	-1.09533E+000	3.57700E+000	10	...........
	43	0.586667	8.85383E-001	5.99797E-003	0.00000E+000	5.31050E-003	3.59960E-001	-1.10351E+000	3.57700E+000	10	...........
	44	0.6	8.91340E-001	5.99623E-003	0.00000E+000	5.34468E-003	3.59960E-001	-1.09991E+000	3.57700E+000	10	...........
	45	0.613333	8.97283E-001	5.99460E-003	0.00000E+000	5.37886E-003	3.59960E-001	-1.09487E+000	3.57700E+000	10	...........
	46	0.626667	9.03154E-001	5.98953E-003	0.00000E+000	5.40947E-003	3.59960E-001	-1.10329E+000	3.57700E+000	10	...........
	47	0.64	9.09084E-001	5.99833E-003	0.00000E+000	5.45299E-003	3.59960E-001	-1.09985E+000	3.57700E+000	10	...........
	48	0.653333	9.14973E-001	5.99474E-003	0.00000E+000	5.48502E-003	3.59960E-001	-1.09488E+000	3.57700E+000	10	...........
	49	0.666667	9.20896E-001	5.99719E-003	0.00000E+000	5.52279E-003	3.59960E-001	-1.10292E+000	3.57700E+000	10	...........
	50	0.68	9.26732E-001	5.99240E-003	0.00000E+000	5.55335E-003	3.59960E-001	-1.09960E+000	3.57700E+000	10	...........
	51	0.693333	9.32530E-001	5.99513E-003	0.00000E+000	5.59064E-003	3.59960E-001	-1.09481E+000	3.57700E+000	10	...........
	52	0.706667	9.38275E-001	5.99396E-003	0.00000E+000	5.62398E-003	3.59960E-001	-1.10307E+000	3.57700E+000	10	...........
	53	0.72	9.44006E-001	5.99414E-003	0.00000E+000	5.65850E-003	3.59960E-001	-1.09967E+000	3.57700E+000	10	...........
	54	0.733333	9.49778E-001	5.98794E-003	0.00000E+000	5.68721E-003	3.59960E-001	-1.09474E+000	3.57700E+000	10	...........
	55	0.746667	9.55421E-001	5.99946E-003	0.00000E+000	5.73201E-003	3.59960E-001	-1.10312E+000	3.57700E+000	10	...........
	56	0.76	9.61047E-001	5.99324E-003	0.00000E+000	5.75978E-003	3.59960E-001	-1.09990E+000	3.57700E+000	10	...........
	57	0.773333	9.66669E-001	5.99565E-003	0.00000E+000	5.79581E-003	3.59960E-001	-1.09492E+000	3.57700E+000	10	...........
	58	0.786667	9.72266E-001	5.99040E-003	0.00000E+000	5.82426E-003	3.59960E-001	-1.10305E+000	3.57700E+000	10	...........
	59	0.8	9.77816E-001	5.99521E-003	0.00000E+000	5.86221E-003	3.59960E-001	-1.09968E+000	3.57700E+000	10	...........
	60	0.813333	9.83344E-001	5.99149E-003	0.00000E+000	5.89169E-003	3.59960E-001	-1.09473E+000	3.57801E+000	10	...........
	61	0.826667	9.88825E-001	5.99893E-003	0.00000E+000	5.93189E-003	3.59960E-001	-1.10283E+000	3.57810E+000	10	...........
	62	0.84	9.94229E-001	5.98918E-003	0.00000E+000	5.95462E-003	3.59960E-001	-1.09978E+000	3.57810E+000	10	...........
	63	0.85	9.98974E-001	5.99575E-003	0.00000E+000	5.98960E-003	3.59960E-001	-1.09335E+000	3.57810E+000	10	...........
STARTTIMEOFFSET	QUANT	434.365	Start Time Offset (s)