File: Data/CV_CRGO300517_1/PWRCCD_CRGO300517_1/CHARGE_DISCHARGE/CHARGE_#794.DTA
EXPLAIN
TAG	PWR800_CHARGE
TITLE	LABEL	PWR Cyclic Charge Discharge (Cell) - Charge Step	Test &Identifier
DATE	LABEL	22-6-2017	Date
TIME	LABEL	16:07:03	Time
NOTES	NOTES	3	&Notes...
	supercap test cell
	0.6mg
	6M KOH
PSTAT	PSTAT	IFC5000-01520	Potentiostat
CAPACITY	QUANT	1.00000E-003	Capacity (A-hr)
CELLTYPE	SELECTOR	1	&Cell Type
WORKINGCONNECTION	SELECTOR	0	&Working Lead
MAXCHARGETIME	VARIABLEANDUNITS	1.00000E+002	s	1.00000E+002	second(s)	Max &Charge Time
CHARGECURRENT	QUANT	6.00000E-003	&Charge Current (A)
VOLTAGEFINISH	TWOPARAM	F	1.00000E-003	3.60000E+003	&Voltage Finish	 I (A) < 	Max Time(s)
SAMPLETIME	QUANT	1.00000E-002	Sa&mple Period (s)
CHARGESTOPAT1	MULTIPARAM	4	1.00000E+000	Charge Stop At &1	Voltage > Limit	V
CHARGESTOPAT2	MULTIPARAM	0	0.00000E+000	Charge Stop At &2	None	N/A
AESBHCSELECTOR	TOGGLE	F	Save Both Half Cells
IRCOMP	TOGGLE	F	IR &Measure
EOC	QUANT	0	Open Circuit (V)
SEQUENCER	TOGGLE	TRUE	Run as Sequence
PSTATMODEL	IQUANT	53	Pstat Model
PSTATSECTION	LABEL	IFC5000-01520	Pstat Section
PSTATSERIALNO	LABEL	01520	Pstat Serial Number
CTRLMODE	IQUANT	0	Control Mode
ELECTROMETER	IQUANT	1	RE=0 or CS=1
IESTAB	IQUANT	0	I/E Stability
CASPEED	IQUANT	4	Control Amp Speed
CONVENTION	IQUANT	1	Current Convention
ICHRANGE	IQUANT	2	Ich Range
ICHRANGEMODE	TOGGLE	T	Ich Auto Range
ICHOFFSETENABLE	TOGGLE	F	Ich Offset Enable
ICHOFFSET	QUANT	0	Ich Offset (V)
ICHFILTER	IQUANT	1	Ich Filter
VCHRANGE	IQUANT	2	Vch Range
VCHRANGEMODE	TOGGLE	T	Vch Auto Range
VCHOFFSETENABLE	TOGGLE	F	Vch Offset Enable
VCHOFFSET	QUANT	0	Vch Offset (V)
VCHFILTER	IQUANT	1	Vch Filter
IERANGELOWERLIMIT	IQUANT	9	I/E Range Lower Limit
IERANGEMODE	TOGGLE	F	I/E AutoRange
IERANGE	IQUANT	10	I/E Range
ACHSELECT	IQUANT	1	Ach Select
ACHRANGE	IQUANT	2	Ach Range
ACHOFFSETENABLE	TOGGLE	F	Ach Offset Enable
ACHOFFSET	QUANT	0	Ach Offset (V)
ACHFILTER	IQUANT	1	Ach Filter
CABLEID	IQUANT	14	Cable ID
DCCALDATE	LABEL	20-10-2016	DC Calibration Date
ACCALDATE	LABEL	12/3/2015	AC Calibration Date
FRAMEWORKVERSION	QUANT	7.01	Framework Version
INSTRUMENTVERSION	LABEL	4.00	Instrument Version
CURVE	TABLE	55
	Pt	T	Vf	Im	Vu	Pwr	Sig	Ach	Temp	IERange	Over
	#	s	V	A	V	W	V	V	deg C	#	bits
	0	0.013333	6.47634E-001	5.99538E-003	0.00000E+000	3.88281E-003	3.59960E-001	-1.16353E+000	3.57780E+000	10	...........
	1	0.026667	6.56780E-001	5.99159E-003	0.00000E+000	3.93515E-003	3.59960E-001	-1.16956E+000	3.57780E+000	10	...........
	2	0.04	6.65200E-001	5.99032E-003	0.00000E+000	3.98476E-003	3.59960E-001	-1.17204E+000	3.57780E+000	10	...........
	3	0.053333	6.73259E-001	5.99229E-003	0.00000E+000	4.03437E-003	3.59960E-001	-1.16354E+000	3.57780E+000	10	...........
	4	0.066667	6.80994E-001	5.99297E-003	0.00000E+000	4.08117E-003	3.59960E-001	-1.16938E+000	3.57780E+000	10	...........
	5	0.08	6.88486E-001	5.99572E-003	0.00000E+000	4.12797E-003	3.59960E-001	-1.17169E+000	3.57780E+000	10	...........
	6	0.093333	6.95890E-001	5.99598E-003	0.00000E+000	4.17255E-003	3.59960E-001	-1.16346E+000	3.57780E+000	10	...........
	7	0.106667	7.03170E-001	5.98910E-003	0.00000E+000	4.21136E-003	3.59960E-001	-1.16962E+000	3.57780E+000	10	...........
	8	0.12	7.10309E-001	5.99365E-003	0.00000E+000	4.25734E-003	3.59960E-001	-1.17166E+000	3.57780E+000	10	...........
	9	0.133333	7.17454E-001	5.99485E-003	0.00000E+000	4.30103E-003	3.59960E-001	-1.16337E+000	3.57780E+000	10	...........
	10	0.146667	7.24487E-001	5.99611E-003	0.00000E+000	4.34410E-003	3.59960E-001	-1.16947E+000	3.57780E+000	10	...........
	11	0.16	7.31450E-001	5.99209E-003	0.00000E+000	4.38291E-003	3.59960E-001	-1.17161E+000	3.57780E+000	10	...........
	12	0.173333	7.38340E-001	5.99236E-003	0.00000E+000	4.42440E-003	3.59960E-001	-1.16327E+000	3.57780E+000	10	...........
	13	0.186667	7.45250E-001	5.99106E-003	0.00000E+000	4.46483E-003	3.59960E-001	-1.16933E+000	3.57780E+000	10	...........
	14	0.2	7.52089E-001	5.99634E-003	0.00000E+000	4.50978E-003	3.59960E-001	-1.17150E+000	3.57780E+000	10	...........
	15	0.213333	7.58921E-001	5.99478E-003	0.00000E+000	4.54957E-003	3.59960E-001	-1.16330E+000	3.57780E+000	10	...........
	16	0.226667	7.65679E-001	5.99248E-003	0.00000E+000	4.58831E-003	3.59960E-001	-1.16946E+000	3.57780E+000	10	...........
	17	0.24	7.72456E-001	5.99717E-003	0.00000E+000	4.63255E-003	3.59960E-001	-1.17154E+000	3.57780E+000	10	...........
	18	0.253333	7.79197E-001	5.99228E-003	0.00000E+000	4.66917E-003	3.59960E-001	-1.16336E+000	3.57780E+000	10	...........
	19	0.266667	7.85939E-001	5.99249E-003	0.00000E+000	4.70973E-003	3.59960E-001	-1.16922E+000	3.57780E+000	10	...........
	20	0.28	7.92634E-001	5.99667E-003	0.00000E+000	4.75316E-003	3.59960E-001	-1.17158E+000	3.57780E+000	10	...........
	21	0.293333	7.99299E-001	5.99550E-003	0.00000E+000	4.79220E-003	3.59960E-001	-1.16345E+000	3.57780E+000	10	...........
	22	0.306667	8.05961E-001	5.99210E-003	0.00000E+000	4.82940E-003	3.59960E-001	-1.16916E+000	3.57780E+000	10	...........
	23	0.32	8.12585E-001	5.99338E-003	0.00000E+000	4.87013E-003	3.59960E-001	-1.17130E+000	3.57780E+000	10	...........
	24	0.333333	8.19236E-001	5.99281E-003	0.00000E+000	4.90953E-003	3.59960E-001	-1.16283E+000	3.57780E+000	10	...........
	25	0.346667	8.25825E-001	5.99574E-003	0.00000E+000	4.95143E-003	3.59960E-001	-1.16902E+000	3.57780E+000	10	...........
	26	0.36	8.32353E-001	5.99325E-003	0.00000E+000	4.98850E-003	3.59960E-001	-1.17121E+000	3.57780E+000	10	...........
	27	0.373333	8.38906E-001	5.99444E-003	0.00000E+000	5.02877E-003	3.59960E-001	-1.16300E+000	3.57780E+000	10	...........
	28	0.386667	8.45411E-001	5.99649E-003	0.00000E+000	5.06950E-003	3.59960E-001	-1.16912E+000	3.57780E+000	10	...........
	29	0.4	8.51890E-001	5.99046E-003	0.00000E+000	5.10322E-003	3.59960E-001	-1.17098E+000	3.57780E+000	10	...........
	30	0.413333	8.58320E-001	5.99292E-003	0.00000E+000	5.14384E-003	3.59960E-001	-1.16281E+000	3.57780E+000	10	...........
	31	0.426667	8.64778E-001	5.99696E-003	0.00000E+000	5.18604E-003	3.59960E-001	-1.16913E+000	3.57780E+000	10	...........
	32	0.44	8.71198E-001	5.99342E-003	0.00000E+000	5.22145E-003	3.59960E-001	-1.17105E+000	3.57780E+000	10	...........
	33	0.453333	8.77582E-001	5.99715E-003	0.00000E+000	5.26299E-003	3.59960E-001	-1.16307E+000	3.57780E+000	10	...........
	34	0.466667	8.83934E-001	5.99028E-003	0.00000E+000	5.29501E-003	3.59960E-001	-1.16899E+000	3.57780E+000	10	...........
	35	0.48	8.90237E-001	5.99537E-003	0.00000E+000	5.33730E-003	3.59960E-001	-1.17086E+000	3.57780E+000	10	...........
	36	0.493333	8.96533E-001	5.99719E-003	0.00000E+000	5.37668E-003	3.59960E-001	-1.16300E+000	3.57780E+000	10	...........
	37	0.506667	9.02774E-001	5.99405E-003	0.00000E+000	5.41128E-003	3.59960E-001	-1.16902E+000	3.57780E+000	10	...........
	38	0.52	9.08999E-001	5.99482E-003	0.00000E+000	5.44929E-003	3.59960E-001	-1.17102E+000	3.57780E+000	10	...........
	39	0.533333	9.15186E-001	5.99353E-003	0.00000E+000	5.48520E-003	3.59960E-001	-1.16281E+000	3.57780E+000	10	...........
	40	0.546667	9.21359E-001	5.99221E-003	0.00000E+000	5.52097E-003	3.59960E-001	-1.16883E+000	3.57780E+000	10	...........
	41	0.56	9.27497E-001	5.99507E-003	0.00000E+000	5.56041E-003	3.59960E-001	-1.17107E+000	3.57780E+000	10	...........
	42	0.573333	9.33552E-001	5.98979E-003	0.00000E+000	5.59178E-003	3.59960E-001	-1.16308E+000	3.57780E+000	10	...........
	43	0.586667	9.39519E-001	5.99604E-003	0.00000E+000	5.63340E-003	3.59960E-001	-1.16920E+000	3.57780E+000	10	...........
	44	0.6	9.45543E-001	5.99223E-003	0.00000E+000	5.66591E-003	3.59960E-001	-1.17079E+000	3.57780E+000	10	...........
	45	0.613333	9.51496E-001	5.99575E-003	0.00000E+000	5.70493E-003	3.59960E-001	-1.16286E+000	3.57780E+000	10	...........
	46	0.626667	9.57361E-001	5.99811E-003	0.00000E+000	5.74235E-003	3.59960E-001	-1.16882E+000	3.57780E+000	10	...........
	47	0.64	9.63218E-001	5.99458E-003	0.00000E+000	5.77409E-003	3.59960E-001	-1.17056E+000	3.57824E+000	10	...........
	48	0.653333	9.68951E-001	5.98943E-003	0.00000E+000	5.80347E-003	3.59960E-001	-1.16241E+000	3.57850E+000	10	...........
	49	0.666667	9.74753E-001	5.99579E-003	0.00000E+000	5.84442E-003	3.59960E-001	-1.16865E+000	3.57850E+000	10	...........
	50	0.68	9.80438E-001	5.99393E-003	0.00000E+000	5.87667E-003	3.59960E-001	-1.17042E+000	3.57850E+000	10	...........
	51	0.693333	9.86045E-001	5.99430E-003	0.00000E+000	5.91065E-003	3.59960E-001	-1.16255E+000	3.57850E+000	10	...........
	52	0.706667	9.91608E-001	5.99545E-003	0.00000E+000	5.94514E-003	3.59960E-001	-1.16899E+000	3.57850E+000	10	...........
	53	0.72	9.97145E-001	5.99296E-003	0.00000E+000	5.97585E-003	3.59960E-001	-1.17065E+000	3.57850E+000	10	...........
	54	0.721667	1.00026E+000	6.00389E-003	0.00000E+000	6.00547E-003	3.59960E-001	-1.17396E+000	3.57850E+000	10	...........
STARTTIMEOFFSET	QUANT	1295.512	Start Time Offset (s)