File: Data/CV_CRGO300517_1/PWRCCD_CRGO300517_1/CHARGE_DISCHARGE/CHARGE_#679.DTA
EXPLAIN
TAG	PWR800_CHARGE
TITLE	LABEL	PWR Cyclic Charge Discharge (Cell) - Charge Step	Test &Identifier
DATE	LABEL	22-6-2017	Date
TIME	LABEL	16:02:46	Time
NOTES	NOTES	3	&Notes...
	supercap test cell
	0.6mg
	6M KOH
PSTAT	PSTAT	IFC5000-01520	Potentiostat
CAPACITY	QUANT	1.00000E-003	Capacity (A-hr)
CELLTYPE	SELECTOR	1	&Cell Type
WORKINGCONNECTION	SELECTOR	0	&Working Lead
MAXCHARGETIME	VARIABLEANDUNITS	1.00000E+002	s	1.00000E+002	second(s)	Max &Charge Time
CHARGECURRENT	QUANT	6.00000E-003	&Charge Current (A)
VOLTAGEFINISH	TWOPARAM	F	1.00000E-003	3.60000E+003	&Voltage Finish	 I (A) < 	Max Time(s)
SAMPLETIME	QUANT	1.00000E-002	Sa&mple Period (s)
CHARGESTOPAT1	MULTIPARAM	4	1.00000E+000	Charge Stop At &1	Voltage > Limit	V
CHARGESTOPAT2	MULTIPARAM	0	0.00000E+000	Charge Stop At &2	None	N/A
AESBHCSELECTOR	TOGGLE	F	Save Both Half Cells
IRCOMP	TOGGLE	F	IR &Measure
EOC	QUANT	0	Open Circuit (V)
SEQUENCER	TOGGLE	TRUE	Run as Sequence
PSTATMODEL	IQUANT	53	Pstat Model
PSTATSECTION	LABEL	IFC5000-01520	Pstat Section
PSTATSERIALNO	LABEL	01520	Pstat Serial Number
CTRLMODE	IQUANT	0	Control Mode
ELECTROMETER	IQUANT	1	RE=0 or CS=1
IESTAB	IQUANT	0	I/E Stability
CASPEED	IQUANT	4	Control Amp Speed
CONVENTION	IQUANT	1	Current Convention
ICHRANGE	IQUANT	2	Ich Range
ICHRANGEMODE	TOGGLE	T	Ich Auto Range
ICHOFFSETENABLE	TOGGLE	F	Ich Offset Enable
ICHOFFSET	QUANT	0	Ich Offset (V)
ICHFILTER	IQUANT	1	Ich Filter
VCHRANGE	IQUANT	2	Vch Range
VCHRANGEMODE	TOGGLE	T	Vch Auto Range
VCHOFFSETENABLE	TOGGLE	F	Vch Offset Enable
VCHOFFSET	QUANT	0	Vch Offset (V)
VCHFILTER	IQUANT	1	Vch Filter
IERANGELOWERLIMIT	IQUANT	9	I/E Range Lower Limit
IERANGEMODE	TOGGLE	F	I/E AutoRange
IERANGE	IQUANT	10	I/E Range
ACHSELECT	IQUANT	1	Ach Select
ACHRANGE	IQUANT	2	Ach Range
ACHOFFSETENABLE	TOGGLE	F	Ach Offset Enable
ACHOFFSET	QUANT	0	Ach Offset (V)
ACHFILTER	IQUANT	1	Ach Filter
CABLEID	IQUANT	14	Cable ID
DCCALDATE	LABEL	20-10-2016	DC Calibration Date
ACCALDATE	LABEL	12/3/2015	AC Calibration Date
FRAMEWORKVERSION	QUANT	7.01	Framework Version
INSTRUMENTVERSION	LABEL	4.00	Instrument Version
CURVE	TABLE	56
	Pt	T	Vf	Im	Vu	Pwr	Sig	Ach	Temp	IERange	Over
	#	s	V	A	V	W	V	V	deg C	#	bits
	0	0.013333	6.41596E-001	5.99757E-003	0.00000E+000	3.84802E-003	3.59960E-001	-1.15350E+000	3.57670E+000	10	...........
	1	0.026667	6.50626E-001	5.99141E-003	0.00000E+000	3.89817E-003	3.59960E-001	-1.15335E+000	3.57670E+000	10	...........
	2	0.04	6.58992E-001	5.99174E-003	0.00000E+000	3.94850E-003	3.59960E-001	-1.16363E+000	3.57670E+000	10	...........
	3	0.053333	6.66965E-001	5.99374E-003	0.00000E+000	3.99761E-003	3.59960E-001	-1.15303E+000	3.57670E+000	10	...........
	4	0.066667	6.74582E-001	5.99022E-003	0.00000E+000	4.04090E-003	3.59960E-001	-1.15332E+000	3.57670E+000	10	...........
	5	0.08	6.82004E-001	5.99754E-003	0.00000E+000	4.09034E-003	3.59960E-001	-1.16377E+000	3.57670E+000	10	...........
	6	0.093333	6.89250E-001	6.00150E-003	0.00000E+000	4.13654E-003	3.59960E-001	-1.15309E+000	3.57670E+000	10	...........
	7	0.106667	6.96398E-001	5.99224E-003	0.00000E+000	4.17298E-003	3.59960E-001	-1.15326E+000	3.57670E+000	10	...........
	8	0.12	7.03467E-001	5.99273E-003	0.00000E+000	4.21569E-003	3.59960E-001	-1.16305E+000	3.57670E+000	10	...........
	9	0.133333	7.10501E-001	5.99574E-003	0.00000E+000	4.25998E-003	3.59960E-001	-1.15240E+000	3.57670E+000	10	...........
	10	0.146667	7.17450E-001	5.99568E-003	0.00000E+000	4.30160E-003	3.59960E-001	-1.15295E+000	3.57670E+000	10	...........
	11	0.16	7.24357E-001	5.99351E-003	0.00000E+000	4.34144E-003	3.59960E-001	-1.16324E+000	3.57670E+000	10	...........
	12	0.173333	7.31166E-001	5.98987E-003	0.00000E+000	4.37959E-003	3.59960E-001	-1.15248E+000	3.57670E+000	10	...........
	13	0.186667	7.37967E-001	5.99124E-003	0.00000E+000	4.42134E-003	3.59960E-001	-1.15301E+000	3.57670E+000	10	...........
	14	0.2	7.44785E-001	5.99666E-003	0.00000E+000	4.46622E-003	3.59960E-001	-1.16312E+000	3.57670E+000	10	...........
	15	0.213333	7.51470E-001	5.99695E-003	0.00000E+000	4.50653E-003	3.59960E-001	-1.15244E+000	3.57670E+000	10	...........
	16	0.226667	7.58187E-001	5.99643E-003	0.00000E+000	4.54642E-003	3.59960E-001	-1.15315E+000	3.57670E+000	10	...........
	17	0.24	7.64865E-001	5.99434E-003	0.00000E+000	4.58486E-003	3.59960E-001	-1.16319E+000	3.57670E+000	10	...........
	18	0.253333	7.71537E-001	5.99591E-003	0.00000E+000	4.62607E-003	3.59960E-001	-1.15242E+000	3.57670E+000	10	...........
	19	0.266667	7.78181E-001	5.99856E-003	0.00000E+000	4.66796E-003	3.59960E-001	-1.15319E+000	3.57670E+000	10	...........
	20	0.28	7.84792E-001	5.99417E-003	0.00000E+000	4.70417E-003	3.59960E-001	-1.16318E+000	3.57670E+000	10	...........
	21	0.293333	7.91384E-001	5.99516E-003	0.00000E+000	4.74447E-003	3.59960E-001	-1.15244E+000	3.57670E+000	10	...........
	22	0.306667	7.97984E-001	5.99501E-003	0.00000E+000	4.78393E-003	3.59960E-001	-1.15332E+000	3.57670E+000	10	...........
	23	0.32	8.04549E-001	5.99701E-003	0.00000E+000	4.82489E-003	3.59960E-001	-1.16299E+000	3.57670E+000	10	...........
	24	0.333333	8.11097E-001	5.99594E-003	0.00000E+000	4.86329E-003	3.59960E-001	-1.15231E+000	3.57670E+000	10	...........
	25	0.346667	8.17643E-001	5.99551E-003	0.00000E+000	4.90219E-003	3.59960E-001	-1.15347E+000	3.57670E+000	10	...........
	26	0.36	8.24114E-001	5.99050E-003	0.00000E+000	4.93685E-003	3.59960E-001	-1.16314E+000	3.57670E+000	10	...........
	27	0.373333	8.30588E-001	5.99443E-003	0.00000E+000	4.97890E-003	3.59960E-001	-1.15215E+000	3.57670E+000	10	...........
	28	0.386667	8.37036E-001	5.99526E-003	0.00000E+000	5.01825E-003	3.59960E-001	-1.15345E+000	3.57670E+000	10	...........
	29	0.4	8.43485E-001	5.99568E-003	0.00000E+000	5.05727E-003	3.59960E-001	-1.16295E+000	3.57670E+000	10	...........
	30	0.413333	8.49941E-001	5.99426E-003	0.00000E+000	5.09477E-003	3.59960E-001	-1.15231E+000	3.57670E+000	10	...........
	31	0.426667	8.56313E-001	5.99474E-003	0.00000E+000	5.13338E-003	3.59960E-001	-1.15337E+000	3.57670E+000	10	...........
	32	0.44	8.62701E-001	5.99514E-003	0.00000E+000	5.17201E-003	3.59960E-001	-1.16243E+000	3.57670E+000	10	...........
	33	0.453333	8.69098E-001	5.99646E-003	0.00000E+000	5.21151E-003	3.59960E-001	-1.15185E+000	3.57670E+000	10	...........
	34	0.466667	8.75408E-001	5.99318E-003	0.00000E+000	5.24647E-003	3.59960E-001	-1.15314E+000	3.57670E+000	10	...........
	35	0.48	8.81713E-001	5.99359E-003	0.00000E+000	5.28463E-003	3.59960E-001	-1.16241E+000	3.57670E+000	10	...........
	36	0.493333	8.87993E-001	5.99755E-003	0.00000E+000	5.32578E-003	3.59960E-001	-1.15184E+000	3.57670E+000	10	...........
	37	0.506667	8.94226E-001	5.99476E-003	0.00000E+000	5.36067E-003	3.59960E-001	-1.15341E+000	3.57670E+000	10	...........
	38	0.52	9.00448E-001	5.99602E-003	0.00000E+000	5.39911E-003	3.59960E-001	-1.16246E+000	3.57670E+000	10	...........
	39	0.533333	9.06627E-001	5.99292E-003	0.00000E+000	5.43334E-003	3.59960E-001	-1.15166E+000	3.57670E+000	10	...........
	40	0.546667	9.12768E-001	5.99456E-003	0.00000E+000	5.47165E-003	3.59960E-001	-1.15340E+000	3.57670E+000	10	...........
	41	0.56	9.18891E-001	5.99289E-003	0.00000E+000	5.50682E-003	3.59960E-001	-1.16243E+000	3.57670E+000	10	...........
	42	0.573333	9.25021E-001	5.99473E-003	0.00000E+000	5.54525E-003	3.59960E-001	-1.15152E+000	3.57670E+000	10	...........
	43	0.586667	9.31032E-001	5.99379E-003	0.00000E+000	5.58041E-003	3.59960E-001	-1.15334E+000	3.57670E+000	10	...........
	44	0.6	9.37028E-001	5.99446E-003	0.00000E+000	5.61698E-003	3.59960E-001	-1.16236E+000	3.57670E+000	10	...........
	45	0.613333	9.42982E-001	5.99505E-003	0.00000E+000	5.65322E-003	3.59960E-001	-1.15156E+000	3.57670E+000	10	...........
	46	0.626667	9.48904E-001	5.99405E-003	0.00000E+000	5.68778E-003	3.59960E-001	-1.15365E+000	3.57670E+000	10	...........
	47	0.64	9.54778E-001	5.99246E-003	0.00000E+000	5.72147E-003	3.59960E-001	-1.16210E+000	3.57670E+000	10	...........
	48	0.653333	9.60642E-001	5.99736E-003	0.00000E+000	5.76131E-003	3.59960E-001	-1.15157E+000	3.57670E+000	10	...........
	49	0.666667	9.66429E-001	5.99714E-003	0.00000E+000	5.79581E-003	3.59960E-001	-1.15367E+000	3.57670E+000	10	...........
	50	0.68	9.72152E-001	5.99185E-003	0.00000E+000	5.82499E-003	3.59960E-001	-1.16227E+000	3.57670E+000	10	...........
	51	0.693333	9.77859E-001	5.99409E-003	0.00000E+000	5.86138E-003	3.59960E-001	-1.15172E+000	3.57670E+000	10	...........
	52	0.706667	9.83477E-001	5.99634E-003	0.00000E+000	5.89726E-003	3.59960E-001	-1.15381E+000	3.57670E+000	10	...........
	53	0.72	9.89089E-001	5.99608E-003	0.00000E+000	5.93065E-003	3.59960E-001	-1.16215E+000	3.57670E+000	10	...........
	54	0.733333	9.94608E-001	5.99289E-003	0.00000E+000	5.96058E-003	3.59960E-001	-1.15158E+000	3.57670E+000	10	...........
	55	0.741667	9.99100E-001	5.99740E-003	0.00000E+000	5.99200E-003	3.59960E-001	-1.16224E+000	3.57670E+000	10	...........
STARTTIMEOFFSET	QUANT	1128.336	Start Time Offset (s)