File: Data/CV_CRGO300517_1/PWRCCD_CRGO300517_1/CHARGE_DISCHARGE/CHARGE_#526.DTA
EXPLAIN
TAG	PWR800_CHARGE
TITLE	LABEL	PWR Cyclic Charge Discharge (Cell) - Charge Step	Test &Identifier
DATE	LABEL	22-6-2017	Date
TIME	LABEL	15:56:55	Time
NOTES	NOTES	3	&Notes...
	supercap test cell
	0.6mg
	6M KOH
PSTAT	PSTAT	IFC5000-01520	Potentiostat
CAPACITY	QUANT	1.00000E-003	Capacity (A-hr)
CELLTYPE	SELECTOR	1	&Cell Type
WORKINGCONNECTION	SELECTOR	0	&Working Lead
MAXCHARGETIME	VARIABLEANDUNITS	1.00000E+002	s	1.00000E+002	second(s)	Max &Charge Time
CHARGECURRENT	QUANT	6.00000E-003	&Charge Current (A)
VOLTAGEFINISH	TWOPARAM	F	1.00000E-003	3.60000E+003	&Voltage Finish	 I (A) < 	Max Time(s)
SAMPLETIME	QUANT	1.00000E-002	Sa&mple Period (s)
CHARGESTOPAT1	MULTIPARAM	4	1.00000E+000	Charge Stop At &1	Voltage > Limit	V
CHARGESTOPAT2	MULTIPARAM	0	0.00000E+000	Charge Stop At &2	None	N/A
AESBHCSELECTOR	TOGGLE	F	Save Both Half Cells
IRCOMP	TOGGLE	F	IR &Measure
EOC	QUANT	0	Open Circuit (V)
SEQUENCER	TOGGLE	TRUE	Run as Sequence
PSTATMODEL	IQUANT	53	Pstat Model
PSTATSECTION	LABEL	IFC5000-01520	Pstat Section
PSTATSERIALNO	LABEL	01520	Pstat Serial Number
CTRLMODE	IQUANT	0	Control Mode
ELECTROMETER	IQUANT	1	RE=0 or CS=1
IESTAB	IQUANT	0	I/E Stability
CASPEED	IQUANT	4	Control Amp Speed
CONVENTION	IQUANT	1	Current Convention
ICHRANGE	IQUANT	2	Ich Range
ICHRANGEMODE	TOGGLE	T	Ich Auto Range
ICHOFFSETENABLE	TOGGLE	F	Ich Offset Enable
ICHOFFSET	QUANT	0	Ich Offset (V)
ICHFILTER	IQUANT	1	Ich Filter
VCHRANGE	IQUANT	2	Vch Range
VCHRANGEMODE	TOGGLE	T	Vch Auto Range
VCHOFFSETENABLE	TOGGLE	F	Vch Offset Enable
VCHOFFSET	QUANT	0	Vch Offset (V)
VCHFILTER	IQUANT	1	Vch Filter
IERANGELOWERLIMIT	IQUANT	9	I/E Range Lower Limit
IERANGEMODE	TOGGLE	F	I/E AutoRange
IERANGE	IQUANT	10	I/E Range
ACHSELECT	IQUANT	1	Ach Select
ACHRANGE	IQUANT	2	Ach Range
ACHOFFSETENABLE	TOGGLE	F	Ach Offset Enable
ACHOFFSET	QUANT	0	Ach Offset (V)
ACHFILTER	IQUANT	1	Ach Filter
CABLEID	IQUANT	14	Cable ID
DCCALDATE	LABEL	20-10-2016	DC Calibration Date
ACCALDATE	LABEL	12/3/2015	AC Calibration Date
FRAMEWORKVERSION	QUANT	7.01	Framework Version
INSTRUMENTVERSION	LABEL	4.00	Instrument Version
CURVE	TABLE	58
	Pt	T	Vf	Im	Vu	Pwr	Sig	Ach	Temp	IERange	Over
	#	s	V	A	V	W	V	V	deg C	#	bits
	0	0.013333	6.33512E-001	5.99749E-003	0.00000E+000	3.79949E-003	3.59960E-001	-1.13395E+000	3.57640E+000	10	...........
	1	0.026667	6.42413E-001	5.99123E-003	0.00000E+000	3.84884E-003	3.59960E-001	-1.14498E+000	3.57640E+000	10	...........
	2	0.04	6.50584E-001	5.99514E-003	0.00000E+000	3.90034E-003	3.59960E-001	-1.13510E+000	3.57640E+000	10	...........
	3	0.053333	6.58329E-001	5.99510E-003	0.00000E+000	3.94674E-003	3.59960E-001	-1.13349E+000	3.57640E+000	10	...........
	4	0.066667	6.65818E-001	5.99161E-003	0.00000E+000	3.98932E-003	3.59960E-001	-1.14468E+000	3.57640E+000	10	...........
	5	0.08	6.73096E-001	5.99258E-003	0.00000E+000	4.03358E-003	3.59960E-001	-1.13494E+000	3.57640E+000	10	...........
	6	0.093333	6.80215E-001	5.99710E-003	0.00000E+000	4.07931E-003	3.59960E-001	-1.13347E+000	3.57640E+000	10	...........
	7	0.106667	6.87253E-001	5.99081E-003	0.00000E+000	4.11720E-003	3.59960E-001	-1.14481E+000	3.57640E+000	10	...........
	8	0.12	6.94186E-001	5.99795E-003	0.00000E+000	4.16370E-003	3.59960E-001	-1.13499E+000	3.57640E+000	10	...........
	9	0.133333	7.01053E-001	5.99822E-003	0.00000E+000	4.20508E-003	3.59960E-001	-1.13333E+000	3.57640E+000	10	...........
	10	0.146667	7.07875E-001	5.99089E-003	0.00000E+000	4.24080E-003	3.59960E-001	-1.14447E+000	3.57640E+000	10	...........
	11	0.16	7.14633E-001	5.99161E-003	0.00000E+000	4.28181E-003	3.59960E-001	-1.13520E+000	3.57640E+000	10	...........
	12	0.173333	7.21422E-001	5.99860E-003	0.00000E+000	4.32752E-003	3.59960E-001	-1.13328E+000	3.57640E+000	10	...........
	13	0.186667	7.28073E-001	5.99895E-003	0.00000E+000	4.36768E-003	3.59960E-001	-1.14448E+000	3.57640E+000	10	...........
	14	0.2	7.34697E-001	5.99389E-003	0.00000E+000	4.40369E-003	3.59960E-001	-1.13505E+000	3.57640E+000	10	...........
	15	0.213333	7.41296E-001	5.99464E-003	0.00000E+000	4.44380E-003	3.59960E-001	-1.13329E+000	3.57640E+000	10	...........
	16	0.226667	7.47915E-001	5.99197E-003	0.00000E+000	4.48148E-003	3.59960E-001	-1.14467E+000	3.57640E+000	10	...........
	17	0.24	7.54498E-001	5.99369E-003	0.00000E+000	4.52223E-003	3.59960E-001	-1.13558E+000	3.57640E+000	10	...........
	18	0.253333	7.61064E-001	5.99493E-003	0.00000E+000	4.56253E-003	3.59960E-001	-1.13338E+000	3.57640E+000	10	...........
	19	0.266667	7.67588E-001	5.99576E-003	0.00000E+000	4.60228E-003	3.59960E-001	-1.14433E+000	3.57640E+000	10	...........
	20	0.28	7.74122E-001	5.99352E-003	0.00000E+000	4.63971E-003	3.59960E-001	-1.13539E+000	3.57640E+000	10	...........
	21	0.293333	7.80647E-001	5.99543E-003	0.00000E+000	4.68031E-003	3.59960E-001	-1.13330E+000	3.57650E+000	10	...........
	22	0.306667	7.87135E-001	5.99051E-003	0.00000E+000	4.71534E-003	3.59960E-001	-1.14449E+000	3.57660E+000	10	...........
	23	0.32	7.93589E-001	5.99627E-003	0.00000E+000	4.75858E-003	3.59960E-001	-1.13551E+000	3.57660E+000	10	...........
	24	0.333333	8.00055E-001	5.99377E-003	0.00000E+000	4.79535E-003	3.59960E-001	-1.13298E+000	3.57660E+000	10	...........
	25	0.346667	8.06432E-001	5.99335E-003	0.00000E+000	4.83323E-003	3.59960E-001	-1.14405E+000	3.57660E+000	10	...........
	26	0.36	8.12875E-001	5.99252E-003	0.00000E+000	4.87117E-003	3.59960E-001	-1.13513E+000	3.57660E+000	10	...........
	27	0.373333	8.19332E-001	5.99352E-003	0.00000E+000	4.91068E-003	3.59960E-001	-1.13266E+000	3.57660E+000	10	...........
	28	0.386667	8.25723E-001	5.99369E-003	0.00000E+000	4.94913E-003	3.59960E-001	-1.14408E+000	3.57660E+000	10	...........
	29	0.4	8.32064E-001	5.99483E-003	0.00000E+000	4.98809E-003	3.59960E-001	-1.13509E+000	3.57660E+000	10	...........
	30	0.413333	8.38427E-001	5.99330E-003	0.00000E+000	5.02494E-003	3.59960E-001	-1.13268E+000	3.57660E+000	10	...........
	31	0.426667	8.44777E-001	5.99216E-003	0.00000E+000	5.06204E-003	3.59960E-001	-1.14391E+000	3.57660E+000	10	...........
	32	0.44	8.51105E-001	5.99351E-003	0.00000E+000	5.10111E-003	3.59960E-001	-1.13519E+000	3.57660E+000	10	...........
	33	0.453333	8.57428E-001	5.99705E-003	0.00000E+000	5.14203E-003	3.59960E-001	-1.13271E+000	3.57660E+000	10	...........
	34	0.466667	8.63689E-001	5.99499E-003	0.00000E+000	5.17781E-003	3.59960E-001	-1.14352E+000	3.57660E+000	10	...........
	35	0.48	8.70005E-001	5.99683E-003	0.00000E+000	5.21727E-003	3.59960E-001	-1.13502E+000	3.57660E+000	10	...........
	36	0.493333	8.76243E-001	5.99450E-003	0.00000E+000	5.25264E-003	3.59960E-001	-1.13258E+000	3.57660E+000	10	...........
	37	0.506667	8.82439E-001	5.99419E-003	0.00000E+000	5.28951E-003	3.59960E-001	-1.14350E+000	3.57660E+000	10	...........
	38	0.52	8.88638E-001	5.99334E-003	0.00000E+000	5.32591E-003	3.59960E-001	-1.13498E+000	3.57660E+000	10	...........
	39	0.533333	8.94788E-001	5.99276E-003	0.00000E+000	5.36225E-003	3.59960E-001	-1.13212E+000	3.57660E+000	10	...........
	40	0.546667	9.00940E-001	5.99085E-003	0.00000E+000	5.39740E-003	3.59960E-001	-1.14330E+000	3.57660E+000	10	...........
	41	0.56	9.07036E-001	5.98852E-003	0.00000E+000	5.43181E-003	3.59960E-001	-1.13531E+000	3.57660E+000	10	...........
	42	0.573333	9.13079E-001	5.99396E-003	0.00000E+000	5.47296E-003	3.59960E-001	-1.13246E+000	3.57660E+000	10	...........
	43	0.586667	9.19184E-001	5.99967E-003	0.00000E+000	5.51480E-003	3.59960E-001	-1.14363E+000	3.57660E+000	10	...........
	44	0.6	9.25233E-001	5.99553E-003	0.00000E+000	5.54726E-003	3.59960E-001	-1.13529E+000	3.57660E+000	10	...........
	45	0.613333	9.31202E-001	5.99457E-003	0.00000E+000	5.58216E-003	3.59960E-001	-1.13247E+000	3.57660E+000	10	...........
	46	0.626667	9.37102E-001	5.99278E-003	0.00000E+000	5.61585E-003	3.59960E-001	-1.14331E+000	3.57660E+000	10	...........
	47	0.64	9.43029E-001	5.99498E-003	0.00000E+000	5.65344E-003	3.59960E-001	-1.13573E+000	3.57660E+000	10	...........
	48	0.653333	9.48925E-001	5.99365E-003	0.00000E+000	5.68752E-003	3.59960E-001	-1.13242E+000	3.57660E+000	10	...........
	49	0.666667	9.54756E-001	6.00197E-003	0.00000E+000	5.73042E-003	3.59960E-001	-1.14283E+000	3.57660E+000	10	...........
	50	0.68	9.60546E-001	5.99443E-003	0.00000E+000	5.75792E-003	3.59960E-001	-1.13520E+000	3.57660E+000	10	...........
	51	0.693333	9.66263E-001	5.99469E-003	0.00000E+000	5.79244E-003	3.59960E-001	-1.13190E+000	3.57660E+000	10	...........
	52	0.706667	9.71975E-001	5.99754E-003	0.00000E+000	5.82945E-003	3.59960E-001	-1.14309E+000	3.57660E+000	10	...........
	53	0.72	9.77657E-001	5.99567E-003	0.00000E+000	5.86171E-003	3.59960E-001	-1.13542E+000	3.57660E+000	10	...........
	54	0.733333	9.83239E-001	5.99273E-003	0.00000E+000	5.89228E-003	3.59960E-001	-1.13179E+000	3.57660E+000	10	...........
	55	0.746667	9.88800E-001	5.98927E-003	0.00000E+000	5.92219E-003	3.59960E-001	-1.14271E+000	3.57660E+000	10	...........
	56	0.76	9.94288E-001	5.99136E-003	0.00000E+000	5.95714E-003	3.59960E-001	-1.13544E+000	3.57660E+000	10	...........
	57	0.768333	9.98748E-001	5.99094E-003	0.00000E+000	5.98343E-003	3.59960E-001	-1.13526E+000	3.57660E+000	10	...........
STARTTIMEOFFSET	QUANT	898.9301	Start Time Offset (s)