File: Data/CV_CRGO300517_1/PWRCCD_CRGO300517_1/CHARGE_DISCHARGE/CHARGE_#939.DTA
EXPLAIN
TAG	PWR800_CHARGE
TITLE	LABEL	PWR Cyclic Charge Discharge (Cell) - Charge Step	Test &Identifier
DATE	LABEL	22-6-2017	Date
TIME	LABEL	16:12:25	Time
NOTES	NOTES	3	&Notes...
	supercap test cell
	0.6mg
	6M KOH
PSTAT	PSTAT	IFC5000-01520	Potentiostat
CAPACITY	QUANT	1.00000E-003	Capacity (A-hr)
CELLTYPE	SELECTOR	1	&Cell Type
WORKINGCONNECTION	SELECTOR	0	&Working Lead
MAXCHARGETIME	VARIABLEANDUNITS	1.00000E+002	s	1.00000E+002	second(s)	Max &Charge Time
CHARGECURRENT	QUANT	6.00000E-003	&Charge Current (A)
VOLTAGEFINISH	TWOPARAM	F	1.00000E-003	3.60000E+003	&Voltage Finish	 I (A) < 	Max Time(s)
SAMPLETIME	QUANT	1.00000E-002	Sa&mple Period (s)
CHARGESTOPAT1	MULTIPARAM	4	1.00000E+000	Charge Stop At &1	Voltage > Limit	V
CHARGESTOPAT2	MULTIPARAM	0	0.00000E+000	Charge Stop At &2	None	N/A
AESBHCSELECTOR	TOGGLE	F	Save Both Half Cells
IRCOMP	TOGGLE	F	IR &Measure
EOC	QUANT	0	Open Circuit (V)
SEQUENCER	TOGGLE	TRUE	Run as Sequence
PSTATMODEL	IQUANT	53	Pstat Model
PSTATSECTION	LABEL	IFC5000-01520	Pstat Section
PSTATSERIALNO	LABEL	01520	Pstat Serial Number
CTRLMODE	IQUANT	0	Control Mode
ELECTROMETER	IQUANT	1	RE=0 or CS=1
IESTAB	IQUANT	0	I/E Stability
CASPEED	IQUANT	4	Control Amp Speed
CONVENTION	IQUANT	1	Current Convention
ICHRANGE	IQUANT	2	Ich Range
ICHRANGEMODE	TOGGLE	T	Ich Auto Range
ICHOFFSETENABLE	TOGGLE	F	Ich Offset Enable
ICHOFFSET	QUANT	0	Ich Offset (V)
ICHFILTER	IQUANT	1	Ich Filter
VCHRANGE	IQUANT	2	Vch Range
VCHRANGEMODE	TOGGLE	T	Vch Auto Range
VCHOFFSETENABLE	TOGGLE	F	Vch Offset Enable
VCHOFFSET	QUANT	0	Vch Offset (V)
VCHFILTER	IQUANT	1	Vch Filter
IERANGELOWERLIMIT	IQUANT	9	I/E Range Lower Limit
IERANGEMODE	TOGGLE	F	I/E AutoRange
IERANGE	IQUANT	10	I/E Range
ACHSELECT	IQUANT	1	Ach Select
ACHRANGE	IQUANT	2	Ach Range
ACHOFFSETENABLE	TOGGLE	F	Ach Offset Enable
ACHOFFSET	QUANT	0	Ach Offset (V)
ACHFILTER	IQUANT	1	Ach Filter
CABLEID	IQUANT	14	Cable ID
DCCALDATE	LABEL	20-10-2016	DC Calibration Date
ACCALDATE	LABEL	12/3/2015	AC Calibration Date
FRAMEWORKVERSION	QUANT	7.01	Framework Version
INSTRUMENTVERSION	LABEL	4.00	Instrument Version
CURVE	TABLE	53
	Pt	T	Vf	Im	Vu	Pwr	Sig	Ach	Temp	IERange	Over
	#	s	V	A	V	W	V	V	deg C	#	bits
	0	0.013333	6.54616E-001	5.99063E-003	0.00000E+000	3.92156E-003	3.59960E-001	-1.18273E+000	3.57780E+000	10	...........
	1	0.026667	6.63951E-001	5.98766E-003	0.00000E+000	3.97551E-003	3.59960E-001	-1.17360E+000	3.57780E+000	10	...........
	2	0.04	6.72503E-001	5.99586E-003	0.00000E+000	4.03223E-003	3.59960E-001	-1.17776E+000	3.57780E+000	10	...........
	3	0.053333	6.80590E-001	5.99285E-003	0.00000E+000	4.07867E-003	3.59960E-001	-1.18280E+000	3.57780E+000	10	...........
	4	0.066667	6.88443E-001	5.99675E-003	0.00000E+000	4.12842E-003	3.59960E-001	-1.17355E+000	3.57780E+000	10	...........
	5	0.08	6.96114E-001	5.99646E-003	0.00000E+000	4.17422E-003	3.59960E-001	-1.17779E+000	3.57780E+000	10	...........
	6	0.093333	7.03588E-001	5.99518E-003	0.00000E+000	4.21814E-003	3.59960E-001	-1.18280E+000	3.57780E+000	10	...........
	7	0.106667	7.10931E-001	5.99474E-003	0.00000E+000	4.26185E-003	3.59960E-001	-1.17337E+000	3.57780E+000	10	...........
	8	0.12	7.18169E-001	5.99338E-003	0.00000E+000	4.30426E-003	3.59960E-001	-1.17751E+000	3.57780E+000	10	...........
	9	0.133333	7.25369E-001	5.98981E-003	0.00000E+000	4.34482E-003	3.59960E-001	-1.18269E+000	3.57780E+000	10	...........
	10	0.146667	7.32478E-001	5.99192E-003	0.00000E+000	4.38895E-003	3.59960E-001	-1.17365E+000	3.57780E+000	10	...........
	11	0.16	7.39548E-001	5.99414E-003	0.00000E+000	4.43295E-003	3.59960E-001	-1.17777E+000	3.57780E+000	10	...........
	12	0.173333	7.46584E-001	5.99486E-003	0.00000E+000	4.47566E-003	3.59960E-001	-1.18273E+000	3.57780E+000	10	...........
	13	0.186667	7.53593E-001	5.99714E-003	0.00000E+000	4.51940E-003	3.59960E-001	-1.17337E+000	3.57780E+000	10	...........
	14	0.2	7.60545E-001	5.99493E-003	0.00000E+000	4.55942E-003	3.59960E-001	-1.17753E+000	3.57780E+000	10	...........
	15	0.213333	7.67448E-001	5.99587E-003	0.00000E+000	4.60152E-003	3.59960E-001	-1.18289E+000	3.57780E+000	10	...........
	16	0.226667	7.74319E-001	5.99224E-003	0.00000E+000	4.63990E-003	3.59960E-001	-1.17341E+000	3.57780E+000	10	...........
	17	0.24	7.81108E-001	5.99646E-003	0.00000E+000	4.68388E-003	3.59960E-001	-1.17763E+000	3.57780E+000	10	...........
	18	0.253333	7.87896E-001	5.99447E-003	0.00000E+000	4.72302E-003	3.59960E-001	-1.18222E+000	3.57780E+000	10	...........
	19	0.266667	7.94704E-001	5.99570E-003	0.00000E+000	4.76481E-003	3.59960E-001	-1.17308E+000	3.57780E+000	10	...........
	20	0.28	8.01437E-001	5.99142E-003	0.00000E+000	4.80175E-003	3.59960E-001	-1.17730E+000	3.57780E+000	10	...........
	21	0.293333	8.08167E-001	5.99672E-003	0.00000E+000	4.84635E-003	3.59960E-001	-1.18233E+000	3.57780E+000	10	...........
	22	0.306667	8.14882E-001	5.99820E-003	0.00000E+000	4.88783E-003	3.59960E-001	-1.17305E+000	3.57780E+000	10	...........
	23	0.32	8.21603E-001	5.99555E-003	0.00000E+000	4.92597E-003	3.59960E-001	-1.17697E+000	3.57780E+000	10	...........
	24	0.333333	8.28224E-001	5.99415E-003	0.00000E+000	4.96450E-003	3.59960E-001	-1.18223E+000	3.57780E+000	10	...........
	25	0.346667	8.34843E-001	5.99438E-003	0.00000E+000	5.00436E-003	3.59960E-001	-1.17286E+000	3.57780E+000	10	...........
	26	0.36	8.41453E-001	5.99379E-003	0.00000E+000	5.04349E-003	3.59960E-001	-1.17693E+000	3.57780E+000	10	...........
	27	0.373333	8.48062E-001	5.99679E-003	0.00000E+000	5.08564E-003	3.59960E-001	-1.18220E+000	3.57780E+000	10	...........
	28	0.386667	8.54586E-001	5.99394E-003	0.00000E+000	5.12234E-003	3.59960E-001	-1.17256E+000	3.57780E+000	10	...........
	29	0.4	8.61100E-001	5.99272E-003	0.00000E+000	5.16033E-003	3.59960E-001	-1.17671E+000	3.57780E+000	10	...........
	30	0.413333	8.67613E-001	5.99976E-003	0.00000E+000	5.20547E-003	3.59960E-001	-1.18230E+000	3.57780E+000	10	...........
	31	0.426667	8.74104E-001	5.99203E-003	0.00000E+000	5.23765E-003	3.59960E-001	-1.17279E+000	3.57780E+000	10	...........
	32	0.44	8.80527E-001	5.99279E-003	0.00000E+000	5.27681E-003	3.59960E-001	-1.17685E+000	3.57780E+000	10	...........
	33	0.453333	8.86923E-001	5.99042E-003	0.00000E+000	5.31305E-003	3.59960E-001	-1.18222E+000	3.57780E+000	10	...........
	34	0.466667	8.93297E-001	5.98924E-003	0.00000E+000	5.35017E-003	3.59960E-001	-1.17282E+000	3.57780E+000	10	...........
	35	0.48	8.99633E-001	5.99492E-003	0.00000E+000	5.39323E-003	3.59960E-001	-1.17699E+000	3.57780E+000	10	...........
	36	0.493333	9.05920E-001	5.99658E-003	0.00000E+000	5.43242E-003	3.59960E-001	-1.18236E+000	3.57780E+000	10	...........
	37	0.506667	9.12216E-001	5.99357E-003	0.00000E+000	5.46744E-003	3.59960E-001	-1.17301E+000	3.57780E+000	10	...........
	38	0.52	9.18436E-001	5.99677E-003	0.00000E+000	5.50766E-003	3.59960E-001	-1.17679E+000	3.57780E+000	10	...........
	39	0.533333	9.24649E-001	5.99200E-003	0.00000E+000	5.54049E-003	3.59960E-001	-1.18213E+000	3.57780E+000	10	...........
	40	0.546667	9.30746E-001	5.99225E-003	0.00000E+000	5.57726E-003	3.59960E-001	-1.17305E+000	3.57780E+000	10	...........
	41	0.56	9.36816E-001	5.99293E-003	0.00000E+000	5.61427E-003	3.59960E-001	-1.17695E+000	3.57780E+000	10	...........
	42	0.573333	9.42793E-001	5.99210E-003	0.00000E+000	5.64931E-003	3.59960E-001	-1.18179E+000	3.57780E+000	10	...........
	43	0.586667	9.48830E-001	5.99486E-003	0.00000E+000	5.68810E-003	3.59960E-001	-1.17253E+000	3.57780E+000	10	...........
	44	0.6	9.54713E-001	5.99529E-003	0.00000E+000	5.72379E-003	3.59960E-001	-1.17652E+000	3.57780E+000	10	...........
	45	0.613333	9.60632E-001	5.99899E-003	0.00000E+000	5.76282E-003	3.59960E-001	-1.18196E+000	3.57780E+000	10	...........
	46	0.626667	9.66465E-001	5.99165E-003	0.00000E+000	5.79073E-003	3.59960E-001	-1.17258E+000	3.57780E+000	10	...........
	47	0.64	9.72261E-001	5.99441E-003	0.00000E+000	5.82813E-003	3.59960E-001	-1.17646E+000	3.57780E+000	10	...........
	48	0.653333	9.78047E-001	5.99447E-003	0.00000E+000	5.86287E-003	3.59960E-001	-1.18175E+000	3.57780E+000	10	...........
	49	0.666667	9.83694E-001	5.99163E-003	0.00000E+000	5.89393E-003	3.59960E-001	-1.17238E+000	3.57780E+000	10	...........
	50	0.68	9.89359E-001	5.99123E-003	0.00000E+000	5.92747E-003	3.59960E-001	-1.17643E+000	3.57780E+000	10	...........
	51	0.693333	9.94952E-001	5.98988E-003	0.00000E+000	5.95964E-003	3.59960E-001	-1.18188E+000	3.57780E+000	10	...........
	52	0.7	9.99106E-001	5.99828E-003	0.00000E+000	5.99292E-003	3.59960E-001	-1.16684E+000	3.57780E+000	10	...........
STARTTIMEOFFSET	QUANT	1500.638	Start Time Offset (s)