File: Data/CV_CRGO300517_1/PWRCCD_CRGO300517_1/CHARGE_DISCHARGE/CHARGE_#654.DTA
EXPLAIN
TAG	PWR800_CHARGE
TITLE	LABEL	PWR Cyclic Charge Discharge (Cell) - Charge Step	Test &Identifier
DATE	LABEL	22-6-2017	Date
TIME	LABEL	16:01:49	Time
NOTES	NOTES	3	&Notes...
	supercap test cell
	0.6mg
	6M KOH
PSTAT	PSTAT	IFC5000-01520	Potentiostat
CAPACITY	QUANT	1.00000E-003	Capacity (A-hr)
CELLTYPE	SELECTOR	1	&Cell Type
WORKINGCONNECTION	SELECTOR	0	&Working Lead
MAXCHARGETIME	VARIABLEANDUNITS	1.00000E+002	s	1.00000E+002	second(s)	Max &Charge Time
CHARGECURRENT	QUANT	6.00000E-003	&Charge Current (A)
VOLTAGEFINISH	TWOPARAM	F	1.00000E-003	3.60000E+003	&Voltage Finish	 I (A) < 	Max Time(s)
SAMPLETIME	QUANT	1.00000E-002	Sa&mple Period (s)
CHARGESTOPAT1	MULTIPARAM	4	1.00000E+000	Charge Stop At &1	Voltage > Limit	V
CHARGESTOPAT2	MULTIPARAM	0	0.00000E+000	Charge Stop At &2	None	N/A
AESBHCSELECTOR	TOGGLE	F	Save Both Half Cells
IRCOMP	TOGGLE	F	IR &Measure
EOC	QUANT	0	Open Circuit (V)
SEQUENCER	TOGGLE	TRUE	Run as Sequence
PSTATMODEL	IQUANT	53	Pstat Model
PSTATSECTION	LABEL	IFC5000-01520	Pstat Section
PSTATSERIALNO	LABEL	01520	Pstat Serial Number
CTRLMODE	IQUANT	0	Control Mode
ELECTROMETER	IQUANT	1	RE=0 or CS=1
IESTAB	IQUANT	0	I/E Stability
CASPEED	IQUANT	4	Control Amp Speed
CONVENTION	IQUANT	1	Current Convention
ICHRANGE	IQUANT	2	Ich Range
ICHRANGEMODE	TOGGLE	T	Ich Auto Range
ICHOFFSETENABLE	TOGGLE	F	Ich Offset Enable
ICHOFFSET	QUANT	0	Ich Offset (V)
ICHFILTER	IQUANT	1	Ich Filter
VCHRANGE	IQUANT	2	Vch Range
VCHRANGEMODE	TOGGLE	T	Vch Auto Range
VCHOFFSETENABLE	TOGGLE	F	Vch Offset Enable
VCHOFFSET	QUANT	0	Vch Offset (V)
VCHFILTER	IQUANT	1	Vch Filter
IERANGELOWERLIMIT	IQUANT	9	I/E Range Lower Limit
IERANGEMODE	TOGGLE	F	I/E AutoRange
IERANGE	IQUANT	10	I/E Range
ACHSELECT	IQUANT	1	Ach Select
ACHRANGE	IQUANT	2	Ach Range
ACHOFFSETENABLE	TOGGLE	F	Ach Offset Enable
ACHOFFSET	QUANT	0	Ach Offset (V)
ACHFILTER	IQUANT	1	Ach Filter
CABLEID	IQUANT	14	Cable ID
DCCALDATE	LABEL	20-10-2016	DC Calibration Date
ACCALDATE	LABEL	12/3/2015	AC Calibration Date
FRAMEWORKVERSION	QUANT	7.01	Framework Version
INSTRUMENTVERSION	LABEL	4.00	Instrument Version
CURVE	TABLE	56
	Pt	T	Vf	Im	Vu	Pwr	Sig	Ach	Temp	IERange	Over
	#	s	V	A	V	W	V	V	deg C	#	bits
	0	0.013333	6.40701E-001	5.99307E-003	0.00000E+000	3.83977E-003	3.59960E-001	-1.15510E+000	3.57780E+000	10	...........
	1	0.026667	6.49778E-001	5.99084E-003	0.00000E+000	3.89272E-003	3.59960E-001	-1.16076E+000	3.57780E+000	10	...........
	2	0.04	6.58108E-001	5.99224E-003	0.00000E+000	3.94354E-003	3.59960E-001	-1.15114E+000	3.57780E+000	10	...........
	3	0.053333	6.65992E-001	5.99791E-003	0.00000E+000	3.99456E-003	3.59960E-001	-1.15533E+000	3.57780E+000	10	...........
	4	0.066667	6.73640E-001	5.99226E-003	0.00000E+000	4.03662E-003	3.59960E-001	-1.16050E+000	3.57780E+000	10	...........
	5	0.08	6.81057E-001	5.99768E-003	0.00000E+000	4.08477E-003	3.59960E-001	-1.15094E+000	3.57780E+000	10	...........
	6	0.093333	6.88319E-001	5.98986E-003	0.00000E+000	4.12293E-003	3.59960E-001	-1.15495E+000	3.57780E+000	10	...........
	7	0.106667	6.95513E-001	5.99365E-003	0.00000E+000	4.16866E-003	3.59960E-001	-1.16062E+000	3.57780E+000	10	...........
	8	0.12	7.02544E-001	5.99348E-003	0.00000E+000	4.21068E-003	3.59960E-001	-1.15104E+000	3.57780E+000	10	...........
	9	0.133333	7.09532E-001	5.99489E-003	0.00000E+000	4.25356E-003	3.59960E-001	-1.15485E+000	3.57780E+000	10	...........
	10	0.146667	7.16522E-001	5.99251E-003	0.00000E+000	4.29376E-003	3.59960E-001	-1.16023E+000	3.57780E+000	10	...........
	11	0.16	7.23372E-001	5.99398E-003	0.00000E+000	4.33588E-003	3.59960E-001	-1.15076E+000	3.57780E+000	10	...........
	12	0.173333	7.30208E-001	5.99205E-003	0.00000E+000	4.37544E-003	3.59960E-001	-1.15504E+000	3.57780E+000	10	...........
	13	0.186667	7.36982E-001	5.99819E-003	0.00000E+000	4.42056E-003	3.59960E-001	-1.16049E+000	3.57780E+000	10	...........
	14	0.2	7.43755E-001	5.99070E-003	0.00000E+000	4.45562E-003	3.59960E-001	-1.15094E+000	3.57780E+000	10	...........
	15	0.213333	7.50497E-001	5.99873E-003	0.00000E+000	4.50202E-003	3.59960E-001	-1.15487E+000	3.57780E+000	10	...........
	16	0.226667	7.57244E-001	5.99450E-003	0.00000E+000	4.53930E-003	3.59960E-001	-1.16043E+000	3.57780E+000	10	...........
	17	0.24	7.63899E-001	5.99506E-003	0.00000E+000	4.57962E-003	3.59960E-001	-1.15107E+000	3.57780E+000	10	...........
	18	0.253333	7.70540E-001	5.99518E-003	0.00000E+000	4.61953E-003	3.59960E-001	-1.15513E+000	3.57780E+000	10	...........
	19	0.266667	7.77167E-001	5.99415E-003	0.00000E+000	4.65845E-003	3.59960E-001	-1.16038E+000	3.57780E+000	10	...........
	20	0.28	7.83823E-001	5.99263E-003	0.00000E+000	4.69716E-003	3.59960E-001	-1.15092E+000	3.57780E+000	10	...........
	21	0.293333	7.90410E-001	5.99002E-003	0.00000E+000	4.73457E-003	3.59960E-001	-1.15453E+000	3.57780E+000	10	...........
	22	0.306667	7.97001E-001	5.99449E-003	0.00000E+000	4.77762E-003	3.59960E-001	-1.16001E+000	3.57780E+000	10	...........
	23	0.32	8.03581E-001	5.99596E-003	0.00000E+000	4.81824E-003	3.59960E-001	-1.15062E+000	3.57780E+000	10	...........
	24	0.333333	8.10080E-001	5.99060E-003	0.00000E+000	4.85286E-003	3.59960E-001	-1.15459E+000	3.57780E+000	10	...........
	25	0.346667	8.16594E-001	5.98994E-003	0.00000E+000	4.89135E-003	3.59960E-001	-1.15987E+000	3.57780E+000	10	...........
	26	0.36	8.23100E-001	5.99200E-003	0.00000E+000	4.93201E-003	3.59960E-001	-1.15040E+000	3.57780E+000	10	...........
	27	0.373333	8.29602E-001	5.99906E-003	0.00000E+000	4.97683E-003	3.59960E-001	-1.15460E+000	3.57780E+000	10	...........
	28	0.386667	8.36030E-001	5.99830E-003	0.00000E+000	5.01475E-003	3.59960E-001	-1.16000E+000	3.57780E+000	10	...........
	29	0.4	8.42472E-001	5.99310E-003	0.00000E+000	5.04902E-003	3.59960E-001	-1.15047E+000	3.57780E+000	10	...........
	30	0.413333	8.48927E-001	5.98954E-003	0.00000E+000	5.08468E-003	3.59960E-001	-1.15453E+000	3.57780E+000	10	...........
	31	0.426667	8.55287E-001	5.98943E-003	0.00000E+000	5.12268E-003	3.59960E-001	-1.15994E+000	3.57780E+000	10	...........
	32	0.44	8.61672E-001	5.99693E-003	0.00000E+000	5.16738E-003	3.59960E-001	-1.15048E+000	3.57780E+000	10	...........
	33	0.453333	8.68044E-001	5.99386E-003	0.00000E+000	5.20294E-003	3.59960E-001	-1.15461E+000	3.57780E+000	10	...........
	34	0.466667	8.74398E-001	5.99913E-003	0.00000E+000	5.24563E-003	3.59960E-001	-1.15973E+000	3.57780E+000	10	...........
	35	0.48	8.80694E-001	5.99434E-003	0.00000E+000	5.27918E-003	3.59960E-001	-1.15035E+000	3.57780E+000	10	...........
	36	0.493333	8.86973E-001	5.99347E-003	0.00000E+000	5.31605E-003	3.59960E-001	-1.15439E+000	3.57780E+000	10	...........
	37	0.506667	8.93202E-001	5.99413E-003	0.00000E+000	5.35396E-003	3.59960E-001	-1.15978E+000	3.57780E+000	10	...........
	38	0.52	8.99353E-001	5.99294E-003	0.00000E+000	5.38976E-003	3.59960E-001	-1.15068E+000	3.57780E+000	10	...........
	39	0.533333	9.05527E-001	5.99240E-003	0.00000E+000	5.42628E-003	3.59960E-001	-1.15459E+000	3.57780E+000	10	...........
	40	0.546667	9.11699E-001	5.99244E-003	0.00000E+000	5.46330E-003	3.59960E-001	-1.15963E+000	3.57713E+000	10	...........
	41	0.56	9.17775E-001	5.99365E-003	0.00000E+000	5.50082E-003	3.59960E-001	-1.15036E+000	3.57690E+000	10	...........
	42	0.573333	9.23905E-001	5.99480E-003	0.00000E+000	5.53863E-003	3.59960E-001	-1.15471E+000	3.57690E+000	10	...........
	43	0.586667	9.29969E-001	5.99584E-003	0.00000E+000	5.57594E-003	3.59960E-001	-1.15981E+000	3.57690E+000	10	...........
	44	0.6	9.35968E-001	5.99511E-003	0.00000E+000	5.61123E-003	3.59960E-001	-1.15038E+000	3.57690E+000	10	...........
	45	0.613333	9.41903E-001	5.99711E-003	0.00000E+000	5.64869E-003	3.59960E-001	-1.15418E+000	3.57690E+000	10	...........
	46	0.626667	9.47848E-001	5.99625E-003	0.00000E+000	5.68354E-003	3.59960E-001	-1.15920E+000	3.57690E+000	10	...........
	47	0.64	9.53717E-001	5.99032E-003	0.00000E+000	5.71307E-003	3.59960E-001	-1.14995E+000	3.57690E+000	10	...........
	48	0.653333	9.59537E-001	5.99334E-003	0.00000E+000	5.75083E-003	3.59960E-001	-1.15411E+000	3.57690E+000	10	...........
	49	0.666667	9.65306E-001	5.99901E-003	0.00000E+000	5.79088E-003	3.59960E-001	-1.15927E+000	3.57690E+000	10	...........
	50	0.68	9.71066E-001	5.99073E-003	0.00000E+000	5.81739E-003	3.59960E-001	-1.14984E+000	3.57690E+000	10	...........
	51	0.693333	9.76812E-001	5.99480E-003	0.00000E+000	5.85579E-003	3.59960E-001	-1.15415E+000	3.57690E+000	10	...........
	52	0.706667	9.82427E-001	5.99401E-003	0.00000E+000	5.88868E-003	3.59960E-001	-1.15929E+000	3.57690E+000	10	...........
	53	0.72	9.88023E-001	5.99113E-003	0.00000E+000	5.91938E-003	3.59960E-001	-1.14989E+000	3.57690E+000	10	...........
	54	0.733333	9.93563E-001	5.99428E-003	0.00000E+000	5.95570E-003	3.59960E-001	-1.15417E+000	3.57690E+000	10	...........
	55	0.743333	9.98410E-001	5.99691E-003	0.00000E+000	5.98737E-003	3.59960E-001	-1.15799E+000	3.57690E+000	10	...........
STARTTIMEOFFSET	QUANT	1091.415	Start Time Offset (s)