File: Data/CV_CRGO300517_1/PWRCCD_CRGO300517_1/CHARGE_DISCHARGE/CHARGE_#823.DTA
EXPLAIN
TAG	PWR800_CHARGE
TITLE	LABEL	PWR Cyclic Charge Discharge (Cell) - Charge Step	Test &Identifier
DATE	LABEL	22-6-2017	Date
TIME	LABEL	16:08:08	Time
NOTES	NOTES	3	&Notes...
	supercap test cell
	0.6mg
	6M KOH
PSTAT	PSTAT	IFC5000-01520	Potentiostat
CAPACITY	QUANT	1.00000E-003	Capacity (A-hr)
CELLTYPE	SELECTOR	1	&Cell Type
WORKINGCONNECTION	SELECTOR	0	&Working Lead
MAXCHARGETIME	VARIABLEANDUNITS	1.00000E+002	s	1.00000E+002	second(s)	Max &Charge Time
CHARGECURRENT	QUANT	6.00000E-003	&Charge Current (A)
VOLTAGEFINISH	TWOPARAM	F	1.00000E-003	3.60000E+003	&Voltage Finish	 I (A) < 	Max Time(s)
SAMPLETIME	QUANT	1.00000E-002	Sa&mple Period (s)
CHARGESTOPAT1	MULTIPARAM	4	1.00000E+000	Charge Stop At &1	Voltage > Limit	V
CHARGESTOPAT2	MULTIPARAM	0	0.00000E+000	Charge Stop At &2	None	N/A
AESBHCSELECTOR	TOGGLE	F	Save Both Half Cells
IRCOMP	TOGGLE	F	IR &Measure
EOC	QUANT	0	Open Circuit (V)
SEQUENCER	TOGGLE	TRUE	Run as Sequence
PSTATMODEL	IQUANT	53	Pstat Model
PSTATSECTION	LABEL	IFC5000-01520	Pstat Section
PSTATSERIALNO	LABEL	01520	Pstat Serial Number
CTRLMODE	IQUANT	0	Control Mode
ELECTROMETER	IQUANT	1	RE=0 or CS=1
IESTAB	IQUANT	0	I/E Stability
CASPEED	IQUANT	4	Control Amp Speed
CONVENTION	IQUANT	1	Current Convention
ICHRANGE	IQUANT	2	Ich Range
ICHRANGEMODE	TOGGLE	T	Ich Auto Range
ICHOFFSETENABLE	TOGGLE	F	Ich Offset Enable
ICHOFFSET	QUANT	0	Ich Offset (V)
ICHFILTER	IQUANT	1	Ich Filter
VCHRANGE	IQUANT	2	Vch Range
VCHRANGEMODE	TOGGLE	T	Vch Auto Range
VCHOFFSETENABLE	TOGGLE	F	Vch Offset Enable
VCHOFFSET	QUANT	0	Vch Offset (V)
VCHFILTER	IQUANT	1	Vch Filter
IERANGELOWERLIMIT	IQUANT	9	I/E Range Lower Limit
IERANGEMODE	TOGGLE	F	I/E AutoRange
IERANGE	IQUANT	10	I/E Range
ACHSELECT	IQUANT	1	Ach Select
ACHRANGE	IQUANT	2	Ach Range
ACHOFFSETENABLE	TOGGLE	F	Ach Offset Enable
ACHOFFSET	QUANT	0	Ach Offset (V)
ACHFILTER	IQUANT	1	Ach Filter
CABLEID	IQUANT	14	Cable ID
DCCALDATE	LABEL	20-10-2016	DC Calibration Date
ACCALDATE	LABEL	12/3/2015	AC Calibration Date
FRAMEWORKVERSION	QUANT	7.01	Framework Version
INSTRUMENTVERSION	LABEL	4.00	Instrument Version
CURVE	TABLE	54
	Pt	T	Vf	Im	Vu	Pwr	Sig	Ach	Temp	IERange	Over
	#	s	V	A	V	W	V	V	deg C	#	bits
	0	0.013333	6.49453E-001	5.99718E-003	0.00000E+000	3.89489E-003	3.59960E-001	-1.16254E+000	3.57780E+000	10	...........
	1	0.026667	6.58680E-001	5.99308E-003	0.00000E+000	3.94753E-003	3.59960E-001	-1.16683E+000	3.57780E+000	10	...........
	2	0.04	6.67163E-001	5.99221E-003	0.00000E+000	3.99778E-003	3.59960E-001	-1.17159E+000	3.57780E+000	10	...........
	3	0.053333	6.75195E-001	5.99068E-003	0.00000E+000	4.04488E-003	3.59960E-001	-1.16229E+000	3.57780E+000	10	...........
	4	0.066667	6.82899E-001	5.99391E-003	0.00000E+000	4.09323E-003	3.59960E-001	-1.16641E+000	3.57780E+000	10	...........
	5	0.08	6.90422E-001	5.98829E-003	0.00000E+000	4.13445E-003	3.59960E-001	-1.17108E+000	3.57780E+000	10	...........
	6	0.093333	6.97835E-001	5.99374E-003	0.00000E+000	4.18264E-003	3.59960E-001	-1.16199E+000	3.57780E+000	10	...........
	7	0.106667	7.05095E-001	5.99008E-003	0.00000E+000	4.22357E-003	3.59960E-001	-1.16653E+000	3.57780E+000	10	...........
	8	0.12	7.12255E-001	5.99040E-003	0.00000E+000	4.26669E-003	3.59960E-001	-1.17092E+000	3.57780E+000	10	...........
	9	0.133333	7.19414E-001	5.99477E-003	0.00000E+000	4.31272E-003	3.59960E-001	-1.16188E+000	3.57780E+000	10	...........
	10	0.146667	7.26470E-001	5.99423E-003	0.00000E+000	4.35463E-003	3.59960E-001	-1.16653E+000	3.57780E+000	10	...........
	11	0.16	7.33429E-001	5.99575E-003	0.00000E+000	4.39746E-003	3.59960E-001	-1.17104E+000	3.57780E+000	10	...........
	12	0.173333	7.40338E-001	5.99789E-003	0.00000E+000	4.44047E-003	3.59960E-001	-1.16180E+000	3.57780E+000	10	...........
	13	0.186667	7.47226E-001	5.99264E-003	0.00000E+000	4.47786E-003	3.59960E-001	-1.16632E+000	3.57780E+000	10	...........
	14	0.2	7.54128E-001	5.99084E-003	0.00000E+000	4.51786E-003	3.59960E-001	-1.17057E+000	3.57780E+000	10	...........
	15	0.213333	7.60999E-001	5.99030E-003	0.00000E+000	4.55861E-003	3.59960E-001	-1.16169E+000	3.57780E+000	10	...........
	16	0.226667	7.67766E-001	5.99584E-003	0.00000E+000	4.60340E-003	3.59960E-001	-1.16667E+000	3.57780E+000	10	...........
	17	0.24	7.74538E-001	5.99426E-003	0.00000E+000	4.64278E-003	3.59960E-001	-1.17044E+000	3.57780E+000	10	...........
	18	0.253333	7.81309E-001	5.99032E-003	0.00000E+000	4.68029E-003	3.59960E-001	-1.16147E+000	3.57780E+000	10	...........
	19	0.266667	7.88021E-001	5.99645E-003	0.00000E+000	4.72533E-003	3.59960E-001	-1.16644E+000	3.57780E+000	10	...........
	20	0.28	7.94727E-001	5.99385E-003	0.00000E+000	4.76348E-003	3.59960E-001	-1.17052E+000	3.57780E+000	10	...........
	21	0.293333	8.01397E-001	5.99580E-003	0.00000E+000	4.80502E-003	3.59960E-001	-1.16184E+000	3.57780E+000	10	...........
	22	0.306667	8.08078E-001	5.99157E-003	0.00000E+000	4.84166E-003	3.59960E-001	-1.16674E+000	3.57780E+000	10	...........
	23	0.32	8.14685E-001	5.98988E-003	0.00000E+000	4.87987E-003	3.59960E-001	-1.17035E+000	3.57780E+000	10	...........
	24	0.333333	8.21310E-001	5.99786E-003	0.00000E+000	4.92610E-003	3.59960E-001	-1.16160E+000	3.57780E+000	10	...........
	25	0.346667	8.27872E-001	5.99503E-003	0.00000E+000	4.96312E-003	3.59960E-001	-1.16684E+000	3.57780E+000	10	...........
	26	0.36	8.34420E-001	6.00083E-003	0.00000E+000	5.00722E-003	3.59960E-001	-1.17033E+000	3.57780E+000	10	...........
	27	0.373333	8.40961E-001	5.99359E-003	0.00000E+000	5.04038E-003	3.59960E-001	-1.16144E+000	3.57780E+000	10	...........
	28	0.386667	8.47469E-001	5.99521E-003	0.00000E+000	5.08075E-003	3.59960E-001	-1.16646E+000	3.57780E+000	10	...........
	29	0.4	8.53962E-001	5.99426E-003	0.00000E+000	5.11887E-003	3.59960E-001	-1.16960E+000	3.57780E+000	10	...........
	30	0.413333	8.60440E-001	5.99731E-003	0.00000E+000	5.16032E-003	3.59960E-001	-1.16110E+000	3.57780E+000	10	...........
	31	0.426667	8.66871E-001	5.99180E-003	0.00000E+000	5.19412E-003	3.59960E-001	-1.16636E+000	3.57780E+000	10	...........
	32	0.44	8.73315E-001	5.99948E-003	0.00000E+000	5.23943E-003	3.59960E-001	-1.16927E+000	3.57780E+000	10	...........
	33	0.453333	8.79692E-001	5.99560E-003	0.00000E+000	5.27428E-003	3.59960E-001	-1.16072E+000	3.57780E+000	10	...........
	34	0.466667	8.86089E-001	5.99623E-003	0.00000E+000	5.31320E-003	3.59960E-001	-1.16631E+000	3.57780E+000	10	...........
	35	0.48	8.92349E-001	5.99639E-003	0.00000E+000	5.35087E-003	3.59960E-001	-1.16952E+000	3.57780E+000	10	...........
	36	0.493333	8.98667E-001	5.99621E-003	0.00000E+000	5.38859E-003	3.59960E-001	-1.16119E+000	3.57780E+000	10	...........
	37	0.506667	9.04945E-001	5.99698E-003	0.00000E+000	5.42694E-003	3.59960E-001	-1.16640E+000	3.57780E+000	10	...........
	38	0.52	9.11140E-001	5.99592E-003	0.00000E+000	5.46312E-003	3.59960E-001	-1.16915E+000	3.57780E+000	10	...........
	39	0.533333	9.17291E-001	5.99325E-003	0.00000E+000	5.49755E-003	3.59960E-001	-1.16077E+000	3.57780E+000	10	...........
	40	0.546667	9.23453E-001	5.99478E-003	0.00000E+000	5.53590E-003	3.59960E-001	-1.16661E+000	3.57780E+000	10	...........
	41	0.56	9.29532E-001	5.99292E-003	0.00000E+000	5.57060E-003	3.59960E-001	-1.16899E+000	3.57780E+000	10	...........
	42	0.573333	9.35580E-001	5.99474E-003	0.00000E+000	5.60856E-003	3.59960E-001	-1.16052E+000	3.57780E+000	10	...........
	43	0.586667	9.41564E-001	5.99409E-003	0.00000E+000	5.64382E-003	3.59960E-001	-1.16643E+000	3.57780E+000	10	...........
	44	0.6	9.47531E-001	5.99178E-003	0.00000E+000	5.67739E-003	3.59960E-001	-1.16893E+000	3.57780E+000	10	...........
	45	0.613333	9.53462E-001	5.99543E-003	0.00000E+000	5.71641E-003	3.59960E-001	-1.16096E+000	3.57780E+000	10	...........
	46	0.626667	9.59361E-001	5.99282E-003	0.00000E+000	5.74928E-003	3.59960E-001	-1.16709E+000	3.57805E+000	10	...........
	47	0.64	9.65151E-001	5.99723E-003	0.00000E+000	5.78824E-003	3.59960E-001	-1.16906E+000	3.57980E+000	10	...........
	48	0.653333	9.70929E-001	5.99303E-003	0.00000E+000	5.81881E-003	3.59960E-001	-1.16062E+000	3.57980E+000	10	...........
	49	0.666667	9.76713E-001	5.99500E-003	0.00000E+000	5.85539E-003	3.59960E-001	-1.16709E+000	3.57980E+000	10	...........
	50	0.68	9.82359E-001	5.99723E-003	0.00000E+000	5.89143E-003	3.59960E-001	-1.16898E+000	3.57980E+000	10	...........
	51	0.693333	9.87956E-001	5.99141E-003	0.00000E+000	5.91925E-003	3.59960E-001	-1.16085E+000	3.57980E+000	10	...........
	52	0.706667	9.93508E-001	5.99684E-003	0.00000E+000	5.95790E-003	3.59960E-001	-1.16670E+000	3.57980E+000	10	...........
	53	0.716667	9.98370E-001	5.99560E-003	0.00000E+000	5.98583E-003	3.59960E-001	-1.16651E+000	3.57980E+000	10	...........
STARTTIMEOFFSET	QUANT	1337.019	Start Time Offset (s)