File: Data/CV_CRGO300517_1/PWRCCD_CRGO300517_1/CHARGE_DISCHARGE/CHARGE_#69.DTA
EXPLAIN
TAG	PWR800_CHARGE
TITLE	LABEL	PWR Cyclic Charge Discharge (Cell) - Charge Step	Test &Identifier
DATE	LABEL	22-6-2017	Date
TIME	LABEL	15:38:08	Time
NOTES	NOTES	3	&Notes...
	supercap test cell
	0.6mg
	6M KOH
PSTAT	PSTAT	IFC5000-01520	Potentiostat
CAPACITY	QUANT	1.00000E-003	Capacity (A-hr)
CELLTYPE	SELECTOR	1	&Cell Type
WORKINGCONNECTION	SELECTOR	0	&Working Lead
MAXCHARGETIME	VARIABLEANDUNITS	1.00000E+002	s	1.00000E+002	second(s)	Max &Charge Time
CHARGECURRENT	QUANT	6.00000E-003	&Charge Current (A)
VOLTAGEFINISH	TWOPARAM	F	1.00000E-003	3.60000E+003	&Voltage Finish	 I (A) < 	Max Time(s)
SAMPLETIME	QUANT	1.00000E-002	Sa&mple Period (s)
CHARGESTOPAT1	MULTIPARAM	4	1.00000E+000	Charge Stop At &1	Voltage > Limit	V
CHARGESTOPAT2	MULTIPARAM	0	0.00000E+000	Charge Stop At &2	None	N/A
AESBHCSELECTOR	TOGGLE	F	Save Both Half Cells
IRCOMP	TOGGLE	F	IR &Measure
EOC	QUANT	0	Open Circuit (V)
SEQUENCER	TOGGLE	TRUE	Run as Sequence
PSTATMODEL	IQUANT	53	Pstat Model
PSTATSECTION	LABEL	IFC5000-01520	Pstat Section
PSTATSERIALNO	LABEL	01520	Pstat Serial Number
CTRLMODE	IQUANT	0	Control Mode
ELECTROMETER	IQUANT	1	RE=0 or CS=1
IESTAB	IQUANT	0	I/E Stability
CASPEED	IQUANT	4	Control Amp Speed
CONVENTION	IQUANT	1	Current Convention
ICHRANGE	IQUANT	2	Ich Range
ICHRANGEMODE	TOGGLE	T	Ich Auto Range
ICHOFFSETENABLE	TOGGLE	F	Ich Offset Enable
ICHOFFSET	QUANT	0	Ich Offset (V)
ICHFILTER	IQUANT	1	Ich Filter
VCHRANGE	IQUANT	2	Vch Range
VCHRANGEMODE	TOGGLE	T	Vch Auto Range
VCHOFFSETENABLE	TOGGLE	F	Vch Offset Enable
VCHOFFSET	QUANT	0	Vch Offset (V)
VCHFILTER	IQUANT	1	Vch Filter
IERANGELOWERLIMIT	IQUANT	9	I/E Range Lower Limit
IERANGEMODE	TOGGLE	F	I/E AutoRange
IERANGE	IQUANT	10	I/E Range
ACHSELECT	IQUANT	1	Ach Select
ACHRANGE	IQUANT	2	Ach Range
ACHOFFSETENABLE	TOGGLE	F	Ach Offset Enable
ACHOFFSET	QUANT	0	Ach Offset (V)
ACHFILTER	IQUANT	1	Ach Filter
CABLEID	IQUANT	14	Cable ID
DCCALDATE	LABEL	20-10-2016	DC Calibration Date
ACCALDATE	LABEL	12/3/2015	AC Calibration Date
FRAMEWORKVERSION	QUANT	7.01	Framework Version
INSTRUMENTVERSION	LABEL	4.00	Instrument Version
CURVE	TABLE	72
	Pt	T	Vf	Im	Vu	Pwr	Sig	Ach	Temp	IERange	Over
	#	s	V	A	V	W	V	V	deg C	#	bits
	0	0.013333	5.80414E-001	5.99473E-003	0.00000E+000	3.47942E-003	3.59960E-001	-1.04792E+000	3.57720E+000	10	...........
	1	0.026667	5.88617E-001	5.99131E-003	0.00000E+000	3.52659E-003	3.59960E-001	-1.06039E+000	3.57720E+000	10	...........
	2	0.04	5.96122E-001	5.99328E-003	0.00000E+000	3.57273E-003	3.59960E-001	-1.04943E+000	3.57720E+000	10	...........
	3	0.053333	6.03215E-001	5.99280E-003	0.00000E+000	3.61495E-003	3.59960E-001	-1.04794E+000	3.57720E+000	10	...........
	4	0.066667	6.10025E-001	5.99518E-003	0.00000E+000	3.65721E-003	3.59960E-001	-1.06058E+000	3.57720E+000	10	...........
	5	0.08	6.16762E-001	5.99109E-003	0.00000E+000	3.69508E-003	3.59960E-001	-1.04960E+000	3.57720E+000	10	...........
	6	0.093333	6.23237E-001	5.99380E-003	0.00000E+000	3.73556E-003	3.59960E-001	-1.04774E+000	3.57720E+000	10	...........
	7	0.106667	6.29597E-001	5.99874E-003	0.00000E+000	3.77679E-003	3.59960E-001	-1.06029E+000	3.57720E+000	10	...........
	8	0.12	6.35891E-001	5.99379E-003	0.00000E+000	3.81140E-003	3.59960E-001	-1.04959E+000	3.57720E+000	10	...........
	9	0.133333	6.42099E-001	5.99392E-003	0.00000E+000	3.84869E-003	3.59960E-001	-1.04792E+000	3.57745E+000	10	...........
	10	0.146667	6.48235E-001	5.99663E-003	0.00000E+000	3.88723E-003	3.59960E-001	-1.06034E+000	3.57770E+000	10	...........
	11	0.16	6.54377E-001	5.99287E-003	0.00000E+000	3.92160E-003	3.59960E-001	-1.04966E+000	3.57770E+000	10	...........
	12	0.173333	6.60478E-001	5.98945E-003	0.00000E+000	3.95590E-003	3.59960E-001	-1.04779E+000	3.57770E+000	10	...........
	13	0.186667	6.66473E-001	5.99392E-003	0.00000E+000	3.99478E-003	3.59960E-001	-1.06040E+000	3.57770E+000	10	...........
	14	0.2	6.72468E-001	5.99569E-003	0.00000E+000	4.03191E-003	3.59960E-001	-1.04978E+000	3.57770E+000	10	...........
	15	0.213333	6.78455E-001	5.99256E-003	0.00000E+000	4.06568E-003	3.59960E-001	-1.04736E+000	3.57770E+000	10	...........
	16	0.226667	6.84346E-001	5.99590E-003	0.00000E+000	4.10327E-003	3.59960E-001	-1.05975E+000	3.57770E+000	10	...........
	17	0.24	6.90271E-001	5.99534E-003	0.00000E+000	4.13840E-003	3.59960E-001	-1.04943E+000	3.57770E+000	10	...........
	18	0.253333	6.96195E-001	5.99477E-003	0.00000E+000	4.17353E-003	3.59960E-001	-1.04736E+000	3.57770E+000	10	...........
	19	0.266667	7.02086E-001	5.99460E-003	0.00000E+000	4.20873E-003	3.59960E-001	-1.05963E+000	3.57770E+000	10	...........
	20	0.28	7.07983E-001	5.99399E-003	0.00000E+000	4.24365E-003	3.59960E-001	-1.04961E+000	3.57770E+000	10	...........
	21	0.293333	7.13841E-001	5.99138E-003	0.00000E+000	4.27689E-003	3.59960E-001	-1.04698E+000	3.57770E+000	10	...........
	22	0.306667	7.19758E-001	5.99580E-003	0.00000E+000	4.31553E-003	3.59960E-001	-1.05939E+000	3.57770E+000	10	...........
	23	0.32	7.25580E-001	5.99544E-003	0.00000E+000	4.35017E-003	3.59960E-001	-1.04945E+000	3.57770E+000	10	...........
	24	0.333333	7.31398E-001	5.99263E-003	0.00000E+000	4.38300E-003	3.59960E-001	-1.04688E+000	3.57770E+000	10	...........
	25	0.346667	7.37233E-001	5.99505E-003	0.00000E+000	4.41975E-003	3.59960E-001	-1.05944E+000	3.57770E+000	10	...........
	26	0.36	7.43079E-001	5.99104E-003	0.00000E+000	4.45181E-003	3.59960E-001	-1.04921E+000	3.57770E+000	10	...........
	27	0.373333	7.48947E-001	5.99369E-003	0.00000E+000	4.48896E-003	3.59960E-001	-1.04686E+000	3.57770E+000	10	...........
	28	0.386667	7.54746E-001	5.99463E-003	0.00000E+000	4.52442E-003	3.59960E-001	-1.05933E+000	3.57770E+000	10	...........
	29	0.4	7.60569E-001	5.99330E-003	0.00000E+000	4.55832E-003	3.59960E-001	-1.04954E+000	3.57770E+000	10	...........
	30	0.413333	7.66366E-001	5.99022E-003	0.00000E+000	4.59071E-003	3.59960E-001	-1.04688E+000	3.57770E+000	10	...........
	31	0.426667	7.72196E-001	5.99389E-003	0.00000E+000	4.62845E-003	3.59960E-001	-1.05922E+000	3.57770E+000	10	...........
	32	0.44	7.78019E-001	5.99395E-003	0.00000E+000	4.66341E-003	3.59960E-001	-1.04935E+000	3.57770E+000	10	...........
	33	0.453333	7.83863E-001	5.99577E-003	0.00000E+000	4.69986E-003	3.59960E-001	-1.04670E+000	3.57770E+000	10	...........
	34	0.466667	7.89630E-001	5.99521E-003	0.00000E+000	4.73400E-003	3.59960E-001	-1.05904E+000	3.57770E+000	10	...........
	35	0.48	7.95511E-001	5.99350E-003	0.00000E+000	4.76789E-003	3.59960E-001	-1.04922E+000	3.57770E+000	10	...........
	36	0.493333	8.01309E-001	5.99148E-003	0.00000E+000	4.80102E-003	3.59960E-001	-1.04632E+000	3.57770E+000	10	...........
	37	0.506667	8.07071E-001	5.99639E-003	0.00000E+000	4.83951E-003	3.59960E-001	-1.05861E+000	3.57770E+000	10	...........
	38	0.52	8.12830E-001	5.99399E-003	0.00000E+000	4.87209E-003	3.59960E-001	-1.04897E+000	3.57770E+000	10	...........
	39	0.533333	8.18657E-001	5.99227E-003	0.00000E+000	4.90561E-003	3.59960E-001	-1.04596E+000	3.57770E+000	10	...........
	40	0.546667	8.24440E-001	5.99135E-003	0.00000E+000	4.93951E-003	3.59960E-001	-1.05800E+000	3.57770E+000	10	...........
	41	0.56	8.30221E-001	5.99526E-003	0.00000E+000	4.97739E-003	3.59960E-001	-1.04853E+000	3.57770E+000	10	...........
	42	0.573333	8.36013E-001	5.99232E-003	0.00000E+000	5.00966E-003	3.59960E-001	-1.04559E+000	3.57770E+000	10	...........
	43	0.586667	8.41780E-001	5.99787E-003	0.00000E+000	5.04889E-003	3.59960E-001	-1.05792E+000	3.57770E+000	10	...........
	44	0.6	8.47603E-001	5.99448E-003	0.00000E+000	5.08094E-003	3.59960E-001	-1.04896E+000	3.57770E+000	10	...........
	45	0.613333	8.53354E-001	5.99484E-003	0.00000E+000	5.11572E-003	3.59960E-001	-1.04563E+000	3.57770E+000	10	...........
	46	0.626667	8.59111E-001	5.99246E-003	0.00000E+000	5.14818E-003	3.59960E-001	-1.05758E+000	3.57770E+000	10	...........
	47	0.64	8.64858E-001	5.99443E-003	0.00000E+000	5.18433E-003	3.59960E-001	-1.04879E+000	3.57770E+000	10	...........
	48	0.653333	8.70672E-001	5.99389E-003	0.00000E+000	5.21871E-003	3.59960E-001	-1.04574E+000	3.57770E+000	10	...........
	49	0.666667	8.76366E-001	5.99023E-003	0.00000E+000	5.24964E-003	3.59960E-001	-1.05797E+000	3.57770E+000	10	...........
	50	0.68	8.82104E-001	5.99207E-003	0.00000E+000	5.28563E-003	3.59960E-001	-1.04923E+000	3.57770E+000	10	...........
	51	0.693333	8.87860E-001	5.99128E-003	0.00000E+000	5.31942E-003	3.59960E-001	-1.04559E+000	3.57770E+000	10	...........
	52	0.706667	8.93566E-001	5.99250E-003	0.00000E+000	5.35469E-003	3.59960E-001	-1.05793E+000	3.57770E+000	10	...........
	53	0.72	8.99268E-001	5.99659E-003	0.00000E+000	5.39254E-003	3.59960E-001	-1.04932E+000	3.57770E+000	10	...........
	54	0.733333	9.04939E-001	5.99565E-003	0.00000E+000	5.42569E-003	3.59960E-001	-1.04612E+000	3.57770E+000	10	...........
	55	0.746667	9.10676E-001	5.99463E-003	0.00000E+000	5.45916E-003	3.59960E-001	-1.05832E+000	3.57770E+000	10	...........
	56	0.76	9.16323E-001	5.99195E-003	0.00000E+000	5.49056E-003	3.59960E-001	-1.04943E+000	3.57770E+000	10	...........
	57	0.773333	9.22004E-001	5.99358E-003	0.00000E+000	5.52611E-003	3.59960E-001	-1.04616E+000	3.57770E+000	10	...........
	58	0.786667	9.27661E-001	5.99516E-003	0.00000E+000	5.56147E-003	3.59960E-001	-1.05817E+000	3.57770E+000	10	...........
	59	0.8	9.33236E-001	5.99732E-003	0.00000E+000	5.59691E-003	3.59960E-001	-1.05009E+000	3.57770E+000	10	...........
	60	0.813333	9.38844E-001	5.98893E-003	0.00000E+000	5.62267E-003	3.59960E-001	-1.04593E+000	3.57770E+000	10	...........
	61	0.826667	9.44426E-001	5.99213E-003	0.00000E+000	5.65913E-003	3.59960E-001	-1.05811E+000	3.57770E+000	10	...........
	62	0.84	9.49974E-001	5.99430E-003	0.00000E+000	5.69443E-003	3.59960E-001	-1.04943E+000	3.57770E+000	10	...........
	63	0.853333	9.55511E-001	5.99351E-003	0.00000E+000	5.72687E-003	3.59960E-001	-1.04564E+000	3.57770E+000	10	...........
	64	0.866667	9.61005E-001	5.99301E-003	0.00000E+000	5.75931E-003	3.59960E-001	-1.05762E+000	3.57770E+000	10	...........
	65	0.88	9.66485E-001	5.99374E-003	0.00000E+000	5.79286E-003	3.59960E-001	-1.04946E+000	3.57770E+000	10	...........
	66	0.893333	9.71940E-001	5.99588E-003	0.00000E+000	5.82763E-003	3.59960E-001	-1.04538E+000	3.57770E+000	10	...........
	67	0.906667	9.77396E-001	5.99470E-003	0.00000E+000	5.85919E-003	3.59960E-001	-1.05766E+000	3.57770E+000	10	...........
	68	0.92	9.82775E-001	5.99309E-003	0.00000E+000	5.88986E-003	3.59960E-001	-1.04946E+000	3.57770E+000	10	...........
	69	0.933333	9.88157E-001	5.99774E-003	0.00000E+000	5.92671E-003	3.59960E-001	-1.04561E+000	3.57770E+000	10	...........
	70	0.946667	9.93448E-001	5.99277E-003	0.00000E+000	5.95350E-003	3.59960E-001	-1.05774E+000	3.57770E+000	10	...........
	71	0.95833	9.98446E-001	5.99297E-003	0.00000E+000	5.98366E-003	3.59960E-001	-1.04781E+000	3.57770E+000	10	...........
STARTTIMEOFFSET	QUANT	137.1567	Start Time Offset (s)