File: Data/CV_CRGO300517_1/PWRCCD_CRGO300517_1/CHARGE_DISCHARGE/CHARGE_#286.DTA
EXPLAIN
TAG	PWR800_CHARGE
TITLE	LABEL	PWR Cyclic Charge Discharge (Cell) - Charge Step	Test &Identifier
DATE	LABEL	22-6-2017	Date
TIME	LABEL	15:47:21	Time
NOTES	NOTES	3	&Notes...
	supercap test cell
	0.6mg
	6M KOH
PSTAT	PSTAT	IFC5000-01520	Potentiostat
CAPACITY	QUANT	1.00000E-003	Capacity (A-hr)
CELLTYPE	SELECTOR	1	&Cell Type
WORKINGCONNECTION	SELECTOR	0	&Working Lead
MAXCHARGETIME	VARIABLEANDUNITS	1.00000E+002	s	1.00000E+002	second(s)	Max &Charge Time
CHARGECURRENT	QUANT	6.00000E-003	&Charge Current (A)
VOLTAGEFINISH	TWOPARAM	F	1.00000E-003	3.60000E+003	&Voltage Finish	 I (A) < 	Max Time(s)
SAMPLETIME	QUANT	1.00000E-002	Sa&mple Period (s)
CHARGESTOPAT1	MULTIPARAM	4	1.00000E+000	Charge Stop At &1	Voltage > Limit	V
CHARGESTOPAT2	MULTIPARAM	0	0.00000E+000	Charge Stop At &2	None	N/A
AESBHCSELECTOR	TOGGLE	F	Save Both Half Cells
IRCOMP	TOGGLE	F	IR &Measure
EOC	QUANT	0	Open Circuit (V)
SEQUENCER	TOGGLE	TRUE	Run as Sequence
PSTATMODEL	IQUANT	53	Pstat Model
PSTATSECTION	LABEL	IFC5000-01520	Pstat Section
PSTATSERIALNO	LABEL	01520	Pstat Serial Number
CTRLMODE	IQUANT	0	Control Mode
ELECTROMETER	IQUANT	1	RE=0 or CS=1
IESTAB	IQUANT	0	I/E Stability
CASPEED	IQUANT	4	Control Amp Speed
CONVENTION	IQUANT	1	Current Convention
ICHRANGE	IQUANT	2	Ich Range
ICHRANGEMODE	TOGGLE	T	Ich Auto Range
ICHOFFSETENABLE	TOGGLE	F	Ich Offset Enable
ICHOFFSET	QUANT	0	Ich Offset (V)
ICHFILTER	IQUANT	1	Ich Filter
VCHRANGE	IQUANT	2	Vch Range
VCHRANGEMODE	TOGGLE	T	Vch Auto Range
VCHOFFSETENABLE	TOGGLE	F	Vch Offset Enable
VCHOFFSET	QUANT	0	Vch Offset (V)
VCHFILTER	IQUANT	1	Vch Filter
IERANGELOWERLIMIT	IQUANT	9	I/E Range Lower Limit
IERANGEMODE	TOGGLE	F	I/E AutoRange
IERANGE	IQUANT	10	I/E Range
ACHSELECT	IQUANT	1	Ach Select
ACHRANGE	IQUANT	2	Ach Range
ACHOFFSETENABLE	TOGGLE	F	Ach Offset Enable
ACHOFFSET	QUANT	0	Ach Offset (V)
ACHFILTER	IQUANT	1	Ach Filter
CABLEID	IQUANT	14	Cable ID
DCCALDATE	LABEL	20-10-2016	DC Calibration Date
ACCALDATE	LABEL	12/3/2015	AC Calibration Date
FRAMEWORKVERSION	QUANT	7.01	Framework Version
INSTRUMENTVERSION	LABEL	4.00	Instrument Version
CURVE	TABLE	63
	Pt	T	Vf	Im	Vu	Pwr	Sig	Ach	Temp	IERange	Over
	#	s	V	A	V	W	V	V	deg C	#	bits
	0	0.013333	6.15372E-001	5.99005E-003	0.00000E+000	3.68611E-003	3.59960E-001	-1.10555E+000	3.57750E+000	10	...........
	1	0.026667	6.23975E-001	5.99490E-003	0.00000E+000	3.74067E-003	3.59960E-001	-1.11337E+000	3.57750E+000	10	...........
	2	0.04	6.31867E-001	5.99116E-003	0.00000E+000	3.78562E-003	3.59960E-001	-1.10343E+000	3.57750E+000	10	...........
	3	0.053333	6.39358E-001	5.99528E-003	0.00000E+000	3.83313E-003	3.59960E-001	-1.10538E+000	3.57750E+000	10	...........
	4	0.066667	6.46572E-001	5.99659E-003	0.00000E+000	3.87723E-003	3.59960E-001	-1.11339E+000	3.57750E+000	10	...........
	5	0.08	6.53605E-001	5.99579E-003	0.00000E+000	3.91888E-003	3.59960E-001	-1.10324E+000	3.57750E+000	10	...........
	6	0.093333	6.60463E-001	5.99324E-003	0.00000E+000	3.95832E-003	3.59960E-001	-1.10534E+000	3.57750E+000	10	...........
	7	0.106667	6.67268E-001	5.99423E-003	0.00000E+000	3.99976E-003	3.59960E-001	-1.11339E+000	3.57750E+000	10	...........
	8	0.12	6.73922E-001	5.99768E-003	0.00000E+000	4.04197E-003	3.59960E-001	-1.10325E+000	3.57750E+000	10	...........
	9	0.133333	6.80586E-001	5.98882E-003	0.00000E+000	4.07590E-003	3.59960E-001	-1.10504E+000	3.57750E+000	10	...........
	10	0.146667	6.87105E-001	5.99278E-003	0.00000E+000	4.11767E-003	3.59960E-001	-1.11321E+000	3.57750E+000	10	...........
	11	0.16	6.93617E-001	5.98946E-003	0.00000E+000	4.15439E-003	3.59960E-001	-1.10285E+000	3.57750E+000	10	...........
	12	0.173333	7.00091E-001	5.99182E-003	0.00000E+000	4.19482E-003	3.59960E-001	-1.10470E+000	3.57750E+000	10	...........
	13	0.186667	7.06505E-001	5.99360E-003	0.00000E+000	4.23451E-003	3.59960E-001	-1.11269E+000	3.57750E+000	10	...........
	14	0.2	7.12918E-001	5.99223E-003	0.00000E+000	4.27197E-003	3.59960E-001	-1.10287E+000	3.57750E+000	10	...........
	15	0.213333	7.19354E-001	5.99766E-003	0.00000E+000	4.31444E-003	3.59960E-001	-1.10483E+000	3.57750E+000	10	...........
	16	0.226667	7.25739E-001	5.99044E-003	0.00000E+000	4.34750E-003	3.59960E-001	-1.11292E+000	3.57750E+000	10	...........
	17	0.24	7.32094E-001	6.00032E-003	0.00000E+000	4.39280E-003	3.59960E-001	-1.10260E+000	3.57750E+000	10	...........
	18	0.253333	7.38440E-001	5.99071E-003	0.00000E+000	4.42378E-003	3.59960E-001	-1.10443E+000	3.57750E+000	10	...........
	19	0.266667	7.44748E-001	5.99453E-003	0.00000E+000	4.46442E-003	3.59960E-001	-1.11273E+000	3.57750E+000	10	...........
	20	0.28	7.51016E-001	5.99221E-003	0.00000E+000	4.50024E-003	3.59960E-001	-1.10293E+000	3.57750E+000	10	...........
	21	0.293333	7.57309E-001	5.99507E-003	0.00000E+000	4.54013E-003	3.59960E-001	-1.10458E+000	3.57750E+000	10	...........
	22	0.306667	7.63578E-001	5.99413E-003	0.00000E+000	4.57698E-003	3.59960E-001	-1.11258E+000	3.57750E+000	10	...........
	23	0.32	7.69839E-001	5.99531E-003	0.00000E+000	4.61543E-003	3.59960E-001	-1.10259E+000	3.57750E+000	10	...........
	24	0.333333	7.76099E-001	5.99358E-003	0.00000E+000	4.65161E-003	3.59960E-001	-1.10462E+000	3.57750E+000	10	...........
	25	0.346667	7.82350E-001	5.99254E-003	0.00000E+000	4.68826E-003	3.59960E-001	-1.11299E+000	3.57750E+000	10	...........
	26	0.36	7.88565E-001	5.99497E-003	0.00000E+000	4.72742E-003	3.59960E-001	-1.10296E+000	3.57731E+000	10	...........
	27	0.373333	7.94787E-001	5.99426E-003	0.00000E+000	4.76416E-003	3.59960E-001	-1.10463E+000	3.57720E+000	10	...........
	28	0.386667	8.01009E-001	5.99676E-003	0.00000E+000	4.80346E-003	3.59960E-001	-1.11282E+000	3.57720E+000	10	...........
	29	0.4	8.07180E-001	5.99669E-003	0.00000E+000	4.84041E-003	3.59960E-001	-1.10303E+000	3.57720E+000	10	...........
	30	0.413333	8.13376E-001	5.99621E-003	0.00000E+000	4.87718E-003	3.59960E-001	-1.10456E+000	3.57720E+000	10	...........
	31	0.426667	8.19596E-001	5.99426E-003	0.00000E+000	4.91287E-003	3.59960E-001	-1.11292E+000	3.57720E+000	10	...........
	32	0.44	8.25738E-001	5.99131E-003	0.00000E+000	4.94725E-003	3.59960E-001	-1.10267E+000	3.57720E+000	10	...........
	33	0.453333	8.31881E-001	5.99803E-003	0.00000E+000	4.98964E-003	3.59960E-001	-1.10431E+000	3.57720E+000	10	...........
	34	0.466667	8.38020E-001	5.99172E-003	0.00000E+000	5.02118E-003	3.59960E-001	-1.11289E+000	3.57720E+000	10	...........
	35	0.48	8.44170E-001	5.99392E-003	0.00000E+000	5.05989E-003	3.59960E-001	-1.10260E+000	3.57720E+000	10	...........
	36	0.493333	8.50292E-001	5.99422E-003	0.00000E+000	5.09684E-003	3.59960E-001	-1.10393E+000	3.57720E+000	10	...........
	37	0.506667	8.56393E-001	5.99029E-003	0.00000E+000	5.13004E-003	3.59960E-001	-1.11239E+000	3.57720E+000	10	...........
	38	0.52	8.62506E-001	5.99319E-003	0.00000E+000	5.16916E-003	3.59960E-001	-1.10233E+000	3.57720E+000	10	...........
	39	0.533333	8.68592E-001	5.99259E-003	0.00000E+000	5.20512E-003	3.59960E-001	-1.10377E+000	3.57720E+000	10	...........
	40	0.546667	8.74665E-001	5.99183E-003	0.00000E+000	5.24085E-003	3.59960E-001	-1.11250E+000	3.57720E+000	10	...........
	41	0.56	8.80711E-001	5.99311E-003	0.00000E+000	5.27820E-003	3.59960E-001	-1.10256E+000	3.57720E+000	10	...........
	42	0.573333	8.86747E-001	5.99592E-003	0.00000E+000	5.31686E-003	3.59960E-001	-1.10378E+000	3.57720E+000	10	...........
	43	0.586667	8.92731E-001	5.99351E-003	0.00000E+000	5.35059E-003	3.59960E-001	-1.11241E+000	3.57720E+000	10	...........
	44	0.6	8.98745E-001	5.98938E-003	0.00000E+000	5.38293E-003	3.59960E-001	-1.10230E+000	3.57720E+000	10	...........
	45	0.613333	9.04686E-001	5.99328E-003	0.00000E+000	5.42204E-003	3.59960E-001	-1.10381E+000	3.57720E+000	10	...........
	46	0.626667	9.10636E-001	5.99530E-003	0.00000E+000	5.45954E-003	3.59960E-001	-1.11244E+000	3.57720E+000	10	...........
	47	0.64	9.16534E-001	5.99260E-003	0.00000E+000	5.49243E-003	3.59960E-001	-1.10225E+000	3.57720E+000	10	...........
	48	0.653333	9.22433E-001	5.99695E-003	0.00000E+000	5.53179E-003	3.59960E-001	-1.10363E+000	3.57720E+000	10	...........
	49	0.666667	9.28349E-001	5.99878E-003	0.00000E+000	5.56896E-003	3.59960E-001	-1.11238E+000	3.57720E+000	10	...........
	50	0.68	9.34203E-001	5.99140E-003	0.00000E+000	5.59719E-003	3.59960E-001	-1.10216E+000	3.57720E+000	10	...........
	51	0.693333	9.39987E-001	5.99259E-003	0.00000E+000	5.63296E-003	3.59960E-001	-1.10362E+000	3.57720E+000	10	...........
	52	0.706667	9.45734E-001	5.99210E-003	0.00000E+000	5.66693E-003	3.59960E-001	-1.11240E+000	3.57720E+000	10	...........
	53	0.72	9.51494E-001	5.99215E-003	0.00000E+000	5.70150E-003	3.59960E-001	-1.10256E+000	3.57720E+000	10	...........
	54	0.733333	9.57198E-001	5.99402E-003	0.00000E+000	5.73747E-003	3.59960E-001	-1.10367E+000	3.57720E+000	10	...........
	55	0.746667	9.62825E-001	5.99667E-003	0.00000E+000	5.77375E-003	3.59960E-001	-1.11254E+000	3.57720E+000	10	...........
	56	0.76	9.68462E-001	5.99782E-003	0.00000E+000	5.80866E-003	3.59960E-001	-1.10248E+000	3.57720E+000	10	...........
	57	0.773333	9.74087E-001	5.99794E-003	0.00000E+000	5.84252E-003	3.59960E-001	-1.10353E+000	3.57720E+000	10	...........
	58	0.786667	9.79626E-001	5.99397E-003	0.00000E+000	5.87185E-003	3.59960E-001	-1.11251E+000	3.57720E+000	10	...........
	59	0.8	9.85140E-001	5.99221E-003	0.00000E+000	5.90316E-003	3.59960E-001	-1.10210E+000	3.57720E+000	10	...........
	60	0.813333	9.90620E-001	5.99350E-003	0.00000E+000	5.93728E-003	3.59960E-001	-1.10326E+000	3.57720E+000	10	...........
	61	0.826667	9.96060E-001	5.99394E-003	0.00000E+000	5.97032E-003	3.59960E-001	-1.11248E+000	3.57720E+000	10	...........
	62	0.831667	9.99814E-001	5.99565E-003	0.00000E+000	5.99454E-003	3.59960E-001	-1.09373E+000	3.57720E+000	10	...........
STARTTIMEOFFSET	QUANT	518.0233	Start Time Offset (s)