File: Data/CV_CRGO300517_1/PWRCCD_CRGO300517_1/CHARGE_DISCHARGE/DISCHARGE_#120.DTA
EXPLAIN
TAG	PWR800_DISCHARGE
TITLE	LABEL	PWR Cyclic Charge Discharge (Cell) - Discharge Step	Test &Identifier
DATE	LABEL	22-6-2017	Date
TIME	LABEL	15:40:25	Time
NOTES	NOTES	3	&Notes...
	supercap test cell
	0.6mg
	6M KOH
PSTAT	PSTAT	IFC5000-01520	Potentiostat
CAPACITY	QUANT	1.00000E-003	Capacity (A-hr)
CELLTYPE	SELECTOR	1	&Cell Type
WORKINGCONNECTION	SELECTOR	0	&Working Lead
MAXDISCHARGETIME	VARIABLEANDUNITS	1.00000E+002	s	1.00000E+002	second(s)	Max &Discharge Time
DISCHARGEMODE	MULTIPARAM	0	6.00000E-003	&Discharge Mode	Constant Current	Amp(s)
SAMPLETIME	QUANT	1.00000E-002	Sa&mple Period (s)
DISCHARGESTOPAT1	MULTIPARAM	3	0.00000E+000	Discharge Stop At &1	Voltage < Limit	V
DISCHARGESTOPAT2	MULTIPARAM	0	0.00000E+000	Discharge Stop At &2	None	N/A
AESBHCSELECTOR	TOGGLE	F	Save Both Half Cells
IRCOMP	TOGGLE	F	IR &Measure
EOC	QUANT	0	Open Circuit (V)
SEQUENCER	TOGGLE	TRUE	Run as Sequence
PSTATMODEL	IQUANT	53	Pstat Model
PSTATSECTION	LABEL	IFC5000-01520	Pstat Section
PSTATSERIALNO	LABEL	01520	Pstat Serial Number
CTRLMODE	IQUANT	0	Control Mode
ELECTROMETER	IQUANT	1	RE=0 or CS=1
IESTAB	IQUANT	0	I/E Stability
CASPEED	IQUANT	4	Control Amp Speed
CONVENTION	IQUANT	1	Current Convention
ICHRANGE	IQUANT	2	Ich Range
ICHRANGEMODE	TOGGLE	T	Ich Auto Range
ICHOFFSETENABLE	TOGGLE	F	Ich Offset Enable
ICHOFFSET	QUANT	0	Ich Offset (V)
ICHFILTER	IQUANT	1	Ich Filter
VCHRANGE	IQUANT	2	Vch Range
VCHRANGEMODE	TOGGLE	T	Vch Auto Range
VCHOFFSETENABLE	TOGGLE	F	Vch Offset Enable
VCHOFFSET	QUANT	0	Vch Offset (V)
VCHFILTER	IQUANT	1	Vch Filter
IERANGELOWERLIMIT	IQUANT	9	I/E Range Lower Limit
IERANGEMODE	TOGGLE	F	I/E AutoRange
IERANGE	IQUANT	10	I/E Range
ACHSELECT	IQUANT	1	Ach Select
ACHRANGE	IQUANT	2	Ach Range
ACHOFFSETENABLE	TOGGLE	F	Ach Offset Enable
ACHOFFSET	QUANT	0	Ach Offset (V)
ACHFILTER	IQUANT	1	Ach Filter
CABLEID	IQUANT	14	Cable ID
DCCALDATE	LABEL	20-10-2016	DC Calibration Date
ACCALDATE	LABEL	12/3/2015	AC Calibration Date
FRAMEWORKVERSION	QUANT	7.01	Framework Version
INSTRUMENTVERSION	LABEL	4.00	Instrument Version
CURVE	TABLE	68
	Pt	T	Vf	Im	Vu	Pwr	Sig	Ach	Temp	IERange	Over
	#	s	V	A	V	W	V	V	deg C	#	bits
	0	0.013333	4.25016E-001	-6.01351E-003	0.00000E+000	-2.55584E-003	-3.59960E-001	-1.04536E+000	3.57730E+000	10	...........
	1	0.026667	4.14728E-001	-6.01496E-003	0.00000E+000	-2.49458E-003	-3.59960E-001	-1.03641E+000	3.57730E+000	10	...........
	2	0.04	4.05147E-001	-6.01348E-003	0.00000E+000	-2.43635E-003	-3.59960E-001	-1.03367E+000	3.57730E+000	10	...........
	3	0.053333	3.96065E-001	-6.01890E-003	0.00000E+000	-2.38388E-003	-3.59960E-001	-1.04582E+000	3.57730E+000	10	...........
	4	0.066667	3.87343E-001	-6.01634E-003	0.00000E+000	-2.33039E-003	-3.59960E-001	-1.03649E+000	3.57730E+000	10	...........
	5	0.08	3.78842E-001	-6.01636E-003	0.00000E+000	-2.27925E-003	-3.59960E-001	-1.03386E+000	3.57730E+000	10	...........
	6	0.093333	3.70564E-001	-6.01441E-003	0.00000E+000	-2.22872E-003	-3.59960E-001	-1.04607E+000	3.57730E+000	10	...........
	7	0.106667	3.62479E-001	-6.00888E-003	0.00000E+000	-2.17810E-003	-3.59960E-001	-1.03700E+000	3.57730E+000	10	...........
	8	0.12	3.54536E-001	-6.01128E-003	0.00000E+000	-2.13122E-003	-3.59960E-001	-1.03431E+000	3.57730E+000	10	...........
	9	0.133333	3.46708E-001	-6.01377E-003	0.00000E+000	-2.08503E-003	-3.59960E-001	-1.04604E+000	3.57730E+000	10	...........
	10	0.146667	3.38990E-001	-6.01293E-003	0.00000E+000	-2.03832E-003	-3.59960E-001	-1.03712E+000	3.57730E+000	10	...........
	11	0.16	3.31335E-001	-6.01718E-003	0.00000E+000	-1.99370E-003	-3.59960E-001	-1.03421E+000	3.57730E+000	10	...........
	12	0.173333	3.23803E-001	-6.01488E-003	0.00000E+000	-1.94763E-003	-3.59960E-001	-1.04619E+000	3.57715E+000	10	...........
	13	0.186667	3.16389E-001	-6.01313E-003	0.00000E+000	-1.90249E-003	-3.59960E-001	-1.03688E+000	3.57690E+000	10	...........
	14	0.2	3.09064E-001	-6.01821E-003	0.00000E+000	-1.86001E-003	-3.59960E-001	-1.03400E+000	3.57690E+000	10	...........
	15	0.213333	3.01882E-001	-6.01530E-003	0.00000E+000	-1.81591E-003	-3.59960E-001	-1.04613E+000	3.57690E+000	10	...........
	16	0.226667	2.94733E-001	-6.01259E-003	0.00000E+000	-1.77211E-003	-3.59960E-001	-1.03732E+000	3.57690E+000	10	...........
	17	0.24	2.87606E-001	-6.01474E-003	0.00000E+000	-1.72988E-003	-3.59960E-001	-1.03428E+000	3.57690E+000	10	...........
	18	0.253333	2.80591E-001	-6.01733E-003	0.00000E+000	-1.68841E-003	-3.59960E-001	-1.04625E+000	3.57690E+000	10	...........
	19	0.266667	2.73660E-001	-6.01417E-003	0.00000E+000	-1.64584E-003	-3.59960E-001	-1.03740E+000	3.57690E+000	10	...........
	20	0.28	2.66749E-001	-6.01355E-003	0.00000E+000	-1.60411E-003	-3.59960E-001	-1.03445E+000	3.57690E+000	10	...........
	21	0.293333	2.59924E-001	-6.01421E-003	0.00000E+000	-1.56324E-003	-3.59960E-001	-1.04654E+000	3.57690E+000	10	...........
	22	0.306667	2.53191E-001	-6.01687E-003	0.00000E+000	-1.52342E-003	-3.59960E-001	-1.03767E+000	3.57690E+000	10	...........
	23	0.32	2.46513E-001	-6.01386E-003	0.00000E+000	-1.48249E-003	-3.59960E-001	-1.03450E+000	3.57690E+000	10	...........
	24	0.333333	2.39863E-001	-6.01289E-003	0.00000E+000	-1.44227E-003	-3.59960E-001	-1.04640E+000	3.57690E+000	10	...........
	25	0.346667	2.33320E-001	-6.01346E-003	0.00000E+000	-1.40306E-003	-3.59960E-001	-1.03770E+000	3.57690E+000	10	...........
	26	0.36	2.26831E-001	-6.01381E-003	0.00000E+000	-1.36412E-003	-3.59960E-001	-1.03460E+000	3.57690E+000	10	...........
	27	0.373333	2.20394E-001	-6.01332E-003	0.00000E+000	-1.32530E-003	-3.59960E-001	-1.04683E+000	3.57690E+000	10	...........
	28	0.386667	2.14011E-001	-6.01601E-003	0.00000E+000	-1.28749E-003	-3.59960E-001	-1.03807E+000	3.57690E+000	10	...........
	29	0.4	2.07710E-001	-6.00988E-003	0.00000E+000	-1.24831E-003	-3.59960E-001	-1.03503E+000	3.57690E+000	10	...........
	30	0.413333	2.01425E-001	-6.01333E-003	0.00000E+000	-1.21123E-003	-3.59960E-001	-1.04696E+000	3.57690E+000	10	...........
	31	0.426667	1.95172E-001	-6.01307E-003	0.00000E+000	-1.17358E-003	-3.59960E-001	-1.03834E+000	3.57690E+000	10	...........
	32	0.44	1.88980E-001	-6.01651E-003	0.00000E+000	-1.13700E-003	-3.59960E-001	-1.03515E+000	3.57690E+000	10	...........
	33	0.453333	1.82869E-001	-6.01688E-003	0.00000E+000	-1.10030E-003	-3.59960E-001	-1.04717E+000	3.57690E+000	10	...........
	34	0.466667	1.76776E-001	-6.01286E-003	0.00000E+000	-1.06293E-003	-3.59960E-001	-1.03826E+000	3.57690E+000	10	...........
	35	0.48	1.70738E-001	-6.02193E-003	0.00000E+000	-1.02817E-003	-3.59960E-001	-1.03495E+000	3.57690E+000	10	...........
	36	0.493333	1.64792E-001	-6.01452E-003	0.00000E+000	-9.91143E-004	-3.59960E-001	-1.04691E+000	3.57690E+000	10	...........
	37	0.506667	1.58849E-001	-6.01385E-003	0.00000E+000	-9.55294E-004	-3.59960E-001	-1.03835E+000	3.57690E+000	10	...........
	38	0.52	1.52966E-001	-6.01469E-003	0.00000E+000	-9.20043E-004	-3.59960E-001	-1.03508E+000	3.57690E+000	10	...........
	39	0.533333	1.47168E-001	-6.01360E-003	0.00000E+000	-8.85009E-004	-3.59960E-001	-1.04699E+000	3.57690E+000	10	...........
	40	0.546667	1.41370E-001	-6.01460E-003	0.00000E+000	-8.50283E-004	-3.59960E-001	-1.03819E+000	3.57690E+000	10	...........
	41	0.56	1.35632E-001	-6.01413E-003	0.00000E+000	-8.15705E-004	-3.59960E-001	-1.03506E+000	3.57690E+000	10	...........
	42	0.573333	1.29922E-001	-6.01696E-003	0.00000E+000	-7.81737E-004	-3.59960E-001	-1.04701E+000	3.57690E+000	10	...........
	43	0.586667	1.24302E-001	-6.01263E-003	0.00000E+000	-7.47379E-004	-3.59960E-001	-1.03841E+000	3.57690E+000	10	...........
	44	0.6	1.18693E-001	-6.01380E-003	0.00000E+000	-7.13797E-004	-3.59960E-001	-1.03500E+000	3.57690E+000	10	...........
	45	0.613333	1.13110E-001	-6.01630E-003	0.00000E+000	-6.80501E-004	-3.59960E-001	-1.04697E+000	3.57690E+000	10	...........
	46	0.626667	1.07585E-001	-6.01538E-003	0.00000E+000	-6.47167E-004	-3.59960E-001	-1.03847E+000	3.57690E+000	10	...........
	47	0.64	1.02093E-001	-6.01421E-003	0.00000E+000	-6.14011E-004	-3.59960E-001	-1.03517E+000	3.57690E+000	10	...........
	48	0.653333	9.66379E-002	-6.00931E-003	0.00000E+000	-5.80727E-004	-3.59960E-001	-1.04707E+000	3.57690E+000	10	...........
	49	0.666667	9.12292E-002	-6.01894E-003	0.00000E+000	-5.49103E-004	-3.59960E-001	-1.03859E+000	3.57690E+000	10	...........
	50	0.68	8.58390E-002	-6.01372E-003	0.00000E+000	-5.16212E-004	-3.59960E-001	-1.03516E+000	3.57690E+000	10	...........
	51	0.693333	8.04656E-002	-6.01491E-003	0.00000E+000	-4.83993E-004	-3.59960E-001	-1.04741E+000	3.57690E+000	10	...........
	52	0.706667	7.51811E-002	-6.01661E-003	0.00000E+000	-4.52336E-004	-3.59960E-001	-1.03896E+000	3.57690E+000	10	...........
	53	0.72	6.99464E-002	-6.01406E-003	0.00000E+000	-4.20661E-004	-3.59960E-001	-1.03556E+000	3.57690E+000	10	...........
	54	0.733333	6.47205E-002	-6.01471E-003	0.00000E+000	-3.89275E-004	-3.59960E-001	-1.04743E+000	3.57690E+000	10	...........
	55	0.746667	5.95416E-002	-6.01858E-003	0.00000E+000	-3.58356E-004	-3.59960E-001	-1.03890E+000	3.57690E+000	10	...........
	56	0.76	5.44157E-002	-6.01914E-003	0.00000E+000	-3.27535E-004	-3.59960E-001	-1.03559E+000	3.57690E+000	10	...........
	57	0.773333	4.92769E-002	-6.01488E-003	0.00000E+000	-2.96395E-004	-3.59960E-001	-1.04750E+000	3.57690E+000	10	...........
	58	0.786667	4.42356E-002	-6.01657E-003	0.00000E+000	-2.66147E-004	-3.59960E-001	-1.03897E+000	3.57690E+000	10	...........
	59	0.8	3.91957E-002	-6.01528E-003	0.00000E+000	-2.35773E-004	-3.59960E-001	-1.03542E+000	3.57690E+000	10	...........
	60	0.813333	3.41866E-002	-6.01473E-003	0.00000E+000	-2.05623E-004	-3.59960E-001	-1.04718E+000	3.57690E+000	10	...........
	61	0.826667	2.91697E-002	-6.01772E-003	0.00000E+000	-1.75535E-004	-3.59960E-001	-1.03869E+000	3.57690E+000	10	...........
	62	0.84	2.42481E-002	-6.01542E-003	0.00000E+000	-1.45863E-004	-3.59960E-001	-1.03549E+000	3.57690E+000	10	...........
	63	0.853333	1.93137E-002	-6.01145E-003	0.00000E+000	-1.16104E-004	-3.59960E-001	-1.04714E+000	3.57690E+000	10	...........
	64	0.866667	1.44479E-002	-6.01353E-003	0.00000E+000	-8.68828E-005	-3.59960E-001	-1.03886E+000	3.57690E+000	10	...........
	65	0.88	9.58961E-003	-6.01389E-003	0.00000E+000	-5.76709E-005	-3.59960E-001	-1.03534E+000	3.57690E+000	10	...........
	66	0.893333	4.74014E-003	-6.01550E-003	0.00000E+000	-2.85143E-005	-3.59960E-001	-1.04734E+000	3.57690E+000	10	...........
	67	0.901667	8.27290E-004	-6.01434E-003	0.00000E+000	-4.97560E-006	-3.59960E-001	-1.03168E+000	3.57690E+000	10	...........
STARTTIMEOFFSET	QUANT	232.7016	Start Time Offset (s)