File: Data/CV_CRGO300517_1/PWRCCD_CRGO300517_1/CHARGE_DISCHARGE/DISCHARGE_#102.DTA
EXPLAIN
TAG	PWR800_DISCHARGE
TITLE	LABEL	PWR Cyclic Charge Discharge (Cell) - Discharge Step	Test &Identifier
DATE	LABEL	22-6-2017	Date
TIME	LABEL	15:39:37	Time
NOTES	NOTES	3	&Notes...
	supercap test cell
	0.6mg
	6M KOH
PSTAT	PSTAT	IFC5000-01520	Potentiostat
CAPACITY	QUANT	1.00000E-003	Capacity (A-hr)
CELLTYPE	SELECTOR	1	&Cell Type
WORKINGCONNECTION	SELECTOR	0	&Working Lead
MAXDISCHARGETIME	VARIABLEANDUNITS	1.00000E+002	s	1.00000E+002	second(s)	Max &Discharge Time
DISCHARGEMODE	MULTIPARAM	0	6.00000E-003	&Discharge Mode	Constant Current	Amp(s)
SAMPLETIME	QUANT	1.00000E-002	Sa&mple Period (s)
DISCHARGESTOPAT1	MULTIPARAM	3	0.00000E+000	Discharge Stop At &1	Voltage < Limit	V
DISCHARGESTOPAT2	MULTIPARAM	0	0.00000E+000	Discharge Stop At &2	None	N/A
AESBHCSELECTOR	TOGGLE	F	Save Both Half Cells
IRCOMP	TOGGLE	F	IR &Measure
EOC	QUANT	0	Open Circuit (V)
SEQUENCER	TOGGLE	TRUE	Run as Sequence
PSTATMODEL	IQUANT	53	Pstat Model
PSTATSECTION	LABEL	IFC5000-01520	Pstat Section
PSTATSERIALNO	LABEL	01520	Pstat Serial Number
CTRLMODE	IQUANT	0	Control Mode
ELECTROMETER	IQUANT	1	RE=0 or CS=1
IESTAB	IQUANT	0	I/E Stability
CASPEED	IQUANT	4	Control Amp Speed
CONVENTION	IQUANT	1	Current Convention
ICHRANGE	IQUANT	2	Ich Range
ICHRANGEMODE	TOGGLE	T	Ich Auto Range
ICHOFFSETENABLE	TOGGLE	F	Ich Offset Enable
ICHOFFSET	QUANT	0	Ich Offset (V)
ICHFILTER	IQUANT	1	Ich Filter
VCHRANGE	IQUANT	2	Vch Range
VCHRANGEMODE	TOGGLE	T	Vch Auto Range
VCHOFFSETENABLE	TOGGLE	F	Vch Offset Enable
VCHOFFSET	QUANT	0	Vch Offset (V)
VCHFILTER	IQUANT	1	Vch Filter
IERANGELOWERLIMIT	IQUANT	9	I/E Range Lower Limit
IERANGEMODE	TOGGLE	F	I/E AutoRange
IERANGE	IQUANT	10	I/E Range
ACHSELECT	IQUANT	1	Ach Select
ACHRANGE	IQUANT	2	Ach Range
ACHOFFSETENABLE	TOGGLE	F	Ach Offset Enable
ACHOFFSET	QUANT	0	Ach Offset (V)
ACHFILTER	IQUANT	1	Ach Filter
CABLEID	IQUANT	14	Cable ID
DCCALDATE	LABEL	20-10-2016	DC Calibration Date
ACCALDATE	LABEL	12/3/2015	AC Calibration Date
FRAMEWORKVERSION	QUANT	7.01	Framework Version
INSTRUMENTVERSION	LABEL	4.00	Instrument Version
CURVE	TABLE	69
	Pt	T	Vf	Im	Vu	Pwr	Sig	Ach	Temp	IERange	Over
	#	s	V	A	V	W	V	V	deg C	#	bits
	0	0.013333	4.27908E-001	-6.01709E-003	0.00000E+000	-2.57476E-003	-3.59960E-001	-1.02817E+000	3.57720E+000	10	...........
	1	0.026667	4.17653E-001	-6.01322E-003	0.00000E+000	-2.51144E-003	-3.59960E-001	-1.02266E+000	3.57720E+000	10	...........
	2	0.04	4.08159E-001	-6.01329E-003	0.00000E+000	-2.45438E-003	-3.59960E-001	-1.03004E+000	3.57720E+000	10	...........
	3	0.053333	3.99140E-001	-6.01456E-003	0.00000E+000	-2.40065E-003	-3.59960E-001	-1.02861E+000	3.57720E+000	10	...........
	4	0.066667	3.90453E-001	-6.01579E-003	0.00000E+000	-2.34888E-003	-3.59960E-001	-1.02276E+000	3.57720E+000	10	...........
	5	0.08	3.82056E-001	-6.01592E-003	0.00000E+000	-2.29842E-003	-3.59960E-001	-1.03001E+000	3.57720E+000	10	...........
	6	0.093333	3.73812E-001	-6.01603E-003	0.00000E+000	-2.24887E-003	-3.59960E-001	-1.02892E+000	3.57714E+000	10	...........
	7	0.106667	3.65743E-001	-6.01181E-003	0.00000E+000	-2.19878E-003	-3.59960E-001	-1.02301E+000	3.57700E+000	10	...........
	8	0.12	3.57839E-001	-6.01219E-003	0.00000E+000	-2.15140E-003	-3.59960E-001	-1.03004E+000	3.57700E+000	10	...........
	9	0.133333	3.50073E-001	-6.01662E-003	0.00000E+000	-2.10626E-003	-3.59960E-001	-1.02876E+000	3.57700E+000	10	...........
	10	0.146667	3.42396E-001	-6.01610E-003	0.00000E+000	-2.05989E-003	-3.59960E-001	-1.02310E+000	3.57700E+000	10	...........
	11	0.16	3.34817E-001	-6.01764E-003	0.00000E+000	-2.01481E-003	-3.59960E-001	-1.03024E+000	3.57700E+000	10	...........
	12	0.173333	3.27393E-001	-6.01591E-003	0.00000E+000	-1.96957E-003	-3.59960E-001	-1.02901E+000	3.57700E+000	10	...........
	13	0.186667	3.20016E-001	-6.01468E-003	0.00000E+000	-1.92480E-003	-3.59960E-001	-1.02305E+000	3.57700E+000	10	...........
	14	0.2	3.12747E-001	-6.01515E-003	0.00000E+000	-1.88122E-003	-3.59960E-001	-1.03023E+000	3.57700E+000	10	...........
	15	0.213333	3.05541E-001	-6.01605E-003	0.00000E+000	-1.83815E-003	-3.59960E-001	-1.02935E+000	3.57700E+000	10	...........
	16	0.226667	2.98421E-001	-6.01255E-003	0.00000E+000	-1.79427E-003	-3.59960E-001	-1.02357E+000	3.57700E+000	10	...........
	17	0.24	2.91363E-001	-6.01528E-003	0.00000E+000	-1.75263E-003	-3.59960E-001	-1.03058E+000	3.57700E+000	10	...........
	18	0.253333	2.84407E-001	-6.01360E-003	0.00000E+000	-1.71031E-003	-3.59960E-001	-1.02938E+000	3.57700E+000	10	...........
	19	0.266667	2.77497E-001	-6.01676E-003	0.00000E+000	-1.66963E-003	-3.59960E-001	-1.02337E+000	3.57700E+000	10	...........
	20	0.28	2.70697E-001	-6.01438E-003	0.00000E+000	-1.62807E-003	-3.59960E-001	-1.03054E+000	3.57700E+000	10	...........
	21	0.293333	2.63920E-001	-6.01621E-003	0.00000E+000	-1.58780E-003	-3.59960E-001	-1.02972E+000	3.57700E+000	10	...........
	22	0.306667	2.57194E-001	-6.01466E-003	0.00000E+000	-1.54694E-003	-3.59960E-001	-1.02351E+000	3.57700E+000	10	...........
	23	0.32	2.50578E-001	-6.01399E-003	0.00000E+000	-1.50697E-003	-3.59960E-001	-1.02999E+000	3.57700E+000	10	...........
	24	0.333333	2.43963E-001	-6.01556E-003	0.00000E+000	-1.46757E-003	-3.59960E-001	-1.02956E+000	3.57700E+000	10	...........
	25	0.346667	2.37397E-001	-6.01696E-003	0.00000E+000	-1.42841E-003	-3.59960E-001	-1.02353E+000	3.57700E+000	10	...........
	26	0.36	2.30959E-001	-6.01796E-003	0.00000E+000	-1.38990E-003	-3.59960E-001	-1.03035E+000	3.57700E+000	10	...........
	27	0.373333	2.24571E-001	-6.01555E-003	0.00000E+000	-1.35092E-003	-3.59960E-001	-1.02957E+000	3.57700E+000	10	...........
	28	0.386667	2.18214E-001	-6.01637E-003	0.00000E+000	-1.31285E-003	-3.59960E-001	-1.02334E+000	3.57700E+000	10	...........
	29	0.4	2.11914E-001	-6.01460E-003	0.00000E+000	-1.27458E-003	-3.59960E-001	-1.03004E+000	3.57700E+000	10	...........
	30	0.413333	2.05655E-001	-6.01222E-003	0.00000E+000	-1.23644E-003	-3.59960E-001	-1.02966E+000	3.57700E+000	10	...........
	31	0.426667	1.99459E-001	-6.01689E-003	0.00000E+000	-1.20013E-003	-3.59960E-001	-1.02343E+000	3.57700E+000	10	...........
	32	0.44	1.93309E-001	-6.01651E-003	0.00000E+000	-1.16304E-003	-3.59960E-001	-1.03010E+000	3.57700E+000	10	...........
	33	0.453333	1.87235E-001	-6.01344E-003	0.00000E+000	-1.12593E-003	-3.59960E-001	-1.02965E+000	3.57700E+000	10	...........
	34	0.466667	1.81184E-001	-6.01497E-003	0.00000E+000	-1.08982E-003	-3.59960E-001	-1.02341E+000	3.57700E+000	10	...........
	35	0.48	1.75197E-001	-6.01636E-003	0.00000E+000	-1.05405E-003	-3.59960E-001	-1.03030E+000	3.57700E+000	10	...........
	36	0.493333	1.69258E-001	-6.01737E-003	0.00000E+000	-1.01849E-003	-3.59960E-001	-1.02969E+000	3.57700E+000	10	...........
	37	0.506667	1.63347E-001	-6.01552E-003	0.00000E+000	-9.82618E-004	-3.59960E-001	-1.02333E+000	3.57700E+000	10	...........
	38	0.52	1.57486E-001	-6.01428E-003	0.00000E+000	-9.47165E-004	-3.59960E-001	-1.03023E+000	3.57700E+000	10	...........
	39	0.533333	1.51717E-001	-6.01510E-003	0.00000E+000	-9.12594E-004	-3.59960E-001	-1.02995E+000	3.57700E+000	10	...........
	40	0.546667	1.45955E-001	-6.01392E-003	0.00000E+000	-8.77759E-004	-3.59960E-001	-1.02375E+000	3.57700E+000	10	...........
	41	0.56	1.40231E-001	-6.01249E-003	0.00000E+000	-8.43139E-004	-3.59960E-001	-1.03038E+000	3.57700E+000	10	...........
	42	0.573333	1.34555E-001	-6.01431E-003	0.00000E+000	-8.09255E-004	-3.59960E-001	-1.03001E+000	3.57700E+000	10	...........
	43	0.586667	1.28904E-001	-6.01964E-003	0.00000E+000	-7.75953E-004	-3.59960E-001	-1.02359E+000	3.57700E+000	10	...........
	44	0.6	1.23295E-001	-6.01243E-003	0.00000E+000	-7.41304E-004	-3.59960E-001	-1.03015E+000	3.57700E+000	10	...........
	45	0.613333	1.17697E-001	-6.01586E-003	0.00000E+000	-7.08047E-004	-3.59960E-001	-1.03011E+000	3.57700E+000	10	...........
	46	0.626667	1.12168E-001	-6.01294E-003	0.00000E+000	-6.74458E-004	-3.59960E-001	-1.02351E+000	3.57700E+000	10	...........
	47	0.64	1.06729E-001	-6.01484E-003	0.00000E+000	-6.41957E-004	-3.59960E-001	-1.02997E+000	3.57700E+000	10	...........
	48	0.653333	1.01264E-001	-6.01450E-003	0.00000E+000	-6.09054E-004	-3.59960E-001	-1.02965E+000	3.57700E+000	10	...........
	49	0.666667	9.58545E-002	-6.01468E-003	0.00000E+000	-5.76534E-004	-3.59960E-001	-1.02343E+000	3.57700E+000	10	...........
	50	0.68	9.05296E-002	-6.01352E-003	0.00000E+000	-5.44402E-004	-3.59960E-001	-1.03000E+000	3.57700E+000	10	...........
	51	0.693333	8.51880E-002	-6.01547E-003	0.00000E+000	-5.12446E-004	-3.59960E-001	-1.03001E+000	3.57700E+000	10	...........
	52	0.706667	7.98946E-002	-6.01157E-003	0.00000E+000	-4.80292E-004	-3.59960E-001	-1.02328E+000	3.57700E+000	10	...........
	53	0.72	7.46522E-002	-6.01678E-003	0.00000E+000	-4.49166E-004	-3.59960E-001	-1.02967E+000	3.57700E+000	10	...........
	54	0.733333	6.94025E-002	-6.01613E-003	0.00000E+000	-4.17535E-004	-3.59960E-001	-1.02986E+000	3.57700E+000	10	...........
	55	0.746667	6.42123E-002	-6.00860E-003	0.00000E+000	-3.85826E-004	-3.59960E-001	-1.02314E+000	3.57700E+000	10	...........
	56	0.76	5.90475E-002	-6.01650E-003	0.00000E+000	-3.55259E-004	-3.59960E-001	-1.02974E+000	3.57700E+000	10	...........
	57	0.773333	5.39331E-002	-6.01570E-003	0.00000E+000	-3.24445E-004	-3.59960E-001	-1.02980E+000	3.57700E+000	10	...........
	58	0.786667	4.88916E-002	-6.01922E-003	0.00000E+000	-2.94289E-004	-3.59960E-001	-1.02298E+000	3.57700E+000	10	...........
	59	0.8	4.38401E-002	-6.01456E-003	0.00000E+000	-2.63679E-004	-3.59960E-001	-1.02934E+000	3.57700E+000	10	...........
	60	0.813333	3.88438E-002	-6.01588E-003	0.00000E+000	-2.33680E-004	-3.59960E-001	-1.02964E+000	3.57700E+000	10	...........
	61	0.826667	3.38662E-002	-6.01415E-003	0.00000E+000	-2.03676E-004	-3.59960E-001	-1.02318E+000	3.57700E+000	10	...........
	62	0.84	2.89140E-002	-6.01650E-003	0.00000E+000	-1.73961E-004	-3.59960E-001	-1.02965E+000	3.57700E+000	10	...........
	63	0.853333	2.39748E-002	-6.01634E-003	0.00000E+000	-1.44241E-004	-3.59960E-001	-1.02985E+000	3.57700E+000	10	...........
	64	0.866667	1.90616E-002	-6.01466E-003	0.00000E+000	-1.14649E-004	-3.59960E-001	-1.02280E+000	3.57700E+000	10	...........
	65	0.88	1.42164E-002	-6.01436E-003	0.00000E+000	-8.55023E-005	-3.59960E-001	-1.02959E+000	3.57700E+000	10	...........
	66	0.893333	9.40814E-003	-6.01456E-003	0.00000E+000	-5.65858E-005	-3.59960E-001	-1.02974E+000	3.57700E+000	10	...........
	67	0.906667	4.61726E-003	-6.01802E-003	0.00000E+000	-2.77867E-005	-3.59960E-001	-1.02319E+000	3.57700E+000	10	...........
	68	0.915	7.27961E-004	-6.01364E-003	0.00000E+000	-4.37769E-006	-3.59960E-001	-1.03539E+000	3.57700E+000	10	...........
STARTTIMEOFFSET	QUANT	199.8266	Start Time Offset (s)