File: Data/CV_CRGO300517_1/PWRCCD_CRGO300517_1/CHARGE_DISCHARGE/DISCHARGE_#108.DTA
EXPLAIN
TAG	PWR800_DISCHARGE
TITLE	LABEL	PWR Cyclic Charge Discharge (Cell) - Discharge Step	Test &Identifier
DATE	LABEL	22-6-2017	Date
TIME	LABEL	15:39:52	Time
NOTES	NOTES	3	&Notes...
	supercap test cell
	0.6mg
	6M KOH
PSTAT	PSTAT	IFC5000-01520	Potentiostat
CAPACITY	QUANT	1.00000E-003	Capacity (A-hr)
CELLTYPE	SELECTOR	1	&Cell Type
WORKINGCONNECTION	SELECTOR	0	&Working Lead
MAXDISCHARGETIME	VARIABLEANDUNITS	1.00000E+002	s	1.00000E+002	second(s)	Max &Discharge Time
DISCHARGEMODE	MULTIPARAM	0	6.00000E-003	&Discharge Mode	Constant Current	Amp(s)
SAMPLETIME	QUANT	1.00000E-002	Sa&mple Period (s)
DISCHARGESTOPAT1	MULTIPARAM	3	0.00000E+000	Discharge Stop At &1	Voltage < Limit	V
DISCHARGESTOPAT2	MULTIPARAM	0	0.00000E+000	Discharge Stop At &2	None	N/A
AESBHCSELECTOR	TOGGLE	F	Save Both Half Cells
IRCOMP	TOGGLE	F	IR &Measure
EOC	QUANT	0	Open Circuit (V)
SEQUENCER	TOGGLE	TRUE	Run as Sequence
PSTATMODEL	IQUANT	53	Pstat Model
PSTATSECTION	LABEL	IFC5000-01520	Pstat Section
PSTATSERIALNO	LABEL	01520	Pstat Serial Number
CTRLMODE	IQUANT	0	Control Mode
ELECTROMETER	IQUANT	1	RE=0 or CS=1
IESTAB	IQUANT	0	I/E Stability
CASPEED	IQUANT	4	Control Amp Speed
CONVENTION	IQUANT	1	Current Convention
ICHRANGE	IQUANT	2	Ich Range
ICHRANGEMODE	TOGGLE	T	Ich Auto Range
ICHOFFSETENABLE	TOGGLE	F	Ich Offset Enable
ICHOFFSET	QUANT	0	Ich Offset (V)
ICHFILTER	IQUANT	1	Ich Filter
VCHRANGE	IQUANT	2	Vch Range
VCHRANGEMODE	TOGGLE	T	Vch Auto Range
VCHOFFSETENABLE	TOGGLE	F	Vch Offset Enable
VCHOFFSET	QUANT	0	Vch Offset (V)
VCHFILTER	IQUANT	1	Vch Filter
IERANGELOWERLIMIT	IQUANT	9	I/E Range Lower Limit
IERANGEMODE	TOGGLE	F	I/E AutoRange
IERANGE	IQUANT	10	I/E Range
ACHSELECT	IQUANT	1	Ach Select
ACHRANGE	IQUANT	2	Ach Range
ACHOFFSETENABLE	TOGGLE	F	Ach Offset Enable
ACHOFFSET	QUANT	0	Ach Offset (V)
ACHFILTER	IQUANT	1	Ach Filter
CABLEID	IQUANT	14	Cable ID
DCCALDATE	LABEL	20-10-2016	DC Calibration Date
ACCALDATE	LABEL	12/3/2015	AC Calibration Date
FRAMEWORKVERSION	QUANT	7.01	Framework Version
INSTRUMENTVERSION	LABEL	4.00	Instrument Version
CURVE	TABLE	69
	Pt	T	Vf	Im	Vu	Pwr	Sig	Ach	Temp	IERange	Over
	#	s	V	A	V	W	V	V	deg C	#	bits
	0	0.013333	4.26691E-001	-6.01562E-003	0.00000E+000	-2.56681E-003	-3.59960E-001	-1.03216E+000	3.57840E+000	10	...........
	1	0.026667	4.16450E-001	-6.01784E-003	0.00000E+000	-2.50613E-003	-3.59960E-001	-1.03348E+000	3.57840E+000	10	...........
	2	0.04	4.06921E-001	-6.01467E-003	0.00000E+000	-2.44750E-003	-3.59960E-001	-1.04331E+000	3.57840E+000	10	...........
	3	0.053333	3.97851E-001	-6.01970E-003	0.00000E+000	-2.39494E-003	-3.59960E-001	-1.03268E+000	3.57840E+000	10	...........
	4	0.066667	3.89173E-001	-6.01109E-003	0.00000E+000	-2.33935E-003	-3.59960E-001	-1.03425E+000	3.57840E+000	10	...........
	5	0.08	3.80718E-001	-6.01118E-003	0.00000E+000	-2.28856E-003	-3.59960E-001	-1.04390E+000	3.57840E+000	10	...........
	6	0.093333	3.72500E-001	-6.01763E-003	0.00000E+000	-2.24157E-003	-3.59960E-001	-1.03320E+000	3.57840E+000	10	...........
	7	0.106667	3.64422E-001	-6.01232E-003	0.00000E+000	-2.19102E-003	-3.59960E-001	-1.03493E+000	3.57840E+000	10	...........
	8	0.12	3.56525E-001	-6.01724E-003	0.00000E+000	-2.14530E-003	-3.59960E-001	-1.04473E+000	3.57840E+000	10	...........
	9	0.133333	3.48725E-001	-6.01768E-003	0.00000E+000	-2.09851E-003	-3.59960E-001	-1.03399E+000	3.57840E+000	10	...........
	10	0.146667	3.41053E-001	-6.01287E-003	0.00000E+000	-2.05071E-003	-3.59960E-001	-1.03525E+000	3.57840E+000	10	...........
	11	0.16	3.33468E-001	-6.01750E-003	0.00000E+000	-2.00664E-003	-3.59960E-001	-1.04502E+000	3.57840E+000	10	...........
	12	0.173333	3.25998E-001	-6.01387E-003	0.00000E+000	-1.96051E-003	-3.59960E-001	-1.03433E+000	3.57840E+000	10	...........
	13	0.186667	3.18607E-001	-6.01700E-003	0.00000E+000	-1.91706E-003	-3.59960E-001	-1.03558E+000	3.57840E+000	10	...........
	14	0.2	3.11330E-001	-6.01568E-003	0.00000E+000	-1.87286E-003	-3.59960E-001	-1.04574E+000	3.57840E+000	10	...........
	15	0.213333	3.04107E-001	-6.01600E-003	0.00000E+000	-1.82951E-003	-3.59960E-001	-1.03488E+000	3.57840E+000	10	...........
	16	0.226667	2.97007E-001	-6.01325E-003	0.00000E+000	-1.78598E-003	-3.59960E-001	-1.03609E+000	3.57840E+000	10	...........
	17	0.24	2.89983E-001	-6.01374E-003	0.00000E+000	-1.74388E-003	-3.59960E-001	-1.04597E+000	3.57840E+000	10	...........
	18	0.253333	2.82945E-001	-6.01729E-003	0.00000E+000	-1.70256E-003	-3.59960E-001	-1.03539E+000	3.57840E+000	10	...........
	19	0.266667	2.76046E-001	-6.01845E-003	0.00000E+000	-1.66137E-003	-3.59960E-001	-1.03656E+000	3.57840E+000	10	...........
	20	0.28	2.69205E-001	-6.01217E-003	0.00000E+000	-1.61851E-003	-3.59960E-001	-1.04645E+000	3.57840E+000	10	...........
	21	0.293333	2.62398E-001	-6.01421E-003	0.00000E+000	-1.57812E-003	-3.59960E-001	-1.03536E+000	3.57840E+000	10	...........
	22	0.306667	2.55697E-001	-6.01512E-003	0.00000E+000	-1.53805E-003	-3.59960E-001	-1.03648E+000	3.57840E+000	10	...........
	23	0.32	2.49026E-001	-6.01398E-003	0.00000E+000	-1.49764E-003	-3.59960E-001	-1.04640E+000	3.57840E+000	10	...........
	24	0.333333	2.42456E-001	-6.01159E-003	0.00000E+000	-1.45755E-003	-3.59960E-001	-1.03569E+000	3.57840E+000	10	...........
	25	0.346667	2.35970E-001	-6.01379E-003	0.00000E+000	-1.41908E-003	-3.59960E-001	-1.03668E+000	3.57840E+000	10	...........
	26	0.36	2.29502E-001	-6.01324E-003	0.00000E+000	-1.38005E-003	-3.59960E-001	-1.04672E+000	3.57840E+000	10	...........
	27	0.373333	2.23081E-001	-6.01684E-003	0.00000E+000	-1.34225E-003	-3.59960E-001	-1.03585E+000	3.57840E+000	10	...........
	28	0.386667	2.16681E-001	-6.01892E-003	0.00000E+000	-1.30418E-003	-3.59960E-001	-1.03699E+000	3.57809E+000	10	...........
	29	0.4	2.10370E-001	-6.01579E-003	0.00000E+000	-1.26554E-003	-3.59960E-001	-1.04696E+000	3.57790E+000	10	...........
	30	0.413333	2.04137E-001	-6.00839E-003	0.00000E+000	-1.22653E-003	-3.59960E-001	-1.03610E+000	3.57790E+000	10	...........
	31	0.426667	1.97922E-001	-6.01655E-003	0.00000E+000	-1.19081E-003	-3.59960E-001	-1.03687E+000	3.57790E+000	10	...........
	32	0.44	1.91769E-001	-6.01647E-003	0.00000E+000	-1.15377E-003	-3.59960E-001	-1.04707E+000	3.57790E+000	10	...........
	33	0.453333	1.85652E-001	-6.01229E-003	0.00000E+000	-1.11620E-003	-3.59960E-001	-1.03615E+000	3.57790E+000	10	...........
	34	0.466667	1.79616E-001	-6.01890E-003	0.00000E+000	-1.08109E-003	-3.59960E-001	-1.03733E+000	3.57790E+000	10	...........
	35	0.48	1.73638E-001	-6.01574E-003	0.00000E+000	-1.04456E-003	-3.59960E-001	-1.04729E+000	3.57790E+000	10	...........
	36	0.493333	1.67677E-001	-6.01807E-003	0.00000E+000	-1.00909E-003	-3.59960E-001	-1.03620E+000	3.57790E+000	10	...........
	37	0.506667	1.61778E-001	-6.01515E-003	0.00000E+000	-9.73117E-004	-3.59960E-001	-1.03728E+000	3.57790E+000	10	...........
	38	0.52	1.55932E-001	-6.01540E-003	0.00000E+000	-9.37992E-004	-3.59960E-001	-1.04765E+000	3.57790E+000	10	...........
	39	0.533333	1.50122E-001	-6.01644E-003	0.00000E+000	-9.03202E-004	-3.59960E-001	-1.03689E+000	3.57790E+000	10	...........
	40	0.546667	1.44348E-001	-6.01416E-003	0.00000E+000	-8.68131E-004	-3.59960E-001	-1.03795E+000	3.57790E+000	10	...........
	41	0.56	1.38617E-001	-6.01647E-003	0.00000E+000	-8.33987E-004	-3.59960E-001	-1.04818E+000	3.57790E+000	10	...........
	42	0.573333	1.32929E-001	-6.01656E-003	0.00000E+000	-7.99778E-004	-3.59960E-001	-1.03718E+000	3.57790E+000	10	...........
	43	0.586667	1.27293E-001	-6.01213E-003	0.00000E+000	-7.65301E-004	-3.59960E-001	-1.03819E+000	3.57790E+000	10	...........
	44	0.6	1.21738E-001	-6.01739E-003	0.00000E+000	-7.32545E-004	-3.59960E-001	-1.04872E+000	3.57790E+000	10	...........
	45	0.613333	1.16171E-001	-6.01243E-003	0.00000E+000	-6.98471E-004	-3.59960E-001	-1.03742E+000	3.57790E+000	10	...........
	46	0.626667	1.10657E-001	-6.01642E-003	0.00000E+000	-6.65759E-004	-3.59960E-001	-1.03781E+000	3.57790E+000	10	...........
	47	0.64	1.05181E-001	-6.01526E-003	0.00000E+000	-6.32691E-004	-3.59960E-001	-1.04821E+000	3.57790E+000	10	...........
	48	0.653333	9.97206E-002	-6.01332E-003	0.00000E+000	-5.99651E-004	-3.59960E-001	-1.03724E+000	3.57790E+000	10	...........
	49	0.666667	9.43212E-002	-6.01311E-003	0.00000E+000	-5.67163E-004	-3.59960E-001	-1.03812E+000	3.57790E+000	10	...........
	50	0.68	8.89409E-002	-6.01605E-003	0.00000E+000	-5.35073E-004	-3.59960E-001	-1.04843E+000	3.57790E+000	10	...........
	51	0.693333	8.36192E-002	-6.00910E-003	0.00000E+000	-5.02476E-004	-3.59960E-001	-1.03699E+000	3.57790E+000	10	...........
	52	0.706667	7.83515E-002	-6.00925E-003	0.00000E+000	-4.70834E-004	-3.59960E-001	-1.03797E+000	3.57790E+000	10	...........
	53	0.72	7.30790E-002	-6.01475E-003	0.00000E+000	-4.39552E-004	-3.59960E-001	-1.04848E+000	3.57790E+000	10	...........
	54	0.733333	6.78588E-002	-6.01494E-003	0.00000E+000	-4.08167E-004	-3.59960E-001	-1.03722E+000	3.57790E+000	10	...........
	55	0.746667	6.26713E-002	-6.01456E-003	0.00000E+000	-3.76940E-004	-3.59960E-001	-1.03776E+000	3.57790E+000	10	...........
	56	0.76	5.75039E-002	-6.01603E-003	0.00000E+000	-3.45945E-004	-3.59960E-001	-1.04815E+000	3.57790E+000	10	...........
	57	0.773333	5.23850E-002	-6.01489E-003	0.00000E+000	-3.15090E-004	-3.59960E-001	-1.03690E+000	3.57790E+000	10	...........
	58	0.786667	4.73521E-002	-6.01556E-003	0.00000E+000	-2.84849E-004	-3.59960E-001	-1.03767E+000	3.57790E+000	10	...........
	59	0.8	4.23064E-002	-6.01550E-003	0.00000E+000	-2.54494E-004	-3.59960E-001	-1.04841E+000	3.57790E+000	10	...........
	60	0.813333	3.72320E-002	-6.01321E-003	0.00000E+000	-2.23884E-004	-3.59960E-001	-1.03708E+000	3.57790E+000	10	...........
	61	0.826667	3.22221E-002	-6.01585E-003	0.00000E+000	-1.93843E-004	-3.59960E-001	-1.03758E+000	3.57790E+000	10	...........
	62	0.84	2.72890E-002	-6.01432E-003	0.00000E+000	-1.64125E-004	-3.59960E-001	-1.04818E+000	3.57790E+000	10	...........
	63	0.853333	2.23449E-002	-6.01387E-003	0.00000E+000	-1.34379E-004	-3.59960E-001	-1.03718E+000	3.57790E+000	10	...........
	64	0.866667	1.74535E-002	-6.01611E-003	0.00000E+000	-1.05002E-004	-3.59960E-001	-1.03791E+000	3.57790E+000	10	...........
	65	0.88	1.26357E-002	-6.01760E-003	0.00000E+000	-7.60365E-005	-3.59960E-001	-1.04848E+000	3.57790E+000	10	...........
	66	0.893333	7.79024E-003	-6.01471E-003	0.00000E+000	-4.68561E-005	-3.59960E-001	-1.03722E+000	3.57790E+000	10	...........
	67	0.906667	3.00594E-003	-6.01366E-003	0.00000E+000	-1.80767E-005	-3.59960E-001	-1.03751E+000	3.57790E+000	10	...........
	68	0.91	6.84668E-008	-6.01136E-003	0.00000E+000	-4.11579E-010	-3.59960E-001	-1.04438E+000	3.57790E+000	10	...........
STARTTIMEOFFSET	QUANT	210.8516	Start Time Offset (s)