File: Data/CV_CRGO300517_1/PWRCCD_CRGO300517_1/CHARGE_DISCHARGE/DISCHARGE_#12.DTA
EXPLAIN
TAG	PWR800_DISCHARGE
TITLE	LABEL	PWR Cyclic Charge Discharge (Cell) - Discharge Step	Test &Identifier
DATE	LABEL	22-6-2017	Date
TIME	LABEL	15:35:30	Time
NOTES	NOTES	3	&Notes...
	supercap test cell
	0.6mg
	6M KOH
PSTAT	PSTAT	IFC5000-01520	Potentiostat
CAPACITY	QUANT	1.00000E-003	Capacity (A-hr)
CELLTYPE	SELECTOR	1	&Cell Type
WORKINGCONNECTION	SELECTOR	0	&Working Lead
MAXDISCHARGETIME	VARIABLEANDUNITS	1.00000E+002	s	1.00000E+002	second(s)	Max &Discharge Time
DISCHARGEMODE	MULTIPARAM	0	6.00000E-003	&Discharge Mode	Constant Current	Amp(s)
SAMPLETIME	QUANT	1.00000E-002	Sa&mple Period (s)
DISCHARGESTOPAT1	MULTIPARAM	3	0.00000E+000	Discharge Stop At &1	Voltage < Limit	V
DISCHARGESTOPAT2	MULTIPARAM	0	0.00000E+000	Discharge Stop At &2	None	N/A
AESBHCSELECTOR	TOGGLE	F	Save Both Half Cells
IRCOMP	TOGGLE	F	IR &Measure
EOC	QUANT	0	Open Circuit (V)
SEQUENCER	TOGGLE	TRUE	Run as Sequence
PSTATMODEL	IQUANT	53	Pstat Model
PSTATSECTION	LABEL	IFC5000-01520	Pstat Section
PSTATSERIALNO	LABEL	01520	Pstat Serial Number
CTRLMODE	IQUANT	0	Control Mode
ELECTROMETER	IQUANT	1	RE=0 or CS=1
IESTAB	IQUANT	0	I/E Stability
CASPEED	IQUANT	4	Control Amp Speed
CONVENTION	IQUANT	1	Current Convention
ICHRANGE	IQUANT	2	Ich Range
ICHRANGEMODE	TOGGLE	T	Ich Auto Range
ICHOFFSETENABLE	TOGGLE	F	Ich Offset Enable
ICHOFFSET	QUANT	0	Ich Offset (V)
ICHFILTER	IQUANT	1	Ich Filter
VCHRANGE	IQUANT	2	Vch Range
VCHRANGEMODE	TOGGLE	T	Vch Auto Range
VCHOFFSETENABLE	TOGGLE	F	Vch Offset Enable
VCHOFFSET	QUANT	0	Vch Offset (V)
VCHFILTER	IQUANT	1	Vch Filter
IERANGELOWERLIMIT	IQUANT	9	I/E Range Lower Limit
IERANGEMODE	TOGGLE	F	I/E AutoRange
IERANGE	IQUANT	10	I/E Range
ACHSELECT	IQUANT	1	Ach Select
ACHRANGE	IQUANT	2	Ach Range
ACHOFFSETENABLE	TOGGLE	F	Ach Offset Enable
ACHOFFSET	QUANT	0	Ach Offset (V)
ACHFILTER	IQUANT	1	Ach Filter
CABLEID	IQUANT	14	Cable ID
DCCALDATE	LABEL	20-10-2016	DC Calibration Date
ACCALDATE	LABEL	12/3/2015	AC Calibration Date
FRAMEWORKVERSION	QUANT	7.01	Framework Version
INSTRUMENTVERSION	LABEL	4.00	Instrument Version
CURVE	TABLE	78
	Pt	T	Vf	Im	Vu	Pwr	Sig	Ach	Temp	IERange	Over
	#	s	V	A	V	W	V	V	deg C	#	bits
	0	0.013333	4.52374E-001	-6.01516E-003	0.00000E+000	-2.72110E-003	-3.59960E-001	-9.57862E-001	3.57720E+000	10	...........
	1	0.026667	4.42758E-001	-6.01705E-003	0.00000E+000	-2.66410E-003	-3.59960E-001	-9.48806E-001	3.57720E+000	10	...........
	2	0.04	4.33796E-001	-6.01637E-003	0.00000E+000	-2.60988E-003	-3.59960E-001	-9.50670E-001	3.57720E+000	10	...........
	3	0.053333	4.25373E-001	-6.01754E-003	0.00000E+000	-2.55970E-003	-3.59960E-001	-9.57785E-001	3.57720E+000	10	...........
	4	0.066667	4.17211E-001	-6.01720E-003	0.00000E+000	-2.51044E-003	-3.59960E-001	-9.48645E-001	3.57720E+000	10	...........
	5	0.08	4.09293E-001	-6.01536E-003	0.00000E+000	-2.46204E-003	-3.59960E-001	-9.50975E-001	3.57720E+000	10	...........
	6	0.093333	4.01570E-001	-6.01477E-003	0.00000E+000	-2.41535E-003	-3.59960E-001	-9.58451E-001	3.57720E+000	10	...........
	7	0.106667	3.93989E-001	-6.01140E-003	0.00000E+000	-2.36842E-003	-3.59960E-001	-9.49302E-001	3.57720E+000	10	...........
	8	0.12	3.86599E-001	-6.01774E-003	0.00000E+000	-2.32645E-003	-3.59960E-001	-9.51010E-001	3.57720E+000	10	...........
	9	0.133333	3.79319E-001	-6.01468E-003	0.00000E+000	-2.28149E-003	-3.59960E-001	-9.58222E-001	3.57720E+000	10	...........
	10	0.146667	3.72110E-001	-6.01539E-003	0.00000E+000	-2.23839E-003	-3.59960E-001	-9.49768E-001	3.57720E+000	10	...........
	11	0.16	3.65021E-001	-6.01267E-003	0.00000E+000	-2.19475E-003	-3.59960E-001	-9.51881E-001	3.57720E+000	10	...........
	12	0.173333	3.58049E-001	-6.01553E-003	0.00000E+000	-2.15385E-003	-3.59960E-001	-9.58738E-001	3.57720E+000	10	...........
	13	0.186667	3.51151E-001	-6.01713E-003	0.00000E+000	-2.11292E-003	-3.59960E-001	-9.48958E-001	3.57720E+000	10	...........
	14	0.2	3.44340E-001	-6.01265E-003	0.00000E+000	-2.07040E-003	-3.59960E-001	-9.50781E-001	3.57720E+000	10	...........
	15	0.213333	3.37590E-001	-6.01626E-003	0.00000E+000	-2.03103E-003	-3.59960E-001	-9.58528E-001	3.57720E+000	10	...........
	16	0.226667	3.30897E-001	-6.01855E-003	0.00000E+000	-1.99152E-003	-3.59960E-001	-9.49580E-001	3.57720E+000	10	...........
	17	0.24	3.24258E-001	-6.01497E-003	0.00000E+000	-1.95040E-003	-3.59960E-001	-9.51281E-001	3.57720E+000	10	...........
	18	0.253333	3.17659E-001	-6.01557E-003	0.00000E+000	-1.91090E-003	-3.59960E-001	-9.59001E-001	3.57720E+000	10	...........
	19	0.266667	3.11200E-001	-6.01336E-003	0.00000E+000	-1.87136E-003	-3.59960E-001	-9.50542E-001	3.57720E+000	10	...........
	20	0.28	3.04729E-001	-6.01884E-003	0.00000E+000	-1.83412E-003	-3.59960E-001	-9.53087E-001	3.57720E+000	10	...........
	21	0.293333	2.98342E-001	-6.01520E-003	0.00000E+000	-1.79459E-003	-3.59960E-001	-9.61523E-001	3.57720E+000	10	...........
	22	0.306667	2.92020E-001	-6.01712E-003	0.00000E+000	-1.75712E-003	-3.59960E-001	-9.52950E-001	3.57720E+000	10	...........
	23	0.32	2.85766E-001	-6.01751E-003	0.00000E+000	-1.71960E-003	-3.59960E-001	-9.55651E-001	3.57720E+000	10	...........
	24	0.333333	2.79525E-001	-6.01733E-003	0.00000E+000	-1.68200E-003	-3.59960E-001	-9.64748E-001	3.57720E+000	10	...........
	25	0.346667	2.73380E-001	-6.01369E-003	0.00000E+000	-1.64402E-003	-3.59960E-001	-9.56723E-001	3.57720E+000	10	...........
	26	0.36	2.67247E-001	-6.01641E-003	0.00000E+000	-1.60787E-003	-3.59960E-001	-9.59701E-001	3.57720E+000	10	...........
	27	0.373333	2.61158E-001	-6.01650E-003	0.00000E+000	-1.57126E-003	-3.59960E-001	-9.68352E-001	3.57720E+000	10	...........
	28	0.386667	2.55148E-001	-6.01491E-003	0.00000E+000	-1.53469E-003	-3.59960E-001	-9.60293E-001	3.57720E+000	10	...........
	29	0.4	2.49157E-001	-6.01477E-003	0.00000E+000	-1.49862E-003	-3.59960E-001	-9.63615E-001	3.57720E+000	10	...........
	30	0.413333	2.43225E-001	-6.01474E-003	0.00000E+000	-1.46293E-003	-3.59960E-001	-9.73024E-001	3.57720E+000	10	...........
	31	0.426667	2.37333E-001	-6.01081E-003	0.00000E+000	-1.42657E-003	-3.59960E-001	-9.64583E-001	3.57720E+000	10	...........
	32	0.44	2.31494E-001	-6.01526E-003	0.00000E+000	-1.39250E-003	-3.59960E-001	-9.67743E-001	3.57720E+000	10	...........
	33	0.453333	2.25693E-001	-6.01746E-003	0.00000E+000	-1.35810E-003	-3.59960E-001	-9.77112E-001	3.57720E+000	10	...........
	34	0.466667	2.19901E-001	-6.01389E-003	0.00000E+000	-1.32246E-003	-3.59960E-001	-9.67866E-001	3.57720E+000	10	...........
	35	0.48	2.14156E-001	-6.01551E-003	0.00000E+000	-1.28826E-003	-3.59960E-001	-9.70776E-001	3.57720E+000	10	...........
	36	0.493333	2.08491E-001	-6.01690E-003	0.00000E+000	-1.25447E-003	-3.59960E-001	-9.80239E-001	3.57720E+000	10	...........
	37	0.506667	2.02833E-001	-6.01593E-003	0.00000E+000	-1.22023E-003	-3.59960E-001	-9.71463E-001	3.57720E+000	10	...........
	38	0.52	1.97203E-001	-6.01650E-003	0.00000E+000	-1.18647E-003	-3.59960E-001	-9.73642E-001	3.57720E+000	10	...........
	39	0.533333	1.91648E-001	-6.01683E-003	0.00000E+000	-1.15311E-003	-3.59960E-001	-9.83301E-001	3.57720E+000	10	...........
	40	0.546667	1.86111E-001	-6.01702E-003	0.00000E+000	-1.11983E-003	-3.59960E-001	-9.74171E-001	3.57720E+000	10	...........
	41	0.56	1.80606E-001	-6.01393E-003	0.00000E+000	-1.08615E-003	-3.59960E-001	-9.76681E-001	3.57720E+000	10	...........
	42	0.573333	1.75087E-001	-6.01732E-003	0.00000E+000	-1.05356E-003	-3.59960E-001	-9.85469E-001	3.57720E+000	10	...........
	43	0.586667	1.69656E-001	-6.01876E-003	0.00000E+000	-1.02112E-003	-3.59960E-001	-9.76061E-001	3.57720E+000	10	...........
	44	0.6	1.64270E-001	-6.01432E-003	0.00000E+000	-9.87971E-004	-3.59960E-001	-9.78561E-001	3.57720E+000	10	...........
	45	0.613333	1.58894E-001	-6.01679E-003	0.00000E+000	-9.56032E-004	-3.59960E-001	-9.87013E-001	3.57720E+000	10	...........
	46	0.626667	1.53591E-001	-6.01760E-003	0.00000E+000	-9.24248E-004	-3.59960E-001	-9.77136E-001	3.57720E+000	10	...........
	47	0.64	1.48279E-001	-6.01326E-003	0.00000E+000	-8.91642E-004	-3.59960E-001	-9.79357E-001	3.57720E+000	10	...........
	48	0.653333	1.43034E-001	-6.01367E-003	0.00000E+000	-8.60157E-004	-3.59960E-001	-9.88447E-001	3.57720E+000	10	...........
	49	0.666667	1.37763E-001	-6.01580E-003	0.00000E+000	-8.28755E-004	-3.59960E-001	-9.78443E-001	3.57720E+000	10	...........
	50	0.68	1.32568E-001	-6.01433E-003	0.00000E+000	-7.97306E-004	-3.59960E-001	-9.80659E-001	3.57720E+000	10	...........
	51	0.693333	1.27413E-001	-6.01628E-003	0.00000E+000	-7.66554E-004	-3.59960E-001	-9.89544E-001	3.57720E+000	10	...........
	52	0.706667	1.22254E-001	-6.01586E-003	0.00000E+000	-7.35463E-004	-3.59960E-001	-9.79318E-001	3.57720E+000	10	...........
	53	0.72	1.17149E-001	-6.01809E-003	0.00000E+000	-7.05011E-004	-3.59960E-001	-9.81973E-001	3.57720E+000	10	...........
	54	0.733333	1.12042E-001	-6.01349E-003	0.00000E+000	-6.73765E-004	-3.59960E-001	-9.91041E-001	3.57720E+000	10	...........
	55	0.746667	1.06980E-001	-6.01675E-003	0.00000E+000	-6.43674E-004	-3.59960E-001	-9.80718E-001	3.57720E+000	10	...........
	56	0.76	1.01920E-001	-6.01295E-003	0.00000E+000	-6.12837E-004	-3.59960E-001	-9.82272E-001	3.57807E+000	10	...........
	57	0.773333	9.68803E-002	-6.00966E-003	0.00000E+000	-5.82218E-004	-3.59960E-001	-9.90976E-001	3.57860E+000	10	...........
	58	0.786667	9.18698E-002	-6.01560E-003	0.00000E+000	-5.52652E-004	-3.59960E-001	-9.80757E-001	3.57860E+000	10	...........
	59	0.8	8.68952E-002	-6.01821E-003	0.00000E+000	-5.22953E-004	-3.59960E-001	-9.82533E-001	3.57860E+000	10	...........
	60	0.813333	8.19670E-002	-6.01872E-003	0.00000E+000	-4.93336E-004	-3.59960E-001	-9.90907E-001	3.57860E+000	10	...........
	61	0.826667	7.70858E-002	-6.01480E-003	0.00000E+000	-4.63655E-004	-3.59960E-001	-9.80653E-001	3.57860E+000	10	...........
	62	0.84	7.21959E-002	-6.01622E-003	0.00000E+000	-4.34346E-004	-3.59960E-001	-9.82096E-001	3.57860E+000	10	...........
	63	0.853333	6.73213E-002	-6.01752E-003	0.00000E+000	-4.05107E-004	-3.59960E-001	-9.91168E-001	3.57860E+000	10	...........
	64	0.866667	6.24765E-002	-6.01841E-003	0.00000E+000	-3.76009E-004	-3.59960E-001	-9.80637E-001	3.57860E+000	10	...........
	65	0.88	5.76814E-002	-6.01436E-003	0.00000E+000	-3.46916E-004	-3.59960E-001	-9.82408E-001	3.57860E+000	10	...........
	66	0.893333	5.29029E-002	-6.01317E-003	0.00000E+000	-3.18114E-004	-3.59960E-001	-9.91222E-001	3.57860E+000	10	...........
	67	0.906667	4.81693E-002	-6.01373E-003	0.00000E+000	-2.89677E-004	-3.59960E-001	-9.80634E-001	3.57860E+000	10	...........
	68	0.92	4.34538E-002	-6.00949E-003	0.00000E+000	-2.61135E-004	-3.59960E-001	-9.82427E-001	3.57860E+000	10	...........
	69	0.933333	3.87308E-002	-6.01509E-003	0.00000E+000	-2.32969E-004	-3.59960E-001	-9.91171E-001	3.57860E+000	10	...........
	70	0.946667	3.40432E-002	-6.01502E-003	0.00000E+000	-2.04770E-004	-3.59960E-001	-9.80643E-001	3.57860E+000	10	...........
	71	0.96	2.93469E-002	-6.01422E-003	0.00000E+000	-1.76499E-004	-3.59960E-001	-9.82258E-001	3.57860E+000	10	...........
	72	0.97333	2.46884E-002	-6.01333E-003	0.00000E+000	-1.48459E-004	-3.59960E-001	-9.90976E-001	3.57860E+000	10	...........
	73	0.98667	2.00875E-002	-6.01270E-003	0.00000E+000	-1.20780E-004	-3.59960E-001	-9.80657E-001	3.57860E+000	10	...........
	74	1	1.54627E-002	-6.02006E-003	0.00000E+000	-9.30865E-005	-3.59960E-001	-9.82673E-001	3.57860E+000	10	...........
	75	1.01333	1.08970E-002	-6.01430E-003	0.00000E+000	-6.55380E-005	-3.59960E-001	-9.91367E-001	3.57860E+000	10	...........
	76	1.02667	6.35900E-003	-6.01151E-003	0.00000E+000	-3.82272E-005	-3.59960E-001	-9.81048E-001	3.57860E+000	10	...........
	77	1.04	1.81547E-003	-6.01777E-003	0.00000E+000	-1.09251E-005	-3.59960E-001	-9.82598E-001	3.57860E+000	10	...........
STARTTIMEOFFSET	QUANT	24.91833	Start Time Offset (s)