File: Data/CV_CRGO300517_1/PWRCCD_CRGO300517_1/CHARGE_DISCHARGE/DISCHARGE_#103.DTA
EXPLAIN
TAG	PWR800_DISCHARGE
TITLE	LABEL	PWR Cyclic Charge Discharge (Cell) - Discharge Step	Test &Identifier
DATE	LABEL	22-6-2017	Date
TIME	LABEL	15:39:39	Time
NOTES	NOTES	3	&Notes...
	supercap test cell
	0.6mg
	6M KOH
PSTAT	PSTAT	IFC5000-01520	Potentiostat
CAPACITY	QUANT	1.00000E-003	Capacity (A-hr)
CELLTYPE	SELECTOR	1	&Cell Type
WORKINGCONNECTION	SELECTOR	0	&Working Lead
MAXDISCHARGETIME	VARIABLEANDUNITS	1.00000E+002	s	1.00000E+002	second(s)	Max &Discharge Time
DISCHARGEMODE	MULTIPARAM	0	6.00000E-003	&Discharge Mode	Constant Current	Amp(s)
SAMPLETIME	QUANT	1.00000E-002	Sa&mple Period (s)
DISCHARGESTOPAT1	MULTIPARAM	3	0.00000E+000	Discharge Stop At &1	Voltage < Limit	V
DISCHARGESTOPAT2	MULTIPARAM	0	0.00000E+000	Discharge Stop At &2	None	N/A
AESBHCSELECTOR	TOGGLE	F	Save Both Half Cells
IRCOMP	TOGGLE	F	IR &Measure
EOC	QUANT	0	Open Circuit (V)
SEQUENCER	TOGGLE	TRUE	Run as Sequence
PSTATMODEL	IQUANT	53	Pstat Model
PSTATSECTION	LABEL	IFC5000-01520	Pstat Section
PSTATSERIALNO	LABEL	01520	Pstat Serial Number
CTRLMODE	IQUANT	0	Control Mode
ELECTROMETER	IQUANT	1	RE=0 or CS=1
IESTAB	IQUANT	0	I/E Stability
CASPEED	IQUANT	4	Control Amp Speed
CONVENTION	IQUANT	1	Current Convention
ICHRANGE	IQUANT	2	Ich Range
ICHRANGEMODE	TOGGLE	T	Ich Auto Range
ICHOFFSETENABLE	TOGGLE	F	Ich Offset Enable
ICHOFFSET	QUANT	0	Ich Offset (V)
ICHFILTER	IQUANT	1	Ich Filter
VCHRANGE	IQUANT	2	Vch Range
VCHRANGEMODE	TOGGLE	T	Vch Auto Range
VCHOFFSETENABLE	TOGGLE	F	Vch Offset Enable
VCHOFFSET	QUANT	0	Vch Offset (V)
VCHFILTER	IQUANT	1	Vch Filter
IERANGELOWERLIMIT	IQUANT	9	I/E Range Lower Limit
IERANGEMODE	TOGGLE	F	I/E AutoRange
IERANGE	IQUANT	10	I/E Range
ACHSELECT	IQUANT	1	Ach Select
ACHRANGE	IQUANT	2	Ach Range
ACHOFFSETENABLE	TOGGLE	F	Ach Offset Enable
ACHOFFSET	QUANT	0	Ach Offset (V)
ACHFILTER	IQUANT	1	Ach Filter
CABLEID	IQUANT	14	Cable ID
DCCALDATE	LABEL	20-10-2016	DC Calibration Date
ACCALDATE	LABEL	12/3/2015	AC Calibration Date
FRAMEWORKVERSION	QUANT	7.01	Framework Version
INSTRUMENTVERSION	LABEL	4.00	Instrument Version
CURVE	TABLE	69
	Pt	T	Vf	Im	Vu	Pwr	Sig	Ach	Temp	IERange	Over
	#	s	V	A	V	W	V	V	deg C	#	bits
	0	0.013333	4.28119E-001	-6.01793E-003	0.00000E+000	-2.57639E-003	-3.59960E-001	-1.02095E+000	3.57840E+000	10	...........
	1	0.026667	4.17917E-001	-6.01778E-003	0.00000E+000	-2.51493E-003	-3.59960E-001	-1.02978E+000	3.57840E+000	10	...........
	2	0.04	4.08395E-001	-6.01643E-003	0.00000E+000	-2.45708E-003	-3.59960E-001	-1.02538E+000	3.57840E+000	10	...........
	3	0.053333	3.99373E-001	-6.01292E-003	0.00000E+000	-2.40140E-003	-3.59960E-001	-1.02105E+000	3.57840E+000	10	...........
	4	0.066667	3.90701E-001	-6.01753E-003	0.00000E+000	-2.35105E-003	-3.59960E-001	-1.02980E+000	3.57840E+000	10	...........
	5	0.08	3.82231E-001	-6.01700E-003	0.00000E+000	-2.29988E-003	-3.59960E-001	-1.02574E+000	3.57840E+000	10	...........
	6	0.093333	3.73987E-001	-6.01636E-003	0.00000E+000	-2.25004E-003	-3.59960E-001	-1.02133E+000	3.57840E+000	10	...........
	7	0.106667	3.65929E-001	-6.01699E-003	0.00000E+000	-2.20179E-003	-3.59960E-001	-1.02987E+000	3.57840E+000	10	...........
	8	0.12	3.57987E-001	-6.01741E-003	0.00000E+000	-2.15416E-003	-3.59960E-001	-1.02570E+000	3.57840E+000	10	...........
	9	0.133333	3.50256E-001	-6.01106E-003	0.00000E+000	-2.10541E-003	-3.59960E-001	-1.02146E+000	3.57840E+000	10	...........
	10	0.146667	3.42600E-001	-6.01077E-003	0.00000E+000	-2.05929E-003	-3.59960E-001	-1.03017E+000	3.57840E+000	10	...........
	11	0.16	3.35036E-001	-6.01332E-003	0.00000E+000	-2.01468E-003	-3.59960E-001	-1.02617E+000	3.57840E+000	10	...........
	12	0.173333	3.27534E-001	-6.01599E-003	0.00000E+000	-1.97044E-003	-3.59960E-001	-1.02182E+000	3.57840E+000	10	...........
	13	0.186667	3.20138E-001	-6.01589E-003	0.00000E+000	-1.92592E-003	-3.59960E-001	-1.03050E+000	3.57840E+000	10	...........
	14	0.2	3.12877E-001	-6.01531E-003	0.00000E+000	-1.88205E-003	-3.59960E-001	-1.02664E+000	3.57840E+000	10	...........
	15	0.213333	3.05687E-001	-6.01633E-003	0.00000E+000	-1.83912E-003	-3.59960E-001	-1.02198E+000	3.57840E+000	10	...........
	16	0.226667	2.98570E-001	-6.01630E-003	0.00000E+000	-1.79628E-003	-3.59960E-001	-1.03074E+000	3.57840E+000	10	...........
	17	0.24	2.91518E-001	-6.01163E-003	0.00000E+000	-1.75249E-003	-3.59960E-001	-1.02646E+000	3.57840E+000	10	...........
	18	0.253333	2.84514E-001	-6.01405E-003	0.00000E+000	-1.71108E-003	-3.59960E-001	-1.02211E+000	3.57840E+000	10	...........
	19	0.266667	2.77580E-001	-6.01116E-003	0.00000E+000	-1.66858E-003	-3.59960E-001	-1.03034E+000	3.57840E+000	10	...........
	20	0.28	2.70768E-001	-6.01337E-003	0.00000E+000	-1.62823E-003	-3.59960E-001	-1.02656E+000	3.57840E+000	10	...........
	21	0.293333	2.63991E-001	-6.01557E-003	0.00000E+000	-1.58806E-003	-3.59960E-001	-1.02208E+000	3.57840E+000	10	...........
	22	0.306667	2.57291E-001	-6.01525E-003	0.00000E+000	-1.54767E-003	-3.59960E-001	-1.03044E+000	3.57840E+000	10	...........
	23	0.32	2.50628E-001	-6.01489E-003	0.00000E+000	-1.50750E-003	-3.59960E-001	-1.02649E+000	3.57840E+000	10	...........
	24	0.333333	2.44038E-001	-6.01583E-003	0.00000E+000	-1.46809E-003	-3.59960E-001	-1.02219E+000	3.57840E+000	10	...........
	25	0.346667	2.37498E-001	-6.01241E-003	0.00000E+000	-1.42793E-003	-3.59960E-001	-1.03082E+000	3.57840E+000	10	...........
	26	0.36	2.31002E-001	-6.01372E-003	0.00000E+000	-1.38918E-003	-3.59960E-001	-1.02712E+000	3.57840E+000	10	...........
	27	0.373333	2.24612E-001	-6.01504E-003	0.00000E+000	-1.35105E-003	-3.59960E-001	-1.02233E+000	3.57840E+000	10	...........
	28	0.386667	2.18247E-001	-6.01341E-003	0.00000E+000	-1.31241E-003	-3.59960E-001	-1.03065E+000	3.57840E+000	10	...........
	29	0.4	2.11948E-001	-6.01716E-003	0.00000E+000	-1.27532E-003	-3.59960E-001	-1.02714E+000	3.57840E+000	10	...........
	30	0.413333	2.05720E-001	-6.01932E-003	0.00000E+000	-1.23830E-003	-3.59960E-001	-1.02268E+000	3.57840E+000	10	...........
	31	0.426667	1.99492E-001	-6.01560E-003	0.00000E+000	-1.20006E-003	-3.59960E-001	-1.03103E+000	3.57840E+000	10	...........
	32	0.44	1.93331E-001	-6.01567E-003	0.00000E+000	-1.16302E-003	-3.59960E-001	-1.02722E+000	3.57840E+000	10	...........
	33	0.453333	1.87229E-001	-6.01226E-003	0.00000E+000	-1.12567E-003	-3.59960E-001	-1.02278E+000	3.57840E+000	10	...........
	34	0.466667	1.81206E-001	-6.00710E-003	0.00000E+000	-1.08852E-003	-3.59960E-001	-1.03110E+000	3.57840E+000	10	...........
	35	0.48	1.75208E-001	-6.01662E-003	0.00000E+000	-1.05416E-003	-3.59960E-001	-1.02778E+000	3.57824E+000	10	...........
	36	0.493333	1.69286E-001	-6.01550E-003	0.00000E+000	-1.01834E-003	-3.59960E-001	-1.02319E+000	3.57710E+000	10	...........
	37	0.506667	1.63378E-001	-6.01689E-003	0.00000E+000	-9.83026E-004	-3.59960E-001	-1.03135E+000	3.57710E+000	10	...........
	38	0.52	1.57514E-001	-6.01720E-003	0.00000E+000	-9.47793E-004	-3.59960E-001	-1.02751E+000	3.57710E+000	10	...........
	39	0.533333	1.51717E-001	-6.01251E-003	0.00000E+000	-9.12202E-004	-3.59960E-001	-1.02312E+000	3.57710E+000	10	...........
	40	0.546667	1.45939E-001	-6.01661E-003	0.00000E+000	-8.78059E-004	-3.59960E-001	-1.03129E+000	3.57710E+000	10	...........
	41	0.56	1.40215E-001	-6.01719E-003	0.00000E+000	-8.43698E-004	-3.59960E-001	-1.02792E+000	3.57710E+000	10	...........
	42	0.573333	1.34530E-001	-6.01529E-003	0.00000E+000	-8.09236E-004	-3.59960E-001	-1.02307E+000	3.57710E+000	10	...........
	43	0.586667	1.28915E-001	-6.01381E-003	0.00000E+000	-7.75271E-004	-3.59960E-001	-1.03097E+000	3.57710E+000	10	...........
	44	0.6	1.23325E-001	-6.01813E-003	0.00000E+000	-7.42185E-004	-3.59960E-001	-1.02770E+000	3.57710E+000	10	...........
	45	0.613333	1.17763E-001	-6.01631E-003	0.00000E+000	-7.08500E-004	-3.59960E-001	-1.02291E+000	3.57710E+000	10	...........
	46	0.626667	1.12250E-001	-6.01923E-003	0.00000E+000	-6.75658E-004	-3.59960E-001	-1.03125E+000	3.57710E+000	10	...........
	47	0.64	1.06761E-001	-6.01158E-003	0.00000E+000	-6.41803E-004	-3.59960E-001	-1.02754E+000	3.57710E+000	10	...........
	48	0.653333	1.01335E-001	-6.01237E-003	0.00000E+000	-6.09262E-004	-3.59960E-001	-1.02281E+000	3.57710E+000	10	...........
	49	0.666667	9.59189E-002	-6.01501E-003	0.00000E+000	-5.76952E-004	-3.59960E-001	-1.03126E+000	3.57710E+000	10	...........
	50	0.68	9.05427E-002	-6.01552E-003	0.00000E+000	-5.44661E-004	-3.59960E-001	-1.02797E+000	3.57710E+000	10	...........
	51	0.693333	8.52069E-002	-6.01803E-003	0.00000E+000	-5.12778E-004	-3.59960E-001	-1.02321E+000	3.57710E+000	10	...........
	52	0.706667	7.98884E-002	-6.01592E-003	0.00000E+000	-4.80603E-004	-3.59960E-001	-1.03125E+000	3.57710E+000	10	...........
	53	0.72	7.46261E-002	-6.01467E-003	0.00000E+000	-4.48852E-004	-3.59960E-001	-1.02807E+000	3.57710E+000	10	...........
	54	0.733333	6.94295E-002	-6.01552E-003	0.00000E+000	-4.17654E-004	-3.59960E-001	-1.02321E+000	3.57710E+000	10	...........
	55	0.746667	6.42400E-002	-6.01661E-003	0.00000E+000	-3.86507E-004	-3.59960E-001	-1.03143E+000	3.57710E+000	10	...........
	56	0.76	5.90808E-002	-6.01590E-003	0.00000E+000	-3.55424E-004	-3.59960E-001	-1.02832E+000	3.57710E+000	10	...........
	57	0.773333	5.39376E-002	-6.01536E-003	0.00000E+000	-3.24454E-004	-3.59960E-001	-1.02318E+000	3.57710E+000	10	...........
	58	0.786667	4.88898E-002	-6.01679E-003	0.00000E+000	-2.94160E-004	-3.59960E-001	-1.03151E+000	3.57710E+000	10	...........
	59	0.8	4.38857E-002	-6.01155E-003	0.00000E+000	-2.63821E-004	-3.59960E-001	-1.02854E+000	3.57710E+000	10	...........
	60	0.813333	3.88545E-002	-6.01346E-003	0.00000E+000	-2.33650E-004	-3.59960E-001	-1.02376E+000	3.57710E+000	10	...........
	61	0.826667	3.38452E-002	-6.01361E-003	0.00000E+000	-2.03532E-004	-3.59960E-001	-1.03162E+000	3.57710E+000	10	...........
	62	0.84	2.88976E-002	-6.01875E-003	0.00000E+000	-1.73927E-004	-3.59960E-001	-1.02840E+000	3.57710E+000	10	...........
	63	0.853333	2.39732E-002	-6.01551E-003	0.00000E+000	-1.44211E-004	-3.59960E-001	-1.02352E+000	3.57710E+000	10	...........
	64	0.866667	1.90950E-002	-6.01400E-003	0.00000E+000	-1.14837E-004	-3.59960E-001	-1.03181E+000	3.57710E+000	10	...........
	65	0.88	1.42076E-002	-6.01407E-003	0.00000E+000	-8.54456E-005	-3.59960E-001	-1.02864E+000	3.57710E+000	10	...........
	66	0.893333	9.36061E-003	-6.01754E-003	0.00000E+000	-5.63278E-005	-3.59960E-001	-1.02388E+000	3.57710E+000	10	...........
	67	0.906667	4.59379E-003	-6.01322E-003	0.00000E+000	-2.76235E-005	-3.59960E-001	-1.03163E+000	3.57710E+000	10	...........
	68	0.915	7.15066E-004	-6.01414E-003	0.00000E+000	-4.30051E-006	-3.59960E-001	-1.02336E+000	3.57710E+000	10	...........
STARTTIMEOFFSET	QUANT	201.6683	Start Time Offset (s)