File: Data/CV_CRGO300517_1/PWRCCD_CRGO300517_1/CHARGE_DISCHARGE/DISCHARGE_#119.DTA
EXPLAIN
TAG	PWR800_DISCHARGE
TITLE	LABEL	PWR Cyclic Charge Discharge (Cell) - Discharge Step	Test &Identifier
DATE	LABEL	22-6-2017	Date
TIME	LABEL	15:40:22	Time
NOTES	NOTES	3	&Notes...
	supercap test cell
	0.6mg
	6M KOH
PSTAT	PSTAT	IFC5000-01520	Potentiostat
CAPACITY	QUANT	1.00000E-003	Capacity (A-hr)
CELLTYPE	SELECTOR	1	&Cell Type
WORKINGCONNECTION	SELECTOR	0	&Working Lead
MAXDISCHARGETIME	VARIABLEANDUNITS	1.00000E+002	s	1.00000E+002	second(s)	Max &Discharge Time
DISCHARGEMODE	MULTIPARAM	0	6.00000E-003	&Discharge Mode	Constant Current	Amp(s)
SAMPLETIME	QUANT	1.00000E-002	Sa&mple Period (s)
DISCHARGESTOPAT1	MULTIPARAM	3	0.00000E+000	Discharge Stop At &1	Voltage < Limit	V
DISCHARGESTOPAT2	MULTIPARAM	0	0.00000E+000	Discharge Stop At &2	None	N/A
AESBHCSELECTOR	TOGGLE	F	Save Both Half Cells
IRCOMP	TOGGLE	F	IR &Measure
EOC	QUANT	0	Open Circuit (V)
SEQUENCER	TOGGLE	TRUE	Run as Sequence
PSTATMODEL	IQUANT	53	Pstat Model
PSTATSECTION	LABEL	IFC5000-01520	Pstat Section
PSTATSERIALNO	LABEL	01520	Pstat Serial Number
CTRLMODE	IQUANT	0	Control Mode
ELECTROMETER	IQUANT	1	RE=0 or CS=1
IESTAB	IQUANT	0	I/E Stability
CASPEED	IQUANT	4	Control Amp Speed
CONVENTION	IQUANT	1	Current Convention
ICHRANGE	IQUANT	2	Ich Range
ICHRANGEMODE	TOGGLE	T	Ich Auto Range
ICHOFFSETENABLE	TOGGLE	F	Ich Offset Enable
ICHOFFSET	QUANT	0	Ich Offset (V)
ICHFILTER	IQUANT	1	Ich Filter
VCHRANGE	IQUANT	2	Vch Range
VCHRANGEMODE	TOGGLE	T	Vch Auto Range
VCHOFFSETENABLE	TOGGLE	F	Vch Offset Enable
VCHOFFSET	QUANT	0	Vch Offset (V)
VCHFILTER	IQUANT	1	Vch Filter
IERANGELOWERLIMIT	IQUANT	9	I/E Range Lower Limit
IERANGEMODE	TOGGLE	F	I/E AutoRange
IERANGE	IQUANT	10	I/E Range
ACHSELECT	IQUANT	1	Ach Select
ACHRANGE	IQUANT	2	Ach Range
ACHOFFSETENABLE	TOGGLE	F	Ach Offset Enable
ACHOFFSET	QUANT	0	Ach Offset (V)
ACHFILTER	IQUANT	1	Ach Filter
CABLEID	IQUANT	14	Cable ID
DCCALDATE	LABEL	20-10-2016	DC Calibration Date
ACCALDATE	LABEL	12/3/2015	AC Calibration Date
FRAMEWORKVERSION	QUANT	7.01	Framework Version
INSTRUMENTVERSION	LABEL	4.00	Instrument Version
CURVE	TABLE	68
	Pt	T	Vf	Im	Vu	Pwr	Sig	Ach	Temp	IERange	Over
	#	s	V	A	V	W	V	V	deg C	#	bits
	0	0.013333	4.19176E-001	-6.01643E-003	0.00000E+000	-2.52194E-003	-3.59960E-001	-1.04099E+000	3.57700E+000	10	...........
	1	0.026667	4.09052E-001	-6.01618E-003	0.00000E+000	-2.46093E-003	-3.59960E-001	-1.04040E+000	3.57700E+000	10	...........
	2	0.04	3.99646E-001	-6.01477E-003	0.00000E+000	-2.40377E-003	-3.59960E-001	-1.03277E+000	3.57700E+000	10	...........
	3	0.053333	3.90698E-001	-6.01238E-003	0.00000E+000	-2.34902E-003	-3.59960E-001	-1.04105E+000	3.57700E+000	10	...........
	4	0.066667	3.82072E-001	-6.01430E-003	0.00000E+000	-2.29789E-003	-3.59960E-001	-1.04030E+000	3.57700E+000	10	...........
	5	0.08	3.73726E-001	-6.01254E-003	0.00000E+000	-2.24705E-003	-3.59960E-001	-1.03307E+000	3.57700E+000	10	...........
	6	0.093333	3.65579E-001	-6.01625E-003	0.00000E+000	-2.19941E-003	-3.59960E-001	-1.04150E+000	3.57700E+000	10	...........
	7	0.106667	3.57617E-001	-6.01053E-003	0.00000E+000	-2.14947E-003	-3.59960E-001	-1.04077E+000	3.57700E+000	10	...........
	8	0.12	3.49773E-001	-6.01336E-003	0.00000E+000	-2.10331E-003	-3.59960E-001	-1.03326E+000	3.57700E+000	10	...........
	9	0.133333	3.42037E-001	-6.01342E-003	0.00000E+000	-2.05681E-003	-3.59960E-001	-1.04148E+000	3.57700E+000	10	...........
	10	0.146667	3.34432E-001	-6.01652E-003	0.00000E+000	-2.01212E-003	-3.59960E-001	-1.04085E+000	3.57700E+000	10	...........
	11	0.16	3.26946E-001	-6.01537E-003	0.00000E+000	-1.96670E-003	-3.59960E-001	-1.03355E+000	3.57700E+000	10	...........
	12	0.173333	3.19581E-001	-6.01170E-003	0.00000E+000	-1.92123E-003	-3.59960E-001	-1.04167E+000	3.57700E+000	10	...........
	13	0.186667	3.12241E-001	-6.01327E-003	0.00000E+000	-1.87759E-003	-3.59960E-001	-1.04115E+000	3.57700E+000	10	...........
	14	0.2	3.05010E-001	-6.01665E-003	0.00000E+000	-1.83514E-003	-3.59960E-001	-1.03329E+000	3.57700E+000	10	...........
	15	0.213333	2.97837E-001	-6.01351E-003	0.00000E+000	-1.79105E-003	-3.59960E-001	-1.04153E+000	3.57700E+000	10	...........
	16	0.226667	2.90800E-001	-6.01394E-003	0.00000E+000	-1.74885E-003	-3.59960E-001	-1.04129E+000	3.57700E+000	10	...........
	17	0.24	2.83781E-001	-6.01304E-003	0.00000E+000	-1.70639E-003	-3.59960E-001	-1.03350E+000	3.57700E+000	10	...........
	18	0.253333	2.76864E-001	-6.01519E-003	0.00000E+000	-1.66539E-003	-3.59960E-001	-1.04155E+000	3.57700E+000	10	...........
	19	0.266667	2.70041E-001	-6.01685E-003	0.00000E+000	-1.62480E-003	-3.59960E-001	-1.04129E+000	3.57700E+000	10	...........
	20	0.28	2.63257E-001	-6.01313E-003	0.00000E+000	-1.58300E-003	-3.59960E-001	-1.03358E+000	3.57700E+000	10	...........
	21	0.293333	2.56529E-001	-6.01445E-003	0.00000E+000	-1.54288E-003	-3.59960E-001	-1.04181E+000	3.57700E+000	10	...........
	22	0.306667	2.49869E-001	-6.01372E-003	0.00000E+000	-1.50264E-003	-3.59960E-001	-1.04156E+000	3.57700E+000	10	...........
	23	0.32	2.43251E-001	-6.01340E-003	0.00000E+000	-1.46276E-003	-3.59960E-001	-1.03356E+000	3.57700E+000	10	...........
	24	0.333333	2.36690E-001	-6.01575E-003	0.00000E+000	-1.42387E-003	-3.59960E-001	-1.04149E+000	3.57700E+000	10	...........
	25	0.346667	2.30211E-001	-6.01894E-003	0.00000E+000	-1.38562E-003	-3.59960E-001	-1.04165E+000	3.57700E+000	10	...........
	26	0.36	2.23777E-001	-6.01446E-003	0.00000E+000	-1.34590E-003	-3.59960E-001	-1.03396E+000	3.57700E+000	10	...........
	27	0.373333	2.17405E-001	-6.01158E-003	0.00000E+000	-1.30695E-003	-3.59960E-001	-1.04176E+000	3.57700E+000	10	...........
	28	0.386667	2.11100E-001	-6.01653E-003	0.00000E+000	-1.27009E-003	-3.59960E-001	-1.04192E+000	3.57700E+000	10	...........
	29	0.4	2.04810E-001	-6.01435E-003	0.00000E+000	-1.23180E-003	-3.59960E-001	-1.03393E+000	3.57700E+000	10	...........
	30	0.413333	1.98613E-001	-6.01631E-003	0.00000E+000	-1.19492E-003	-3.59960E-001	-1.04189E+000	3.57700E+000	10	...........
	31	0.426667	1.92432E-001	-6.01295E-003	0.00000E+000	-1.15709E-003	-3.59960E-001	-1.04245E+000	3.57700E+000	10	...........
	32	0.44	1.86324E-001	-6.01465E-003	0.00000E+000	-1.12068E-003	-3.59960E-001	-1.03429E+000	3.57700E+000	10	...........
	33	0.453333	1.80283E-001	-6.01410E-003	0.00000E+000	-1.08424E-003	-3.59960E-001	-1.04176E+000	3.57700E+000	10	...........
	34	0.466667	1.74237E-001	-6.01412E-003	0.00000E+000	-1.04788E-003	-3.59960E-001	-1.04239E+000	3.57700E+000	10	...........
	35	0.48	1.68269E-001	-6.01625E-003	0.00000E+000	-1.01235E-003	-3.59960E-001	-1.03426E+000	3.57700E+000	10	...........
	36	0.493333	1.62373E-001	-6.01128E-003	0.00000E+000	-9.76069E-004	-3.59960E-001	-1.04191E+000	3.57700E+000	10	...........
	37	0.506667	1.56517E-001	-6.01263E-003	0.00000E+000	-9.41081E-004	-3.59960E-001	-1.04250E+000	3.57700E+000	10	...........
	38	0.52	1.50680E-001	-6.01778E-003	0.00000E+000	-9.06762E-004	-3.59960E-001	-1.03391E+000	3.57700E+000	10	...........
	39	0.533333	1.44929E-001	-6.01326E-003	0.00000E+000	-8.71499E-004	-3.59960E-001	-1.04148E+000	3.57700E+000	10	...........
	40	0.546667	1.39147E-001	-6.01335E-003	0.00000E+000	-8.36736E-004	-3.59960E-001	-1.04234E+000	3.57700E+000	10	...........
	41	0.56	1.33464E-001	-6.01882E-003	0.00000E+000	-8.03296E-004	-3.59960E-001	-1.03409E+000	3.57700E+000	10	...........
	42	0.573333	1.27806E-001	-6.01245E-003	0.00000E+000	-7.68429E-004	-3.59960E-001	-1.04147E+000	3.57700E+000	10	...........
	43	0.586667	1.22161E-001	-6.01615E-003	0.00000E+000	-7.34939E-004	-3.59960E-001	-1.04244E+000	3.57700E+000	10	...........
	44	0.6	1.16587E-001	-6.01625E-003	0.00000E+000	-7.01419E-004	-3.59960E-001	-1.03404E+000	3.57700E+000	10	...........
	45	0.613333	1.11057E-001	-6.01523E-003	0.00000E+000	-6.68035E-004	-3.59960E-001	-1.04159E+000	3.57700E+000	10	...........
	46	0.626667	1.05601E-001	-6.01642E-003	0.00000E+000	-6.35338E-004	-3.59960E-001	-1.04276E+000	3.57700E+000	10	...........
	47	0.64	1.00136E-001	-6.01900E-003	0.00000E+000	-6.02718E-004	-3.59960E-001	-1.03439E+000	3.57700E+000	10	...........
	48	0.653333	9.47289E-002	-6.01304E-003	0.00000E+000	-5.69609E-004	-3.59960E-001	-1.04152E+000	3.57700E+000	10	...........
	49	0.666667	8.93544E-002	-6.01279E-003	0.00000E+000	-5.37270E-004	-3.59960E-001	-1.04270E+000	3.57700E+000	10	...........
	50	0.68	8.39967E-002	-6.01460E-003	0.00000E+000	-5.05206E-004	-3.59960E-001	-1.03430E+000	3.57700E+000	10	...........
	51	0.693333	7.86991E-002	-6.01496E-003	0.00000E+000	-4.73372E-004	-3.59960E-001	-1.04185E+000	3.57700E+000	10	...........
	52	0.706667	7.34411E-002	-6.01331E-003	0.00000E+000	-4.41624E-004	-3.59960E-001	-1.04289E+000	3.57700E+000	10	...........
	53	0.72	6.81853E-002	-6.01479E-003	0.00000E+000	-4.10120E-004	-3.59960E-001	-1.03455E+000	3.57700E+000	10	...........
	54	0.733333	6.29710E-002	-6.01080E-003	0.00000E+000	-3.78506E-004	-3.59960E-001	-1.04160E+000	3.57700E+000	10	...........
	55	0.746667	5.78006E-002	-6.01394E-003	0.00000E+000	-3.47609E-004	-3.59960E-001	-1.04293E+000	3.57700E+000	10	...........
	56	0.76	5.26927E-002	-6.01745E-003	0.00000E+000	-3.17076E-004	-3.59960E-001	-1.03485E+000	3.57700E+000	10	...........
	57	0.773333	4.76356E-002	-6.01194E-003	0.00000E+000	-2.86382E-004	-3.59960E-001	-1.04185E+000	3.57787E+000	10	...........
	58	0.786667	4.25907E-002	-6.01309E-003	0.00000E+000	-2.56102E-004	-3.59960E-001	-1.04329E+000	3.57840E+000	10	...........
	59	0.8	3.75679E-002	-6.01619E-003	0.00000E+000	-2.26016E-004	-3.59960E-001	-1.03472E+000	3.57840E+000	10	...........
	60	0.813333	3.25832E-002	-6.01570E-003	0.00000E+000	-1.96011E-004	-3.59960E-001	-1.04193E+000	3.57840E+000	10	...........
	61	0.826667	2.76182E-002	-6.01259E-003	0.00000E+000	-1.66057E-004	-3.59960E-001	-1.04356E+000	3.57840E+000	10	...........
	62	0.84	2.26900E-002	-6.01357E-003	0.00000E+000	-1.36448E-004	-3.59960E-001	-1.03457E+000	3.57840E+000	10	...........
	63	0.853333	1.77794E-002	-6.01352E-003	0.00000E+000	-1.06917E-004	-3.59960E-001	-1.04138E+000	3.57840E+000	10	...........
	64	0.866667	1.28906E-002	-6.01535E-003	0.00000E+000	-7.75418E-005	-3.59960E-001	-1.04310E+000	3.57840E+000	10	...........
	65	0.88	8.09418E-003	-6.01379E-003	0.00000E+000	-4.86766E-005	-3.59960E-001	-1.03439E+000	3.57840E+000	10	...........
	66	0.893333	3.27480E-003	-6.01629E-003	0.00000E+000	-1.97022E-005	-3.59960E-001	-1.04139E+000	3.57840E+000	10	...........
	67	0.898333	1.98403E-005	-6.01156E-003	0.00000E+000	-1.19271E-007	-3.59960E-001	-1.03246E+000	3.57840E+000	10	...........
STARTTIMEOFFSET	QUANT	230.8916	Start Time Offset (s)