File: Data/CV_CRGO300517_1/PWRCCD_CRGO300517_1/CHARGE_DISCHARGE/DISCHARGE_#10.DTA
EXPLAIN
TAG	PWR800_DISCHARGE
TITLE	LABEL	PWR Cyclic Charge Discharge (Cell) - Discharge Step	Test &Identifier
DATE	LABEL	22-6-2017	Date
TIME	LABEL	15:35:24	Time
NOTES	NOTES	3	&Notes...
	supercap test cell
	0.6mg
	6M KOH
PSTAT	PSTAT	IFC5000-01520	Potentiostat
CAPACITY	QUANT	1.00000E-003	Capacity (A-hr)
CELLTYPE	SELECTOR	1	&Cell Type
WORKINGCONNECTION	SELECTOR	0	&Working Lead
MAXDISCHARGETIME	VARIABLEANDUNITS	1.00000E+002	s	1.00000E+002	second(s)	Max &Discharge Time
DISCHARGEMODE	MULTIPARAM	0	6.00000E-003	&Discharge Mode	Constant Current	Amp(s)
SAMPLETIME	QUANT	1.00000E-002	Sa&mple Period (s)
DISCHARGESTOPAT1	MULTIPARAM	3	0.00000E+000	Discharge Stop At &1	Voltage < Limit	V
DISCHARGESTOPAT2	MULTIPARAM	0	0.00000E+000	Discharge Stop At &2	None	N/A
AESBHCSELECTOR	TOGGLE	F	Save Both Half Cells
IRCOMP	TOGGLE	F	IR &Measure
EOC	QUANT	0	Open Circuit (V)
SEQUENCER	TOGGLE	TRUE	Run as Sequence
PSTATMODEL	IQUANT	53	Pstat Model
PSTATSECTION	LABEL	IFC5000-01520	Pstat Section
PSTATSERIALNO	LABEL	01520	Pstat Serial Number
CTRLMODE	IQUANT	0	Control Mode
ELECTROMETER	IQUANT	1	RE=0 or CS=1
IESTAB	IQUANT	0	I/E Stability
CASPEED	IQUANT	4	Control Amp Speed
CONVENTION	IQUANT	1	Current Convention
ICHRANGE	IQUANT	2	Ich Range
ICHRANGEMODE	TOGGLE	T	Ich Auto Range
ICHOFFSETENABLE	TOGGLE	F	Ich Offset Enable
ICHOFFSET	QUANT	0	Ich Offset (V)
ICHFILTER	IQUANT	1	Ich Filter
VCHRANGE	IQUANT	2	Vch Range
VCHRANGEMODE	TOGGLE	T	Vch Auto Range
VCHOFFSETENABLE	TOGGLE	F	Vch Offset Enable
VCHOFFSET	QUANT	0	Vch Offset (V)
VCHFILTER	IQUANT	1	Vch Filter
IERANGELOWERLIMIT	IQUANT	9	I/E Range Lower Limit
IERANGEMODE	TOGGLE	F	I/E AutoRange
IERANGE	IQUANT	10	I/E Range
ACHSELECT	IQUANT	1	Ach Select
ACHRANGE	IQUANT	2	Ach Range
ACHOFFSETENABLE	TOGGLE	F	Ach Offset Enable
ACHOFFSET	QUANT	0	Ach Offset (V)
ACHFILTER	IQUANT	1	Ach Filter
CABLEID	IQUANT	14	Cable ID
DCCALDATE	LABEL	20-10-2016	DC Calibration Date
ACCALDATE	LABEL	12/3/2015	AC Calibration Date
FRAMEWORKVERSION	QUANT	7.01	Framework Version
INSTRUMENTVERSION	LABEL	4.00	Instrument Version
CURVE	TABLE	79
	Pt	T	Vf	Im	Vu	Pwr	Sig	Ach	Temp	IERange	Over
	#	s	V	A	V	W	V	V	deg C	#	bits
	0	0.013333	4.53270E-001	-6.01312E-003	0.00000E+000	-2.72556E-003	-3.59960E-001	-9.81428E-001	3.57720E+000	10	...........
	1	0.026667	4.43619E-001	-6.01611E-003	0.00000E+000	-2.66886E-003	-3.59960E-001	-9.74031E-001	3.57720E+000	10	...........
	2	0.04	4.34687E-001	-6.01364E-003	0.00000E+000	-2.61405E-003	-3.59960E-001	-9.70665E-001	3.57720E+000	10	...........
	3	0.053333	4.26245E-001	-6.01613E-003	0.00000E+000	-2.56435E-003	-3.59960E-001	-9.81821E-001	3.57720E+000	10	...........
	4	0.066667	4.18125E-001	-6.01437E-003	0.00000E+000	-2.51476E-003	-3.59960E-001	-9.74424E-001	3.57720E+000	10	...........
	5	0.08	4.10236E-001	-6.01602E-003	0.00000E+000	-2.46798E-003	-3.59960E-001	-9.70521E-001	3.57720E+000	10	...........
	6	0.093333	4.02538E-001	-6.01669E-003	0.00000E+000	-2.42195E-003	-3.59960E-001	-9.81384E-001	3.57720E+000	10	...........
	7	0.106667	3.95009E-001	-6.01606E-003	0.00000E+000	-2.37640E-003	-3.59960E-001	-9.74432E-001	3.57720E+000	10	...........
	8	0.12	3.87614E-001	-6.01377E-003	0.00000E+000	-2.33102E-003	-3.59960E-001	-9.70557E-001	3.57720E+000	10	...........
	9	0.133333	3.80346E-001	-6.01088E-003	0.00000E+000	-2.28621E-003	-3.59960E-001	-9.81684E-001	3.57720E+000	10	...........
	10	0.146667	3.73167E-001	-6.01665E-003	0.00000E+000	-2.24522E-003	-3.59960E-001	-9.74618E-001	3.57720E+000	10	...........
	11	0.16	3.66140E-001	-6.01508E-003	0.00000E+000	-2.20236E-003	-3.59960E-001	-9.70666E-001	3.57720E+000	10	...........
	12	0.173333	3.59165E-001	-6.01487E-003	0.00000E+000	-2.16033E-003	-3.59960E-001	-9.81759E-001	3.57720E+000	10	...........
	13	0.186667	3.52275E-001	-6.01793E-003	0.00000E+000	-2.11996E-003	-3.59960E-001	-9.75237E-001	3.57720E+000	10	...........
	14	0.2	3.45477E-001	-6.01377E-003	0.00000E+000	-2.07762E-003	-3.59960E-001	-9.71016E-001	3.57720E+000	10	...........
	15	0.213333	3.38708E-001	-6.01621E-003	0.00000E+000	-2.03774E-003	-3.59960E-001	-9.81833E-001	3.57720E+000	10	...........
	16	0.226667	3.32038E-001	-6.01404E-003	0.00000E+000	-1.99689E-003	-3.59960E-001	-9.75463E-001	3.57720E+000	10	...........
	17	0.24	3.25454E-001	-6.01413E-003	0.00000E+000	-1.95732E-003	-3.59960E-001	-9.71289E-001	3.57720E+000	10	...........
	18	0.253333	3.18899E-001	-6.01580E-003	0.00000E+000	-1.91843E-003	-3.59960E-001	-9.82298E-001	3.57720E+000	10	...........
	19	0.266667	3.12411E-001	-6.01370E-003	0.00000E+000	-1.87875E-003	-3.59960E-001	-9.75679E-001	3.57720E+000	10	...........
	20	0.28	3.05999E-001	-6.01852E-003	0.00000E+000	-1.84166E-003	-3.59960E-001	-9.71291E-001	3.57720E+000	10	...........
	21	0.293333	2.99630E-001	-6.01372E-003	0.00000E+000	-1.80189E-003	-3.59960E-001	-9.82203E-001	3.57720E+000	10	...........
	22	0.306667	2.93328E-001	-6.01578E-003	0.00000E+000	-1.76460E-003	-3.59960E-001	-9.76079E-001	3.57720E+000	10	...........
	23	0.32	2.87082E-001	-6.01344E-003	0.00000E+000	-1.72635E-003	-3.59960E-001	-9.71772E-001	3.57720E+000	10	...........
	24	0.333333	2.80877E-001	-6.01365E-003	0.00000E+000	-1.68910E-003	-3.59960E-001	-9.82792E-001	3.57720E+000	10	...........
	25	0.346667	2.74752E-001	-6.01644E-003	0.00000E+000	-1.65303E-003	-3.59960E-001	-9.76188E-001	3.57720E+000	10	...........
	26	0.36	2.68636E-001	-6.01349E-003	0.00000E+000	-1.61544E-003	-3.59960E-001	-9.71837E-001	3.57720E+000	10	...........
	27	0.373333	2.62591E-001	-6.01615E-003	0.00000E+000	-1.57979E-003	-3.59960E-001	-9.82958E-001	3.57720E+000	10	...........
	28	0.386667	2.56604E-001	-6.01205E-003	0.00000E+000	-1.54271E-003	-3.59960E-001	-9.76657E-001	3.57720E+000	10	...........
	29	0.4	2.50647E-001	-6.01574E-003	0.00000E+000	-1.50783E-003	-3.59960E-001	-9.72267E-001	3.57720E+000	10	...........
	30	0.413333	2.44727E-001	-6.01603E-003	0.00000E+000	-1.47228E-003	-3.59960E-001	-9.82662E-001	3.57720E+000	10	...........
	31	0.426667	2.38871E-001	-6.01358E-003	0.00000E+000	-1.43647E-003	-3.59960E-001	-9.76262E-001	3.57720E+000	10	...........
	32	0.44	2.33024E-001	-6.01362E-003	0.00000E+000	-1.40132E-003	-3.59960E-001	-9.71853E-001	3.57720E+000	10	...........
	33	0.453333	2.27257E-001	-6.01473E-003	0.00000E+000	-1.36689E-003	-3.59960E-001	-9.82808E-001	3.57720E+000	10	...........
	34	0.466667	2.21507E-001	-6.01543E-003	0.00000E+000	-1.33246E-003	-3.59960E-001	-9.76633E-001	3.57720E+000	10	...........
	35	0.48	2.15788E-001	-6.01665E-003	0.00000E+000	-1.29832E-003	-3.59960E-001	-9.72213E-001	3.57720E+000	10	...........
	36	0.493333	2.10101E-001	-6.01712E-003	0.00000E+000	-1.26420E-003	-3.59960E-001	-9.82918E-001	3.57720E+000	10	...........
	37	0.506667	2.04435E-001	-6.01604E-003	0.00000E+000	-1.22989E-003	-3.59960E-001	-9.77029E-001	3.57720E+000	10	...........
	38	0.52	1.98868E-001	-6.01467E-003	0.00000E+000	-1.19612E-003	-3.59960E-001	-9.72474E-001	3.57720E+000	10	...........
	39	0.533333	1.93295E-001	-6.01515E-003	0.00000E+000	-1.16270E-003	-3.59960E-001	-9.83104E-001	3.57720E+000	10	...........
	40	0.546667	1.87765E-001	-6.01185E-003	0.00000E+000	-1.12881E-003	-3.59960E-001	-9.77108E-001	3.57720E+000	10	...........
	41	0.56	1.82250E-001	-6.01305E-003	0.00000E+000	-1.09588E-003	-3.59960E-001	-9.72444E-001	3.57720E+000	10	...........
	42	0.573333	1.76811E-001	-6.01765E-003	0.00000E+000	-1.06399E-003	-3.59960E-001	-9.83323E-001	3.57720E+000	10	...........
	43	0.586667	1.71405E-001	-6.01401E-003	0.00000E+000	-1.03083E-003	-3.59960E-001	-9.77661E-001	3.57720E+000	10	...........
	44	0.6	1.66033E-001	-6.01527E-003	0.00000E+000	-9.98735E-004	-3.59960E-001	-9.73099E-001	3.57720E+000	10	...........
	45	0.613333	1.60684E-001	-6.01515E-003	0.00000E+000	-9.66540E-004	-3.59960E-001	-9.83708E-001	3.57720E+000	10	...........
	46	0.626667	1.55349E-001	-6.01450E-003	0.00000E+000	-9.34345E-004	-3.59960E-001	-9.78179E-001	3.57720E+000	10	...........
	47	0.64	1.50043E-001	-6.01733E-003	0.00000E+000	-9.02858E-004	-3.59960E-001	-9.73423E-001	3.57720E+000	10	...........
	48	0.653333	1.44745E-001	-6.01123E-003	0.00000E+000	-8.70094E-004	-3.59960E-001	-9.84484E-001	3.57720E+000	10	...........
	49	0.666667	1.39469E-001	-6.01690E-003	0.00000E+000	-8.39173E-004	-3.59960E-001	-9.78729E-001	3.57720E+000	10	...........
	50	0.68	1.34241E-001	-6.01567E-003	0.00000E+000	-8.07551E-004	-3.59960E-001	-9.73784E-001	3.57720E+000	10	...........
	51	0.693333	1.29110E-001	-6.01590E-003	0.00000E+000	-7.76712E-004	-3.59960E-001	-9.84372E-001	3.57720E+000	10	...........
	52	0.706667	1.23971E-001	-6.01580E-003	0.00000E+000	-7.45787E-004	-3.59960E-001	-9.79182E-001	3.57720E+000	10	...........
	53	0.72	1.18837E-001	-6.01535E-003	0.00000E+000	-7.14844E-004	-3.59960E-001	-9.74404E-001	3.57720E+000	10	...........
	54	0.733333	1.13713E-001	-6.01884E-003	0.00000E+000	-6.84420E-004	-3.59960E-001	-9.84207E-001	3.57720E+000	10	...........
	55	0.746667	1.08644E-001	-6.01489E-003	0.00000E+000	-6.53484E-004	-3.59960E-001	-9.78744E-001	3.57720E+000	10	...........
	56	0.76	1.03647E-001	-6.01327E-003	0.00000E+000	-6.23261E-004	-3.59960E-001	-9.73928E-001	3.57720E+000	10	...........
	57	0.773333	9.86091E-002	-6.01552E-003	0.00000E+000	-5.93184E-004	-3.59960E-001	-9.84162E-001	3.57720E+000	10	...........
	58	0.786667	9.36247E-002	-6.01640E-003	0.00000E+000	-5.63284E-004	-3.59960E-001	-9.79181E-001	3.57720E+000	10	...........
	59	0.8	8.86953E-002	-6.01609E-003	0.00000E+000	-5.33599E-004	-3.59960E-001	-9.73958E-001	3.57720E+000	10	...........
	60	0.813333	8.37801E-002	-6.01474E-003	0.00000E+000	-5.03916E-004	-3.59960E-001	-9.84109E-001	3.57720E+000	10	...........
	61	0.826667	7.88873E-002	-6.01256E-003	0.00000E+000	-4.74315E-004	-3.59960E-001	-9.79111E-001	3.57720E+000	10	...........
	62	0.84	7.39648E-002	-6.01731E-003	0.00000E+000	-4.45069E-004	-3.59960E-001	-9.74058E-001	3.57720E+000	10	...........
	63	0.853333	6.90818E-002	-6.01369E-003	0.00000E+000	-4.15437E-004	-3.59960E-001	-9.84154E-001	3.57720E+000	10	...........
	64	0.866667	6.42742E-002	-6.01680E-003	0.00000E+000	-3.86725E-004	-3.59960E-001	-9.79062E-001	3.57720E+000	10	...........
	65	0.88	5.94661E-002	-6.01770E-003	0.00000E+000	-3.57849E-004	-3.59960E-001	-9.73729E-001	3.57720E+000	10	...........
	66	0.893333	5.46827E-002	-6.01367E-003	0.00000E+000	-3.28844E-004	-3.59960E-001	-9.83786E-001	3.57720E+000	10	...........
	67	0.906667	4.98878E-002	-6.01652E-003	0.00000E+000	-3.00151E-004	-3.59960E-001	-9.79007E-001	3.57720E+000	10	...........
	68	0.92	4.52076E-002	-6.01569E-003	0.00000E+000	-2.71955E-004	-3.59960E-001	-9.73814E-001	3.57720E+000	10	...........
	69	0.933333	4.05014E-002	-6.01610E-003	0.00000E+000	-2.43661E-004	-3.59960E-001	-9.83516E-001	3.57720E+000	10	...........
	70	0.946667	3.58087E-002	-6.01387E-003	0.00000E+000	-2.15349E-004	-3.59960E-001	-9.79132E-001	3.57720E+000	10	...........
	71	0.96	3.11742E-002	-6.01550E-003	0.00000E+000	-1.87528E-004	-3.59960E-001	-9.73792E-001	3.57720E+000	10	...........
	72	0.97333	2.65118E-002	-6.01640E-003	0.00000E+000	-1.59506E-004	-3.59960E-001	-9.83878E-001	3.57720E+000	10	...........
	73	0.98667	2.19188E-002	-6.01123E-003	0.00000E+000	-1.31759E-004	-3.59960E-001	-9.79437E-001	3.57720E+000	10	...........
	74	1	1.73355E-002	-6.01586E-003	0.00000E+000	-1.04288E-004	-3.59960E-001	-9.73941E-001	3.57720E+000	10	...........
	75	1.01333	1.27603E-002	-6.01381E-003	0.00000E+000	-7.67379E-005	-3.59960E-001	-9.83663E-001	3.57720E+000	10	...........
	76	1.02667	8.25696E-003	-6.01581E-003	0.00000E+000	-4.96723E-005	-3.59960E-001	-9.79373E-001	3.57720E+000	10	...........
	77	1.04	3.70919E-003	-6.01567E-003	0.00000E+000	-2.23133E-005	-3.59960E-001	-9.73916E-001	3.57720E+000	10	...........
	78	1.04667	3.03653E-004	-6.01308E-003	0.00000E+000	-1.82589E-006	-3.59960E-001	-9.89483E-001	3.57720E+000	10	...........
STARTTIMEOFFSET	QUANT	20.705	Start Time Offset (s)