File: Data/CV_CRGO300517_1/PWRCCD_CRGO300517_1/CHARGE_DISCHARGE/DISCHARGE_#111.DTA
EXPLAIN
TAG	PWR800_DISCHARGE
TITLE	LABEL	PWR Cyclic Charge Discharge (Cell) - Discharge Step	Test &Identifier
DATE	LABEL	22-6-2017	Date
TIME	LABEL	15:40:00	Time
NOTES	NOTES	3	&Notes...
	supercap test cell
	0.6mg
	6M KOH
PSTAT	PSTAT	IFC5000-01520	Potentiostat
CAPACITY	QUANT	1.00000E-003	Capacity (A-hr)
CELLTYPE	SELECTOR	1	&Cell Type
WORKINGCONNECTION	SELECTOR	0	&Working Lead
MAXDISCHARGETIME	VARIABLEANDUNITS	1.00000E+002	s	1.00000E+002	second(s)	Max &Discharge Time
DISCHARGEMODE	MULTIPARAM	0	6.00000E-003	&Discharge Mode	Constant Current	Amp(s)
SAMPLETIME	QUANT	1.00000E-002	Sa&mple Period (s)
DISCHARGESTOPAT1	MULTIPARAM	3	0.00000E+000	Discharge Stop At &1	Voltage < Limit	V
DISCHARGESTOPAT2	MULTIPARAM	0	0.00000E+000	Discharge Stop At &2	None	N/A
AESBHCSELECTOR	TOGGLE	F	Save Both Half Cells
IRCOMP	TOGGLE	F	IR &Measure
EOC	QUANT	0	Open Circuit (V)
SEQUENCER	TOGGLE	TRUE	Run as Sequence
PSTATMODEL	IQUANT	53	Pstat Model
PSTATSECTION	LABEL	IFC5000-01520	Pstat Section
PSTATSERIALNO	LABEL	01520	Pstat Serial Number
CTRLMODE	IQUANT	0	Control Mode
ELECTROMETER	IQUANT	1	RE=0 or CS=1
IESTAB	IQUANT	0	I/E Stability
CASPEED	IQUANT	4	Control Amp Speed
CONVENTION	IQUANT	1	Current Convention
ICHRANGE	IQUANT	2	Ich Range
ICHRANGEMODE	TOGGLE	T	Ich Auto Range
ICHOFFSETENABLE	TOGGLE	F	Ich Offset Enable
ICHOFFSET	QUANT	0	Ich Offset (V)
ICHFILTER	IQUANT	1	Ich Filter
VCHRANGE	IQUANT	2	Vch Range
VCHRANGEMODE	TOGGLE	T	Vch Auto Range
VCHOFFSETENABLE	TOGGLE	F	Vch Offset Enable
VCHOFFSET	QUANT	0	Vch Offset (V)
VCHFILTER	IQUANT	1	Vch Filter
IERANGELOWERLIMIT	IQUANT	9	I/E Range Lower Limit
IERANGEMODE	TOGGLE	F	I/E AutoRange
IERANGE	IQUANT	10	I/E Range
ACHSELECT	IQUANT	1	Ach Select
ACHRANGE	IQUANT	2	Ach Range
ACHOFFSETENABLE	TOGGLE	F	Ach Offset Enable
ACHOFFSET	QUANT	0	Ach Offset (V)
ACHFILTER	IQUANT	1	Ach Filter
CABLEID	IQUANT	14	Cable ID
DCCALDATE	LABEL	20-10-2016	DC Calibration Date
ACCALDATE	LABEL	12/3/2015	AC Calibration Date
FRAMEWORKVERSION	QUANT	7.01	Framework Version
INSTRUMENTVERSION	LABEL	4.00	Instrument Version
CURVE	TABLE	69
	Pt	T	Vf	Im	Vu	Pwr	Sig	Ach	Temp	IERange	Over
	#	s	V	A	V	W	V	V	deg C	#	bits
	0	0.013333	4.25914E-001	-6.01323E-003	0.00000E+000	-2.56112E-003	-3.59960E-001	-1.03396E+000	3.57840E+000	10	...........
	1	0.026667	4.15708E-001	-6.01539E-003	0.00000E+000	-2.50065E-003	-3.59960E-001	-1.02913E+000	3.57840E+000	10	...........
	2	0.04	4.06178E-001	-6.01757E-003	0.00000E+000	-2.44421E-003	-3.59960E-001	-1.04035E+000	3.57840E+000	10	...........
	3	0.053333	3.97148E-001	-6.01413E-003	0.00000E+000	-2.38850E-003	-3.59960E-001	-1.03410E+000	3.57840E+000	10	...........
	4	0.066667	3.88468E-001	-6.01569E-003	0.00000E+000	-2.33690E-003	-3.59960E-001	-1.02960E+000	3.57840E+000	10	...........
	5	0.08	3.80028E-001	-6.01572E-003	0.00000E+000	-2.28614E-003	-3.59960E-001	-1.04076E+000	3.57840E+000	10	...........
	6	0.093333	3.71794E-001	-6.01400E-003	0.00000E+000	-2.23597E-003	-3.59960E-001	-1.03450E+000	3.57840E+000	10	...........
	7	0.106667	3.63710E-001	-6.01574E-003	0.00000E+000	-2.18799E-003	-3.59960E-001	-1.02963E+000	3.57840E+000	10	...........
	8	0.12	3.55796E-001	-6.01535E-003	0.00000E+000	-2.14024E-003	-3.59960E-001	-1.04069E+000	3.57840E+000	10	...........
	9	0.133333	3.47991E-001	-6.01445E-003	0.00000E+000	-2.09298E-003	-3.59960E-001	-1.03483E+000	3.57840E+000	10	...........
	10	0.146667	3.40315E-001	-6.01615E-003	0.00000E+000	-2.04739E-003	-3.59960E-001	-1.02955E+000	3.57840E+000	10	...........
	11	0.16	3.32704E-001	-6.01688E-003	0.00000E+000	-2.00184E-003	-3.59960E-001	-1.04027E+000	3.57840E+000	10	...........
	12	0.173333	3.25261E-001	-6.01220E-003	0.00000E+000	-1.95553E-003	-3.59960E-001	-1.03435E+000	3.57840E+000	10	...........
	13	0.186667	3.17850E-001	-6.01652E-003	0.00000E+000	-1.91235E-003	-3.59960E-001	-1.02971E+000	3.57840E+000	10	...........
	14	0.2	3.10540E-001	-6.01628E-003	0.00000E+000	-1.86830E-003	-3.59960E-001	-1.04065E+000	3.57840E+000	10	...........
	15	0.213333	3.03325E-001	-6.01813E-003	0.00000E+000	-1.82545E-003	-3.59960E-001	-1.03488E+000	3.57840E+000	10	...........
	16	0.226667	2.96186E-001	-6.01311E-003	0.00000E+000	-1.78100E-003	-3.59960E-001	-1.02970E+000	3.57840E+000	10	...........
	17	0.24	2.89124E-001	-6.01596E-003	0.00000E+000	-1.73936E-003	-3.59960E-001	-1.04041E+000	3.57840E+000	10	...........
	18	0.253333	2.82129E-001	-6.01401E-003	0.00000E+000	-1.69673E-003	-3.59960E-001	-1.03497E+000	3.57840E+000	10	...........
	19	0.266667	2.75207E-001	-6.02003E-003	0.00000E+000	-1.65675E-003	-3.59960E-001	-1.02996E+000	3.57840E+000	10	...........
	20	0.28	2.68370E-001	-6.01658E-003	0.00000E+000	-1.61467E-003	-3.59960E-001	-1.04083E+000	3.57840E+000	10	...........
	21	0.293333	2.61562E-001	-6.01397E-003	0.00000E+000	-1.57303E-003	-3.59960E-001	-1.03501E+000	3.57840E+000	10	...........
	22	0.306667	2.54858E-001	-6.01387E-003	0.00000E+000	-1.53268E-003	-3.59960E-001	-1.02973E+000	3.57840E+000	10	...........
	23	0.32	2.48195E-001	-6.01536E-003	0.00000E+000	-1.49298E-003	-3.59960E-001	-1.04060E+000	3.57840E+000	10	...........
	24	0.333333	2.41631E-001	-6.01431E-003	0.00000E+000	-1.45325E-003	-3.59960E-001	-1.03545E+000	3.57840E+000	10	...........
	25	0.346667	2.35105E-001	-6.01565E-003	0.00000E+000	-1.41431E-003	-3.59960E-001	-1.03018E+000	3.57840E+000	10	...........
	26	0.36	2.28628E-001	-6.01475E-003	0.00000E+000	-1.37514E-003	-3.59960E-001	-1.04090E+000	3.57840E+000	10	...........
	27	0.373333	2.22207E-001	-6.01567E-003	0.00000E+000	-1.33673E-003	-3.59960E-001	-1.03570E+000	3.57840E+000	10	...........
	28	0.386667	2.15854E-001	-6.01694E-003	0.00000E+000	-1.29878E-003	-3.59960E-001	-1.03058E+000	3.57840E+000	10	...........
	29	0.4	2.09543E-001	-6.01437E-003	0.00000E+000	-1.26027E-003	-3.59960E-001	-1.04126E+000	3.57840E+000	10	...........
	30	0.413333	2.03268E-001	-6.01542E-003	0.00000E+000	-1.22274E-003	-3.59960E-001	-1.03597E+000	3.57840E+000	10	...........
	31	0.426667	1.97073E-001	-6.01729E-003	0.00000E+000	-1.18584E-003	-3.59960E-001	-1.03049E+000	3.57840E+000	10	...........
	32	0.44	1.90945E-001	-6.01587E-003	0.00000E+000	-1.14870E-003	-3.59960E-001	-1.04089E+000	3.57840E+000	10	...........
	33	0.453333	1.84871E-001	-6.01334E-003	0.00000E+000	-1.11169E-003	-3.59960E-001	-1.03608E+000	3.57840E+000	10	...........
	34	0.466667	1.78813E-001	-6.01249E-003	0.00000E+000	-1.07511E-003	-3.59960E-001	-1.03037E+000	3.57840E+000	10	...........
	35	0.48	1.72804E-001	-6.01357E-003	0.00000E+000	-1.03917E-003	-3.59960E-001	-1.04079E+000	3.57840E+000	10	...........
	36	0.493333	1.66873E-001	-6.01421E-003	0.00000E+000	-1.00361E-003	-3.59960E-001	-1.03576E+000	3.57840E+000	10	...........
	37	0.506667	1.60941E-001	-6.01629E-003	0.00000E+000	-9.68268E-004	-3.59960E-001	-1.03021E+000	3.57840E+000	10	...........
	38	0.52	1.55063E-001	-6.01484E-003	0.00000E+000	-9.32680E-004	-3.59960E-001	-1.04070E+000	3.57840E+000	10	...........
	39	0.533333	1.49273E-001	-6.01133E-003	0.00000E+000	-8.97333E-004	-3.59960E-001	-1.03631E+000	3.57760E+000	10	...........
	40	0.546667	1.43521E-001	-6.01393E-003	0.00000E+000	-8.63127E-004	-3.59960E-001	-1.03041E+000	3.57750E+000	10	...........
	41	0.56	1.37793E-001	-6.01589E-003	0.00000E+000	-8.28948E-004	-3.59960E-001	-1.04075E+000	3.57750E+000	10	...........
	42	0.573333	1.32127E-001	-6.01412E-003	0.00000E+000	-7.94626E-004	-3.59960E-001	-1.03627E+000	3.57750E+000	10	...........
	43	0.586667	1.26480E-001	-6.01498E-003	0.00000E+000	-7.60777E-004	-3.59960E-001	-1.03055E+000	3.57750E+000	10	...........
	44	0.6	1.20860E-001	-6.01545E-003	0.00000E+000	-7.27028E-004	-3.59960E-001	-1.04086E+000	3.57750E+000	10	...........
	45	0.613333	1.15310E-001	-6.01316E-003	0.00000E+000	-6.93379E-004	-3.59960E-001	-1.03658E+000	3.57750E+000	10	...........
	46	0.626667	1.09761E-001	-6.01680E-003	0.00000E+000	-6.60410E-004	-3.59960E-001	-1.03095E+000	3.57750E+000	10	...........
	47	0.64	1.04283E-001	-6.01939E-003	0.00000E+000	-6.27720E-004	-3.59960E-001	-1.04071E+000	3.57750E+000	10	...........
	48	0.653333	9.88305E-002	-6.01422E-003	0.00000E+000	-5.94388E-004	-3.59960E-001	-1.03686E+000	3.57750E+000	10	...........
	49	0.666667	9.34142E-002	-6.01462E-003	0.00000E+000	-5.61851E-004	-3.59960E-001	-1.03099E+000	3.57750E+000	10	...........
	50	0.68	8.80309E-002	-6.01381E-003	0.00000E+000	-5.29401E-004	-3.59960E-001	-1.04102E+000	3.57750E+000	10	...........
	51	0.693333	8.26866E-002	-6.01614E-003	0.00000E+000	-4.97454E-004	-3.59960E-001	-1.03692E+000	3.57750E+000	10	...........
	52	0.706667	7.74133E-002	-6.01778E-003	0.00000E+000	-4.65856E-004	-3.59960E-001	-1.03105E+000	3.57750E+000	10	...........
	53	0.72	7.21480E-002	-6.01387E-003	0.00000E+000	-4.33888E-004	-3.59960E-001	-1.04102E+000	3.57750E+000	10	...........
	54	0.733333	6.69391E-002	-6.01627E-003	0.00000E+000	-4.02723E-004	-3.59960E-001	-1.03732E+000	3.57750E+000	10	...........
	55	0.746667	6.17571E-002	-6.01210E-003	0.00000E+000	-3.71290E-004	-3.59960E-001	-1.03135E+000	3.57750E+000	10	...........
	56	0.76	5.66065E-002	-6.01313E-003	0.00000E+000	-3.40382E-004	-3.59960E-001	-1.04092E+000	3.57750E+000	10	...........
	57	0.773333	5.14445E-002	-6.01587E-003	0.00000E+000	-3.09484E-004	-3.59960E-001	-1.03716E+000	3.57750E+000	10	...........
	58	0.786667	4.64186E-002	-6.01834E-003	0.00000E+000	-2.79363E-004	-3.59960E-001	-1.03094E+000	3.57750E+000	10	...........
	59	0.8	4.13672E-002	-6.01444E-003	0.00000E+000	-2.48800E-004	-3.59960E-001	-1.04057E+000	3.57750E+000	10	...........
	60	0.813333	3.63641E-002	-6.01656E-003	0.00000E+000	-2.18787E-004	-3.59960E-001	-1.03710E+000	3.57750E+000	10	...........
	61	0.826667	3.13747E-002	-6.01563E-003	0.00000E+000	-1.88738E-004	-3.59960E-001	-1.03081E+000	3.57750E+000	10	...........
	62	0.84	2.64214E-002	-6.01224E-003	0.00000E+000	-1.58852E-004	-3.59960E-001	-1.04030E+000	3.57750E+000	10	...........
	63	0.853333	2.14631E-002	-6.01610E-003	0.00000E+000	-1.29124E-004	-3.59960E-001	-1.03708E+000	3.57750E+000	10	...........
	64	0.866667	1.66081E-002	-6.01779E-003	0.00000E+000	-9.99443E-005	-3.59960E-001	-1.03110E+000	3.57750E+000	10	...........
	65	0.88	1.17454E-002	-6.01172E-003	0.00000E+000	-7.06100E-005	-3.59960E-001	-1.04048E+000	3.57750E+000	10	...........
	66	0.893333	6.88443E-003	-6.01542E-003	0.00000E+000	-4.14128E-005	-3.59960E-001	-1.03716E+000	3.57750E+000	10	...........
	67	0.906667	2.11561E-003	-6.01761E-003	0.00000E+000	-1.27309E-005	-3.59960E-001	-1.03075E+000	3.57750E+000	10	...........
	68	0.908333	-5.65605E-004	-6.02046E-003	0.00000E+000	3.40520E-006	-3.59960E-001	-1.04604E+000	3.57750E+000	10	...........
STARTTIMEOFFSET	QUANT	216.3416	Start Time Offset (s)