File: Data/CV_CRGO300517_1/PWRCCD_CRGO300517_1/CHARGE_DISCHARGE/DISCHARGE_#107.DTA
EXPLAIN
TAG	PWR800_DISCHARGE
TITLE	LABEL	PWR Cyclic Charge Discharge (Cell) - Discharge Step	Test &Identifier
DATE	LABEL	22-6-2017	Date
TIME	LABEL	15:39:50	Time
NOTES	NOTES	3	&Notes...
	supercap test cell
	0.6mg
	6M KOH
PSTAT	PSTAT	IFC5000-01520	Potentiostat
CAPACITY	QUANT	1.00000E-003	Capacity (A-hr)
CELLTYPE	SELECTOR	1	&Cell Type
WORKINGCONNECTION	SELECTOR	0	&Working Lead
MAXDISCHARGETIME	VARIABLEANDUNITS	1.00000E+002	s	1.00000E+002	second(s)	Max &Discharge Time
DISCHARGEMODE	MULTIPARAM	0	6.00000E-003	&Discharge Mode	Constant Current	Amp(s)
SAMPLETIME	QUANT	1.00000E-002	Sa&mple Period (s)
DISCHARGESTOPAT1	MULTIPARAM	3	0.00000E+000	Discharge Stop At &1	Voltage < Limit	V
DISCHARGESTOPAT2	MULTIPARAM	0	0.00000E+000	Discharge Stop At &2	None	N/A
AESBHCSELECTOR	TOGGLE	F	Save Both Half Cells
IRCOMP	TOGGLE	F	IR &Measure
EOC	QUANT	0	Open Circuit (V)
SEQUENCER	TOGGLE	TRUE	Run as Sequence
PSTATMODEL	IQUANT	53	Pstat Model
PSTATSECTION	LABEL	IFC5000-01520	Pstat Section
PSTATSERIALNO	LABEL	01520	Pstat Serial Number
CTRLMODE	IQUANT	0	Control Mode
ELECTROMETER	IQUANT	1	RE=0 or CS=1
IESTAB	IQUANT	0	I/E Stability
CASPEED	IQUANT	4	Control Amp Speed
CONVENTION	IQUANT	1	Current Convention
ICHRANGE	IQUANT	2	Ich Range
ICHRANGEMODE	TOGGLE	T	Ich Auto Range
ICHOFFSETENABLE	TOGGLE	F	Ich Offset Enable
ICHOFFSET	QUANT	0	Ich Offset (V)
ICHFILTER	IQUANT	1	Ich Filter
VCHRANGE	IQUANT	2	Vch Range
VCHRANGEMODE	TOGGLE	T	Vch Auto Range
VCHOFFSETENABLE	TOGGLE	F	Vch Offset Enable
VCHOFFSET	QUANT	0	Vch Offset (V)
VCHFILTER	IQUANT	1	Vch Filter
IERANGELOWERLIMIT	IQUANT	9	I/E Range Lower Limit
IERANGEMODE	TOGGLE	F	I/E AutoRange
IERANGE	IQUANT	10	I/E Range
ACHSELECT	IQUANT	1	Ach Select
ACHRANGE	IQUANT	2	Ach Range
ACHOFFSETENABLE	TOGGLE	F	Ach Offset Enable
ACHOFFSET	QUANT	0	Ach Offset (V)
ACHFILTER	IQUANT	1	Ach Filter
CABLEID	IQUANT	14	Cable ID
DCCALDATE	LABEL	20-10-2016	DC Calibration Date
ACCALDATE	LABEL	12/3/2015	AC Calibration Date
FRAMEWORKVERSION	QUANT	7.01	Framework Version
INSTRUMENTVERSION	LABEL	4.00	Instrument Version
CURVE	TABLE	69
	Pt	T	Vf	Im	Vu	Pwr	Sig	Ach	Temp	IERange	Over
	#	s	V	A	V	W	V	V	deg C	#	bits
	0	0.013333	4.27150E-001	-6.01586E-003	0.00000E+000	-2.56967E-003	-3.59960E-001	-1.03817E+000	3.57733E+000	10	...........
	1	0.026667	4.16953E-001	-6.01277E-003	0.00000E+000	-2.50704E-003	-3.59960E-001	-1.04476E+000	3.57740E+000	10	...........
	2	0.04	4.07419E-001	-6.01274E-003	0.00000E+000	-2.44971E-003	-3.59960E-001	-1.03427E+000	3.57740E+000	10	...........
	3	0.053333	3.98376E-001	-6.01431E-003	0.00000E+000	-2.39595E-003	-3.59960E-001	-1.03722E+000	3.57740E+000	10	...........
	4	0.066667	3.89720E-001	-6.01470E-003	0.00000E+000	-2.34405E-003	-3.59960E-001	-1.04392E+000	3.57740E+000	10	...........
	5	0.08	3.81273E-001	-6.01796E-003	0.00000E+000	-2.29448E-003	-3.59960E-001	-1.03400E+000	3.57740E+000	10	...........
	6	0.093333	3.73023E-001	-6.01300E-003	0.00000E+000	-2.24299E-003	-3.59960E-001	-1.03716E+000	3.57740E+000	10	...........
	7	0.106667	3.64977E-001	-6.01740E-003	0.00000E+000	-2.19621E-003	-3.59960E-001	-1.04388E+000	3.57740E+000	10	...........
	8	0.12	3.57059E-001	-6.01319E-003	0.00000E+000	-2.14707E-003	-3.59960E-001	-1.03367E+000	3.57740E+000	10	...........
	9	0.133333	3.49278E-001	-6.01583E-003	0.00000E+000	-2.10120E-003	-3.59960E-001	-1.03702E+000	3.57740E+000	10	...........
	10	0.146667	3.41601E-001	-6.01700E-003	0.00000E+000	-2.05541E-003	-3.59960E-001	-1.04395E+000	3.57740E+000	10	...........
	11	0.16	3.34027E-001	-6.01485E-003	0.00000E+000	-2.00912E-003	-3.59960E-001	-1.03392E+000	3.57740E+000	10	...........
	12	0.173333	3.26600E-001	-6.00964E-003	0.00000E+000	-1.96275E-003	-3.59960E-001	-1.03702E+000	3.57740E+000	10	...........
	13	0.186667	3.19208E-001	-6.01444E-003	0.00000E+000	-1.91986E-003	-3.59960E-001	-1.04374E+000	3.57740E+000	10	...........
	14	0.2	3.11911E-001	-6.01567E-003	0.00000E+000	-1.87636E-003	-3.59960E-001	-1.03345E+000	3.57740E+000	10	...........
	15	0.213333	3.04722E-001	-6.01630E-003	0.00000E+000	-1.83330E-003	-3.59960E-001	-1.03674E+000	3.57740E+000	10	...........
	16	0.226667	2.97623E-001	-6.00941E-003	0.00000E+000	-1.78854E-003	-3.59960E-001	-1.04391E+000	3.57740E+000	10	...........
	17	0.24	2.90576E-001	-6.01008E-003	0.00000E+000	-1.74639E-003	-3.59960E-001	-1.03333E+000	3.57740E+000	10	...........
	18	0.253333	2.83597E-001	-6.01453E-003	0.00000E+000	-1.70570E-003	-3.59960E-001	-1.03637E+000	3.57740E+000	10	...........
	19	0.266667	2.76693E-001	-6.01726E-003	0.00000E+000	-1.66493E-003	-3.59960E-001	-1.04322E+000	3.57740E+000	10	...........
	20	0.28	2.69888E-001	-6.01982E-003	0.00000E+000	-1.62468E-003	-3.59960E-001	-1.03310E+000	3.57740E+000	10	...........
	21	0.293333	2.63078E-001	-6.01828E-003	0.00000E+000	-1.58328E-003	-3.59960E-001	-1.03594E+000	3.57740E+000	10	...........
	22	0.306667	2.56346E-001	-6.01248E-003	0.00000E+000	-1.54128E-003	-3.59960E-001	-1.04287E+000	3.57740E+000	10	...........
	23	0.32	2.49703E-001	-6.01685E-003	0.00000E+000	-1.50243E-003	-3.59960E-001	-1.03255E+000	3.57740E+000	10	...........
	24	0.333333	2.43101E-001	-6.01498E-003	0.00000E+000	-1.46225E-003	-3.59960E-001	-1.03556E+000	3.57740E+000	10	...........
	25	0.346667	2.36597E-001	-6.01404E-003	0.00000E+000	-1.42290E-003	-3.59960E-001	-1.04266E+000	3.57740E+000	10	...........
	26	0.36	2.30173E-001	-6.01319E-003	0.00000E+000	-1.38407E-003	-3.59960E-001	-1.03226E+000	3.57740E+000	10	...........
	27	0.373333	2.23744E-001	-6.01532E-003	0.00000E+000	-1.34589E-003	-3.59960E-001	-1.03504E+000	3.57740E+000	10	...........
	28	0.386667	2.17391E-001	-6.01621E-003	0.00000E+000	-1.30787E-003	-3.59960E-001	-1.04184E+000	3.57740E+000	10	...........
	29	0.4	2.11113E-001	-6.01461E-003	0.00000E+000	-1.26976E-003	-3.59960E-001	-1.03192E+000	3.57740E+000	10	...........
	30	0.413333	2.04849E-001	-6.01496E-003	0.00000E+000	-1.23216E-003	-3.59960E-001	-1.03508E+000	3.57740E+000	10	...........
	31	0.426667	1.98637E-001	-6.01665E-003	0.00000E+000	-1.19513E-003	-3.59960E-001	-1.04248E+000	3.57740E+000	10	...........
	32	0.44	1.92503E-001	-6.01179E-003	0.00000E+000	-1.15729E-003	-3.59960E-001	-1.03252E+000	3.57740E+000	10	...........
	33	0.453333	1.86401E-001	-6.01132E-003	0.00000E+000	-1.12052E-003	-3.59960E-001	-1.03538E+000	3.57740E+000	10	...........
	34	0.466667	1.80355E-001	-6.01427E-003	0.00000E+000	-1.08470E-003	-3.59960E-001	-1.04290E+000	3.57740E+000	10	...........
	35	0.48	1.74368E-001	-6.01586E-003	0.00000E+000	-1.04897E-003	-3.59960E-001	-1.03271E+000	3.57740E+000	10	...........
	36	0.493333	1.68426E-001	-6.01566E-003	0.00000E+000	-1.01319E-003	-3.59960E-001	-1.03579E+000	3.57740E+000	10	...........
	37	0.506667	1.62523E-001	-6.01679E-003	0.00000E+000	-9.77867E-004	-3.59960E-001	-1.04273E+000	3.57740E+000	10	...........
	38	0.52	1.56657E-001	-6.01607E-003	0.00000E+000	-9.42457E-004	-3.59960E-001	-1.03244E+000	3.57740E+000	10	...........
	39	0.533333	1.50832E-001	-6.01038E-003	0.00000E+000	-9.06559E-004	-3.59960E-001	-1.03543E+000	3.57740E+000	10	...........
	40	0.546667	1.45048E-001	-6.01714E-003	0.00000E+000	-8.72778E-004	-3.59960E-001	-1.04305E+000	3.57740E+000	10	...........
	41	0.56	1.39337E-001	-6.01561E-003	0.00000E+000	-8.38199E-004	-3.59960E-001	-1.03267E+000	3.57740E+000	10	...........
	42	0.573333	1.33640E-001	-6.01333E-003	0.00000E+000	-8.03619E-004	-3.59960E-001	-1.03546E+000	3.57740E+000	10	...........
	43	0.586667	1.27981E-001	-6.01540E-003	0.00000E+000	-7.69860E-004	-3.59960E-001	-1.04279E+000	3.57740E+000	10	...........
	44	0.6	1.22365E-001	-6.01737E-003	0.00000E+000	-7.36317E-004	-3.59960E-001	-1.03251E+000	3.57740E+000	10	...........
	45	0.613333	1.16768E-001	-6.01310E-003	0.00000E+000	-7.02140E-004	-3.59960E-001	-1.03577E+000	3.57740E+000	10	...........
	46	0.626667	1.11264E-001	-6.01600E-003	0.00000E+000	-6.69361E-004	-3.59960E-001	-1.04311E+000	3.57740E+000	10	...........
	47	0.64	1.05785E-001	-6.01702E-003	0.00000E+000	-6.36508E-004	-3.59960E-001	-1.03270E+000	3.57740E+000	10	...........
	48	0.653333	1.00341E-001	-6.01379E-003	0.00000E+000	-6.03428E-004	-3.59960E-001	-1.03575E+000	3.57740E+000	10	...........
	49	0.666667	9.49224E-002	-6.01569E-003	0.00000E+000	-5.71024E-004	-3.59960E-001	-1.04334E+000	3.57740E+000	10	...........
	50	0.68	8.95676E-002	-6.01582E-003	0.00000E+000	-5.38822E-004	-3.59960E-001	-1.03287E+000	3.57740E+000	10	...........
	51	0.693333	8.41793E-002	-6.01377E-003	0.00000E+000	-5.06236E-004	-3.59960E-001	-1.03573E+000	3.57740E+000	10	...........
	52	0.706667	7.88789E-002	-6.01423E-003	0.00000E+000	-4.74396E-004	-3.59960E-001	-1.04315E+000	3.57740E+000	10	...........
	53	0.72	7.36258E-002	-6.01622E-003	0.00000E+000	-4.42949E-004	-3.59960E-001	-1.03257E+000	3.57740E+000	10	...........
	54	0.733333	6.83921E-002	-6.01631E-003	0.00000E+000	-4.11468E-004	-3.59960E-001	-1.03566E+000	3.57740E+000	10	...........
	55	0.746667	6.31963E-002	-6.01503E-003	0.00000E+000	-3.80127E-004	-3.59960E-001	-1.04348E+000	3.57740E+000	10	...........
	56	0.76	5.80661E-002	-6.01457E-003	0.00000E+000	-3.49243E-004	-3.59960E-001	-1.03300E+000	3.57740E+000	10	...........
	57	0.773333	5.29379E-002	-6.01365E-003	0.00000E+000	-3.18350E-004	-3.59960E-001	-1.03567E+000	3.57740E+000	10	...........
	58	0.786667	4.78821E-002	-6.01412E-003	0.00000E+000	-2.87968E-004	-3.59960E-001	-1.04333E+000	3.57740E+000	10	...........
	59	0.8	4.28390E-002	-6.01591E-003	0.00000E+000	-2.57716E-004	-3.59960E-001	-1.03307E+000	3.57740E+000	10	...........
	60	0.813333	3.77915E-002	-6.01876E-003	0.00000E+000	-2.27458E-004	-3.59960E-001	-1.03592E+000	3.57740E+000	10	...........
	61	0.826667	3.28159E-002	-6.01508E-003	0.00000E+000	-1.97390E-004	-3.59960E-001	-1.04384E+000	3.57740E+000	10	...........
	62	0.84	2.78709E-002	-6.01700E-003	0.00000E+000	-1.67699E-004	-3.59960E-001	-1.03307E+000	3.57740E+000	10	...........
	63	0.853333	2.29489E-002	-6.01317E-003	0.00000E+000	-1.37995E-004	-3.59960E-001	-1.03570E+000	3.57740E+000	10	...........
	64	0.866667	1.80320E-002	-6.01647E-003	0.00000E+000	-1.08489E-004	-3.59960E-001	-1.04383E+000	3.57740E+000	10	...........
	65	0.88	1.31606E-002	-6.01191E-003	0.00000E+000	-7.91201E-005	-3.59960E-001	-1.03338E+000	3.57740E+000	10	...........
	66	0.893333	8.33016E-003	-6.01678E-003	0.00000E+000	-5.01207E-005	-3.59960E-001	-1.03604E+000	3.57740E+000	10	...........
	67	0.906667	3.53947E-003	-6.01012E-003	0.00000E+000	-2.12726E-005	-3.59960E-001	-1.04399E+000	3.57740E+000	10	...........
	68	0.911667	2.28370E-004	-6.01829E-003	0.00000E+000	-1.37440E-006	-3.59960E-001	-1.02697E+000	3.57740E+000	10	...........
STARTTIMEOFFSET	QUANT	209.0183	Start Time Offset (s)