File: Data/CV_CRGO300517_1/PWRCCD_CRGO300517_1/CHARGE_DISCHARGE/DISCHARGE_#112.DTA
EXPLAIN
TAG	PWR800_DISCHARGE
TITLE	LABEL	PWR Cyclic Charge Discharge (Cell) - Discharge Step	Test &Identifier
DATE	LABEL	22-6-2017	Date
TIME	LABEL	15:40:03	Time
NOTES	NOTES	3	&Notes...
	supercap test cell
	0.6mg
	6M KOH
PSTAT	PSTAT	IFC5000-01520	Potentiostat
CAPACITY	QUANT	1.00000E-003	Capacity (A-hr)
CELLTYPE	SELECTOR	1	&Cell Type
WORKINGCONNECTION	SELECTOR	0	&Working Lead
MAXDISCHARGETIME	VARIABLEANDUNITS	1.00000E+002	s	1.00000E+002	second(s)	Max &Discharge Time
DISCHARGEMODE	MULTIPARAM	0	6.00000E-003	&Discharge Mode	Constant Current	Amp(s)
SAMPLETIME	QUANT	1.00000E-002	Sa&mple Period (s)
DISCHARGESTOPAT1	MULTIPARAM	3	0.00000E+000	Discharge Stop At &1	Voltage < Limit	V
DISCHARGESTOPAT2	MULTIPARAM	0	0.00000E+000	Discharge Stop At &2	None	N/A
AESBHCSELECTOR	TOGGLE	F	Save Both Half Cells
IRCOMP	TOGGLE	F	IR &Measure
EOC	QUANT	0	Open Circuit (V)
SEQUENCER	TOGGLE	TRUE	Run as Sequence
PSTATMODEL	IQUANT	53	Pstat Model
PSTATSECTION	LABEL	IFC5000-01520	Pstat Section
PSTATSERIALNO	LABEL	01520	Pstat Serial Number
CTRLMODE	IQUANT	0	Control Mode
ELECTROMETER	IQUANT	1	RE=0 or CS=1
IESTAB	IQUANT	0	I/E Stability
CASPEED	IQUANT	4	Control Amp Speed
CONVENTION	IQUANT	1	Current Convention
ICHRANGE	IQUANT	2	Ich Range
ICHRANGEMODE	TOGGLE	T	Ich Auto Range
ICHOFFSETENABLE	TOGGLE	F	Ich Offset Enable
ICHOFFSET	QUANT	0	Ich Offset (V)
ICHFILTER	IQUANT	1	Ich Filter
VCHRANGE	IQUANT	2	Vch Range
VCHRANGEMODE	TOGGLE	T	Vch Auto Range
VCHOFFSETENABLE	TOGGLE	F	Vch Offset Enable
VCHOFFSET	QUANT	0	Vch Offset (V)
VCHFILTER	IQUANT	1	Vch Filter
IERANGELOWERLIMIT	IQUANT	9	I/E Range Lower Limit
IERANGEMODE	TOGGLE	F	I/E AutoRange
IERANGE	IQUANT	10	I/E Range
ACHSELECT	IQUANT	1	Ach Select
ACHRANGE	IQUANT	2	Ach Range
ACHOFFSETENABLE	TOGGLE	F	Ach Offset Enable
ACHOFFSET	QUANT	0	Ach Offset (V)
ACHFILTER	IQUANT	1	Ach Filter
CABLEID	IQUANT	14	Cable ID
DCCALDATE	LABEL	20-10-2016	DC Calibration Date
ACCALDATE	LABEL	12/3/2015	AC Calibration Date
FRAMEWORKVERSION	QUANT	7.01	Framework Version
INSTRUMENTVERSION	LABEL	4.00	Instrument Version
CURVE	TABLE	68
	Pt	T	Vf	Im	Vu	Pwr	Sig	Ach	Temp	IERange	Over
	#	s	V	A	V	W	V	V	deg C	#	bits
	0	0.013333	4.25385E-001	-6.01435E-003	0.00000E+000	-2.55841E-003	-3.59960E-001	-1.04073E+000	3.57700E+000	10	...........
	1	0.026667	4.15113E-001	-6.01844E-003	0.00000E+000	-2.49833E-003	-3.59960E-001	-1.03006E+000	3.57700E+000	10	...........
	2	0.04	4.05566E-001	-6.01292E-003	0.00000E+000	-2.43864E-003	-3.59960E-001	-1.03405E+000	3.57700E+000	10	...........
	3	0.053333	3.96515E-001	-6.01690E-003	0.00000E+000	-2.38579E-003	-3.59960E-001	-1.04097E+000	3.57700E+000	10	...........
	4	0.066667	3.87816E-001	-6.01308E-003	0.00000E+000	-2.33197E-003	-3.59960E-001	-1.03008E+000	3.57700E+000	10	...........
	5	0.08	3.79331E-001	-6.01375E-003	0.00000E+000	-2.28120E-003	-3.59960E-001	-1.03372E+000	3.57700E+000	10	...........
	6	0.093333	3.71100E-001	-6.00997E-003	0.00000E+000	-2.23030E-003	-3.59960E-001	-1.04061E+000	3.57700E+000	10	...........
	7	0.106667	3.63036E-001	-6.01803E-003	0.00000E+000	-2.18476E-003	-3.59960E-001	-1.03009E+000	3.57700E+000	10	...........
	8	0.12	3.55088E-001	-6.01422E-003	0.00000E+000	-2.13558E-003	-3.59960E-001	-1.03383E+000	3.57700E+000	10	...........
	9	0.133333	3.47293E-001	-6.01186E-003	0.00000E+000	-2.08788E-003	-3.59960E-001	-1.04095E+000	3.57700E+000	10	...........
	10	0.146667	3.39593E-001	-6.01768E-003	0.00000E+000	-2.04356E-003	-3.59960E-001	-1.02985E+000	3.57700E+000	10	...........
	11	0.16	3.32042E-001	-6.01438E-003	0.00000E+000	-1.99703E-003	-3.59960E-001	-1.03379E+000	3.57700E+000	10	...........
	12	0.173333	3.24601E-001	-6.01488E-003	0.00000E+000	-1.95244E-003	-3.59960E-001	-1.04151E+000	3.57700E+000	10	...........
	13	0.186667	3.17229E-001	-6.01434E-003	0.00000E+000	-1.90792E-003	-3.59960E-001	-1.03042E+000	3.57700E+000	10	...........
	14	0.2	3.09955E-001	-6.01541E-003	0.00000E+000	-1.86450E-003	-3.59960E-001	-1.03391E+000	3.57700E+000	10	...........
	15	0.213333	3.02763E-001	-6.01668E-003	0.00000E+000	-1.82163E-003	-3.59960E-001	-1.04135E+000	3.57700E+000	10	...........
	16	0.226667	2.95640E-001	-6.01515E-003	0.00000E+000	-1.77832E-003	-3.59960E-001	-1.03028E+000	3.57700E+000	10	...........
	17	0.24	2.88548E-001	-6.01342E-003	0.00000E+000	-1.73516E-003	-3.59960E-001	-1.03411E+000	3.57700E+000	10	...........
	18	0.253333	2.81571E-001	-6.01558E-003	0.00000E+000	-1.69381E-003	-3.59960E-001	-1.04201E+000	3.57700E+000	10	...........
	19	0.266667	2.74644E-001	-6.01402E-003	0.00000E+000	-1.65172E-003	-3.59960E-001	-1.03061E+000	3.57700E+000	10	...........
	20	0.28	2.67794E-001	-6.01463E-003	0.00000E+000	-1.61068E-003	-3.59960E-001	-1.03396E+000	3.57700E+000	10	...........
	21	0.293333	2.61057E-001	-6.01145E-003	0.00000E+000	-1.56933E-003	-3.59960E-001	-1.04219E+000	3.57700E+000	10	...........
	22	0.306667	2.54294E-001	-6.00985E-003	0.00000E+000	-1.52827E-003	-3.59960E-001	-1.03091E+000	3.57700E+000	10	...........
	23	0.32	2.47609E-001	-6.01456E-003	0.00000E+000	-1.48926E-003	-3.59960E-001	-1.03421E+000	3.57700E+000	10	...........
	24	0.333333	2.41007E-001	-6.01247E-003	0.00000E+000	-1.44905E-003	-3.59960E-001	-1.04261E+000	3.57700E+000	10	...........
	25	0.346667	2.34529E-001	-6.01558E-003	0.00000E+000	-1.41083E-003	-3.59960E-001	-1.03105E+000	3.57700E+000	10	...........
	26	0.36	2.28069E-001	-6.01307E-003	0.00000E+000	-1.37139E-003	-3.59960E-001	-1.03425E+000	3.57700E+000	10	...........
	27	0.373333	2.21624E-001	-6.01208E-003	0.00000E+000	-1.33242E-003	-3.59960E-001	-1.04277E+000	3.57700E+000	10	...........
	28	0.386667	2.15266E-001	-6.01439E-003	0.00000E+000	-1.29469E-003	-3.59960E-001	-1.03139E+000	3.57700E+000	10	...........
	29	0.4	2.08963E-001	-6.01482E-003	0.00000E+000	-1.25687E-003	-3.59960E-001	-1.03411E+000	3.57700E+000	10	...........
	30	0.413333	2.02702E-001	-6.01484E-003	0.00000E+000	-1.21922E-003	-3.59960E-001	-1.04236E+000	3.57700E+000	10	...........
	31	0.426667	1.96486E-001	-6.01598E-003	0.00000E+000	-1.18205E-003	-3.59960E-001	-1.03071E+000	3.57700E+000	10	...........
	32	0.44	1.90329E-001	-6.01809E-003	0.00000E+000	-1.14542E-003	-3.59960E-001	-1.03391E+000	3.57700E+000	10	...........
	33	0.453333	1.84194E-001	-6.01606E-003	0.00000E+000	-1.10812E-003	-3.59960E-001	-1.04271E+000	3.57700E+000	10	...........
	34	0.466667	1.78119E-001	-6.01223E-003	0.00000E+000	-1.07089E-003	-3.59960E-001	-1.03116E+000	3.57700E+000	10	...........
	35	0.48	1.72136E-001	-6.01459E-003	0.00000E+000	-1.03532E-003	-3.59960E-001	-1.03379E+000	3.57700E+000	10	...........
	36	0.493333	1.66195E-001	-6.01643E-003	0.00000E+000	-9.99904E-004	-3.59960E-001	-1.04284E+000	3.57700E+000	10	...........
	37	0.506667	1.60295E-001	-6.01462E-003	0.00000E+000	-9.64112E-004	-3.59960E-001	-1.03132E+000	3.57700E+000	10	...........
	38	0.52	1.54429E-001	-6.01773E-003	0.00000E+000	-9.29312E-004	-3.59960E-001	-1.03403E+000	3.57700E+000	10	...........
	39	0.533333	1.48646E-001	-6.01168E-003	0.00000E+000	-8.93614E-004	-3.59960E-001	-1.04324E+000	3.57700E+000	10	...........
	40	0.546667	1.42898E-001	-6.01381E-003	0.00000E+000	-8.59362E-004	-3.59960E-001	-1.03139E+000	3.57700E+000	10	...........
	41	0.56	1.37163E-001	-6.01434E-003	0.00000E+000	-8.24944E-004	-3.59960E-001	-1.03387E+000	3.57700E+000	10	...........
	42	0.573333	1.31448E-001	-6.01838E-003	0.00000E+000	-7.91104E-004	-3.59960E-001	-1.04326E+000	3.57700E+000	10	...........
	43	0.586667	1.25826E-001	-6.01508E-003	0.00000E+000	-7.56856E-004	-3.59960E-001	-1.03177E+000	3.57700E+000	10	...........
	44	0.6	1.20211E-001	-6.01674E-003	0.00000E+000	-7.23276E-004	-3.59960E-001	-1.03398E+000	3.57700E+000	10	...........
	45	0.613333	1.14652E-001	-6.01633E-003	0.00000E+000	-6.89781E-004	-3.59960E-001	-1.04338E+000	3.57700E+000	10	...........
	46	0.626667	1.09146E-001	-6.01063E-003	0.00000E+000	-6.56038E-004	-3.59960E-001	-1.03179E+000	3.57700E+000	10	...........
	47	0.64	1.03664E-001	-6.01707E-003	0.00000E+000	-6.23754E-004	-3.59960E-001	-1.03418E+000	3.57700E+000	10	...........
	48	0.653333	9.82048E-002	-6.01140E-003	0.00000E+000	-5.90348E-004	-3.59960E-001	-1.04407E+000	3.57700E+000	10	...........
	49	0.666667	9.27825E-002	-6.01806E-003	0.00000E+000	-5.58371E-004	-3.59960E-001	-1.03207E+000	3.57700E+000	10	...........
	50	0.68	8.74091E-002	-6.01484E-003	0.00000E+000	-5.25752E-004	-3.59960E-001	-1.03406E+000	3.57700E+000	10	...........
	51	0.693333	8.20674E-002	-6.01737E-003	0.00000E+000	-4.93830E-004	-3.59960E-001	-1.04398E+000	3.57700E+000	10	...........
	52	0.706667	7.68070E-002	-6.01088E-003	0.00000E+000	-4.61677E-004	-3.59960E-001	-1.03240E+000	3.57700E+000	10	...........
	53	0.72	7.15417E-002	-6.01600E-003	0.00000E+000	-4.30395E-004	-3.59960E-001	-1.03438E+000	3.57700E+000	10	...........
	54	0.733333	6.63155E-002	-6.01556E-003	0.00000E+000	-3.98925E-004	-3.59960E-001	-1.04371E+000	3.57700E+000	10	...........
	55	0.746667	6.11352E-002	-6.01702E-003	0.00000E+000	-3.67851E-004	-3.59960E-001	-1.03174E+000	3.57700E+000	10	...........
	56	0.76	5.59933E-002	-6.01790E-003	0.00000E+000	-3.36963E-004	-3.59960E-001	-1.03382E+000	3.57700E+000	10	...........
	57	0.773333	5.08646E-002	-6.01268E-003	0.00000E+000	-3.05833E-004	-3.59960E-001	-1.04386E+000	3.57700E+000	10	...........
	58	0.786667	4.58109E-002	-6.01686E-003	0.00000E+000	-2.75638E-004	-3.59960E-001	-1.03220E+000	3.57700E+000	10	...........
	59	0.8	4.07463E-002	-6.01452E-003	0.00000E+000	-2.45069E-004	-3.59960E-001	-1.03386E+000	3.57700E+000	10	...........
	60	0.813333	3.57309E-002	-6.01481E-003	0.00000E+000	-2.14915E-004	-3.59960E-001	-1.04392E+000	3.57700E+000	10	...........
	61	0.826667	3.07369E-002	-6.01733E-003	0.00000E+000	-1.84954E-004	-3.59960E-001	-1.03220E+000	3.57700E+000	10	...........
	62	0.84	2.57607E-002	-6.01736E-003	0.00000E+000	-1.55012E-004	-3.59960E-001	-1.03395E+000	3.57700E+000	10	...........
	63	0.853333	2.08418E-002	-6.01690E-003	0.00000E+000	-1.25403E-004	-3.59960E-001	-1.04418E+000	3.57700E+000	10	...........
	64	0.866667	1.59697E-002	-6.01361E-003	0.00000E+000	-9.60354E-005	-3.59960E-001	-1.03224E+000	3.57700E+000	10	...........
	65	0.88	1.11272E-002	-6.01409E-003	0.00000E+000	-6.69201E-005	-3.59960E-001	-1.03364E+000	3.57700E+000	10	...........
	66	0.893333	6.29780E-003	-6.01505E-003	0.00000E+000	-3.78815E-005	-3.59960E-001	-1.04405E+000	3.57700E+000	10	...........
	67	0.905	1.78117E-003	-6.01345E-003	0.00000E+000	-1.07110E-005	-3.59960E-001	-1.02996E+000	3.57760E+000	10	...........
STARTTIMEOFFSET	QUANT	218.1683	Start Time Offset (s)