File: Data/CV_CRGO300517_1/PWRCCD_CRGO300517_1/CHARGE_DISCHARGE/DISCHARGE_#104.DTA
EXPLAIN
TAG	PWR800_DISCHARGE
TITLE	LABEL	PWR Cyclic Charge Discharge (Cell) - Discharge Step	Test &Identifier
DATE	LABEL	22-6-2017	Date
TIME	LABEL	15:39:42	Time
NOTES	NOTES	3	&Notes...
	supercap test cell
	0.6mg
	6M KOH
PSTAT	PSTAT	IFC5000-01520	Potentiostat
CAPACITY	QUANT	1.00000E-003	Capacity (A-hr)
CELLTYPE	SELECTOR	1	&Cell Type
WORKINGCONNECTION	SELECTOR	0	&Working Lead
MAXDISCHARGETIME	VARIABLEANDUNITS	1.00000E+002	s	1.00000E+002	second(s)	Max &Discharge Time
DISCHARGEMODE	MULTIPARAM	0	6.00000E-003	&Discharge Mode	Constant Current	Amp(s)
SAMPLETIME	QUANT	1.00000E-002	Sa&mple Period (s)
DISCHARGESTOPAT1	MULTIPARAM	3	0.00000E+000	Discharge Stop At &1	Voltage < Limit	V
DISCHARGESTOPAT2	MULTIPARAM	0	0.00000E+000	Discharge Stop At &2	None	N/A
AESBHCSELECTOR	TOGGLE	F	Save Both Half Cells
IRCOMP	TOGGLE	F	IR &Measure
EOC	QUANT	0	Open Circuit (V)
SEQUENCER	TOGGLE	TRUE	Run as Sequence
PSTATMODEL	IQUANT	53	Pstat Model
PSTATSECTION	LABEL	IFC5000-01520	Pstat Section
PSTATSERIALNO	LABEL	01520	Pstat Serial Number
CTRLMODE	IQUANT	0	Control Mode
ELECTROMETER	IQUANT	1	RE=0 or CS=1
IESTAB	IQUANT	0	I/E Stability
CASPEED	IQUANT	4	Control Amp Speed
CONVENTION	IQUANT	1	Current Convention
ICHRANGE	IQUANT	2	Ich Range
ICHRANGEMODE	TOGGLE	T	Ich Auto Range
ICHOFFSETENABLE	TOGGLE	F	Ich Offset Enable
ICHOFFSET	QUANT	0	Ich Offset (V)
ICHFILTER	IQUANT	1	Ich Filter
VCHRANGE	IQUANT	2	Vch Range
VCHRANGEMODE	TOGGLE	T	Vch Auto Range
VCHOFFSETENABLE	TOGGLE	F	Vch Offset Enable
VCHOFFSET	QUANT	0	Vch Offset (V)
VCHFILTER	IQUANT	1	Vch Filter
IERANGELOWERLIMIT	IQUANT	9	I/E Range Lower Limit
IERANGEMODE	TOGGLE	F	I/E AutoRange
IERANGE	IQUANT	10	I/E Range
ACHSELECT	IQUANT	1	Ach Select
ACHRANGE	IQUANT	2	Ach Range
ACHOFFSETENABLE	TOGGLE	F	Ach Offset Enable
ACHOFFSET	QUANT	0	Ach Offset (V)
ACHFILTER	IQUANT	1	Ach Filter
CABLEID	IQUANT	14	Cable ID
DCCALDATE	LABEL	20-10-2016	DC Calibration Date
ACCALDATE	LABEL	12/3/2015	AC Calibration Date
FRAMEWORKVERSION	QUANT	7.01	Framework Version
INSTRUMENTVERSION	LABEL	4.00	Instrument Version
CURVE	TABLE	69
	Pt	T	Vf	Im	Vu	Pwr	Sig	Ach	Temp	IERange	Over
	#	s	V	A	V	W	V	V	deg C	#	bits
	0	0.013333	4.27678E-001	-6.01492E-003	0.00000E+000	-2.57245E-003	-3.59960E-001	-1.03163E+000	3.57700E+000	10	...........
	1	0.026667	4.17428E-001	-6.01310E-003	0.00000E+000	-2.51003E-003	-3.59960E-001	-1.02234E+000	3.57700E+000	10	...........
	2	0.04	4.07929E-001	-6.01126E-003	0.00000E+000	-2.45217E-003	-3.59960E-001	-1.02452E+000	3.57700E+000	10	...........
	3	0.053333	3.98890E-001	-6.01795E-003	0.00000E+000	-2.40050E-003	-3.59960E-001	-1.03174E+000	3.57700E+000	10	...........
	4	0.066667	3.90191E-001	-6.01604E-003	0.00000E+000	-2.34741E-003	-3.59960E-001	-1.02265E+000	3.57700E+000	10	...........
	5	0.08	3.81756E-001	-6.01362E-003	0.00000E+000	-2.29574E-003	-3.59960E-001	-1.02499E+000	3.57700E+000	10	...........
	6	0.093333	3.73538E-001	-6.01329E-003	0.00000E+000	-2.24619E-003	-3.59960E-001	-1.03204E+000	3.57700E+000	10	...........
	7	0.106667	3.65468E-001	-6.01380E-003	0.00000E+000	-2.19785E-003	-3.59960E-001	-1.02275E+000	3.57700E+000	10	...........
	8	0.12	3.57562E-001	-6.01566E-003	0.00000E+000	-2.15097E-003	-3.59960E-001	-1.02502E+000	3.57700E+000	10	...........
	9	0.133333	3.49737E-001	-6.01474E-003	0.00000E+000	-2.10358E-003	-3.59960E-001	-1.03245E+000	3.57700E+000	10	...........
	10	0.146667	3.42069E-001	-6.01346E-003	0.00000E+000	-2.05702E-003	-3.59960E-001	-1.02312E+000	3.57700E+000	10	...........
	11	0.16	3.34495E-001	-6.01644E-003	0.00000E+000	-2.01247E-003	-3.59960E-001	-1.02537E+000	3.57700E+000	10	...........
	12	0.173333	3.27044E-001	-6.01492E-003	0.00000E+000	-1.96714E-003	-3.59960E-001	-1.03250E+000	3.57700E+000	10	...........
	13	0.186667	3.19670E-001	-6.01506E-003	0.00000E+000	-1.92284E-003	-3.59960E-001	-1.02327E+000	3.57700E+000	10	...........
	14	0.2	3.12378E-001	-6.01373E-003	0.00000E+000	-1.87856E-003	-3.59960E-001	-1.02550E+000	3.57700E+000	10	...........
	15	0.213333	3.05224E-001	-6.01250E-003	0.00000E+000	-1.83516E-003	-3.59960E-001	-1.03246E+000	3.57700E+000	10	...........
	16	0.226667	2.98081E-001	-6.01498E-003	0.00000E+000	-1.79295E-003	-3.59960E-001	-1.02326E+000	3.57700E+000	10	...........
	17	0.24	2.91024E-001	-6.01642E-003	0.00000E+000	-1.75092E-003	-3.59960E-001	-1.02521E+000	3.57700E+000	10	...........
	18	0.253333	2.84074E-001	-6.01095E-003	0.00000E+000	-1.70756E-003	-3.59960E-001	-1.03277E+000	3.57700E+000	10	...........
	19	0.266667	2.77108E-001	-6.01930E-003	0.00000E+000	-1.66800E-003	-3.59960E-001	-1.02331E+000	3.57700E+000	10	...........
	20	0.28	2.70272E-001	-6.01783E-003	0.00000E+000	-1.62645E-003	-3.59960E-001	-1.02543E+000	3.57700E+000	10	...........
	21	0.293333	2.63493E-001	-6.01207E-003	0.00000E+000	-1.58414E-003	-3.59960E-001	-1.03282E+000	3.57700E+000	10	...........
	22	0.306667	2.56815E-001	-6.01460E-003	0.00000E+000	-1.54464E-003	-3.59960E-001	-1.02346E+000	3.57700E+000	10	...........
	23	0.32	2.50183E-001	-6.01700E-003	0.00000E+000	-1.50535E-003	-3.59960E-001	-1.02534E+000	3.57700E+000	10	...........
	24	0.333333	2.43600E-001	-6.01481E-003	0.00000E+000	-1.46520E-003	-3.59960E-001	-1.03313E+000	3.57700E+000	10	...........
	25	0.346667	2.37060E-001	-6.01226E-003	0.00000E+000	-1.42527E-003	-3.59960E-001	-1.02375E+000	3.57700E+000	10	...........
	26	0.36	2.30575E-001	-6.01798E-003	0.00000E+000	-1.38760E-003	-3.59960E-001	-1.02542E+000	3.57700E+000	10	...........
	27	0.373333	2.24170E-001	-6.01631E-003	0.00000E+000	-1.34868E-003	-3.59960E-001	-1.03290E+000	3.57700E+000	10	...........
	28	0.386667	2.17840E-001	-6.01681E-003	0.00000E+000	-1.31070E-003	-3.59960E-001	-1.02379E+000	3.57700E+000	10	...........
	29	0.4	2.11537E-001	-6.01856E-003	0.00000E+000	-1.27315E-003	-3.59960E-001	-1.02585E+000	3.57700E+000	10	...........
	30	0.413333	2.05306E-001	-6.01739E-003	0.00000E+000	-1.23541E-003	-3.59960E-001	-1.03335E+000	3.57700E+000	10	...........
	31	0.426667	1.99139E-001	-6.01612E-003	0.00000E+000	-1.19805E-003	-3.59960E-001	-1.02376E+000	3.57700E+000	10	...........
	32	0.44	1.92959E-001	-6.01482E-003	0.00000E+000	-1.16061E-003	-3.59960E-001	-1.02573E+000	3.57700E+000	10	...........
	33	0.453333	1.86854E-001	-6.01588E-003	0.00000E+000	-1.12409E-003	-3.59960E-001	-1.03330E+000	3.57700E+000	10	...........
	34	0.466667	1.80786E-001	-6.01882E-003	0.00000E+000	-1.08812E-003	-3.59960E-001	-1.02430E+000	3.57700E+000	10	...........
	35	0.48	1.74749E-001	-6.01478E-003	0.00000E+000	-1.05108E-003	-3.59960E-001	-1.02606E+000	3.57700E+000	10	...........
	36	0.493333	1.68827E-001	-6.01455E-003	0.00000E+000	-1.01542E-003	-3.59960E-001	-1.03360E+000	3.57700E+000	10	...........
	37	0.506667	1.62926E-001	-6.01460E-003	0.00000E+000	-9.79935E-004	-3.59960E-001	-1.02432E+000	3.57700E+000	10	...........
	38	0.52	1.57054E-001	-6.01113E-003	0.00000E+000	-9.44074E-004	-3.59960E-001	-1.02619E+000	3.57700E+000	10	...........
	39	0.533333	1.51221E-001	-6.01611E-003	0.00000E+000	-9.09764E-004	-3.59960E-001	-1.03377E+000	3.57700E+000	10	...........
	40	0.546667	1.45477E-001	-6.01613E-003	0.00000E+000	-8.75211E-004	-3.59960E-001	-1.02416E+000	3.57700E+000	10	...........
	41	0.56	1.39726E-001	-6.01057E-003	0.00000E+000	-8.39833E-004	-3.59960E-001	-1.02610E+000	3.57700E+000	10	...........
	42	0.573333	1.34036E-001	-6.01412E-003	0.00000E+000	-8.06106E-004	-3.59960E-001	-1.03342E+000	3.57700E+000	10	...........
	43	0.586667	1.28413E-001	-6.01589E-003	0.00000E+000	-7.72520E-004	-3.59960E-001	-1.02415E+000	3.57700E+000	10	...........
	44	0.6	1.22832E-001	-6.01215E-003	0.00000E+000	-7.38486E-004	-3.59960E-001	-1.02620E+000	3.57700E+000	10	...........
	45	0.613333	1.17268E-001	-6.01350E-003	0.00000E+000	-7.05192E-004	-3.59960E-001	-1.03376E+000	3.57700E+000	10	...........
	46	0.626667	1.11735E-001	-6.01506E-003	0.00000E+000	-6.72094E-004	-3.59960E-001	-1.02439E+000	3.57700E+000	10	...........
	47	0.64	1.06253E-001	-6.01434E-003	0.00000E+000	-6.39044E-004	-3.59960E-001	-1.02594E+000	3.57700E+000	10	...........
	48	0.653333	1.00812E-001	-6.01690E-003	0.00000E+000	-6.06573E-004	-3.59960E-001	-1.03366E+000	3.57700E+000	10	...........
	49	0.666667	9.54011E-002	-6.01522E-003	0.00000E+000	-5.73859E-004	-3.59960E-001	-1.02441E+000	3.57700E+000	10	...........
	50	0.68	9.00414E-002	-6.01356E-003	0.00000E+000	-5.41469E-004	-3.59960E-001	-1.02622E+000	3.57700E+000	10	...........
	51	0.693333	8.47183E-002	-6.01229E-003	0.00000E+000	-5.09351E-004	-3.59960E-001	-1.03377E+000	3.57700E+000	10	...........
	52	0.706667	7.94421E-002	-6.01312E-003	0.00000E+000	-4.77695E-004	-3.59960E-001	-1.02428E+000	3.57700E+000	10	...........
	53	0.72	7.41898E-002	-6.01395E-003	0.00000E+000	-4.46174E-004	-3.59960E-001	-1.02599E+000	3.57700E+000	10	...........
	54	0.733333	6.89482E-002	-6.01773E-003	0.00000E+000	-4.14911E-004	-3.59960E-001	-1.03397E+000	3.57700E+000	10	...........
	55	0.746667	6.37787E-002	-6.01734E-003	0.00000E+000	-3.83778E-004	-3.59960E-001	-1.02439E+000	3.57700E+000	10	...........
	56	0.76	5.86279E-002	-6.01433E-003	0.00000E+000	-3.52607E-004	-3.59960E-001	-1.02605E+000	3.57700E+000	10	...........
	57	0.773333	5.35110E-002	-6.01718E-003	0.00000E+000	-3.21985E-004	-3.59960E-001	-1.03369E+000	3.57700E+000	10	...........
	58	0.786667	4.84448E-002	-6.01551E-003	0.00000E+000	-2.91420E-004	-3.59960E-001	-1.02440E+000	3.57700E+000	10	...........
	59	0.8	4.34300E-002	-6.01697E-003	0.00000E+000	-2.61317E-004	-3.59960E-001	-1.02633E+000	3.57700E+000	10	...........
	60	0.813333	3.84176E-002	-6.01349E-003	0.00000E+000	-2.31024E-004	-3.59960E-001	-1.03410E+000	3.57700E+000	10	...........
	61	0.826667	3.34041E-002	-6.01498E-003	0.00000E+000	-2.00925E-004	-3.59960E-001	-1.02462E+000	3.57700E+000	10	...........
	62	0.84	2.84321E-002	-6.01170E-003	0.00000E+000	-1.70925E-004	-3.59960E-001	-1.02599E+000	3.57700E+000	10	...........
	63	0.853333	2.35055E-002	-6.01767E-003	0.00000E+000	-1.41448E-004	-3.59960E-001	-1.03372E+000	3.57700E+000	10	...........
	64	0.866667	1.86270E-002	-6.01470E-003	0.00000E+000	-1.12036E-004	-3.59960E-001	-1.02443E+000	3.57700E+000	10	...........
	65	0.88	1.37330E-002	-6.01272E-003	0.00000E+000	-8.25729E-005	-3.59960E-001	-1.02610E+000	3.57822E+000	10	...........
	66	0.893333	8.91338E-003	-6.00548E-003	0.00000E+000	-5.35291E-005	-3.59960E-001	-1.03378E+000	3.57840E+000	10	...........
	67	0.906667	4.11393E-003	-6.01806E-003	0.00000E+000	-2.47579E-005	-3.59960E-001	-1.02443E+000	3.57840E+000	10	...........
	68	0.913333	5.45770E-004	-6.01328E-003	0.00000E+000	-3.28187E-006	-3.59960E-001	-1.03547E+000	3.57840E+000	10	...........
STARTTIMEOFFSET	QUANT	203.5083	Start Time Offset (s)