File: Data/CV_CRGO300517_1/PWRCCD_CRGO300517_1/CHARGE_DISCHARGE/DISCHARGE_#106.DTA
EXPLAIN
TAG	PWR800_DISCHARGE
TITLE	LABEL	PWR Cyclic Charge Discharge (Cell) - Discharge Step	Test &Identifier
DATE	LABEL	22-6-2017	Date
TIME	LABEL	15:39:47	Time
NOTES	NOTES	3	&Notes...
	supercap test cell
	0.6mg
	6M KOH
PSTAT	PSTAT	IFC5000-01520	Potentiostat
CAPACITY	QUANT	1.00000E-003	Capacity (A-hr)
CELLTYPE	SELECTOR	1	&Cell Type
WORKINGCONNECTION	SELECTOR	0	&Working Lead
MAXDISCHARGETIME	VARIABLEANDUNITS	1.00000E+002	s	1.00000E+002	second(s)	Max &Discharge Time
DISCHARGEMODE	MULTIPARAM	0	6.00000E-003	&Discharge Mode	Constant Current	Amp(s)
SAMPLETIME	QUANT	1.00000E-002	Sa&mple Period (s)
DISCHARGESTOPAT1	MULTIPARAM	3	0.00000E+000	Discharge Stop At &1	Voltage < Limit	V
DISCHARGESTOPAT2	MULTIPARAM	0	0.00000E+000	Discharge Stop At &2	None	N/A
AESBHCSELECTOR	TOGGLE	F	Save Both Half Cells
IRCOMP	TOGGLE	F	IR &Measure
EOC	QUANT	0	Open Circuit (V)
SEQUENCER	TOGGLE	TRUE	Run as Sequence
PSTATMODEL	IQUANT	53	Pstat Model
PSTATSECTION	LABEL	IFC5000-01520	Pstat Section
PSTATSERIALNO	LABEL	01520	Pstat Serial Number
CTRLMODE	IQUANT	0	Control Mode
ELECTROMETER	IQUANT	1	RE=0 or CS=1
IESTAB	IQUANT	0	I/E Stability
CASPEED	IQUANT	4	Control Amp Speed
CONVENTION	IQUANT	1	Current Convention
ICHRANGE	IQUANT	2	Ich Range
ICHRANGEMODE	TOGGLE	T	Ich Auto Range
ICHOFFSETENABLE	TOGGLE	F	Ich Offset Enable
ICHOFFSET	QUANT	0	Ich Offset (V)
ICHFILTER	IQUANT	1	Ich Filter
VCHRANGE	IQUANT	2	Vch Range
VCHRANGEMODE	TOGGLE	T	Vch Auto Range
VCHOFFSETENABLE	TOGGLE	F	Vch Offset Enable
VCHOFFSET	QUANT	0	Vch Offset (V)
VCHFILTER	IQUANT	1	Vch Filter
IERANGELOWERLIMIT	IQUANT	9	I/E Range Lower Limit
IERANGEMODE	TOGGLE	F	I/E AutoRange
IERANGE	IQUANT	10	I/E Range
ACHSELECT	IQUANT	1	Ach Select
ACHRANGE	IQUANT	2	Ach Range
ACHOFFSETENABLE	TOGGLE	F	Ach Offset Enable
ACHOFFSET	QUANT	0	Ach Offset (V)
ACHFILTER	IQUANT	1	Ach Filter
CABLEID	IQUANT	14	Cable ID
DCCALDATE	LABEL	20-10-2016	DC Calibration Date
ACCALDATE	LABEL	12/3/2015	AC Calibration Date
FRAMEWORKVERSION	QUANT	7.01	Framework Version
INSTRUMENTVERSION	LABEL	4.00	Instrument Version
CURVE	TABLE	69
	Pt	T	Vf	Im	Vu	Pwr	Sig	Ach	Temp	IERange	Over
	#	s	V	A	V	W	V	V	deg C	#	bits
	0	0.013333	4.27101E-001	-6.01411E-003	0.00000E+000	-2.56863E-003	-3.59960E-001	-1.03340E+000	3.57840E+000	10	...........
	1	0.026667	4.16858E-001	-6.01668E-003	0.00000E+000	-2.50810E-003	-3.59960E-001	-1.02500E+000	3.57840E+000	10	...........
	2	0.04	4.07395E-001	-6.01275E-003	0.00000E+000	-2.44956E-003	-3.59960E-001	-1.02664E+000	3.57840E+000	10	...........
	3	0.053333	3.98356E-001	-6.01753E-003	0.00000E+000	-2.39712E-003	-3.59960E-001	-1.03509E+000	3.57840E+000	10	...........
	4	0.066667	3.89681E-001	-6.01238E-003	0.00000E+000	-2.34291E-003	-3.59960E-001	-1.02628E+000	3.57840E+000	10	...........
	5	0.08	3.81259E-001	-6.01332E-003	0.00000E+000	-2.29263E-003	-3.59960E-001	-1.02760E+000	3.57840E+000	10	...........
	6	0.093333	3.73036E-001	-6.01747E-003	0.00000E+000	-2.24473E-003	-3.59960E-001	-1.03621E+000	3.57840E+000	10	...........
	7	0.106667	3.64980E-001	-6.01711E-003	0.00000E+000	-2.19613E-003	-3.59960E-001	-1.02707E+000	3.57840E+000	10	...........
	8	0.12	3.57075E-001	-6.01232E-003	0.00000E+000	-2.14685E-003	-3.59960E-001	-1.02797E+000	3.57840E+000	10	...........
	9	0.133333	3.49279E-001	-6.01192E-003	0.00000E+000	-2.09984E-003	-3.59960E-001	-1.03624E+000	3.57840E+000	10	...........
	10	0.146667	3.41601E-001	-6.01313E-003	0.00000E+000	-2.05409E-003	-3.59960E-001	-1.02769E+000	3.57840E+000	10	...........
	11	0.16	3.34046E-001	-6.01332E-003	0.00000E+000	-2.00872E-003	-3.59960E-001	-1.02878E+000	3.57840E+000	10	...........
	12	0.173333	3.26580E-001	-6.01103E-003	0.00000E+000	-1.96308E-003	-3.59960E-001	-1.03707E+000	3.57840E+000	10	...........
	13	0.186667	3.19190E-001	-6.01825E-003	0.00000E+000	-1.92096E-003	-3.59960E-001	-1.02785E+000	3.57840E+000	10	...........
	14	0.2	3.11916E-001	-6.01251E-003	0.00000E+000	-1.87540E-003	-3.59960E-001	-1.02831E+000	3.57840E+000	10	...........
	15	0.213333	3.04702E-001	-6.01350E-003	0.00000E+000	-1.83233E-003	-3.59960E-001	-1.03630E+000	3.57840E+000	10	...........
	16	0.226667	2.97543E-001	-6.01330E-003	0.00000E+000	-1.78922E-003	-3.59960E-001	-1.02707E+000	3.57840E+000	10	...........
	17	0.24	2.90488E-001	-6.01739E-003	0.00000E+000	-1.74798E-003	-3.59960E-001	-1.02789E+000	3.57840E+000	10	...........
	18	0.253333	2.83505E-001	-6.01798E-003	0.00000E+000	-1.70613E-003	-3.59960E-001	-1.03530E+000	3.57840E+000	10	...........
	19	0.266667	2.76590E-001	-6.01910E-003	0.00000E+000	-1.66482E-003	-3.59960E-001	-1.02597E+000	3.57840E+000	10	...........
	20	0.28	2.69760E-001	-6.01304E-003	0.00000E+000	-1.62208E-003	-3.59960E-001	-1.02638E+000	3.57840E+000	10	...........
	21	0.293333	2.63000E-001	-6.01471E-003	0.00000E+000	-1.58187E-003	-3.59960E-001	-1.03407E+000	3.57840E+000	10	...........
	22	0.306667	2.56274E-001	-6.01360E-003	0.00000E+000	-1.54113E-003	-3.59960E-001	-1.02477E+000	3.57840E+000	10	...........
	23	0.32	2.49640E-001	-6.01400E-003	0.00000E+000	-1.50133E-003	-3.59960E-001	-1.02488E+000	3.57840E+000	10	...........
	24	0.333333	2.43040E-001	-6.01691E-003	0.00000E+000	-1.46235E-003	-3.59960E-001	-1.03230E+000	3.57840E+000	10	...........
	25	0.346667	2.36536E-001	-6.01702E-003	0.00000E+000	-1.42324E-003	-3.59960E-001	-1.02321E+000	3.57840E+000	10	...........
	26	0.36	2.30080E-001	-6.01337E-003	0.00000E+000	-1.38356E-003	-3.59960E-001	-1.02353E+000	3.57840E+000	10	...........
	27	0.373333	2.23664E-001	-6.01457E-003	0.00000E+000	-1.34524E-003	-3.59960E-001	-1.03152E+000	3.57840E+000	10	...........
	28	0.386667	2.17296E-001	-6.01433E-003	0.00000E+000	-1.30689E-003	-3.59960E-001	-1.02237E+000	3.57840E+000	10	...........
	29	0.4	2.10982E-001	-6.01640E-003	0.00000E+000	-1.26935E-003	-3.59960E-001	-1.02233E+000	3.57840E+000	10	...........
	30	0.413333	2.04727E-001	-6.01560E-003	0.00000E+000	-1.23156E-003	-3.59960E-001	-1.03011E+000	3.57840E+000	10	...........
	31	0.426667	1.98528E-001	-6.01553E-003	0.00000E+000	-1.19425E-003	-3.59960E-001	-1.02108E+000	3.57840E+000	10	...........
	32	0.44	1.92368E-001	-6.01494E-003	0.00000E+000	-1.15708E-003	-3.59960E-001	-1.02121E+000	3.57840E+000	10	...........
	33	0.453333	1.86266E-001	-6.01380E-003	0.00000E+000	-1.12016E-003	-3.59960E-001	-1.02911E+000	3.57840E+000	10	...........
	34	0.466667	1.80258E-001	-6.01551E-003	0.00000E+000	-1.08435E-003	-3.59960E-001	-1.02044E+000	3.57840E+000	10	...........
	35	0.48	1.74274E-001	-6.00981E-003	0.00000E+000	-1.04735E-003	-3.59960E-001	-1.02078E+000	3.57840E+000	10	...........
	36	0.493333	1.68303E-001	-6.01496E-003	0.00000E+000	-1.01234E-003	-3.59960E-001	-1.02888E+000	3.57840E+000	10	...........
	37	0.506667	1.62389E-001	-6.01680E-003	0.00000E+000	-9.77059E-004	-3.59960E-001	-1.02028E+000	3.57840E+000	10	...........
	38	0.52	1.56535E-001	-6.01825E-003	0.00000E+000	-9.42065E-004	-3.59960E-001	-1.02055E+000	3.57840E+000	10	...........
	39	0.533333	1.50778E-001	-6.01599E-003	0.00000E+000	-9.07078E-004	-3.59960E-001	-1.02830E+000	3.57840E+000	10	...........
	40	0.546667	1.45001E-001	-6.01956E-003	0.00000E+000	-8.72845E-004	-3.59960E-001	-1.01952E+000	3.57840E+000	10	...........
	41	0.56	1.39266E-001	-6.01384E-003	0.00000E+000	-8.37521E-004	-3.59960E-001	-1.02018E+000	3.57840E+000	10	...........
	42	0.573333	1.33602E-001	-6.01506E-003	0.00000E+000	-8.03626E-004	-3.59960E-001	-1.02809E+000	3.57840E+000	10	...........
	43	0.586667	1.27941E-001	-6.01892E-003	0.00000E+000	-7.70064E-004	-3.59960E-001	-1.01959E+000	3.57840E+000	10	...........
	44	0.6	1.22340E-001	-6.01924E-003	0.00000E+000	-7.36393E-004	-3.59960E-001	-1.01954E+000	3.57840E+000	10	...........
	45	0.613333	1.16753E-001	-6.01464E-003	0.00000E+000	-7.02228E-004	-3.59960E-001	-1.02790E+000	3.57840E+000	10	...........
	46	0.626667	1.11231E-001	-6.01395E-003	0.00000E+000	-6.68939E-004	-3.59960E-001	-1.01967E+000	3.57840E+000	10	...........
	47	0.64	1.05732E-001	-6.01651E-003	0.00000E+000	-6.36135E-004	-3.59960E-001	-1.02009E+000	3.57907E+000	10	...........
	48	0.653333	1.00287E-001	-6.01558E-003	0.00000E+000	-6.03283E-004	-3.59960E-001	-1.02854E+000	3.57930E+000	10	...........
	49	0.666667	9.49141E-002	-6.01601E-003	0.00000E+000	-5.71004E-004	-3.59960E-001	-1.01957E+000	3.57930E+000	10	...........
	50	0.68	8.95502E-002	-6.01361E-003	0.00000E+000	-5.38520E-004	-3.59960E-001	-1.02015E+000	3.57930E+000	10	...........
	51	0.693333	8.42371E-002	-6.01196E-003	0.00000E+000	-5.06430E-004	-3.59960E-001	-1.02903E+000	3.57930E+000	10	...........
	52	0.706667	7.89377E-002	-6.01355E-003	0.00000E+000	-4.74695E-004	-3.59960E-001	-1.02081E+000	3.57930E+000	10	...........
	53	0.72	7.36818E-002	-6.01714E-003	0.00000E+000	-4.43354E-004	-3.59960E-001	-1.02095E+000	3.57930E+000	10	...........
	54	0.733333	6.84454E-002	-6.01359E-003	0.00000E+000	-4.11602E-004	-3.59960E-001	-1.02939E+000	3.57930E+000	10	...........
	55	0.746667	6.32356E-002	-6.01326E-003	0.00000E+000	-3.80252E-004	-3.59960E-001	-1.02061E+000	3.57930E+000	10	...........
	56	0.76	5.80889E-002	-6.00946E-003	0.00000E+000	-3.49083E-004	-3.59960E-001	-1.02079E+000	3.57930E+000	10	...........
	57	0.773333	5.29857E-002	-6.01574E-003	0.00000E+000	-3.18748E-004	-3.59960E-001	-1.02958E+000	3.57930E+000	10	...........
	58	0.786667	4.79253E-002	-6.01532E-003	0.00000E+000	-2.88286E-004	-3.59960E-001	-1.02104E+000	3.57930E+000	10	...........
	59	0.8	4.29154E-002	-6.01737E-003	0.00000E+000	-2.58238E-004	-3.59960E-001	-1.02121E+000	3.57930E+000	10	...........
	60	0.813333	3.78931E-002	-6.01657E-003	0.00000E+000	-2.27987E-004	-3.59960E-001	-1.02970E+000	3.57930E+000	10	...........
	61	0.826667	3.29077E-002	-6.01433E-003	0.00000E+000	-1.97918E-004	-3.59960E-001	-1.02110E+000	3.57930E+000	10	...........
	62	0.84	2.79534E-002	-6.01582E-003	0.00000E+000	-1.68163E-004	-3.59960E-001	-1.02144E+000	3.57930E+000	10	...........
	63	0.853333	2.30368E-002	-6.01005E-003	0.00000E+000	-1.38452E-004	-3.59960E-001	-1.02995E+000	3.57930E+000	10	...........
	64	0.866667	1.81487E-002	-6.01400E-003	0.00000E+000	-1.09146E-004	-3.59960E-001	-1.02111E+000	3.57930E+000	10	...........
	65	0.88	1.32896E-002	-6.01602E-003	0.00000E+000	-7.99505E-005	-3.59960E-001	-1.02140E+000	3.57930E+000	10	...........
	66	0.893333	8.46835E-003	-6.01684E-003	0.00000E+000	-5.09527E-005	-3.59960E-001	-1.02997E+000	3.57930E+000	10	...........
	67	0.906667	3.67141E-003	-6.01859E-003	0.00000E+000	-2.20968E-005	-3.59960E-001	-1.02165E+000	3.57930E+000	10	...........
	68	0.911667	3.65054E-004	-6.01131E-003	0.00000E+000	-2.19445E-006	-3.59960E-001	-1.03161E+000	3.57930E+000	10	...........
STARTTIMEOFFSET	QUANT	207.1833	Start Time Offset (s)