File: Data/CV_CRGO300517_1/PWRCCD_CRGO300517_1/CHARGE_DISCHARGE/DISCHARGE_#101.DTA
EXPLAIN
TAG	PWR800_DISCHARGE
TITLE	LABEL	PWR Cyclic Charge Discharge (Cell) - Discharge Step	Test &Identifier
DATE	LABEL	22-6-2017	Date
TIME	LABEL	15:39:34	Time
NOTES	NOTES	3	&Notes...
	supercap test cell
	0.6mg
	6M KOH
PSTAT	PSTAT	IFC5000-01520	Potentiostat
CAPACITY	QUANT	1.00000E-003	Capacity (A-hr)
CELLTYPE	SELECTOR	1	&Cell Type
WORKINGCONNECTION	SELECTOR	0	&Working Lead
MAXDISCHARGETIME	VARIABLEANDUNITS	1.00000E+002	s	1.00000E+002	second(s)	Max &Discharge Time
DISCHARGEMODE	MULTIPARAM	0	6.00000E-003	&Discharge Mode	Constant Current	Amp(s)
SAMPLETIME	QUANT	1.00000E-002	Sa&mple Period (s)
DISCHARGESTOPAT1	MULTIPARAM	3	0.00000E+000	Discharge Stop At &1	Voltage < Limit	V
DISCHARGESTOPAT2	MULTIPARAM	0	0.00000E+000	Discharge Stop At &2	None	N/A
AESBHCSELECTOR	TOGGLE	F	Save Both Half Cells
IRCOMP	TOGGLE	F	IR &Measure
EOC	QUANT	0	Open Circuit (V)
SEQUENCER	TOGGLE	TRUE	Run as Sequence
PSTATMODEL	IQUANT	53	Pstat Model
PSTATSECTION	LABEL	IFC5000-01520	Pstat Section
PSTATSERIALNO	LABEL	01520	Pstat Serial Number
CTRLMODE	IQUANT	0	Control Mode
ELECTROMETER	IQUANT	1	RE=0 or CS=1
IESTAB	IQUANT	0	I/E Stability
CASPEED	IQUANT	4	Control Amp Speed
CONVENTION	IQUANT	1	Current Convention
ICHRANGE	IQUANT	2	Ich Range
ICHRANGEMODE	TOGGLE	T	Ich Auto Range
ICHOFFSETENABLE	TOGGLE	F	Ich Offset Enable
ICHOFFSET	QUANT	0	Ich Offset (V)
ICHFILTER	IQUANT	1	Ich Filter
VCHRANGE	IQUANT	2	Vch Range
VCHRANGEMODE	TOGGLE	T	Vch Auto Range
VCHOFFSETENABLE	TOGGLE	F	Vch Offset Enable
VCHOFFSET	QUANT	0	Vch Offset (V)
VCHFILTER	IQUANT	1	Vch Filter
IERANGELOWERLIMIT	IQUANT	9	I/E Range Lower Limit
IERANGEMODE	TOGGLE	F	I/E AutoRange
IERANGE	IQUANT	10	I/E Range
ACHSELECT	IQUANT	1	Ach Select
ACHRANGE	IQUANT	2	Ach Range
ACHOFFSETENABLE	TOGGLE	F	Ach Offset Enable
ACHOFFSET	QUANT	0	Ach Offset (V)
ACHFILTER	IQUANT	1	Ach Filter
CABLEID	IQUANT	14	Cable ID
DCCALDATE	LABEL	20-10-2016	DC Calibration Date
ACCALDATE	LABEL	12/3/2015	AC Calibration Date
FRAMEWORKVERSION	QUANT	7.01	Framework Version
INSTRUMENTVERSION	LABEL	4.00	Instrument Version
CURVE	TABLE	69
	Pt	T	Vf	Im	Vu	Pwr	Sig	Ach	Temp	IERange	Over
	#	s	V	A	V	W	V	V	deg C	#	bits
	0	0.013333	4.26871E-001	-6.01537E-003	0.00000E+000	-2.56778E-003	-3.59960E-001	-1.03196E+000	3.57700E+000	10	...........
	1	0.026667	4.16693E-001	-6.01704E-003	0.00000E+000	-2.50726E-003	-3.59960E-001	-1.03027E+000	3.57700E+000	10	...........
	2	0.04	4.07239E-001	-6.01288E-003	0.00000E+000	-2.44868E-003	-3.59960E-001	-1.02526E+000	3.57700E+000	10	...........
	3	0.053333	3.98244E-001	-6.01541E-003	0.00000E+000	-2.39560E-003	-3.59960E-001	-1.03256E+000	3.57700E+000	10	...........
	4	0.066667	3.89585E-001	-6.01644E-003	0.00000E+000	-2.34392E-003	-3.59960E-001	-1.03038E+000	3.57700E+000	10	...........
	5	0.08	3.81208E-001	-6.01788E-003	0.00000E+000	-2.29406E-003	-3.59960E-001	-1.02486E+000	3.57700E+000	10	...........
	6	0.093333	3.73031E-001	-6.01498E-003	0.00000E+000	-2.24378E-003	-3.59960E-001	-1.03251E+000	3.57700E+000	10	...........
	7	0.106667	3.64968E-001	-6.01372E-003	0.00000E+000	-2.19482E-003	-3.59960E-001	-1.03110E+000	3.57700E+000	10	...........
	8	0.12	3.57054E-001	-6.00895E-003	0.00000E+000	-2.14552E-003	-3.59960E-001	-1.02576E+000	3.57700E+000	10	...........
	9	0.133333	3.49289E-001	-6.01168E-003	0.00000E+000	-2.09981E-003	-3.59960E-001	-1.03301E+000	3.57700E+000	10	...........
	10	0.146667	3.41675E-001	-6.01655E-003	0.00000E+000	-2.05571E-003	-3.59960E-001	-1.03111E+000	3.57700E+000	10	...........
	11	0.16	3.34097E-001	-6.01463E-003	0.00000E+000	-2.00947E-003	-3.59960E-001	-1.02591E+000	3.57700E+000	10	...........
	12	0.173333	3.26663E-001	-6.01516E-003	0.00000E+000	-1.96493E-003	-3.59960E-001	-1.03341E+000	3.57700E+000	10	...........
	13	0.186667	3.19253E-001	-6.01393E-003	0.00000E+000	-1.91997E-003	-3.59960E-001	-1.03205E+000	3.57700E+000	10	...........
	14	0.2	3.12001E-001	-6.01487E-003	0.00000E+000	-1.87665E-003	-3.59960E-001	-1.02605E+000	3.57700E+000	10	...........
	15	0.213333	3.04839E-001	-6.01558E-003	0.00000E+000	-1.83379E-003	-3.59960E-001	-1.03336E+000	3.57700E+000	10	...........
	16	0.226667	2.97745E-001	-6.01227E-003	0.00000E+000	-1.79012E-003	-3.59960E-001	-1.03204E+000	3.57700E+000	10	...........
	17	0.24	2.90692E-001	-6.01605E-003	0.00000E+000	-1.74882E-003	-3.59960E-001	-1.02654E+000	3.57700E+000	10	...........
	18	0.253333	2.83735E-001	-6.01429E-003	0.00000E+000	-1.70647E-003	-3.59960E-001	-1.03404E+000	3.57700E+000	10	...........
	19	0.266667	2.76822E-001	-6.01433E-003	0.00000E+000	-1.66490E-003	-3.59960E-001	-1.03258E+000	3.57700E+000	10	...........
	20	0.28	2.70000E-001	-6.01941E-003	0.00000E+000	-1.62524E-003	-3.59960E-001	-1.02652E+000	3.57700E+000	10	...........
	21	0.293333	2.63244E-001	-6.01585E-003	0.00000E+000	-1.58364E-003	-3.59960E-001	-1.03387E+000	3.57700E+000	10	...........
	22	0.306667	2.56559E-001	-6.01486E-003	0.00000E+000	-1.54317E-003	-3.59960E-001	-1.03308E+000	3.57700E+000	10	...........
	23	0.32	2.49928E-001	-6.01905E-003	0.00000E+000	-1.50433E-003	-3.59960E-001	-1.02725E+000	3.57700E+000	10	...........
	24	0.333333	2.43384E-001	-6.01300E-003	0.00000E+000	-1.46347E-003	-3.59960E-001	-1.03425E+000	3.57700E+000	10	...........
	25	0.346667	2.36870E-001	-6.01407E-003	0.00000E+000	-1.42455E-003	-3.59960E-001	-1.03267E+000	3.57700E+000	10	...........
	26	0.36	2.30438E-001	-6.01297E-003	0.00000E+000	-1.38562E-003	-3.59960E-001	-1.02679E+000	3.57700E+000	10	...........
	27	0.373333	2.24073E-001	-6.00925E-003	0.00000E+000	-1.34651E-003	-3.59960E-001	-1.03422E+000	3.57700E+000	10	...........
	28	0.386667	2.17710E-001	-6.01244E-003	0.00000E+000	-1.30897E-003	-3.59960E-001	-1.03294E+000	3.57700E+000	10	...........
	29	0.4	2.11438E-001	-6.01707E-003	0.00000E+000	-1.27224E-003	-3.59960E-001	-1.02699E+000	3.57700E+000	10	...........
	30	0.413333	2.05210E-001	-6.01796E-003	0.00000E+000	-1.23495E-003	-3.59960E-001	-1.03410E+000	3.57700E+000	10	...........
	31	0.426667	1.99022E-001	-6.01275E-003	0.00000E+000	-1.19667E-003	-3.59960E-001	-1.03296E+000	3.57700E+000	10	...........
	32	0.44	1.92874E-001	-6.01612E-003	0.00000E+000	-1.16036E-003	-3.59960E-001	-1.02703E+000	3.57700E+000	10	...........
	33	0.453333	1.86787E-001	-6.01738E-003	0.00000E+000	-1.12397E-003	-3.59960E-001	-1.03421E+000	3.57700E+000	10	...........
	34	0.466667	1.80764E-001	-6.01516E-003	0.00000E+000	-1.08733E-003	-3.59960E-001	-1.03304E+000	3.57700E+000	10	...........
	35	0.48	1.74757E-001	-6.01665E-003	0.00000E+000	-1.05145E-003	-3.59960E-001	-1.02688E+000	3.57700E+000	10	...........
	36	0.493333	1.68823E-001	-6.01567E-003	0.00000E+000	-1.01558E-003	-3.59960E-001	-1.03389E+000	3.57700E+000	10	...........
	37	0.506667	1.62921E-001	-6.01416E-003	0.00000E+000	-9.79830E-004	-3.59960E-001	-1.03350E+000	3.57700E+000	10	...........
	38	0.52	1.57084E-001	-6.01655E-003	0.00000E+000	-9.45103E-004	-3.59960E-001	-1.02737E+000	3.57700E+000	10	...........
	39	0.533333	1.51309E-001	-6.01182E-003	0.00000E+000	-9.09646E-004	-3.59960E-001	-1.03413E+000	3.57700E+000	10	...........
	40	0.546667	1.45564E-001	-6.01388E-003	0.00000E+000	-8.75403E-004	-3.59960E-001	-1.03326E+000	3.57700E+000	10	...........
	41	0.56	1.39836E-001	-6.01843E-003	0.00000E+000	-8.41592E-004	-3.59960E-001	-1.02721E+000	3.57700E+000	10	...........
	42	0.573333	1.34174E-001	-6.01192E-003	0.00000E+000	-8.06642E-004	-3.59960E-001	-1.03411E+000	3.57700E+000	10	...........
	43	0.586667	1.28575E-001	-6.02010E-003	0.00000E+000	-7.74031E-004	-3.59960E-001	-1.03357E+000	3.57700E+000	10	...........
	44	0.6	1.22964E-001	-6.01811E-003	0.00000E+000	-7.40013E-004	-3.59960E-001	-1.02724E+000	3.57700E+000	10	...........
	45	0.613333	1.17422E-001	-6.01546E-003	0.00000E+000	-7.06350E-004	-3.59960E-001	-1.03400E+000	3.57700E+000	10	...........
	46	0.626667	1.11934E-001	-6.01692E-003	0.00000E+000	-6.73498E-004	-3.59960E-001	-1.03355E+000	3.57700E+000	10	...........
	47	0.64	1.06433E-001	-6.01394E-003	0.00000E+000	-6.40083E-004	-3.59960E-001	-1.02730E+000	3.57700E+000	10	...........
	48	0.653333	1.00983E-001	-6.01644E-003	0.00000E+000	-6.07560E-004	-3.59960E-001	-1.03402E+000	3.57700E+000	10	...........
	49	0.666667	9.56113E-002	-6.01071E-003	0.00000E+000	-5.74692E-004	-3.59960E-001	-1.03350E+000	3.57700E+000	10	...........
	50	0.68	9.02586E-002	-6.01557E-003	0.00000E+000	-5.42957E-004	-3.59960E-001	-1.02683E+000	3.57700E+000	10	...........
	51	0.693333	8.49266E-002	-6.01479E-003	0.00000E+000	-5.10815E-004	-3.59960E-001	-1.03373E+000	3.57700E+000	10	...........
	52	0.706667	7.96462E-002	-6.01411E-003	0.00000E+000	-4.79001E-004	-3.59960E-001	-1.03347E+000	3.57757E+000	10	...........
	53	0.72	7.43986E-002	-6.01273E-003	0.00000E+000	-4.47339E-004	-3.59960E-001	-1.02717E+000	3.57840E+000	10	...........
	54	0.733333	6.92059E-002	-6.01445E-003	0.00000E+000	-4.16235E-004	-3.59960E-001	-1.03371E+000	3.57840E+000	10	...........
	55	0.746667	6.40225E-002	-6.01444E-003	0.00000E+000	-3.85060E-004	-3.59960E-001	-1.03321E+000	3.57840E+000	10	...........
	56	0.76	5.88473E-002	-6.01803E-003	0.00000E+000	-3.54145E-004	-3.59960E-001	-1.02703E+000	3.57840E+000	10	...........
	57	0.773333	5.37417E-002	-6.01613E-003	0.00000E+000	-3.23317E-004	-3.59960E-001	-1.03388E+000	3.57840E+000	10	...........
	58	0.786667	4.86561E-002	-6.01631E-003	0.00000E+000	-2.92730E-004	-3.59960E-001	-1.03354E+000	3.57840E+000	10	...........
	59	0.8	4.36705E-002	-6.01027E-003	0.00000E+000	-2.62472E-004	-3.59960E-001	-1.02723E+000	3.57840E+000	10	...........
	60	0.813333	3.86540E-002	-6.01589E-003	0.00000E+000	-2.32538E-004	-3.59960E-001	-1.03367E+000	3.57840E+000	10	...........
	61	0.826667	3.36652E-002	-6.01902E-003	0.00000E+000	-2.02631E-004	-3.59960E-001	-1.03367E+000	3.57840E+000	10	...........
	62	0.84	2.87074E-002	-6.01383E-003	0.00000E+000	-1.72641E-004	-3.59960E-001	-1.02722E+000	3.57840E+000	10	...........
	63	0.853333	2.38255E-002	-6.01662E-003	0.00000E+000	-1.43349E-004	-3.59960E-001	-1.03371E+000	3.57840E+000	10	...........
	64	0.866667	1.89457E-002	-6.01385E-003	0.00000E+000	-1.13937E-004	-3.59960E-001	-1.03363E+000	3.57840E+000	10	...........
	65	0.88	1.41025E-002	-6.01764E-003	0.00000E+000	-8.48641E-005	-3.59960E-001	-1.02714E+000	3.57840E+000	10	...........
	66	0.893333	9.26567E-003	-6.01257E-003	0.00000E+000	-5.57105E-005	-3.59960E-001	-1.03371E+000	3.57840E+000	10	...........
	67	0.906667	4.45594E-003	-6.01748E-003	0.00000E+000	-2.68135E-005	-3.59960E-001	-1.03399E+000	3.57840E+000	10	...........
	68	0.915	6.13054E-004	-6.01671E-003	0.00000E+000	-3.68857E-006	-3.59960E-001	-1.02475E+000	3.57840E+000	10	...........
STARTTIMEOFFSET	QUANT	197.985	Start Time Offset (s)