File: Data/CV_CRGO300517_1/PWRCCD_CRGO300517_1/CHARGE_DISCHARGE/DISCHARGE_#110.DTA
EXPLAIN
TAG	PWR800_DISCHARGE
TITLE	LABEL	PWR Cyclic Charge Discharge (Cell) - Discharge Step	Test &Identifier
DATE	LABEL	22-6-2017	Date
TIME	LABEL	15:39:58	Time
NOTES	NOTES	3	&Notes...
	supercap test cell
	0.6mg
	6M KOH
PSTAT	PSTAT	IFC5000-01520	Potentiostat
CAPACITY	QUANT	1.00000E-003	Capacity (A-hr)
CELLTYPE	SELECTOR	1	&Cell Type
WORKINGCONNECTION	SELECTOR	0	&Working Lead
MAXDISCHARGETIME	VARIABLEANDUNITS	1.00000E+002	s	1.00000E+002	second(s)	Max &Discharge Time
DISCHARGEMODE	MULTIPARAM	0	6.00000E-003	&Discharge Mode	Constant Current	Amp(s)
SAMPLETIME	QUANT	1.00000E-002	Sa&mple Period (s)
DISCHARGESTOPAT1	MULTIPARAM	3	0.00000E+000	Discharge Stop At &1	Voltage < Limit	V
DISCHARGESTOPAT2	MULTIPARAM	0	0.00000E+000	Discharge Stop At &2	None	N/A
AESBHCSELECTOR	TOGGLE	F	Save Both Half Cells
IRCOMP	TOGGLE	F	IR &Measure
EOC	QUANT	0	Open Circuit (V)
SEQUENCER	TOGGLE	TRUE	Run as Sequence
PSTATMODEL	IQUANT	53	Pstat Model
PSTATSECTION	LABEL	IFC5000-01520	Pstat Section
PSTATSERIALNO	LABEL	01520	Pstat Serial Number
CTRLMODE	IQUANT	0	Control Mode
ELECTROMETER	IQUANT	1	RE=0 or CS=1
IESTAB	IQUANT	0	I/E Stability
CASPEED	IQUANT	4	Control Amp Speed
CONVENTION	IQUANT	1	Current Convention
ICHRANGE	IQUANT	2	Ich Range
ICHRANGEMODE	TOGGLE	T	Ich Auto Range
ICHOFFSETENABLE	TOGGLE	F	Ich Offset Enable
ICHOFFSET	QUANT	0	Ich Offset (V)
ICHFILTER	IQUANT	1	Ich Filter
VCHRANGE	IQUANT	2	Vch Range
VCHRANGEMODE	TOGGLE	T	Vch Auto Range
VCHOFFSETENABLE	TOGGLE	F	Vch Offset Enable
VCHOFFSET	QUANT	0	Vch Offset (V)
VCHFILTER	IQUANT	1	Vch Filter
IERANGELOWERLIMIT	IQUANT	9	I/E Range Lower Limit
IERANGEMODE	TOGGLE	F	I/E AutoRange
IERANGE	IQUANT	10	I/E Range
ACHSELECT	IQUANT	1	Ach Select
ACHRANGE	IQUANT	2	Ach Range
ACHOFFSETENABLE	TOGGLE	F	Ach Offset Enable
ACHOFFSET	QUANT	0	Ach Offset (V)
ACHFILTER	IQUANT	1	Ach Filter
CABLEID	IQUANT	14	Cable ID
DCCALDATE	LABEL	20-10-2016	DC Calibration Date
ACCALDATE	LABEL	12/3/2015	AC Calibration Date
FRAMEWORKVERSION	QUANT	7.01	Framework Version
INSTRUMENTVERSION	LABEL	4.00	Instrument Version
CURVE	TABLE	69
	Pt	T	Vf	Im	Vu	Pwr	Sig	Ach	Temp	IERange	Over
	#	s	V	A	V	W	V	V	deg C	#	bits
	0	0.013333	4.26250E-001	-6.01631E-003	0.00000E+000	-2.56445E-003	-3.59960E-001	-1.03276E+000	3.57800E+000	10	...........
	1	0.026667	4.15990E-001	-6.01249E-003	0.00000E+000	-2.50114E-003	-3.59960E-001	-1.04180E+000	3.57800E+000	10	...........
	2	0.04	4.06467E-001	-6.01312E-003	0.00000E+000	-2.44413E-003	-3.59960E-001	-1.03070E+000	3.57800E+000	10	...........
	3	0.053333	3.97401E-001	-6.01899E-003	0.00000E+000	-2.39195E-003	-3.59960E-001	-1.03295E+000	3.57800E+000	10	...........
	4	0.066667	3.88713E-001	-6.01156E-003	0.00000E+000	-2.33677E-003	-3.59960E-001	-1.04201E+000	3.57800E+000	10	...........
	5	0.08	3.80260E-001	-6.01350E-003	0.00000E+000	-2.28669E-003	-3.59960E-001	-1.03073E+000	3.57800E+000	10	...........
	6	0.093333	3.72014E-001	-6.01418E-003	0.00000E+000	-2.23736E-003	-3.59960E-001	-1.03329E+000	3.57800E+000	10	...........
	7	0.106667	3.63964E-001	-6.01108E-003	0.00000E+000	-2.18782E-003	-3.59960E-001	-1.04248E+000	3.57800E+000	10	...........
	8	0.12	3.56023E-001	-6.01775E-003	0.00000E+000	-2.14246E-003	-3.59960E-001	-1.03113E+000	3.57800E+000	10	...........
	9	0.133333	3.48252E-001	-6.01688E-003	0.00000E+000	-2.09539E-003	-3.59960E-001	-1.03320E+000	3.57800E+000	10	...........
	10	0.146667	3.40579E-001	-6.01364E-003	0.00000E+000	-2.04812E-003	-3.59960E-001	-1.04261E+000	3.57800E+000	10	...........
	11	0.16	3.33017E-001	-6.01601E-003	0.00000E+000	-2.00343E-003	-3.59960E-001	-1.03144E+000	3.57765E+000	10	...........
	12	0.173333	3.25527E-001	-6.01254E-003	0.00000E+000	-1.95724E-003	-3.59960E-001	-1.03354E+000	3.57760E+000	10	...........
	13	0.186667	3.18117E-001	-6.01329E-003	0.00000E+000	-1.91293E-003	-3.59960E-001	-1.04278E+000	3.57760E+000	10	...........
	14	0.2	3.10809E-001	-6.01256E-003	0.00000E+000	-1.86876E-003	-3.59960E-001	-1.03144E+000	3.57760E+000	10	...........
	15	0.213333	3.03592E-001	-6.01505E-003	0.00000E+000	-1.82612E-003	-3.59960E-001	-1.03310E+000	3.57760E+000	10	...........
	16	0.226667	2.96478E-001	-6.01530E-003	0.00000E+000	-1.78340E-003	-3.59960E-001	-1.04277E+000	3.57760E+000	10	...........
	17	0.24	2.89412E-001	-6.01563E-003	0.00000E+000	-1.74100E-003	-3.59960E-001	-1.03135E+000	3.57760E+000	10	...........
	18	0.253333	2.82410E-001	-6.01389E-003	0.00000E+000	-1.69838E-003	-3.59960E-001	-1.03337E+000	3.57760E+000	10	...........
	19	0.266667	2.75487E-001	-6.01202E-003	0.00000E+000	-1.65623E-003	-3.59960E-001	-1.04280E+000	3.57760E+000	10	...........
	20	0.28	2.68664E-001	-6.01111E-003	0.00000E+000	-1.61497E-003	-3.59960E-001	-1.03147E+000	3.57760E+000	10	...........
	21	0.293333	2.61847E-001	-6.01289E-003	0.00000E+000	-1.57446E-003	-3.59960E-001	-1.03366E+000	3.57760E+000	10	...........
	22	0.306667	2.55138E-001	-6.01578E-003	0.00000E+000	-1.53485E-003	-3.59960E-001	-1.04304E+000	3.57760E+000	10	...........
	23	0.32	2.48468E-001	-6.01634E-003	0.00000E+000	-1.49487E-003	-3.59960E-001	-1.03168E+000	3.57760E+000	10	...........
	24	0.333333	2.41873E-001	-6.01487E-003	0.00000E+000	-1.45483E-003	-3.59960E-001	-1.03343E+000	3.57760E+000	10	...........
	25	0.346667	2.35349E-001	-6.01315E-003	0.00000E+000	-1.41519E-003	-3.59960E-001	-1.04307E+000	3.57760E+000	10	...........
	26	0.36	2.28884E-001	-6.01791E-003	0.00000E+000	-1.37740E-003	-3.59960E-001	-1.03209E+000	3.57760E+000	10	...........
	27	0.373333	2.22468E-001	-6.01726E-003	0.00000E+000	-1.33865E-003	-3.59960E-001	-1.03388E+000	3.57760E+000	10	...........
	28	0.386667	2.16112E-001	-6.00727E-003	0.00000E+000	-1.29824E-003	-3.59960E-001	-1.04326E+000	3.57760E+000	10	...........
	29	0.4	2.09770E-001	-6.01272E-003	0.00000E+000	-1.26129E-003	-3.59960E-001	-1.03170E+000	3.57760E+000	10	...........
	30	0.413333	2.03519E-001	-6.01613E-003	0.00000E+000	-1.22440E-003	-3.59960E-001	-1.03378E+000	3.57760E+000	10	...........
	31	0.426667	1.97351E-001	-6.01556E-003	0.00000E+000	-1.18718E-003	-3.59960E-001	-1.04388E+000	3.57760E+000	10	...........
	32	0.44	1.91207E-001	-6.01345E-003	0.00000E+000	-1.14981E-003	-3.59960E-001	-1.03235E+000	3.57760E+000	10	...........
	33	0.453333	1.85137E-001	-6.01707E-003	0.00000E+000	-1.11399E-003	-3.59960E-001	-1.03388E+000	3.57760E+000	10	...........
	34	0.466667	1.79087E-001	-6.01422E-003	0.00000E+000	-1.07707E-003	-3.59960E-001	-1.04360E+000	3.57760E+000	10	...........
	35	0.48	1.73053E-001	-6.01608E-003	0.00000E+000	-1.04110E-003	-3.59960E-001	-1.03238E+000	3.57760E+000	10	...........
	36	0.493333	1.67083E-001	-6.01442E-003	0.00000E+000	-1.00491E-003	-3.59960E-001	-1.03412E+000	3.57760E+000	10	...........
	37	0.506667	1.61170E-001	-6.01747E-003	0.00000E+000	-9.69837E-004	-3.59960E-001	-1.04390E+000	3.57760E+000	10	...........
	38	0.52	1.55296E-001	-6.01538E-003	0.00000E+000	-9.34162E-004	-3.59960E-001	-1.03250E+000	3.57760E+000	10	...........
	39	0.533333	1.49479E-001	-6.01309E-003	0.00000E+000	-8.98829E-004	-3.59960E-001	-1.03350E+000	3.57760E+000	10	...........
	40	0.546667	1.43733E-001	-6.01768E-003	0.00000E+000	-8.64937E-004	-3.59960E-001	-1.04358E+000	3.57760E+000	10	...........
	41	0.56	1.37972E-001	-6.01510E-003	0.00000E+000	-8.29917E-004	-3.59960E-001	-1.03248E+000	3.57760E+000	10	...........
	42	0.573333	1.32304E-001	-6.01633E-003	0.00000E+000	-7.95982E-004	-3.59960E-001	-1.03378E+000	3.57760E+000	10	...........
	43	0.586667	1.26673E-001	-6.01560E-003	0.00000E+000	-7.62013E-004	-3.59960E-001	-1.04376E+000	3.57760E+000	10	...........
	44	0.6	1.21073E-001	-6.01117E-003	0.00000E+000	-7.27792E-004	-3.59960E-001	-1.03202E+000	3.57760E+000	10	...........
	45	0.613333	1.15502E-001	-6.01638E-003	0.00000E+000	-6.94905E-004	-3.59960E-001	-1.03361E+000	3.57760E+000	10	...........
	46	0.626667	1.09974E-001	-6.01565E-003	0.00000E+000	-6.61564E-004	-3.59960E-001	-1.04375E+000	3.57760E+000	10	...........
	47	0.64	1.04511E-001	-6.01587E-003	0.00000E+000	-6.28722E-004	-3.59960E-001	-1.03223E+000	3.57760E+000	10	...........
	48	0.653333	9.90251E-002	-6.01675E-003	0.00000E+000	-5.95809E-004	-3.59960E-001	-1.03351E+000	3.57760E+000	10	...........
	49	0.666667	9.36313E-002	-6.01676E-003	0.00000E+000	-5.63357E-004	-3.59960E-001	-1.04352E+000	3.57760E+000	10	...........
	50	0.68	8.82760E-002	-6.01789E-003	0.00000E+000	-5.31235E-004	-3.59960E-001	-1.03201E+000	3.57760E+000	10	...........
	51	0.693333	8.29929E-002	-6.01114E-003	0.00000E+000	-4.98882E-004	-3.59960E-001	-1.03342E+000	3.57760E+000	10	...........
	52	0.706667	7.76978E-002	-6.01671E-003	0.00000E+000	-4.67485E-004	-3.59960E-001	-1.04372E+000	3.57760E+000	10	...........
	53	0.72	7.24045E-002	-6.02123E-003	0.00000E+000	-4.35964E-004	-3.59960E-001	-1.03192E+000	3.57760E+000	10	...........
	54	0.733333	6.71924E-002	-6.01534E-003	0.00000E+000	-4.04185E-004	-3.59960E-001	-1.03317E+000	3.57760E+000	10	...........
	55	0.746667	6.19886E-002	-6.01916E-003	0.00000E+000	-3.73119E-004	-3.59960E-001	-1.04387E+000	3.57760E+000	10	...........
	56	0.76	5.68380E-002	-6.01580E-003	0.00000E+000	-3.41926E-004	-3.59960E-001	-1.03246E+000	3.57760E+000	10	...........
	57	0.773333	5.17193E-002	-6.01361E-003	0.00000E+000	-3.11020E-004	-3.59960E-001	-1.03340E+000	3.57760E+000	10	...........
	58	0.786667	4.66790E-002	-6.01884E-003	0.00000E+000	-2.80953E-004	-3.59960E-001	-1.04400E+000	3.57760E+000	10	...........
	59	0.8	4.16461E-002	-6.01668E-003	0.00000E+000	-2.50571E-004	-3.59960E-001	-1.03217E+000	3.57760E+000	10	...........
	60	0.813333	3.66247E-002	-6.01513E-003	0.00000E+000	-2.20302E-004	-3.59960E-001	-1.03341E+000	3.57760E+000	10	...........
	61	0.826667	3.16318E-002	-6.01718E-003	0.00000E+000	-1.90334E-004	-3.59960E-001	-1.04400E+000	3.57760E+000	10	...........
	62	0.84	2.66488E-002	-6.01639E-003	0.00000E+000	-1.60330E-004	-3.59960E-001	-1.03248E+000	3.57760E+000	10	...........
	63	0.853333	2.17217E-002	-6.01640E-003	0.00000E+000	-1.30686E-004	-3.59960E-001	-1.03289E+000	3.57760E+000	10	...........
	64	0.866667	1.68517E-002	-6.01560E-003	0.00000E+000	-1.01373E-004	-3.59960E-001	-1.04375E+000	3.57760E+000	10	...........
	65	0.88	1.19995E-002	-6.01564E-003	0.00000E+000	-7.21849E-005	-3.59960E-001	-1.03210E+000	3.57760E+000	10	...........
	66	0.893333	7.14886E-003	-6.01761E-003	0.00000E+000	-4.30191E-005	-3.59960E-001	-1.03308E+000	3.57760E+000	10	...........
	67	0.906667	2.34149E-003	-6.01564E-003	0.00000E+000	-1.40855E-005	-3.59960E-001	-1.04394E+000	3.57760E+000	10	...........
	68	0.908333	-3.20034E-004	-6.01153E-003	0.00000E+000	1.92390E-006	-3.59960E-001	-1.02875E+000	3.57760E+000	10	...........
STARTTIMEOFFSET	QUANT	214.5133	Start Time Offset (s)