File: Data/CV_CRGO300517_1/PWRCCD_CRGO300517_1/CHARGE_DISCHARGE/DISCHARGE_#118.DTA
EXPLAIN
TAG	PWR800_DISCHARGE
TITLE	LABEL	PWR Cyclic Charge Discharge (Cell) - Discharge Step	Test &Identifier
DATE	LABEL	22-6-2017	Date
TIME	LABEL	15:40:19	Time
NOTES	NOTES	3	&Notes...
	supercap test cell
	0.6mg
	6M KOH
PSTAT	PSTAT	IFC5000-01520	Potentiostat
CAPACITY	QUANT	1.00000E-003	Capacity (A-hr)
CELLTYPE	SELECTOR	1	&Cell Type
WORKINGCONNECTION	SELECTOR	0	&Working Lead
MAXDISCHARGETIME	VARIABLEANDUNITS	1.00000E+002	s	1.00000E+002	second(s)	Max &Discharge Time
DISCHARGEMODE	MULTIPARAM	0	6.00000E-003	&Discharge Mode	Constant Current	Amp(s)
SAMPLETIME	QUANT	1.00000E-002	Sa&mple Period (s)
DISCHARGESTOPAT1	MULTIPARAM	3	0.00000E+000	Discharge Stop At &1	Voltage < Limit	V
DISCHARGESTOPAT2	MULTIPARAM	0	0.00000E+000	Discharge Stop At &2	None	N/A
AESBHCSELECTOR	TOGGLE	F	Save Both Half Cells
IRCOMP	TOGGLE	F	IR &Measure
EOC	QUANT	0	Open Circuit (V)
SEQUENCER	TOGGLE	TRUE	Run as Sequence
PSTATMODEL	IQUANT	53	Pstat Model
PSTATSECTION	LABEL	IFC5000-01520	Pstat Section
PSTATSERIALNO	LABEL	01520	Pstat Serial Number
CTRLMODE	IQUANT	0	Control Mode
ELECTROMETER	IQUANT	1	RE=0 or CS=1
IESTAB	IQUANT	0	I/E Stability
CASPEED	IQUANT	4	Control Amp Speed
CONVENTION	IQUANT	1	Current Convention
ICHRANGE	IQUANT	2	Ich Range
ICHRANGEMODE	TOGGLE	T	Ich Auto Range
ICHOFFSETENABLE	TOGGLE	F	Ich Offset Enable
ICHOFFSET	QUANT	0	Ich Offset (V)
ICHFILTER	IQUANT	1	Ich Filter
VCHRANGE	IQUANT	2	Vch Range
VCHRANGEMODE	TOGGLE	T	Vch Auto Range
VCHOFFSETENABLE	TOGGLE	F	Vch Offset Enable
VCHOFFSET	QUANT	0	Vch Offset (V)
VCHFILTER	IQUANT	1	Vch Filter
IERANGELOWERLIMIT	IQUANT	9	I/E Range Lower Limit
IERANGEMODE	TOGGLE	F	I/E AutoRange
IERANGE	IQUANT	10	I/E Range
ACHSELECT	IQUANT	1	Ach Select
ACHRANGE	IQUANT	2	Ach Range
ACHOFFSETENABLE	TOGGLE	F	Ach Offset Enable
ACHOFFSET	QUANT	0	Ach Offset (V)
ACHFILTER	IQUANT	1	Ach Filter
CABLEID	IQUANT	14	Cable ID
DCCALDATE	LABEL	20-10-2016	DC Calibration Date
ACCALDATE	LABEL	12/3/2015	AC Calibration Date
FRAMEWORKVERSION	QUANT	7.01	Framework Version
INSTRUMENTVERSION	LABEL	4.00	Instrument Version
CURVE	TABLE	68
	Pt	T	Vf	Im	Vu	Pwr	Sig	Ach	Temp	IERange	Over
	#	s	V	A	V	W	V	V	deg C	#	bits
	0	0.013333	4.25013E-001	-6.01615E-003	0.00000E+000	-2.55694E-003	-3.59960E-001	-1.03802E+000	3.57840E+000	10	...........
	1	0.026667	4.14732E-001	-6.01302E-003	0.00000E+000	-2.49379E-003	-3.59960E-001	-1.03960E+000	3.57840E+000	10	...........
	2	0.04	4.05180E-001	-6.01718E-003	0.00000E+000	-2.43804E-003	-3.59960E-001	-1.03108E+000	3.57840E+000	10	...........
	3	0.053333	3.96111E-001	-6.01579E-003	0.00000E+000	-2.38292E-003	-3.59960E-001	-1.03833E+000	3.57840E+000	10	...........
	4	0.066667	3.87334E-001	-6.01650E-003	0.00000E+000	-2.33039E-003	-3.59960E-001	-1.04022E+000	3.57840E+000	10	...........
	5	0.08	3.78867E-001	-6.01682E-003	0.00000E+000	-2.27958E-003	-3.59960E-001	-1.03163E+000	3.57840E+000	10	...........
	6	0.093333	3.70608E-001	-6.01560E-003	0.00000E+000	-2.22943E-003	-3.59960E-001	-1.03865E+000	3.57840E+000	10	...........
	7	0.106667	3.62543E-001	-6.01560E-003	0.00000E+000	-2.18091E-003	-3.59960E-001	-1.04016E+000	3.57840E+000	10	...........
	8	0.12	3.54568E-001	-6.01547E-003	0.00000E+000	-2.13290E-003	-3.59960E-001	-1.03163E+000	3.57840E+000	10	...........
	9	0.133333	3.46742E-001	-6.01898E-003	0.00000E+000	-2.08703E-003	-3.59960E-001	-1.03867E+000	3.57840E+000	10	...........
	10	0.146667	3.39036E-001	-6.01290E-003	0.00000E+000	-2.03859E-003	-3.59960E-001	-1.04040E+000	3.57840E+000	10	...........
	11	0.16	3.31446E-001	-6.01737E-003	0.00000E+000	-1.99443E-003	-3.59960E-001	-1.03135E+000	3.57840E+000	10	...........
	12	0.173333	3.24008E-001	-6.01723E-003	0.00000E+000	-1.94963E-003	-3.59960E-001	-1.03814E+000	3.57840E+000	10	...........
	13	0.186667	3.16580E-001	-6.01705E-003	0.00000E+000	-1.90488E-003	-3.59960E-001	-1.04068E+000	3.57840E+000	10	...........
	14	0.2	3.09258E-001	-6.01396E-003	0.00000E+000	-1.85986E-003	-3.59960E-001	-1.03196E+000	3.57840E+000	10	...........
	15	0.213333	3.02014E-001	-6.01556E-003	0.00000E+000	-1.81678E-003	-3.59960E-001	-1.03850E+000	3.57840E+000	10	...........
	16	0.226667	2.94841E-001	-6.01430E-003	0.00000E+000	-1.77326E-003	-3.59960E-001	-1.04085E+000	3.57840E+000	10	...........
	17	0.24	2.87756E-001	-6.01394E-003	0.00000E+000	-1.73055E-003	-3.59960E-001	-1.03164E+000	3.57840E+000	10	...........
	18	0.253333	2.80753E-001	-6.01454E-003	0.00000E+000	-1.68860E-003	-3.59960E-001	-1.03840E+000	3.57840E+000	10	...........
	19	0.266667	2.73830E-001	-6.01532E-003	0.00000E+000	-1.64717E-003	-3.59960E-001	-1.04140E+000	3.57840E+000	10	...........
	20	0.28	2.66962E-001	-6.01683E-003	0.00000E+000	-1.60627E-003	-3.59960E-001	-1.03236E+000	3.57840E+000	10	...........
	21	0.293333	2.60167E-001	-6.01400E-003	0.00000E+000	-1.56464E-003	-3.59960E-001	-1.03821E+000	3.57840E+000	10	...........
	22	0.306667	2.53421E-001	-6.01311E-003	0.00000E+000	-1.52385E-003	-3.59960E-001	-1.04156E+000	3.57840E+000	10	...........
	23	0.32	2.46777E-001	-6.01828E-003	0.00000E+000	-1.48517E-003	-3.59960E-001	-1.03240E+000	3.57840E+000	10	...........
	24	0.333333	2.40126E-001	-6.01554E-003	0.00000E+000	-1.44449E-003	-3.59960E-001	-1.03858E+000	3.57840E+000	10	...........
	25	0.346667	2.33580E-001	-6.01398E-003	0.00000E+000	-1.40474E-003	-3.59960E-001	-1.04190E+000	3.57840E+000	10	...........
	26	0.36	2.27082E-001	-6.01337E-003	0.00000E+000	-1.36553E-003	-3.59960E-001	-1.03246E+000	3.57840E+000	10	...........
	27	0.373333	2.20623E-001	-6.01515E-003	0.00000E+000	-1.32708E-003	-3.59960E-001	-1.03840E+000	3.57840E+000	10	...........
	28	0.386667	2.14207E-001	-6.01878E-003	0.00000E+000	-1.28926E-003	-3.59960E-001	-1.04209E+000	3.57840E+000	10	...........
	29	0.4	2.07894E-001	-6.01274E-003	0.00000E+000	-1.25001E-003	-3.59960E-001	-1.03288E+000	3.57840E+000	10	...........
	30	0.413333	2.01630E-001	-6.01368E-003	0.00000E+000	-1.21254E-003	-3.59960E-001	-1.03874E+000	3.57840E+000	10	...........
	31	0.426667	1.95437E-001	-6.01643E-003	0.00000E+000	-1.17584E-003	-3.59960E-001	-1.04236E+000	3.57840E+000	10	...........
	32	0.44	1.89281E-001	-6.01861E-003	0.00000E+000	-1.13921E-003	-3.59960E-001	-1.03290E+000	3.57840E+000	10	...........
	33	0.453333	1.83167E-001	-6.01448E-003	0.00000E+000	-1.10165E-003	-3.59960E-001	-1.03868E+000	3.57840E+000	10	...........
	34	0.466667	1.77130E-001	-6.01155E-003	0.00000E+000	-1.06483E-003	-3.59960E-001	-1.04234E+000	3.57840E+000	10	...........
	35	0.48	1.71067E-001	-6.01351E-003	0.00000E+000	-1.02871E-003	-3.59960E-001	-1.03290E+000	3.57840E+000	10	...........
	36	0.493333	1.65130E-001	-6.01616E-003	0.00000E+000	-9.93447E-004	-3.59960E-001	-1.03828E+000	3.57840E+000	10	...........
	37	0.506667	1.59199E-001	-6.01356E-003	0.00000E+000	-9.57349E-004	-3.59960E-001	-1.04244E+000	3.57840E+000	10	...........
	38	0.52	1.53348E-001	-6.01252E-003	0.00000E+000	-9.22010E-004	-3.59960E-001	-1.03288E+000	3.57840E+000	10	...........
	39	0.533333	1.47533E-001	-6.01634E-003	0.00000E+000	-8.87606E-004	-3.59960E-001	-1.03839E+000	3.57840E+000	10	...........
	40	0.546667	1.41753E-001	-6.01505E-003	0.00000E+000	-8.52649E-004	-3.59960E-001	-1.04293E+000	3.57840E+000	10	...........
	41	0.56	1.35999E-001	-6.01865E-003	0.00000E+000	-8.18531E-004	-3.59960E-001	-1.03302E+000	3.57840E+000	10	...........
	42	0.573333	1.30313E-001	-6.01160E-003	0.00000E+000	-7.83392E-004	-3.59960E-001	-1.03817E+000	3.57840E+000	10	...........
	43	0.586667	1.24659E-001	-6.01440E-003	0.00000E+000	-7.49748E-004	-3.59960E-001	-1.04300E+000	3.57840E+000	10	...........
	44	0.6	1.19016E-001	-6.01654E-003	0.00000E+000	-7.16062E-004	-3.59960E-001	-1.03309E+000	3.57840E+000	10	...........
	45	0.613333	1.13433E-001	-6.01690E-003	0.00000E+000	-6.82513E-004	-3.59960E-001	-1.03839E+000	3.57730E+000	10	...........
	46	0.626667	1.07888E-001	-6.01503E-003	0.00000E+000	-6.48948E-004	-3.59960E-001	-1.04289E+000	3.57730E+000	10	...........
	47	0.64	1.02415E-001	-6.01407E-003	0.00000E+000	-6.15928E-004	-3.59960E-001	-1.03304E+000	3.57730E+000	10	...........
	48	0.653333	9.69210E-002	-6.01492E-003	0.00000E+000	-5.82972E-004	-3.59960E-001	-1.03819E+000	3.57730E+000	10	...........
	49	0.666667	9.15213E-002	-6.01750E-003	0.00000E+000	-5.50729E-004	-3.59960E-001	-1.04336E+000	3.57730E+000	10	...........
	50	0.68	8.61508E-002	-6.01653E-003	0.00000E+000	-5.18329E-004	-3.59960E-001	-1.03330E+000	3.57730E+000	10	...........
	51	0.693333	8.08159E-002	-6.01465E-003	0.00000E+000	-4.86080E-004	-3.59960E-001	-1.03805E+000	3.57730E+000	10	...........
	52	0.706667	7.55224E-002	-6.01533E-003	0.00000E+000	-4.54292E-004	-3.59960E-001	-1.04344E+000	3.57730E+000	10	...........
	53	0.72	7.02648E-002	-6.01730E-003	0.00000E+000	-4.22805E-004	-3.59960E-001	-1.03351E+000	3.57730E+000	10	...........
	54	0.733333	6.50647E-002	-6.01893E-003	0.00000E+000	-3.91620E-004	-3.59960E-001	-1.03835E+000	3.57730E+000	10	...........
	55	0.746667	5.99169E-002	-6.01524E-003	0.00000E+000	-3.60414E-004	-3.59960E-001	-1.04402E+000	3.57730E+000	10	...........
	56	0.76	5.47406E-002	-6.01576E-003	0.00000E+000	-3.29306E-004	-3.59960E-001	-1.03349E+000	3.57730E+000	10	...........
	57	0.773333	4.96261E-002	-6.01479E-003	0.00000E+000	-2.98490E-004	-3.59960E-001	-1.03816E+000	3.57730E+000	10	...........
	58	0.786667	4.45844E-002	-6.01677E-003	0.00000E+000	-2.68254E-004	-3.59960E-001	-1.04373E+000	3.57730E+000	10	...........
	59	0.8	3.95083E-002	-6.01722E-003	0.00000E+000	-2.37730E-004	-3.59960E-001	-1.03342E+000	3.57730E+000	10	...........
	60	0.813333	3.44410E-002	-6.01344E-003	0.00000E+000	-2.07109E-004	-3.59960E-001	-1.03783E+000	3.57730E+000	10	...........
	61	0.826667	2.94739E-002	-6.01546E-003	0.00000E+000	-1.77299E-004	-3.59960E-001	-1.04361E+000	3.57730E+000	10	...........
	62	0.84	2.45532E-002	-6.01408E-003	0.00000E+000	-1.47665E-004	-3.59960E-001	-1.03312E+000	3.57730E+000	10	...........
	63	0.853333	1.96361E-002	-6.01418E-003	0.00000E+000	-1.18095E-004	-3.59960E-001	-1.03762E+000	3.57730E+000	10	...........
	64	0.866667	1.47552E-002	-6.01658E-003	0.00000E+000	-8.87761E-005	-3.59960E-001	-1.04399E+000	3.57730E+000	10	...........
	65	0.88	9.87872E-003	-6.01113E-003	0.00000E+000	-5.93822E-005	-3.59960E-001	-1.03348E+000	3.57730E+000	10	...........
	66	0.893333	5.06277E-003	-6.01232E-003	0.00000E+000	-3.04390E-005	-3.59960E-001	-1.03776E+000	3.57730E+000	10	...........
	67	0.901667	1.15974E-003	-6.01370E-003	0.00000E+000	-6.97431E-006	-3.59960E-001	-1.04155E+000	3.57730E+000	10	...........
STARTTIMEOFFSET	QUANT	229.0783	Start Time Offset (s)