File: Data/CV_CRGO300517_1/PWRCCD_CRGO300517_1/CHARGE_DISCHARGE/DISCHARGE_#1.DTA
EXPLAIN
TAG	PWR800_DISCHARGE
TITLE	LABEL	PWR Cyclic Charge Discharge (Cell) - Discharge Step	Test &Identifier
DATE	LABEL	22-6-2017	Date
TIME	LABEL	15:34:57	Time
NOTES	NOTES	3	&Notes...
	supercap test cell
	0.6mg
	6M KOH
PSTAT	PSTAT	IFC5000-01520	Potentiostat
CAPACITY	QUANT	1.00000E-003	Capacity (A-hr)
CELLTYPE	SELECTOR	1	&Cell Type
WORKINGCONNECTION	SELECTOR	0	&Working Lead
MAXDISCHARGETIME	VARIABLEANDUNITS	1.00000E+002	s	1.00000E+002	second(s)	Max &Discharge Time
DISCHARGEMODE	MULTIPARAM	0	6.00000E-003	&Discharge Mode	Constant Current	Amp(s)
SAMPLETIME	QUANT	1.00000E-002	Sa&mple Period (s)
DISCHARGESTOPAT1	MULTIPARAM	3	0.00000E+000	Discharge Stop At &1	Voltage < Limit	V
DISCHARGESTOPAT2	MULTIPARAM	0	0.00000E+000	Discharge Stop At &2	None	N/A
AESBHCSELECTOR	TOGGLE	F	Save Both Half Cells
IRCOMP	TOGGLE	F	IR &Measure
EOC	QUANT	0	Open Circuit (V)
SEQUENCER	TOGGLE	TRUE	Run as Sequence
PSTATMODEL	IQUANT	53	Pstat Model
PSTATSECTION	LABEL	IFC5000-01520	Pstat Section
PSTATSERIALNO	LABEL	01520	Pstat Serial Number
CTRLMODE	IQUANT	0	Control Mode
ELECTROMETER	IQUANT	1	RE=0 or CS=1
IESTAB	IQUANT	0	I/E Stability
CASPEED	IQUANT	4	Control Amp Speed
CONVENTION	IQUANT	1	Current Convention
ICHRANGE	IQUANT	2	Ich Range
ICHRANGEMODE	TOGGLE	T	Ich Auto Range
ICHOFFSETENABLE	TOGGLE	F	Ich Offset Enable
ICHOFFSET	QUANT	0	Ich Offset (V)
ICHFILTER	IQUANT	1	Ich Filter
VCHRANGE	IQUANT	2	Vch Range
VCHRANGEMODE	TOGGLE	T	Vch Auto Range
VCHOFFSETENABLE	TOGGLE	F	Vch Offset Enable
VCHOFFSET	QUANT	0	Vch Offset (V)
VCHFILTER	IQUANT	1	Vch Filter
IERANGELOWERLIMIT	IQUANT	9	I/E Range Lower Limit
IERANGEMODE	TOGGLE	F	I/E AutoRange
IERANGE	IQUANT	10	I/E Range
ACHSELECT	IQUANT	1	Ach Select
ACHRANGE	IQUANT	2	Ach Range
ACHOFFSETENABLE	TOGGLE	F	Ach Offset Enable
ACHOFFSET	QUANT	0	Ach Offset (V)
ACHFILTER	IQUANT	1	Ach Filter
CABLEID	IQUANT	14	Cable ID
DCCALDATE	LABEL	20-10-2016	DC Calibration Date
ACCALDATE	LABEL	12/3/2015	AC Calibration Date
FRAMEWORKVERSION	QUANT	7.01	Framework Version
INSTRUMENTVERSION	LABEL	4.00	Instrument Version
CURVE	TABLE	81
	Pt	T	Vf	Im	Vu	Pwr	Sig	Ach	Temp	IERange	Over
	#	s	V	A	V	W	V	V	deg C	#	bits
	0	0.013333	4.55924E-001	-6.00880E-003	0.00000E+000	-2.73956E-003	-3.59960E-001	-9.72523E-001	3.57730E+000	10	...........
	1	0.026667	4.46464E-001	-6.01447E-003	0.00000E+000	-2.68525E-003	-3.59960E-001	-9.63056E-001	3.57730E+000	10	...........
	2	0.04	4.37651E-001	-6.02036E-003	0.00000E+000	-2.63481E-003	-3.59960E-001	-9.60691E-001	3.57730E+000	10	...........
	3	0.053333	4.29317E-001	-6.01691E-003	0.00000E+000	-2.58317E-003	-3.59960E-001	-9.72721E-001	3.57730E+000	10	...........
	4	0.066667	4.21300E-001	-6.01440E-003	0.00000E+000	-2.53387E-003	-3.59960E-001	-9.62916E-001	3.57730E+000	10	...........
	5	0.08	4.13588E-001	-6.01098E-003	0.00000E+000	-2.48607E-003	-3.59960E-001	-9.60765E-001	3.57730E+000	10	...........
	6	0.093333	4.06022E-001	-6.01091E-003	0.00000E+000	-2.44056E-003	-3.59960E-001	-9.72594E-001	3.57730E+000	10	...........
	7	0.106667	3.98613E-001	-6.01517E-003	0.00000E+000	-2.39773E-003	-3.59960E-001	-9.62860E-001	3.57730E+000	10	...........
	8	0.12	3.91352E-001	-6.02093E-003	0.00000E+000	-2.35631E-003	-3.59960E-001	-9.60763E-001	3.57730E+000	10	...........
	9	0.133333	3.84255E-001	-6.01517E-003	0.00000E+000	-2.31136E-003	-3.59960E-001	-9.72511E-001	3.57730E+000	10	...........
	10	0.146667	3.77222E-001	-6.01842E-003	0.00000E+000	-2.27028E-003	-3.59960E-001	-9.62987E-001	3.57730E+000	10	...........
	11	0.16	3.70323E-001	-6.01240E-003	0.00000E+000	-2.22653E-003	-3.59960E-001	-9.60825E-001	3.57730E+000	10	...........
	12	0.173333	3.63507E-001	-6.01781E-003	0.00000E+000	-2.18751E-003	-3.59960E-001	-9.72638E-001	3.57730E+000	10	...........
	13	0.186667	3.56768E-001	-6.01907E-003	0.00000E+000	-2.14742E-003	-3.59960E-001	-9.63027E-001	3.57730E+000	10	...........
	14	0.2	3.50093E-001	-6.01939E-003	0.00000E+000	-2.10734E-003	-3.59960E-001	-9.60906E-001	3.57730E+000	10	...........
	15	0.213333	3.43468E-001	-6.01855E-003	0.00000E+000	-2.06718E-003	-3.59960E-001	-9.72858E-001	3.57730E+000	10	...........
	16	0.226667	3.36945E-001	-6.01590E-003	0.00000E+000	-2.02703E-003	-3.59960E-001	-9.63136E-001	3.57730E+000	10	...........
	17	0.24	3.30473E-001	-6.01774E-003	0.00000E+000	-1.98870E-003	-3.59960E-001	-9.61142E-001	3.57730E+000	10	...........
	18	0.253333	3.24109E-001	-6.00878E-003	0.00000E+000	-1.94750E-003	-3.59960E-001	-9.72887E-001	3.57730E+000	10	...........
	19	0.266667	3.17762E-001	-6.01480E-003	0.00000E+000	-1.91127E-003	-3.59960E-001	-9.63248E-001	3.57730E+000	10	...........
	20	0.28	3.11503E-001	-6.01713E-003	0.00000E+000	-1.87436E-003	-3.59960E-001	-9.61612E-001	3.57730E+000	10	...........
	21	0.293333	3.05292E-001	-6.01221E-003	0.00000E+000	-1.83548E-003	-3.59960E-001	-9.73411E-001	3.57730E+000	10	...........
	22	0.306667	2.99087E-001	-6.01638E-003	0.00000E+000	-1.79942E-003	-3.59960E-001	-9.63658E-001	3.57730E+000	10	...........
	23	0.32	2.92952E-001	-6.01483E-003	0.00000E+000	-1.76205E-003	-3.59960E-001	-9.61390E-001	3.57730E+000	10	...........
	24	0.333333	2.86864E-001	-6.01585E-003	0.00000E+000	-1.72573E-003	-3.59960E-001	-9.73438E-001	3.57730E+000	10	...........
	25	0.346667	2.80819E-001	-6.01707E-003	0.00000E+000	-1.68971E-003	-3.59960E-001	-9.63897E-001	3.57730E+000	10	...........
	26	0.36	2.74830E-001	-6.01328E-003	0.00000E+000	-1.65263E-003	-3.59960E-001	-9.61826E-001	3.57730E+000	10	...........
	27	0.373333	2.68888E-001	-6.01543E-003	0.00000E+000	-1.61748E-003	-3.59960E-001	-9.73518E-001	3.57730E+000	10	...........
	28	0.386667	2.63003E-001	-6.02038E-003	0.00000E+000	-1.58338E-003	-3.59960E-001	-9.63623E-001	3.57730E+000	10	...........
	29	0.4	2.57148E-001	-6.01492E-003	0.00000E+000	-1.54672E-003	-3.59960E-001	-9.61690E-001	3.57730E+000	10	...........
	30	0.413333	2.51333E-001	-6.01805E-003	0.00000E+000	-1.51254E-003	-3.59960E-001	-9.73582E-001	3.57730E+000	10	...........
	31	0.426667	2.45607E-001	-6.01521E-003	0.00000E+000	-1.47738E-003	-3.59960E-001	-9.63955E-001	3.57730E+000	10	...........
	32	0.44	2.39866E-001	-6.01143E-003	0.00000E+000	-1.44194E-003	-3.59960E-001	-9.61791E-001	3.57730E+000	10	...........
	33	0.453333	2.34143E-001	-6.01668E-003	0.00000E+000	-1.40876E-003	-3.59960E-001	-9.73426E-001	3.57730E+000	10	...........
	34	0.466667	2.28479E-001	-6.01251E-003	0.00000E+000	-1.37373E-003	-3.59960E-001	-9.64193E-001	3.57730E+000	10	...........
	35	0.48	2.22860E-001	-6.01588E-003	0.00000E+000	-1.34070E-003	-3.59960E-001	-9.61967E-001	3.57730E+000	10	...........
	36	0.493333	2.17273E-001	-6.01607E-003	0.00000E+000	-1.30713E-003	-3.59960E-001	-9.73617E-001	3.57730E+000	10	...........
	37	0.506667	2.11718E-001	-6.01513E-003	0.00000E+000	-1.27351E-003	-3.59960E-001	-9.64050E-001	3.57730E+000	10	...........
	38	0.52	2.06188E-001	-6.01676E-003	0.00000E+000	-1.24058E-003	-3.59960E-001	-9.61716E-001	3.57730E+000	10	...........
	39	0.533333	2.00661E-001	-6.01120E-003	0.00000E+000	-1.20621E-003	-3.59960E-001	-9.73731E-001	3.57730E+000	10	...........
	40	0.546667	1.95249E-001	-6.01339E-003	0.00000E+000	-1.17411E-003	-3.59960E-001	-9.64141E-001	3.57730E+000	10	...........
	41	0.56	1.89805E-001	-6.01543E-003	0.00000E+000	-1.14176E-003	-3.59960E-001	-9.61972E-001	3.57730E+000	10	...........
	42	0.573333	1.84421E-001	-6.01977E-003	0.00000E+000	-1.11017E-003	-3.59960E-001	-9.73852E-001	3.57730E+000	10	...........
	43	0.586667	1.79080E-001	-6.01661E-003	0.00000E+000	-1.07746E-003	-3.59960E-001	-9.64010E-001	3.57730E+000	10	...........
	44	0.6	1.73729E-001	-6.01435E-003	0.00000E+000	-1.04487E-003	-3.59960E-001	-9.62137E-001	3.57730E+000	10	...........
	45	0.613333	1.68419E-001	-6.01758E-003	0.00000E+000	-1.01348E-003	-3.59960E-001	-9.74162E-001	3.57730E+000	10	...........
	46	0.626667	1.63144E-001	-6.01435E-003	0.00000E+000	-9.81206E-004	-3.59960E-001	-9.64348E-001	3.57730E+000	10	...........
	47	0.64	1.57932E-001	-6.01542E-003	0.00000E+000	-9.50030E-004	-3.59960E-001	-9.62120E-001	3.57730E+000	10	...........
	48	0.653333	1.52720E-001	-6.01566E-003	0.00000E+000	-9.18711E-004	-3.59960E-001	-9.73796E-001	3.57730E+000	10	...........
	49	0.666667	1.47512E-001	-6.01501E-003	0.00000E+000	-8.87288E-004	-3.59960E-001	-9.64352E-001	3.57730E+000	10	...........
	50	0.68	1.42333E-001	-6.01488E-003	0.00000E+000	-8.56116E-004	-3.59960E-001	-9.62120E-001	3.57730E+000	10	...........
	51	0.693333	1.37186E-001	-6.01526E-003	0.00000E+000	-8.25206E-004	-3.59960E-001	-9.73926E-001	3.57730E+000	10	...........
	52	0.706667	1.32122E-001	-6.01761E-003	0.00000E+000	-7.95061E-004	-3.59960E-001	-9.63993E-001	3.57730E+000	10	...........
	53	0.72	1.27031E-001	-6.01345E-003	0.00000E+000	-7.63895E-004	-3.59960E-001	-9.61883E-001	3.57730E+000	10	...........
	54	0.733333	1.21970E-001	-6.01582E-003	0.00000E+000	-7.33748E-004	-3.59960E-001	-9.73816E-001	3.57730E+000	10	...........
	55	0.746667	1.16924E-001	-6.01604E-003	0.00000E+000	-7.03420E-004	-3.59960E-001	-9.64126E-001	3.57730E+000	10	...........
	56	0.76	1.11910E-001	-6.01151E-003	0.00000E+000	-6.72746E-004	-3.59960E-001	-9.62004E-001	3.57730E+000	10	...........
	57	0.773333	1.06908E-001	-6.01498E-003	0.00000E+000	-6.43052E-004	-3.59960E-001	-9.73842E-001	3.57730E+000	10	...........
	58	0.786667	1.01927E-001	-6.01571E-003	0.00000E+000	-6.13163E-004	-3.59960E-001	-9.64029E-001	3.57730E+000	10	...........
	59	0.8	9.70237E-002	-6.01364E-003	0.00000E+000	-5.83466E-004	-3.59960E-001	-9.62031E-001	3.57800E+000	10	...........
	60	0.813333	9.21064E-002	-6.01285E-003	0.00000E+000	-5.53822E-004	-3.59960E-001	-9.73851E-001	3.57870E+000	10	...........
	61	0.826667	8.72106E-002	-6.01542E-003	0.00000E+000	-5.24609E-004	-3.59960E-001	-9.64216E-001	3.57870E+000	10	...........
	62	0.84	8.23428E-002	-6.01612E-003	0.00000E+000	-4.95385E-004	-3.59960E-001	-9.62070E-001	3.57870E+000	10	...........
	63	0.853333	7.74886E-002	-6.01613E-003	0.00000E+000	-4.66181E-004	-3.59960E-001	-9.73823E-001	3.57870E+000	10	...........
	64	0.866667	7.26553E-002	-6.01594E-003	0.00000E+000	-4.37090E-004	-3.59960E-001	-9.64286E-001	3.57870E+000	10	...........
	65	0.88	6.78615E-002	-6.01675E-003	0.00000E+000	-4.08305E-004	-3.59960E-001	-9.62326E-001	3.57870E+000	10	...........
	66	0.893333	6.30831E-002	-6.01708E-003	0.00000E+000	-3.79576E-004	-3.59960E-001	-9.74117E-001	3.57870E+000	10	...........
	67	0.906667	5.83215E-002	-6.01302E-003	0.00000E+000	-3.50689E-004	-3.59960E-001	-9.64592E-001	3.57870E+000	10	...........
	68	0.92	5.35447E-002	-6.01438E-003	0.00000E+000	-3.22038E-004	-3.59960E-001	-9.62487E-001	3.57870E+000	10	...........
	69	0.933333	4.88508E-002	-6.01791E-003	0.00000E+000	-2.93980E-004	-3.59960E-001	-9.74326E-001	3.57870E+000	10	...........
	70	0.946667	4.41691E-002	-6.01726E-003	0.00000E+000	-2.65777E-004	-3.59960E-001	-9.64647E-001	3.57870E+000	10	...........
	71	0.96	3.94631E-002	-6.01805E-003	0.00000E+000	-2.37491E-004	-3.59960E-001	-9.62452E-001	3.57870E+000	10	...........
	72	0.97333	3.47643E-002	-6.01453E-003	0.00000E+000	-2.09091E-004	-3.59960E-001	-9.74294E-001	3.57870E+000	10	...........
	73	0.98667	3.01087E-002	-6.01434E-003	0.00000E+000	-1.81084E-004	-3.59960E-001	-9.64691E-001	3.57870E+000	10	...........
	74	1	2.54735E-002	-6.01758E-003	0.00000E+000	-1.53289E-004	-3.59960E-001	-9.62473E-001	3.57870E+000	10	...........
	75	1.01333	2.08736E-002	-6.01497E-003	0.00000E+000	-1.25554E-004	-3.59960E-001	-9.74539E-001	3.57870E+000	10	...........
	76	1.02667	1.62703E-002	-6.01262E-003	0.00000E+000	-9.78274E-005	-3.59960E-001	-9.64608E-001	3.57870E+000	10	...........
	77	1.04	1.16868E-002	-6.01367E-003	0.00000E+000	-7.02805E-005	-3.59960E-001	-9.62178E-001	3.57870E+000	10	...........
	78	1.05333	7.12252E-003	-6.01682E-003	0.00000E+000	-4.28549E-005	-3.59960E-001	-9.74061E-001	3.57870E+000	10	...........
	79	1.06667	2.56466E-003	-6.01810E-003	0.00000E+000	-1.54344E-005	-3.59960E-001	-9.64620E-001	3.57870E+000	10	...........
	80	1.06833	-5.82251E-007	-6.02046E-003	0.00000E+000	3.50542E-009	-3.59960E-001	-9.76061E-001	3.57870E+000	10	...........
STARTTIMEOFFSET	QUANT	1.39	Start Time Offset (s)