File: Data/CV_CRGO300517_1/PWRCCD_CRGO300517_1/CHARGE_DISCHARGE/DISCHARGE_#116.DTA
EXPLAIN
TAG	PWR800_DISCHARGE
TITLE	LABEL	PWR Cyclic Charge Discharge (Cell) - Discharge Step	Test &Identifier
DATE	LABEL	22-6-2017	Date
TIME	LABEL	15:40:14	Time
NOTES	NOTES	3	&Notes...
	supercap test cell
	0.6mg
	6M KOH
PSTAT	PSTAT	IFC5000-01520	Potentiostat
CAPACITY	QUANT	1.00000E-003	Capacity (A-hr)
CELLTYPE	SELECTOR	1	&Cell Type
WORKINGCONNECTION	SELECTOR	0	&Working Lead
MAXDISCHARGETIME	VARIABLEANDUNITS	1.00000E+002	s	1.00000E+002	second(s)	Max &Discharge Time
DISCHARGEMODE	MULTIPARAM	0	6.00000E-003	&Discharge Mode	Constant Current	Amp(s)
SAMPLETIME	QUANT	1.00000E-002	Sa&mple Period (s)
DISCHARGESTOPAT1	MULTIPARAM	3	0.00000E+000	Discharge Stop At &1	Voltage < Limit	V
DISCHARGESTOPAT2	MULTIPARAM	0	0.00000E+000	Discharge Stop At &2	None	N/A
AESBHCSELECTOR	TOGGLE	F	Save Both Half Cells
IRCOMP	TOGGLE	F	IR &Measure
EOC	QUANT	0	Open Circuit (V)
SEQUENCER	TOGGLE	TRUE	Run as Sequence
PSTATMODEL	IQUANT	53	Pstat Model
PSTATSECTION	LABEL	IFC5000-01520	Pstat Section
PSTATSERIALNO	LABEL	01520	Pstat Serial Number
CTRLMODE	IQUANT	0	Control Mode
ELECTROMETER	IQUANT	1	RE=0 or CS=1
IESTAB	IQUANT	0	I/E Stability
CASPEED	IQUANT	4	Control Amp Speed
CONVENTION	IQUANT	1	Current Convention
ICHRANGE	IQUANT	2	Ich Range
ICHRANGEMODE	TOGGLE	T	Ich Auto Range
ICHOFFSETENABLE	TOGGLE	F	Ich Offset Enable
ICHOFFSET	QUANT	0	Ich Offset (V)
ICHFILTER	IQUANT	1	Ich Filter
VCHRANGE	IQUANT	2	Vch Range
VCHRANGEMODE	TOGGLE	T	Vch Auto Range
VCHOFFSETENABLE	TOGGLE	F	Vch Offset Enable
VCHOFFSET	QUANT	0	Vch Offset (V)
VCHFILTER	IQUANT	1	Vch Filter
IERANGELOWERLIMIT	IQUANT	9	I/E Range Lower Limit
IERANGEMODE	TOGGLE	F	I/E AutoRange
IERANGE	IQUANT	10	I/E Range
ACHSELECT	IQUANT	1	Ach Select
ACHRANGE	IQUANT	2	Ach Range
ACHOFFSETENABLE	TOGGLE	F	Ach Offset Enable
ACHOFFSET	QUANT	0	Ach Offset (V)
ACHFILTER	IQUANT	1	Ach Filter
CABLEID	IQUANT	14	Cable ID
DCCALDATE	LABEL	20-10-2016	DC Calibration Date
ACCALDATE	LABEL	12/3/2015	AC Calibration Date
FRAMEWORKVERSION	QUANT	7.01	Framework Version
INSTRUMENTVERSION	LABEL	4.00	Instrument Version
CURVE	TABLE	67
	Pt	T	Vf	Im	Vu	Pwr	Sig	Ach	Temp	IERange	Over
	#	s	V	A	V	W	V	V	deg C	#	bits
	0	0.013333	4.13072E-001	-6.01621E-003	0.00000E+000	-2.48513E-003	-3.59960E-001	-1.04332E+000	3.57720E+000	10	...........
	1	0.026667	4.03094E-001	-6.01826E-003	0.00000E+000	-2.42593E-003	-3.59960E-001	-1.03167E+000	3.57720E+000	10	...........
	2	0.04	3.93783E-001	-6.01663E-003	0.00000E+000	-2.36925E-003	-3.59960E-001	-1.03171E+000	3.57720E+000	10	...........
	3	0.053333	3.85003E-001	-6.01388E-003	0.00000E+000	-2.31536E-003	-3.59960E-001	-1.04349E+000	3.57720E+000	10	...........
	4	0.066667	3.76508E-001	-6.01374E-003	0.00000E+000	-2.26422E-003	-3.59960E-001	-1.03212E+000	3.57720E+000	10	...........
	5	0.08	3.68246E-001	-6.01274E-003	0.00000E+000	-2.21417E-003	-3.59960E-001	-1.03214E+000	3.57720E+000	10	...........
	6	0.093333	3.60203E-001	-6.01603E-003	0.00000E+000	-2.16699E-003	-3.59960E-001	-1.04380E+000	3.57720E+000	10	...........
	7	0.106667	3.52318E-001	-6.00939E-003	0.00000E+000	-2.11722E-003	-3.59960E-001	-1.03206E+000	3.57720E+000	10	...........
	8	0.12	3.44600E-001	-6.01636E-003	0.00000E+000	-2.07324E-003	-3.59960E-001	-1.03210E+000	3.57720E+000	10	...........
	9	0.133333	3.36972E-001	-6.01196E-003	0.00000E+000	-2.02586E-003	-3.59960E-001	-1.04425E+000	3.57720E+000	10	...........
	10	0.146667	3.29471E-001	-6.01528E-003	0.00000E+000	-1.98186E-003	-3.59960E-001	-1.03253E+000	3.57720E+000	10	...........
	11	0.16	3.22134E-001	-6.01232E-003	0.00000E+000	-1.93678E-003	-3.59960E-001	-1.03226E+000	3.57720E+000	10	...........
	12	0.173333	3.14829E-001	-6.01230E-003	0.00000E+000	-1.89285E-003	-3.59960E-001	-1.04401E+000	3.57720E+000	10	...........
	13	0.186667	3.07611E-001	-6.01278E-003	0.00000E+000	-1.84960E-003	-3.59960E-001	-1.03270E+000	3.57720E+000	10	...........
	14	0.2	3.00446E-001	-6.01274E-003	0.00000E+000	-1.80651E-003	-3.59960E-001	-1.03224E+000	3.57720E+000	10	...........
	15	0.213333	2.93426E-001	-6.01415E-003	0.00000E+000	-1.76471E-003	-3.59960E-001	-1.04404E+000	3.57720E+000	10	...........
	16	0.226667	2.86442E-001	-6.01317E-003	0.00000E+000	-1.72242E-003	-3.59960E-001	-1.03263E+000	3.57720E+000	10	...........
	17	0.24	2.79565E-001	-6.01351E-003	0.00000E+000	-1.68117E-003	-3.59960E-001	-1.03188E+000	3.57720E+000	10	...........
	18	0.253333	2.72695E-001	-6.01197E-003	0.00000E+000	-1.63943E-003	-3.59960E-001	-1.04424E+000	3.57720E+000	10	...........
	19	0.266667	2.65945E-001	-6.01466E-003	0.00000E+000	-1.59957E-003	-3.59960E-001	-1.03297E+000	3.57720E+000	10	...........
	20	0.28	2.59227E-001	-6.01553E-003	0.00000E+000	-1.55939E-003	-3.59960E-001	-1.03219E+000	3.57720E+000	10	...........
	21	0.293333	2.52589E-001	-6.01456E-003	0.00000E+000	-1.51921E-003	-3.59960E-001	-1.04442E+000	3.57720E+000	10	...........
	22	0.306667	2.46020E-001	-6.01237E-003	0.00000E+000	-1.47916E-003	-3.59960E-001	-1.03306E+000	3.57720E+000	10	...........
	23	0.32	2.39537E-001	-6.01539E-003	0.00000E+000	-1.44091E-003	-3.59960E-001	-1.03217E+000	3.57720E+000	10	...........
	24	0.333333	2.33072E-001	-6.01168E-003	0.00000E+000	-1.40115E-003	-3.59960E-001	-1.04460E+000	3.57720E+000	10	...........
	25	0.346667	2.26661E-001	-6.01599E-003	0.00000E+000	-1.36359E-003	-3.59960E-001	-1.03343E+000	3.57720E+000	10	...........
	26	0.36	2.20286E-001	-6.01346E-003	0.00000E+000	-1.32468E-003	-3.59960E-001	-1.03221E+000	3.57720E+000	10	...........
	27	0.373333	2.13993E-001	-6.01631E-003	0.00000E+000	-1.28745E-003	-3.59960E-001	-1.04468E+000	3.57720E+000	10	...........
	28	0.386667	2.07750E-001	-6.01474E-003	0.00000E+000	-1.24956E-003	-3.59960E-001	-1.03346E+000	3.57720E+000	10	...........
	29	0.4	2.01519E-001	-6.01521E-003	0.00000E+000	-1.21218E-003	-3.59960E-001	-1.03232E+000	3.57720E+000	10	...........
	30	0.413333	1.95364E-001	-6.01617E-003	0.00000E+000	-1.17534E-003	-3.59960E-001	-1.04478E+000	3.57720E+000	10	...........
	31	0.426667	1.89280E-001	-6.01522E-003	0.00000E+000	-1.13856E-003	-3.59960E-001	-1.03408E+000	3.57720E+000	10	...........
	32	0.44	1.83260E-001	-6.01285E-003	0.00000E+000	-1.10191E-003	-3.59960E-001	-1.03247E+000	3.57720E+000	10	...........
	33	0.453333	1.77256E-001	-6.01721E-003	0.00000E+000	-1.06659E-003	-3.59960E-001	-1.04502E+000	3.57720E+000	10	...........
	34	0.466667	1.71304E-001	-6.01587E-003	0.00000E+000	-1.03054E-003	-3.59960E-001	-1.03444E+000	3.57720E+000	10	...........
	35	0.48	1.65410E-001	-6.01562E-003	0.00000E+000	-9.95044E-004	-3.59960E-001	-1.03289E+000	3.57720E+000	10	...........
	36	0.493333	1.59606E-001	-6.01408E-003	0.00000E+000	-9.59883E-004	-3.59960E-001	-1.04502E+000	3.57720E+000	10	...........
	37	0.506667	1.53792E-001	-6.01046E-003	0.00000E+000	-9.24361E-004	-3.59960E-001	-1.03462E+000	3.57720E+000	10	...........
	38	0.52	1.48044E-001	-6.01202E-003	0.00000E+000	-8.90046E-004	-3.59960E-001	-1.03271E+000	3.57720E+000	10	...........
	39	0.533333	1.42326E-001	-6.01058E-003	0.00000E+000	-8.55462E-004	-3.59960E-001	-1.04490E+000	3.57720E+000	10	...........
	40	0.546667	1.36683E-001	-6.01365E-003	0.00000E+000	-8.21963E-004	-3.59960E-001	-1.03460E+000	3.57720E+000	10	...........
	41	0.56	1.31011E-001	-6.01644E-003	0.00000E+000	-7.88219E-004	-3.59960E-001	-1.03232E+000	3.57720E+000	10	...........
	42	0.573333	1.25410E-001	-6.01604E-003	0.00000E+000	-7.54471E-004	-3.59960E-001	-1.04481E+000	3.57720E+000	10	...........
	43	0.586667	1.19882E-001	-6.01517E-003	0.00000E+000	-7.21113E-004	-3.59960E-001	-1.03478E+000	3.57720E+000	10	...........
	44	0.6	1.14354E-001	-6.01649E-003	0.00000E+000	-6.88011E-004	-3.59960E-001	-1.03265E+000	3.57720E+000	10	...........
	45	0.613333	1.08870E-001	-6.01466E-003	0.00000E+000	-6.54814E-004	-3.59960E-001	-1.04513E+000	3.57720E+000	10	...........
	46	0.626667	1.03418E-001	-6.01611E-003	0.00000E+000	-6.22174E-004	-3.59960E-001	-1.03494E+000	3.57720E+000	10	...........
	47	0.64	9.80129E-002	-6.01254E-003	0.00000E+000	-5.89307E-004	-3.59960E-001	-1.03255E+000	3.57720E+000	10	...........
	48	0.653333	9.26343E-002	-6.01252E-003	0.00000E+000	-5.56966E-004	-3.59960E-001	-1.04494E+000	3.57720E+000	10	...........
	49	0.666667	8.72953E-002	-6.01317E-003	0.00000E+000	-5.24922E-004	-3.59960E-001	-1.03504E+000	3.57720E+000	10	...........
	50	0.68	8.20005E-002	-6.01290E-003	0.00000E+000	-4.93061E-004	-3.59960E-001	-1.03274E+000	3.57720E+000	10	...........
	51	0.693333	7.67485E-002	-6.01661E-003	0.00000E+000	-4.61766E-004	-3.59960E-001	-1.04474E+000	3.57720E+000	10	...........
	52	0.706667	7.15723E-002	-6.01689E-003	0.00000E+000	-4.30643E-004	-3.59960E-001	-1.03532E+000	3.57720E+000	10	...........
	53	0.72	6.63836E-002	-6.01569E-003	0.00000E+000	-3.99343E-004	-3.59960E-001	-1.03266E+000	3.57720E+000	10	...........
	54	0.733333	6.12125E-002	-6.01621E-003	0.00000E+000	-3.68267E-004	-3.59960E-001	-1.04511E+000	3.57720E+000	10	...........
	55	0.746667	5.60879E-002	-6.01154E-003	0.00000E+000	-3.37175E-004	-3.59960E-001	-1.03564E+000	3.57720E+000	10	...........
	56	0.76	5.10269E-002	-6.01771E-003	0.00000E+000	-3.07065E-004	-3.59960E-001	-1.03278E+000	3.57720E+000	10	...........
	57	0.773333	4.60193E-002	-6.01604E-003	0.00000E+000	-2.76854E-004	-3.59960E-001	-1.04521E+000	3.57720E+000	10	...........
	58	0.786667	4.10007E-002	-6.01487E-003	0.00000E+000	-2.46614E-004	-3.59960E-001	-1.03575E+000	3.57720E+000	10	...........
	59	0.8	3.60231E-002	-6.01450E-003	0.00000E+000	-2.16661E-004	-3.59960E-001	-1.03300E+000	3.57753E+000	10	...........
	60	0.813333	3.10413E-002	-6.01905E-003	0.00000E+000	-1.86839E-004	-3.59960E-001	-1.04503E+000	3.57850E+000	10	...........
	61	0.826667	2.60989E-002	-6.01933E-003	0.00000E+000	-1.57098E-004	-3.59960E-001	-1.03590E+000	3.57850E+000	10	...........
	62	0.84	2.12609E-002	-6.01714E-003	0.00000E+000	-1.27930E-004	-3.59960E-001	-1.03253E+000	3.57850E+000	10	...........
	63	0.853333	1.63641E-002	-6.01277E-003	0.00000E+000	-9.83938E-005	-3.59960E-001	-1.04450E+000	3.57850E+000	10	...........
	64	0.866667	1.15195E-002	-6.01317E-003	0.00000E+000	-6.92689E-005	-3.59960E-001	-1.03584E+000	3.57850E+000	10	...........
	65	0.88	6.71101E-003	-6.01367E-003	0.00000E+000	-4.03578E-005	-3.59960E-001	-1.03255E+000	3.57850E+000	10	...........
	66	0.893333	1.92176E-003	-6.01636E-003	0.00000E+000	-1.15620E-005	-3.59960E-001	-1.04437E+000	3.57850E+000	10	...........
STARTTIMEOFFSET	QUANT	225.455	Start Time Offset (s)