File: Data/CV_CRGO300517_1/PWRCCD_CRGO300517_1/CHARGE_DISCHARGE/DISCHARGE_#105.DTA
EXPLAIN
TAG	PWR800_DISCHARGE
TITLE	LABEL	PWR Cyclic Charge Discharge (Cell) - Discharge Step	Test &Identifier
DATE	LABEL	22-6-2017	Date
TIME	LABEL	15:39:44	Time
NOTES	NOTES	3	&Notes...
	supercap test cell
	0.6mg
	6M KOH
PSTAT	PSTAT	IFC5000-01520	Potentiostat
CAPACITY	QUANT	1.00000E-003	Capacity (A-hr)
CELLTYPE	SELECTOR	1	&Cell Type
WORKINGCONNECTION	SELECTOR	0	&Working Lead
MAXDISCHARGETIME	VARIABLEANDUNITS	1.00000E+002	s	1.00000E+002	second(s)	Max &Discharge Time
DISCHARGEMODE	MULTIPARAM	0	6.00000E-003	&Discharge Mode	Constant Current	Amp(s)
SAMPLETIME	QUANT	1.00000E-002	Sa&mple Period (s)
DISCHARGESTOPAT1	MULTIPARAM	3	0.00000E+000	Discharge Stop At &1	Voltage < Limit	V
DISCHARGESTOPAT2	MULTIPARAM	0	0.00000E+000	Discharge Stop At &2	None	N/A
AESBHCSELECTOR	TOGGLE	F	Save Both Half Cells
IRCOMP	TOGGLE	F	IR &Measure
EOC	QUANT	0	Open Circuit (V)
SEQUENCER	TOGGLE	TRUE	Run as Sequence
PSTATMODEL	IQUANT	53	Pstat Model
PSTATSECTION	LABEL	IFC5000-01520	Pstat Section
PSTATSERIALNO	LABEL	01520	Pstat Serial Number
CTRLMODE	IQUANT	0	Control Mode
ELECTROMETER	IQUANT	1	RE=0 or CS=1
IESTAB	IQUANT	0	I/E Stability
CASPEED	IQUANT	4	Control Amp Speed
CONVENTION	IQUANT	1	Current Convention
ICHRANGE	IQUANT	2	Ich Range
ICHRANGEMODE	TOGGLE	T	Ich Auto Range
ICHOFFSETENABLE	TOGGLE	F	Ich Offset Enable
ICHOFFSET	QUANT	0	Ich Offset (V)
ICHFILTER	IQUANT	1	Ich Filter
VCHRANGE	IQUANT	2	Vch Range
VCHRANGEMODE	TOGGLE	T	Vch Auto Range
VCHOFFSETENABLE	TOGGLE	F	Vch Offset Enable
VCHOFFSET	QUANT	0	Vch Offset (V)
VCHFILTER	IQUANT	1	Vch Filter
IERANGELOWERLIMIT	IQUANT	9	I/E Range Lower Limit
IERANGEMODE	TOGGLE	F	I/E AutoRange
IERANGE	IQUANT	10	I/E Range
ACHSELECT	IQUANT	1	Ach Select
ACHRANGE	IQUANT	2	Ach Range
ACHOFFSETENABLE	TOGGLE	F	Ach Offset Enable
ACHOFFSET	QUANT	0	Ach Offset (V)
ACHFILTER	IQUANT	1	Ach Filter
CABLEID	IQUANT	14	Cable ID
DCCALDATE	LABEL	20-10-2016	DC Calibration Date
ACCALDATE	LABEL	12/3/2015	AC Calibration Date
FRAMEWORKVERSION	QUANT	7.01	Framework Version
INSTRUMENTVERSION	LABEL	4.00	Instrument Version
CURVE	TABLE	69
	Pt	T	Vf	Im	Vu	Pwr	Sig	Ach	Temp	IERange	Over
	#	s	V	A	V	W	V	V	deg C	#	bits
	0	0.013333	4.27895E-001	-6.01380E-003	0.00000E+000	-2.57327E-003	-3.59960E-001	-1.02613E+000	3.57740E+000	10	...........
	1	0.026667	4.17629E-001	-6.01622E-003	0.00000E+000	-2.51255E-003	-3.59960E-001	-1.02194E+000	3.57740E+000	10	...........
	2	0.04	4.08089E-001	-6.01575E-003	0.00000E+000	-2.45496E-003	-3.59960E-001	-1.03130E+000	3.57740E+000	10	...........
	3	0.053333	3.99068E-001	-6.01473E-003	0.00000E+000	-2.40029E-003	-3.59960E-001	-1.02644E+000	3.57740E+000	10	...........
	4	0.066667	3.90369E-001	-6.01630E-003	0.00000E+000	-2.34858E-003	-3.59960E-001	-1.02265E+000	3.57740E+000	10	...........
	5	0.08	3.81941E-001	-6.01836E-003	0.00000E+000	-2.29866E-003	-3.59960E-001	-1.03164E+000	3.57740E+000	10	...........
	6	0.093333	3.73717E-001	-6.01712E-003	0.00000E+000	-2.24870E-003	-3.59960E-001	-1.02649E+000	3.57740E+000	10	...........
	7	0.106667	3.65618E-001	-6.01634E-003	0.00000E+000	-2.19968E-003	-3.59960E-001	-1.02266E+000	3.57740E+000	10	...........
	8	0.12	3.57688E-001	-6.01400E-003	0.00000E+000	-2.15114E-003	-3.59960E-001	-1.03216E+000	3.57740E+000	10	...........
	9	0.133333	3.49921E-001	-6.01725E-003	0.00000E+000	-2.10556E-003	-3.59960E-001	-1.02693E+000	3.57740E+000	10	...........
	10	0.146667	3.42266E-001	-6.01179E-003	0.00000E+000	-2.05763E-003	-3.59960E-001	-1.02281E+000	3.57740E+000	10	...........
	11	0.16	3.34738E-001	-6.01572E-003	0.00000E+000	-2.01369E-003	-3.59960E-001	-1.03200E+000	3.57740E+000	10	...........
	12	0.173333	3.27264E-001	-6.01787E-003	0.00000E+000	-1.96944E-003	-3.59960E-001	-1.02670E+000	3.57740E+000	10	...........
	13	0.186667	3.19912E-001	-6.01249E-003	0.00000E+000	-1.92347E-003	-3.59960E-001	-1.02289E+000	3.57740E+000	10	...........
	14	0.2	3.12592E-001	-6.01489E-003	0.00000E+000	-1.88020E-003	-3.59960E-001	-1.03211E+000	3.57740E+000	10	...........
	15	0.213333	3.05338E-001	-6.01518E-003	0.00000E+000	-1.83666E-003	-3.59960E-001	-1.02699E+000	3.57740E+000	10	...........
	16	0.226667	2.98216E-001	-6.01578E-003	0.00000E+000	-1.79400E-003	-3.59960E-001	-1.02284E+000	3.57740E+000	10	...........
	17	0.24	2.91186E-001	-6.01577E-003	0.00000E+000	-1.75171E-003	-3.59960E-001	-1.03222E+000	3.57740E+000	10	...........
	18	0.253333	2.84213E-001	-6.01479E-003	0.00000E+000	-1.70948E-003	-3.59960E-001	-1.02721E+000	3.57740E+000	10	...........
	19	0.266667	2.77292E-001	-6.01697E-003	0.00000E+000	-1.66846E-003	-3.59960E-001	-1.02321E+000	3.57740E+000	10	...........
	20	0.28	2.70468E-001	-6.01443E-003	0.00000E+000	-1.62671E-003	-3.59960E-001	-1.03246E+000	3.57740E+000	10	...........
	21	0.293333	2.63676E-001	-6.01547E-003	0.00000E+000	-1.58614E-003	-3.59960E-001	-1.02726E+000	3.57740E+000	10	...........
	22	0.306667	2.56972E-001	-6.01212E-003	0.00000E+000	-1.54494E-003	-3.59960E-001	-1.02330E+000	3.57740E+000	10	...........
	23	0.32	2.50317E-001	-6.01691E-003	0.00000E+000	-1.50614E-003	-3.59960E-001	-1.03261E+000	3.57740E+000	10	...........
	24	0.333333	2.43746E-001	-6.01240E-003	0.00000E+000	-1.46550E-003	-3.59960E-001	-1.02770E+000	3.57740E+000	10	...........
	25	0.346667	2.37204E-001	-6.01568E-003	0.00000E+000	-1.42695E-003	-3.59960E-001	-1.02351E+000	3.57740E+000	10	...........
	26	0.36	2.30707E-001	-6.01315E-003	0.00000E+000	-1.38728E-003	-3.59960E-001	-1.03230E+000	3.57740E+000	10	...........
	27	0.373333	2.24262E-001	-6.01589E-003	0.00000E+000	-1.34914E-003	-3.59960E-001	-1.02768E+000	3.57740E+000	10	...........
	28	0.386667	2.17928E-001	-6.01428E-003	0.00000E+000	-1.31068E-003	-3.59960E-001	-1.02368E+000	3.57740E+000	10	...........
	29	0.4	2.11633E-001	-6.01714E-003	0.00000E+000	-1.27343E-003	-3.59960E-001	-1.03286E+000	3.57740E+000	10	...........
	30	0.413333	2.05387E-001	-6.01254E-003	0.00000E+000	-1.23490E-003	-3.59960E-001	-1.02788E+000	3.57740E+000	10	...........
	31	0.426667	1.99190E-001	-6.01718E-003	0.00000E+000	-1.19856E-003	-3.59960E-001	-1.02351E+000	3.57740E+000	10	...........
	32	0.44	1.93029E-001	-6.01558E-003	0.00000E+000	-1.16118E-003	-3.59960E-001	-1.03250E+000	3.57740E+000	10	...........
	33	0.453333	1.86919E-001	-6.01294E-003	0.00000E+000	-1.12393E-003	-3.59960E-001	-1.02801E+000	3.57740E+000	10	...........
	34	0.466667	1.80867E-001	-6.01478E-003	0.00000E+000	-1.08787E-003	-3.59960E-001	-1.02399E+000	3.57740E+000	10	...........
	35	0.48	1.74912E-001	-6.01439E-003	0.00000E+000	-1.05199E-003	-3.59960E-001	-1.03290E+000	3.57740E+000	10	...........
	36	0.493333	1.68927E-001	-6.01765E-003	0.00000E+000	-1.01655E-003	-3.59960E-001	-1.02774E+000	3.57740E+000	10	...........
	37	0.506667	1.63008E-001	-6.00948E-003	0.00000E+000	-9.79596E-004	-3.59960E-001	-1.02359E+000	3.57740E+000	10	...........
	38	0.52	1.57168E-001	-6.01567E-003	0.00000E+000	-9.45468E-004	-3.59960E-001	-1.03288E+000	3.57740E+000	10	...........
	39	0.533333	1.51354E-001	-6.01391E-003	0.00000E+000	-9.10228E-004	-3.59960E-001	-1.02820E+000	3.57740E+000	10	...........
	40	0.546667	1.45596E-001	-6.01625E-003	0.00000E+000	-8.75942E-004	-3.59960E-001	-1.02381E+000	3.57740E+000	10	...........
	41	0.56	1.39846E-001	-6.01540E-003	0.00000E+000	-8.41231E-004	-3.59960E-001	-1.03261E+000	3.57740E+000	10	...........
	42	0.573333	1.34175E-001	-6.01559E-003	0.00000E+000	-8.07143E-004	-3.59960E-001	-1.02816E+000	3.57740E+000	10	...........
	43	0.586667	1.28585E-001	-6.01247E-003	0.00000E+000	-7.73114E-004	-3.59960E-001	-1.02411E+000	3.57740E+000	10	...........
	44	0.6	1.22993E-001	-6.01815E-003	0.00000E+000	-7.40190E-004	-3.59960E-001	-1.03306E+000	3.57740E+000	10	...........
	45	0.613333	1.17413E-001	-6.01326E-003	0.00000E+000	-7.06037E-004	-3.59960E-001	-1.02835E+000	3.57740E+000	10	...........
	46	0.626667	1.11880E-001	-6.01499E-003	0.00000E+000	-6.72960E-004	-3.59960E-001	-1.02395E+000	3.57740E+000	10	...........
	47	0.64	1.06386E-001	-6.01643E-003	0.00000E+000	-6.40062E-004	-3.59960E-001	-1.03298E+000	3.57740E+000	10	...........
	48	0.653333	1.00926E-001	-6.01653E-003	0.00000E+000	-6.07225E-004	-3.59960E-001	-1.02855E+000	3.57740E+000	10	...........
	49	0.666667	9.55081E-002	-6.01391E-003	0.00000E+000	-5.74377E-004	-3.59960E-001	-1.02431E+000	3.57740E+000	10	...........
	50	0.68	9.01015E-002	-6.01826E-003	0.00000E+000	-5.42254E-004	-3.59960E-001	-1.03281E+000	3.57740E+000	10	...........
	51	0.693333	8.47737E-002	-6.01494E-003	0.00000E+000	-5.09909E-004	-3.59960E-001	-1.02866E+000	3.57740E+000	10	...........
	52	0.706667	7.94809E-002	-6.01540E-003	0.00000E+000	-4.78110E-004	-3.59960E-001	-1.02433E+000	3.57740E+000	10	...........
	53	0.72	7.42555E-002	-6.01227E-003	0.00000E+000	-4.46444E-004	-3.59960E-001	-1.03331E+000	3.57740E+000	10	...........
	54	0.733333	6.90317E-002	-6.01382E-003	0.00000E+000	-4.15144E-004	-3.59960E-001	-1.02902E+000	3.57740E+000	10	...........
	55	0.746667	6.38099E-002	-6.01759E-003	0.00000E+000	-3.83982E-004	-3.59960E-001	-1.02428E+000	3.57740E+000	10	...........
	56	0.76	5.86855E-002	-6.01581E-003	0.00000E+000	-3.53041E-004	-3.59960E-001	-1.03292E+000	3.57740E+000	10	...........
	57	0.773333	5.35963E-002	-6.01718E-003	0.00000E+000	-3.22499E-004	-3.59960E-001	-1.02893E+000	3.57740E+000	10	...........
	58	0.786667	4.85007E-002	-6.01687E-003	0.00000E+000	-2.91822E-004	-3.59960E-001	-1.02447E+000	3.57740E+000	10	...........
	59	0.8	4.34587E-002	-6.01351E-003	0.00000E+000	-2.61339E-004	-3.59960E-001	-1.03296E+000	3.57740E+000	10	...........
	60	0.813333	3.84377E-002	-6.01746E-003	0.00000E+000	-2.31297E-004	-3.59960E-001	-1.02857E+000	3.57740E+000	10	...........
	61	0.826667	3.34748E-002	-6.01218E-003	0.00000E+000	-2.01256E-004	-3.59960E-001	-1.02400E+000	3.57740E+000	10	...........
	62	0.84	2.85302E-002	-6.01935E-003	0.00000E+000	-1.71734E-004	-3.59960E-001	-1.03293E+000	3.57740E+000	10	...........
	63	0.853333	2.36098E-002	-6.01469E-003	0.00000E+000	-1.42006E-004	-3.59960E-001	-1.02880E+000	3.57740E+000	10	...........
	64	0.866667	1.87044E-002	-6.01379E-003	0.00000E+000	-1.12484E-004	-3.59960E-001	-1.02449E+000	3.57740E+000	10	...........
	65	0.88	1.38350E-002	-6.01654E-003	0.00000E+000	-8.32389E-005	-3.59960E-001	-1.03283E+000	3.57740E+000	10	...........
	66	0.893333	8.98040E-003	-6.01746E-003	0.00000E+000	-5.40392E-005	-3.59960E-001	-1.02877E+000	3.57740E+000	10	...........
	67	0.906667	4.19210E-003	-6.01806E-003	0.00000E+000	-2.52283E-005	-3.59960E-001	-1.02425E+000	3.57740E+000	10	...........
	68	0.913333	5.91445E-004	-6.01481E-003	0.00000E+000	-3.55743E-006	-3.59960E-001	-1.03759E+000	3.57740E+000	10	...........
STARTTIMEOFFSET	QUANT	205.3466	Start Time Offset (s)