File: Data/CV_CRGO300517_1/PWRCCD_CRGO300517_1/CHARGE_DISCHARGE/DISCHARGE_#100.DTA
EXPLAIN
TAG	PWR800_DISCHARGE
TITLE	LABEL	PWR Cyclic Charge Discharge (Cell) - Discharge Step	Test &Identifier
DATE	LABEL	22-6-2017	Date
TIME	LABEL	15:39:31	Time
NOTES	NOTES	3	&Notes...
	supercap test cell
	0.6mg
	6M KOH
PSTAT	PSTAT	IFC5000-01520	Potentiostat
CAPACITY	QUANT	1.00000E-003	Capacity (A-hr)
CELLTYPE	SELECTOR	1	&Cell Type
WORKINGCONNECTION	SELECTOR	0	&Working Lead
MAXDISCHARGETIME	VARIABLEANDUNITS	1.00000E+002	s	1.00000E+002	second(s)	Max &Discharge Time
DISCHARGEMODE	MULTIPARAM	0	6.00000E-003	&Discharge Mode	Constant Current	Amp(s)
SAMPLETIME	QUANT	1.00000E-002	Sa&mple Period (s)
DISCHARGESTOPAT1	MULTIPARAM	3	0.00000E+000	Discharge Stop At &1	Voltage < Limit	V
DISCHARGESTOPAT2	MULTIPARAM	0	0.00000E+000	Discharge Stop At &2	None	N/A
AESBHCSELECTOR	TOGGLE	F	Save Both Half Cells
IRCOMP	TOGGLE	F	IR &Measure
EOC	QUANT	0	Open Circuit (V)
SEQUENCER	TOGGLE	TRUE	Run as Sequence
PSTATMODEL	IQUANT	53	Pstat Model
PSTATSECTION	LABEL	IFC5000-01520	Pstat Section
PSTATSERIALNO	LABEL	01520	Pstat Serial Number
CTRLMODE	IQUANT	0	Control Mode
ELECTROMETER	IQUANT	1	RE=0 or CS=1
IESTAB	IQUANT	0	I/E Stability
CASPEED	IQUANT	4	Control Amp Speed
CONVENTION	IQUANT	1	Current Convention
ICHRANGE	IQUANT	2	Ich Range
ICHRANGEMODE	TOGGLE	T	Ich Auto Range
ICHOFFSETENABLE	TOGGLE	F	Ich Offset Enable
ICHOFFSET	QUANT	0	Ich Offset (V)
ICHFILTER	IQUANT	1	Ich Filter
VCHRANGE	IQUANT	2	Vch Range
VCHRANGEMODE	TOGGLE	T	Vch Auto Range
VCHOFFSETENABLE	TOGGLE	F	Vch Offset Enable
VCHOFFSET	QUANT	0	Vch Offset (V)
VCHFILTER	IQUANT	1	Vch Filter
IERANGELOWERLIMIT	IQUANT	9	I/E Range Lower Limit
IERANGEMODE	TOGGLE	F	I/E AutoRange
IERANGE	IQUANT	10	I/E Range
ACHSELECT	IQUANT	1	Ach Select
ACHRANGE	IQUANT	2	Ach Range
ACHOFFSETENABLE	TOGGLE	F	Ach Offset Enable
ACHOFFSET	QUANT	0	Ach Offset (V)
ACHFILTER	IQUANT	1	Ach Filter
CABLEID	IQUANT	14	Cable ID
DCCALDATE	LABEL	20-10-2016	DC Calibration Date
ACCALDATE	LABEL	12/3/2015	AC Calibration Date
FRAMEWORKVERSION	QUANT	7.01	Framework Version
INSTRUMENTVERSION	LABEL	4.00	Instrument Version
CURVE	TABLE	69
	Pt	T	Vf	Im	Vu	Pwr	Sig	Ach	Temp	IERange	Over
	#	s	V	A	V	W	V	V	deg C	#	bits
	0	0.013333	4.28188E-001	-6.01859E-003	0.00000E+000	-2.57709E-003	-3.59960E-001	-1.02109E+000	3.57860E+000	10	...........
	1	0.026667	4.17958E-001	-6.01507E-003	0.00000E+000	-2.51405E-003	-3.59960E-001	-1.01344E+000	3.57860E+000	10	...........
	2	0.04	4.08470E-001	-6.01690E-003	0.00000E+000	-2.45773E-003	-3.59960E-001	-1.01684E+000	3.57860E+000	10	...........
	3	0.053333	3.99445E-001	-6.01321E-003	0.00000E+000	-2.40195E-003	-3.59960E-001	-1.02165E+000	3.57860E+000	10	...........
	4	0.066667	3.90752E-001	-6.01650E-003	0.00000E+000	-2.35096E-003	-3.59960E-001	-1.01397E+000	3.57860E+000	10	...........
	5	0.08	3.82337E-001	-6.01562E-003	0.00000E+000	-2.29999E-003	-3.59960E-001	-1.01789E+000	3.57860E+000	10	...........
	6	0.093333	3.74096E-001	-6.01668E-003	0.00000E+000	-2.25082E-003	-3.59960E-001	-1.02301E+000	3.57860E+000	10	...........
	7	0.106667	3.66031E-001	-6.01489E-003	0.00000E+000	-2.20163E-003	-3.59960E-001	-1.01502E+000	3.57860E+000	10	...........
	8	0.12	3.58094E-001	-6.01533E-003	0.00000E+000	-2.15405E-003	-3.59960E-001	-1.01823E+000	3.57860E+000	10	...........
	9	0.133333	3.50347E-001	-6.01635E-003	0.00000E+000	-2.10781E-003	-3.59960E-001	-1.02311E+000	3.57860E+000	10	...........
	10	0.146667	3.42656E-001	-6.01222E-003	0.00000E+000	-2.06012E-003	-3.59960E-001	-1.01566E+000	3.57860E+000	10	...........
	11	0.16	3.35132E-001	-6.01456E-003	0.00000E+000	-2.01567E-003	-3.59960E-001	-1.01922E+000	3.57860E+000	10	...........
	12	0.173333	3.27684E-001	-6.01485E-003	0.00000E+000	-1.97097E-003	-3.59960E-001	-1.02416E+000	3.57860E+000	10	...........
	13	0.186667	3.20318E-001	-6.01608E-003	0.00000E+000	-1.92706E-003	-3.59960E-001	-1.01620E+000	3.57860E+000	10	...........
	14	0.2	3.13017E-001	-6.01627E-003	0.00000E+000	-1.88319E-003	-3.59960E-001	-1.01958E+000	3.57860E+000	10	...........
	15	0.213333	3.05822E-001	-6.01679E-003	0.00000E+000	-1.84007E-003	-3.59960E-001	-1.02496E+000	3.57860E+000	10	...........
	16	0.226667	2.98705E-001	-6.01547E-003	0.00000E+000	-1.79685E-003	-3.59960E-001	-1.01708E+000	3.57860E+000	10	...........
	17	0.24	2.91684E-001	-6.01430E-003	0.00000E+000	-1.75427E-003	-3.59960E-001	-1.02030E+000	3.57860E+000	10	...........
	18	0.253333	2.84696E-001	-6.01733E-003	0.00000E+000	-1.71311E-003	-3.59960E-001	-1.02550E+000	3.57860E+000	10	...........
	19	0.266667	2.77810E-001	-6.01515E-003	0.00000E+000	-1.67107E-003	-3.59960E-001	-1.01785E+000	3.57860E+000	10	...........
	20	0.28	2.70997E-001	-6.01789E-003	0.00000E+000	-1.63083E-003	-3.59960E-001	-1.02114E+000	3.57860E+000	10	...........
	21	0.293333	2.64218E-001	-6.01804E-003	0.00000E+000	-1.59008E-003	-3.59960E-001	-1.02660E+000	3.57860E+000	10	...........
	22	0.306667	2.57541E-001	-6.01464E-003	0.00000E+000	-1.54902E-003	-3.59960E-001	-1.01883E+000	3.57860E+000	10	...........
	23	0.32	2.50930E-001	-6.01134E-003	0.00000E+000	-1.50843E-003	-3.59960E-001	-1.02193E+000	3.57860E+000	10	...........
	24	0.333333	2.44300E-001	-6.01240E-003	0.00000E+000	-1.46883E-003	-3.59960E-001	-1.02734E+000	3.57860E+000	10	...........
	25	0.346667	2.37730E-001	-6.01938E-003	0.00000E+000	-1.43099E-003	-3.59960E-001	-1.01973E+000	3.57820E+000	10	...........
	26	0.36	2.31320E-001	-6.01139E-003	0.00000E+000	-1.39055E-003	-3.59960E-001	-1.02277E+000	3.57700E+000	10	...........
	27	0.373333	2.24925E-001	-6.01440E-003	0.00000E+000	-1.35279E-003	-3.59960E-001	-1.02828E+000	3.57700E+000	10	...........
	28	0.386667	2.18540E-001	-6.01420E-003	0.00000E+000	-1.31434E-003	-3.59960E-001	-1.02008E+000	3.57700E+000	10	...........
	29	0.4	2.12275E-001	-6.01460E-003	0.00000E+000	-1.27675E-003	-3.59960E-001	-1.02307E+000	3.57700E+000	10	...........
	30	0.413333	2.06032E-001	-6.01551E-003	0.00000E+000	-1.23939E-003	-3.59960E-001	-1.02868E+000	3.57700E+000	10	...........
	31	0.426667	1.99841E-001	-6.01478E-003	0.00000E+000	-1.20200E-003	-3.59960E-001	-1.02059E+000	3.57700E+000	10	...........
	32	0.44	1.93711E-001	-6.01512E-003	0.00000E+000	-1.16520E-003	-3.59960E-001	-1.02335E+000	3.57700E+000	10	...........
	33	0.453333	1.87626E-001	-6.01490E-003	0.00000E+000	-1.12855E-003	-3.59960E-001	-1.02877E+000	3.57700E+000	10	...........
	34	0.466667	1.81598E-001	-6.01266E-003	0.00000E+000	-1.09189E-003	-3.59960E-001	-1.02074E+000	3.57700E+000	10	...........
	35	0.48	1.75615E-001	-6.01194E-003	0.00000E+000	-1.05578E-003	-3.59960E-001	-1.02422E+000	3.57700E+000	10	...........
	36	0.493333	1.69657E-001	-6.01618E-003	0.00000E+000	-1.02069E-003	-3.59960E-001	-1.02967E+000	3.57700E+000	10	...........
	37	0.506667	1.63778E-001	-6.01628E-003	0.00000E+000	-9.85332E-004	-3.59960E-001	-1.02151E+000	3.57700E+000	10	...........
	38	0.52	1.57951E-001	-6.01647E-003	0.00000E+000	-9.50308E-004	-3.59960E-001	-1.02415E+000	3.57700E+000	10	...........
	39	0.533333	1.52139E-001	-6.01610E-003	0.00000E+000	-9.15284E-004	-3.59960E-001	-1.02961E+000	3.57700E+000	10	...........
	40	0.546667	1.46335E-001	-6.01410E-003	0.00000E+000	-8.80072E-004	-3.59960E-001	-1.02136E+000	3.57700E+000	10	...........
	41	0.56	1.40627E-001	-6.01473E-003	0.00000E+000	-8.45836E-004	-3.59960E-001	-1.02414E+000	3.57700E+000	10	...........
	42	0.573333	1.34962E-001	-6.01663E-003	0.00000E+000	-8.12019E-004	-3.59960E-001	-1.02977E+000	3.57700E+000	10	...........
	43	0.586667	1.29314E-001	-6.01619E-003	0.00000E+000	-7.77977E-004	-3.59960E-001	-1.02161E+000	3.57700E+000	10	...........
	44	0.6	1.23710E-001	-6.01593E-003	0.00000E+000	-7.44232E-004	-3.59960E-001	-1.02440E+000	3.57700E+000	10	...........
	45	0.613333	1.18147E-001	-6.01769E-003	0.00000E+000	-7.10970E-004	-3.59960E-001	-1.03018E+000	3.57700E+000	10	...........
	46	0.626667	1.12634E-001	-6.01484E-003	0.00000E+000	-6.77477E-004	-3.59960E-001	-1.02200E+000	3.57700E+000	10	...........
	47	0.64	1.07163E-001	-6.01572E-003	0.00000E+000	-6.44665E-004	-3.59960E-001	-1.02487E+000	3.57700E+000	10	...........
	48	0.653333	1.01715E-001	-6.01518E-003	0.00000E+000	-6.11836E-004	-3.59960E-001	-1.03056E+000	3.57700E+000	10	...........
	49	0.666667	9.63352E-002	-6.01560E-003	0.00000E+000	-5.79514E-004	-3.59960E-001	-1.02260E+000	3.57700E+000	10	...........
	50	0.68	9.09848E-002	-6.01317E-003	0.00000E+000	-5.47107E-004	-3.59960E-001	-1.02518E+000	3.57700E+000	10	...........
	51	0.693333	8.56703E-002	-6.01654E-003	0.00000E+000	-5.15439E-004	-3.59960E-001	-1.03128E+000	3.57700E+000	10	...........
	52	0.706667	8.04007E-002	-6.01269E-003	0.00000E+000	-4.83424E-004	-3.59960E-001	-1.02293E+000	3.57700E+000	10	...........
	53	0.72	7.51051E-002	-6.01565E-003	0.00000E+000	-4.51806E-004	-3.59960E-001	-1.02508E+000	3.57700E+000	10	...........
	54	0.733333	6.98786E-002	-6.01755E-003	0.00000E+000	-4.20498E-004	-3.59960E-001	-1.03103E+000	3.57700E+000	10	...........
	55	0.746667	6.46869E-002	-6.01406E-003	0.00000E+000	-3.89031E-004	-3.59960E-001	-1.02260E+000	3.57700E+000	10	...........
	56	0.76	5.95447E-002	-6.01948E-003	0.00000E+000	-3.58428E-004	-3.59960E-001	-1.02493E+000	3.57700E+000	10	...........
	57	0.773333	5.43990E-002	-6.01646E-003	0.00000E+000	-3.27289E-004	-3.59960E-001	-1.03076E+000	3.57700E+000	10	...........
	58	0.786667	4.93446E-002	-6.01812E-003	0.00000E+000	-2.96962E-004	-3.59960E-001	-1.02212E+000	3.57700E+000	10	...........
	59	0.8	4.43521E-002	-6.01146E-003	0.00000E+000	-2.66621E-004	-3.59960E-001	-1.02476E+000	3.57700E+000	10	...........
	60	0.813333	3.93552E-002	-6.01400E-003	0.00000E+000	-2.36683E-004	-3.59960E-001	-1.03056E+000	3.57700E+000	10	...........
	61	0.826667	3.43609E-002	-6.01236E-003	0.00000E+000	-2.06590E-004	-3.59960E-001	-1.02243E+000	3.57700E+000	10	...........
	62	0.84	2.93754E-002	-6.01893E-003	0.00000E+000	-1.76808E-004	-3.59960E-001	-1.02455E+000	3.57700E+000	10	...........
	63	0.853333	2.44463E-002	-6.01565E-003	0.00000E+000	-1.47060E-004	-3.59960E-001	-1.03055E+000	3.57700E+000	10	...........
	64	0.866667	1.95458E-002	-6.01810E-003	0.00000E+000	-1.17629E-004	-3.59960E-001	-1.02223E+000	3.57700E+000	10	...........
	65	0.88	1.47165E-002	-6.01421E-003	0.00000E+000	-8.85082E-005	-3.59960E-001	-1.02456E+000	3.57700E+000	10	...........
	66	0.893333	9.86555E-003	-6.01611E-003	0.00000E+000	-5.93523E-005	-3.59960E-001	-1.03062E+000	3.57700E+000	10	...........
	67	0.906667	5.08300E-003	-6.01266E-003	0.00000E+000	-3.05623E-005	-3.59960E-001	-1.02238E+000	3.57700E+000	10	...........
	68	0.916667	8.99009E-004	-6.01330E-003	0.00000E+000	-5.40601E-006	-3.59960E-001	-1.02836E+000	3.57700E+000	10	...........
STARTTIMEOFFSET	QUANT	196.1416	Start Time Offset (s)