File: Data/CV_CRGO300517_1/PWRCCD_CRGO300517_1/CHARGE_DISCHARGE/DISCHARGE_#109.DTA
EXPLAIN
TAG	PWR800_DISCHARGE
TITLE	LABEL	PWR Cyclic Charge Discharge (Cell) - Discharge Step	Test &Identifier
DATE	LABEL	22-6-2017	Date
TIME	LABEL	15:39:55	Time
NOTES	NOTES	3	&Notes...
	supercap test cell
	0.6mg
	6M KOH
PSTAT	PSTAT	IFC5000-01520	Potentiostat
CAPACITY	QUANT	1.00000E-003	Capacity (A-hr)
CELLTYPE	SELECTOR	1	&Cell Type
WORKINGCONNECTION	SELECTOR	0	&Working Lead
MAXDISCHARGETIME	VARIABLEANDUNITS	1.00000E+002	s	1.00000E+002	second(s)	Max &Discharge Time
DISCHARGEMODE	MULTIPARAM	0	6.00000E-003	&Discharge Mode	Constant Current	Amp(s)
SAMPLETIME	QUANT	1.00000E-002	Sa&mple Period (s)
DISCHARGESTOPAT1	MULTIPARAM	3	0.00000E+000	Discharge Stop At &1	Voltage < Limit	V
DISCHARGESTOPAT2	MULTIPARAM	0	0.00000E+000	Discharge Stop At &2	None	N/A
AESBHCSELECTOR	TOGGLE	F	Save Both Half Cells
IRCOMP	TOGGLE	F	IR &Measure
EOC	QUANT	0	Open Circuit (V)
SEQUENCER	TOGGLE	TRUE	Run as Sequence
PSTATMODEL	IQUANT	53	Pstat Model
PSTATSECTION	LABEL	IFC5000-01520	Pstat Section
PSTATSERIALNO	LABEL	01520	Pstat Serial Number
CTRLMODE	IQUANT	0	Control Mode
ELECTROMETER	IQUANT	1	RE=0 or CS=1
IESTAB	IQUANT	0	I/E Stability
CASPEED	IQUANT	4	Control Amp Speed
CONVENTION	IQUANT	1	Current Convention
ICHRANGE	IQUANT	2	Ich Range
ICHRANGEMODE	TOGGLE	T	Ich Auto Range
ICHOFFSETENABLE	TOGGLE	F	Ich Offset Enable
ICHOFFSET	QUANT	0	Ich Offset (V)
ICHFILTER	IQUANT	1	Ich Filter
VCHRANGE	IQUANT	2	Vch Range
VCHRANGEMODE	TOGGLE	T	Vch Auto Range
VCHOFFSETENABLE	TOGGLE	F	Vch Offset Enable
VCHOFFSET	QUANT	0	Vch Offset (V)
VCHFILTER	IQUANT	1	Vch Filter
IERANGELOWERLIMIT	IQUANT	9	I/E Range Lower Limit
IERANGEMODE	TOGGLE	F	I/E AutoRange
IERANGE	IQUANT	10	I/E Range
ACHSELECT	IQUANT	1	Ach Select
ACHRANGE	IQUANT	2	Ach Range
ACHOFFSETENABLE	TOGGLE	F	Ach Offset Enable
ACHOFFSET	QUANT	0	Ach Offset (V)
ACHFILTER	IQUANT	1	Ach Filter
CABLEID	IQUANT	14	Cable ID
DCCALDATE	LABEL	20-10-2016	DC Calibration Date
ACCALDATE	LABEL	12/3/2015	AC Calibration Date
FRAMEWORKVERSION	QUANT	7.01	Framework Version
INSTRUMENTVERSION	LABEL	4.00	Instrument Version
CURVE	TABLE	69
	Pt	T	Vf	Im	Vu	Pwr	Sig	Ach	Temp	IERange	Over
	#	s	V	A	V	W	V	V	deg C	#	bits
	0	0.013333	4.26801E-001	-6.01159E-003	0.00000E+000	-2.56576E-003	-3.59960E-001	-1.03241E+000	3.57700E+000	10	...........
	1	0.026667	4.16549E-001	-6.01333E-003	0.00000E+000	-2.50485E-003	-3.59960E-001	-1.04094E+000	3.57700E+000	10	...........
	2	0.04	4.07033E-001	-6.01140E-003	0.00000E+000	-2.44684E-003	-3.59960E-001	-1.03993E+000	3.57700E+000	10	...........
	3	0.053333	3.98018E-001	-6.01543E-003	0.00000E+000	-2.39425E-003	-3.59960E-001	-1.03255E+000	3.57700E+000	10	...........
	4	0.066667	3.89308E-001	-6.01538E-003	0.00000E+000	-2.34184E-003	-3.59960E-001	-1.04095E+000	3.57700E+000	10	...........
	5	0.08	3.80845E-001	-6.01642E-003	0.00000E+000	-2.29132E-003	-3.59960E-001	-1.03991E+000	3.57700E+000	10	...........
	6	0.093333	3.72615E-001	-6.01497E-003	0.00000E+000	-2.24127E-003	-3.59960E-001	-1.03285E+000	3.57700E+000	10	...........
	7	0.106667	3.64535E-001	-6.00970E-003	0.00000E+000	-2.19074E-003	-3.59960E-001	-1.04108E+000	3.57700E+000	10	...........
	8	0.12	3.56600E-001	-6.01463E-003	0.00000E+000	-2.14482E-003	-3.59960E-001	-1.04023E+000	3.57700E+000	10	...........
	9	0.133333	3.48811E-001	-6.02136E-003	0.00000E+000	-2.10032E-003	-3.59960E-001	-1.03287E+000	3.57700E+000	10	...........
	10	0.146667	3.41134E-001	-6.01633E-003	0.00000E+000	-2.05237E-003	-3.59960E-001	-1.04106E+000	3.57700E+000	10	...........
	11	0.16	3.33558E-001	-6.01433E-003	0.00000E+000	-2.00613E-003	-3.59960E-001	-1.04047E+000	3.57700E+000	10	...........
	12	0.173333	3.26082E-001	-6.01388E-003	0.00000E+000	-1.96102E-003	-3.59960E-001	-1.03304E+000	3.57700E+000	10	...........
	13	0.186667	3.18711E-001	-6.01578E-003	0.00000E+000	-1.91729E-003	-3.59960E-001	-1.04143E+000	3.57700E+000	10	...........
	14	0.2	3.11420E-001	-6.01457E-003	0.00000E+000	-1.87306E-003	-3.59960E-001	-1.04045E+000	3.57700E+000	10	...........
	15	0.213333	3.04220E-001	-6.00807E-003	0.00000E+000	-1.82778E-003	-3.59960E-001	-1.03286E+000	3.57700E+000	10	...........
	16	0.226667	2.97066E-001	-6.01528E-003	0.00000E+000	-1.78693E-003	-3.59960E-001	-1.04128E+000	3.57700E+000	10	...........
	17	0.24	2.89986E-001	-6.00945E-003	0.00000E+000	-1.74265E-003	-3.59960E-001	-1.04071E+000	3.57700E+000	10	...........
	18	0.253333	2.82981E-001	-6.01402E-003	0.00000E+000	-1.70185E-003	-3.59960E-001	-1.03289E+000	3.57700E+000	10	...........
	19	0.266667	2.76051E-001	-6.01855E-003	0.00000E+000	-1.66143E-003	-3.59960E-001	-1.04074E+000	3.57700E+000	10	...........
	20	0.28	2.69195E-001	-6.01410E-003	0.00000E+000	-1.61897E-003	-3.59960E-001	-1.04007E+000	3.57700E+000	10	...........
	21	0.293333	2.62434E-001	-6.01197E-003	0.00000E+000	-1.57775E-003	-3.59960E-001	-1.03248E+000	3.57700E+000	10	...........
	22	0.306667	2.55721E-001	-6.01359E-003	0.00000E+000	-1.53780E-003	-3.59960E-001	-1.04086E+000	3.57700E+000	10	...........
	23	0.32	2.49040E-001	-6.01987E-003	0.00000E+000	-1.49919E-003	-3.59960E-001	-1.04034E+000	3.57700E+000	10	...........
	24	0.333333	2.42475E-001	-6.01424E-003	0.00000E+000	-1.45830E-003	-3.59960E-001	-1.03277E+000	3.57700E+000	10	...........
	25	0.346667	2.35932E-001	-6.01224E-003	0.00000E+000	-1.41848E-003	-3.59960E-001	-1.04070E+000	3.57700E+000	10	...........
	26	0.36	2.29475E-001	-6.01868E-003	0.00000E+000	-1.38114E-003	-3.59960E-001	-1.04036E+000	3.57700E+000	10	...........
	27	0.373333	2.23042E-001	-6.01458E-003	0.00000E+000	-1.34150E-003	-3.59960E-001	-1.03284E+000	3.57700E+000	10	...........
	28	0.386667	2.16676E-001	-6.01393E-003	0.00000E+000	-1.30307E-003	-3.59960E-001	-1.04081E+000	3.57700E+000	10	...........
	29	0.4	2.10403E-001	-6.00915E-003	0.00000E+000	-1.26434E-003	-3.59960E-001	-1.04037E+000	3.57700E+000	10	...........
	30	0.413333	2.04110E-001	-6.01602E-003	0.00000E+000	-1.22793E-003	-3.59960E-001	-1.03273E+000	3.57700E+000	10	...........
	31	0.426667	1.97915E-001	-6.01571E-003	0.00000E+000	-1.19060E-003	-3.59960E-001	-1.04052E+000	3.57700E+000	10	...........
	32	0.44	1.91774E-001	-6.01650E-003	0.00000E+000	-1.15381E-003	-3.59960E-001	-1.04045E+000	3.57700E+000	10	...........
	33	0.453333	1.85704E-001	-6.01625E-003	0.00000E+000	-1.11724E-003	-3.59960E-001	-1.03303E+000	3.57700E+000	10	...........
	34	0.466667	1.79649E-001	-6.01575E-003	0.00000E+000	-1.08072E-003	-3.59960E-001	-1.04083E+000	3.57700E+000	10	...........
	35	0.48	1.73663E-001	-6.01606E-003	0.00000E+000	-1.04477E-003	-3.59960E-001	-1.04090E+000	3.57700E+000	10	...........
	36	0.493333	1.67721E-001	-6.01538E-003	0.00000E+000	-1.00890E-003	-3.59960E-001	-1.03303E+000	3.57700E+000	10	...........
	37	0.506667	1.61819E-001	-6.01475E-003	0.00000E+000	-9.73303E-004	-3.59960E-001	-1.04101E+000	3.57700E+000	10	...........
	38	0.52	1.55947E-001	-6.01564E-003	0.00000E+000	-9.38122E-004	-3.59960E-001	-1.04117E+000	3.57700E+000	10	...........
	39	0.533333	1.50107E-001	-6.01663E-003	0.00000E+000	-9.03140E-004	-3.59960E-001	-1.03293E+000	3.57700E+000	10	...........
	40	0.546667	1.44341E-001	-6.01261E-003	0.00000E+000	-8.67863E-004	-3.59960E-001	-1.04085E+000	3.57700E+000	10	...........
	41	0.56	1.38587E-001	-6.01248E-003	0.00000E+000	-8.33249E-004	-3.59960E-001	-1.04093E+000	3.57700E+000	10	...........
	42	0.573333	1.32930E-001	-6.01052E-003	0.00000E+000	-7.98980E-004	-3.59960E-001	-1.03290E+000	3.57700E+000	10	...........
	43	0.586667	1.27278E-001	-6.01681E-003	0.00000E+000	-7.65808E-004	-3.59960E-001	-1.04067E+000	3.57700E+000	10	...........
	44	0.6	1.21674E-001	-6.01726E-003	0.00000E+000	-7.32146E-004	-3.59960E-001	-1.04068E+000	3.57700E+000	10	...........
	45	0.613333	1.16118E-001	-6.01353E-003	0.00000E+000	-6.98281E-004	-3.59960E-001	-1.03253E+000	3.57700E+000	10	...........
	46	0.626667	1.10595E-001	-6.01053E-003	0.00000E+000	-6.64734E-004	-3.59960E-001	-1.04030E+000	3.57700E+000	10	...........
	47	0.64	1.05090E-001	-6.01432E-003	0.00000E+000	-6.32044E-004	-3.59960E-001	-1.04082E+000	3.57700E+000	10	...........
	48	0.653333	9.96514E-002	-6.01689E-003	0.00000E+000	-5.99592E-004	-3.59960E-001	-1.03290E+000	3.57700E+000	10	...........
	49	0.666667	9.42366E-002	-6.01497E-003	0.00000E+000	-5.66831E-004	-3.59960E-001	-1.04059E+000	3.57700E+000	10	...........
	50	0.68	8.88805E-002	-6.01746E-003	0.00000E+000	-5.34835E-004	-3.59960E-001	-1.04065E+000	3.57700E+000	10	...........
	51	0.693333	8.35275E-002	-6.01799E-003	0.00000E+000	-5.02668E-004	-3.59960E-001	-1.03289E+000	3.57700E+000	10	...........
	52	0.706667	7.82371E-002	-6.01529E-003	0.00000E+000	-4.70618E-004	-3.59960E-001	-1.04069E+000	3.57700E+000	10	...........
	53	0.72	7.29778E-002	-6.01452E-003	0.00000E+000	-4.38926E-004	-3.59960E-001	-1.04092E+000	3.57700E+000	10	...........
	54	0.733333	6.77489E-002	-6.01691E-003	0.00000E+000	-4.07639E-004	-3.59960E-001	-1.03288E+000	3.57700E+000	10	...........
	55	0.746667	6.25548E-002	-6.01371E-003	0.00000E+000	-3.76186E-004	-3.59960E-001	-1.04039E+000	3.57700E+000	10	...........
	56	0.76	5.74307E-002	-6.01175E-003	0.00000E+000	-3.45259E-004	-3.59960E-001	-1.04096E+000	3.57700E+000	10	...........
	57	0.773333	5.22933E-002	-6.01327E-003	0.00000E+000	-3.14454E-004	-3.59960E-001	-1.03292E+000	3.57805E+000	10	...........
	58	0.786667	4.72475E-002	-6.01311E-003	0.00000E+000	-2.84104E-004	-3.59960E-001	-1.04065E+000	3.57840E+000	10	...........
	59	0.8	4.22111E-002	-6.01639E-003	0.00000E+000	-2.53959E-004	-3.59960E-001	-1.04105E+000	3.57840E+000	10	...........
	60	0.813333	3.72041E-002	-6.01175E-003	0.00000E+000	-2.23662E-004	-3.59960E-001	-1.03278E+000	3.57840E+000	10	...........
	61	0.826667	3.21863E-002	-6.01546E-003	0.00000E+000	-1.93615E-004	-3.59960E-001	-1.04032E+000	3.57840E+000	10	...........
	62	0.84	2.72050E-002	-6.01784E-003	0.00000E+000	-1.63715E-004	-3.59960E-001	-1.04127E+000	3.57840E+000	10	...........
	63	0.853333	2.22623E-002	-6.01321E-003	0.00000E+000	-1.33868E-004	-3.59960E-001	-1.03312E+000	3.57840E+000	10	...........
	64	0.866667	1.73720E-002	-6.01361E-003	0.00000E+000	-1.04468E-004	-3.59960E-001	-1.04044E+000	3.57840E+000	10	...........
	65	0.88	1.25461E-002	-6.01547E-003	0.00000E+000	-7.54707E-005	-3.59960E-001	-1.04098E+000	3.57840E+000	10	...........
	66	0.893333	7.71555E-003	-6.01120E-003	0.00000E+000	-4.63797E-005	-3.59960E-001	-1.03278E+000	3.57840E+000	10	...........
	67	0.906667	2.92056E-003	-6.01449E-003	0.00000E+000	-1.75657E-005	-3.59960E-001	-1.04017E+000	3.57840E+000	10	...........
	68	0.91	-6.10488E-005	-6.00824E-003	0.00000E+000	3.66796E-007	-3.59960E-001	-1.02336E+000	3.57840E+000	10	...........
STARTTIMEOFFSET	QUANT	212.6833	Start Time Offset (s)