File: Data/CV_CRGO300517_1/PWRCCD_CRGO300517_1/CHARGE_DISCHARGE/DISCHARGE_#114.DTA
EXPLAIN
TAG	PWR800_DISCHARGE
TITLE	LABEL	PWR Cyclic Charge Discharge (Cell) - Discharge Step	Test &Identifier
DATE	LABEL	22-6-2017	Date
TIME	LABEL	15:40:08	Time
NOTES	NOTES	3	&Notes...
	supercap test cell
	0.6mg
	6M KOH
PSTAT	PSTAT	IFC5000-01520	Potentiostat
CAPACITY	QUANT	1.00000E-003	Capacity (A-hr)
CELLTYPE	SELECTOR	1	&Cell Type
WORKINGCONNECTION	SELECTOR	0	&Working Lead
MAXDISCHARGETIME	VARIABLEANDUNITS	1.00000E+002	s	1.00000E+002	second(s)	Max &Discharge Time
DISCHARGEMODE	MULTIPARAM	0	6.00000E-003	&Discharge Mode	Constant Current	Amp(s)
SAMPLETIME	QUANT	1.00000E-002	Sa&mple Period (s)
DISCHARGESTOPAT1	MULTIPARAM	3	0.00000E+000	Discharge Stop At &1	Voltage < Limit	V
DISCHARGESTOPAT2	MULTIPARAM	0	0.00000E+000	Discharge Stop At &2	None	N/A
AESBHCSELECTOR	TOGGLE	F	Save Both Half Cells
IRCOMP	TOGGLE	F	IR &Measure
EOC	QUANT	0	Open Circuit (V)
SEQUENCER	TOGGLE	TRUE	Run as Sequence
PSTATMODEL	IQUANT	53	Pstat Model
PSTATSECTION	LABEL	IFC5000-01520	Pstat Section
PSTATSERIALNO	LABEL	01520	Pstat Serial Number
CTRLMODE	IQUANT	0	Control Mode
ELECTROMETER	IQUANT	1	RE=0 or CS=1
IESTAB	IQUANT	0	I/E Stability
CASPEED	IQUANT	4	Control Amp Speed
CONVENTION	IQUANT	1	Current Convention
ICHRANGE	IQUANT	2	Ich Range
ICHRANGEMODE	TOGGLE	T	Ich Auto Range
ICHOFFSETENABLE	TOGGLE	F	Ich Offset Enable
ICHOFFSET	QUANT	0	Ich Offset (V)
ICHFILTER	IQUANT	1	Ich Filter
VCHRANGE	IQUANT	2	Vch Range
VCHRANGEMODE	TOGGLE	T	Vch Auto Range
VCHOFFSETENABLE	TOGGLE	F	Vch Offset Enable
VCHOFFSET	QUANT	0	Vch Offset (V)
VCHFILTER	IQUANT	1	Vch Filter
IERANGELOWERLIMIT	IQUANT	9	I/E Range Lower Limit
IERANGEMODE	TOGGLE	F	I/E AutoRange
IERANGE	IQUANT	10	I/E Range
ACHSELECT	IQUANT	1	Ach Select
ACHRANGE	IQUANT	2	Ach Range
ACHOFFSETENABLE	TOGGLE	F	Ach Offset Enable
ACHOFFSET	QUANT	0	Ach Offset (V)
ACHFILTER	IQUANT	1	Ach Filter
CABLEID	IQUANT	14	Cable ID
DCCALDATE	LABEL	20-10-2016	DC Calibration Date
ACCALDATE	LABEL	12/3/2015	AC Calibration Date
FRAMEWORKVERSION	QUANT	7.01	Framework Version
INSTRUMENTVERSION	LABEL	4.00	Instrument Version
CURVE	TABLE	68
	Pt	T	Vf	Im	Vu	Pwr	Sig	Ach	Temp	IERange	Over
	#	s	V	A	V	W	V	V	deg C	#	bits
	0	0.013333	4.25622E-001	-6.01151E-003	0.00000E+000	-2.55863E-003	-3.59960E-001	-1.03698E+000	3.57700E+000	10	...........
	1	0.026667	4.15341E-001	-6.01653E-003	0.00000E+000	-2.49891E-003	-3.59960E-001	-1.03735E+000	3.57700E+000	10	...........
	2	0.04	4.05815E-001	-6.01428E-003	0.00000E+000	-2.44068E-003	-3.59960E-001	-1.02915E+000	3.57700E+000	10	...........
	3	0.053333	3.96712E-001	-6.01474E-003	0.00000E+000	-2.38612E-003	-3.59960E-001	-1.03673E+000	3.57700E+000	10	...........
	4	0.066667	3.87929E-001	-6.01706E-003	0.00000E+000	-2.33419E-003	-3.59960E-001	-1.03772E+000	3.57700E+000	10	...........
	5	0.08	3.79475E-001	-6.01572E-003	0.00000E+000	-2.28282E-003	-3.59960E-001	-1.02915E+000	3.57700E+000	10	...........
	6	0.093333	3.71221E-001	-6.01568E-003	0.00000E+000	-2.23315E-003	-3.59960E-001	-1.03676E+000	3.57700E+000	10	...........
	7	0.106667	3.63142E-001	-6.01289E-003	0.00000E+000	-2.18353E-003	-3.59960E-001	-1.03831E+000	3.57700E+000	10	...........
	8	0.12	3.55220E-001	-6.01800E-003	0.00000E+000	-2.13771E-003	-3.59960E-001	-1.02976E+000	3.57700E+000	10	...........
	9	0.133333	3.47383E-001	-6.01747E-003	0.00000E+000	-2.09037E-003	-3.59960E-001	-1.03678E+000	3.57700E+000	10	...........
	10	0.146667	3.39709E-001	-6.01528E-003	0.00000E+000	-2.04344E-003	-3.59960E-001	-1.03846E+000	3.57700E+000	10	...........
	11	0.16	3.32102E-001	-6.00894E-003	0.00000E+000	-1.99558E-003	-3.59960E-001	-1.02983E+000	3.57700E+000	10	...........
	12	0.173333	3.24641E-001	-6.00977E-003	0.00000E+000	-1.95102E-003	-3.59960E-001	-1.03700E+000	3.57700E+000	10	...........
	13	0.186667	3.17260E-001	-6.01269E-003	0.00000E+000	-1.90758E-003	-3.59960E-001	-1.03905E+000	3.57700E+000	10	...........
	14	0.2	3.09908E-001	-6.01523E-003	0.00000E+000	-1.86417E-003	-3.59960E-001	-1.02995E+000	3.57700E+000	10	...........
	15	0.213333	3.02665E-001	-6.01678E-003	0.00000E+000	-1.82107E-003	-3.59960E-001	-1.03663E+000	3.57700E+000	10	...........
	16	0.226667	2.95542E-001	-6.01633E-003	0.00000E+000	-1.77808E-003	-3.59960E-001	-1.03901E+000	3.57700E+000	10	...........
	17	0.24	2.88424E-001	-6.01327E-003	0.00000E+000	-1.73438E-003	-3.59960E-001	-1.03029E+000	3.57700E+000	10	...........
	18	0.253333	2.81438E-001	-6.01402E-003	0.00000E+000	-1.69257E-003	-3.59960E-001	-1.03703E+000	3.57700E+000	10	...........
	19	0.266667	2.74514E-001	-6.01475E-003	0.00000E+000	-1.65114E-003	-3.59960E-001	-1.03973E+000	3.57700E+000	10	...........
	20	0.28	2.67678E-001	-6.01347E-003	0.00000E+000	-1.60967E-003	-3.59960E-001	-1.03053E+000	3.57700E+000	10	...........
	21	0.293333	2.60875E-001	-6.01415E-003	0.00000E+000	-1.56894E-003	-3.59960E-001	-1.03698E+000	3.57700E+000	10	...........
	22	0.306667	2.54134E-001	-6.00992E-003	0.00000E+000	-1.52733E-003	-3.59960E-001	-1.04008E+000	3.57700E+000	10	...........
	23	0.32	2.47454E-001	-6.01248E-003	0.00000E+000	-1.48781E-003	-3.59960E-001	-1.03100E+000	3.57700E+000	10	...........
	24	0.333333	2.40876E-001	-6.01626E-003	0.00000E+000	-1.44917E-003	-3.59960E-001	-1.03700E+000	3.57700E+000	10	...........
	25	0.346667	2.34322E-001	-6.01241E-003	0.00000E+000	-1.40884E-003	-3.59960E-001	-1.03983E+000	3.57700E+000	10	...........
	26	0.36	2.27849E-001	-6.01614E-003	0.00000E+000	-1.37077E-003	-3.59960E-001	-1.03058E+000	3.57700E+000	10	...........
	27	0.373333	2.21400E-001	-6.01309E-003	0.00000E+000	-1.33130E-003	-3.59960E-001	-1.03688E+000	3.57700E+000	10	...........
	28	0.386667	2.15030E-001	-6.01767E-003	0.00000E+000	-1.29398E-003	-3.59960E-001	-1.04051E+000	3.57700E+000	10	...........
	29	0.4	2.08671E-001	-6.01510E-003	0.00000E+000	-1.25518E-003	-3.59960E-001	-1.03085E+000	3.57700E+000	10	...........
	30	0.413333	2.02429E-001	-6.01257E-003	0.00000E+000	-1.21712E-003	-3.59960E-001	-1.03661E+000	3.57700E+000	10	...........
	31	0.426667	1.96242E-001	-6.01388E-003	0.00000E+000	-1.18017E-003	-3.59960E-001	-1.04056E+000	3.57700E+000	10	...........
	32	0.44	1.90054E-001	-6.01469E-003	0.00000E+000	-1.14311E-003	-3.59960E-001	-1.03131E+000	3.57700E+000	10	...........
	33	0.453333	1.83938E-001	-6.01493E-003	0.00000E+000	-1.10637E-003	-3.59960E-001	-1.03680E+000	3.57700E+000	10	...........
	34	0.466667	1.77873E-001	-6.01178E-003	0.00000E+000	-1.06934E-003	-3.59960E-001	-1.04084E+000	3.57700E+000	10	...........
	35	0.48	1.71877E-001	-6.01546E-003	0.00000E+000	-1.03392E-003	-3.59960E-001	-1.03117E+000	3.57700E+000	10	...........
	36	0.493333	1.65939E-001	-6.01453E-003	0.00000E+000	-9.98045E-004	-3.59960E-001	-1.03662E+000	3.57700E+000	10	...........
	37	0.506667	1.60015E-001	-6.01580E-003	0.00000E+000	-9.62620E-004	-3.59960E-001	-1.04123E+000	3.57700E+000	10	...........
	38	0.52	1.54138E-001	-6.01633E-003	0.00000E+000	-9.27346E-004	-3.59960E-001	-1.03147E+000	3.57700E+000	10	...........
	39	0.533333	1.48324E-001	-6.01694E-003	0.00000E+000	-8.92456E-004	-3.59960E-001	-1.03673E+000	3.57700E+000	10	...........
	40	0.546667	1.42536E-001	-6.01536E-003	0.00000E+000	-8.57408E-004	-3.59960E-001	-1.04114E+000	3.57700E+000	10	...........
	41	0.56	1.36789E-001	-6.01345E-003	0.00000E+000	-8.22576E-004	-3.59960E-001	-1.03132E+000	3.57700E+000	10	...........
	42	0.573333	1.31079E-001	-6.01422E-003	0.00000E+000	-7.88341E-004	-3.59960E-001	-1.03681E+000	3.57700E+000	10	...........
	43	0.586667	1.25458E-001	-6.01492E-003	0.00000E+000	-7.54622E-004	-3.59960E-001	-1.04177E+000	3.57700E+000	10	...........
	44	0.6	1.19841E-001	-6.01226E-003	0.00000E+000	-7.20517E-004	-3.59960E-001	-1.03164E+000	3.57700E+000	10	...........
	45	0.613333	1.14274E-001	-6.01818E-003	0.00000E+000	-6.87719E-004	-3.59960E-001	-1.03637E+000	3.57700E+000	10	...........
	46	0.626667	1.08756E-001	-6.01480E-003	0.00000E+000	-6.54143E-004	-3.59960E-001	-1.04164E+000	3.57700E+000	10	...........
	47	0.64	1.03282E-001	-6.01134E-003	0.00000E+000	-6.20866E-004	-3.59960E-001	-1.03168E+000	3.57700E+000	10	...........
	48	0.653333	9.78383E-002	-6.01308E-003	0.00000E+000	-5.88309E-004	-3.59960E-001	-1.03659E+000	3.57700E+000	10	...........
	49	0.666667	9.24369E-002	-6.01723E-003	0.00000E+000	-5.56214E-004	-3.59960E-001	-1.04151E+000	3.57700E+000	10	...........
	50	0.68	8.70875E-002	-6.01287E-003	0.00000E+000	-5.23646E-004	-3.59960E-001	-1.03122E+000	3.57700E+000	10	...........
	51	0.693333	8.17301E-002	-6.01628E-003	0.00000E+000	-4.91711E-004	-3.59960E-001	-1.03592E+000	3.57700E+000	10	...........
	52	0.706667	7.64372E-002	-6.01299E-003	0.00000E+000	-4.59616E-004	-3.59960E-001	-1.04199E+000	3.57739E+000	10	...........
	53	0.72	7.11905E-002	-6.01749E-003	0.00000E+000	-4.28388E-004	-3.59960E-001	-1.03157E+000	3.57840E+000	10	...........
	54	0.733333	6.59387E-002	-6.01654E-003	0.00000E+000	-3.96723E-004	-3.59960E-001	-1.03583E+000	3.57840E+000	10	...........
	55	0.746667	6.07267E-002	-6.01635E-003	0.00000E+000	-3.65353E-004	-3.59960E-001	-1.04194E+000	3.57840E+000	10	...........
	56	0.76	5.55857E-002	-6.01329E-003	0.00000E+000	-3.34253E-004	-3.59960E-001	-1.03146E+000	3.57840E+000	10	...........
	57	0.773333	5.04729E-002	-6.01674E-003	0.00000E+000	-3.03682E-004	-3.59960E-001	-1.03572E+000	3.57840E+000	10	...........
	58	0.786667	4.54128E-002	-6.01163E-003	0.00000E+000	-2.73005E-004	-3.59960E-001	-1.04232E+000	3.57840E+000	10	...........
	59	0.8	4.03479E-002	-6.01520E-003	0.00000E+000	-2.42701E-004	-3.59960E-001	-1.03147E+000	3.57840E+000	10	...........
	60	0.813333	3.53349E-002	-6.01651E-003	0.00000E+000	-2.12593E-004	-3.59960E-001	-1.03569E+000	3.57840E+000	10	...........
	61	0.826667	3.03556E-002	-6.01315E-003	0.00000E+000	-1.82533E-004	-3.59960E-001	-1.04233E+000	3.57840E+000	10	...........
	62	0.84	2.54084E-002	-6.01274E-003	0.00000E+000	-1.52774E-004	-3.59960E-001	-1.03171E+000	3.57840E+000	10	...........
	63	0.853333	2.05054E-002	-6.01669E-003	0.00000E+000	-1.23375E-004	-3.59960E-001	-1.03589E+000	3.57840E+000	10	...........
	64	0.866667	1.56346E-002	-6.00877E-003	0.00000E+000	-9.39446E-005	-3.59960E-001	-1.04257E+000	3.57840E+000	10	...........
	65	0.88	1.07608E-002	-6.01274E-003	0.00000E+000	-6.47021E-005	-3.59960E-001	-1.03158E+000	3.57840E+000	10	...........
	66	0.893333	5.89424E-003	-6.01343E-003	0.00000E+000	-3.54446E-005	-3.59960E-001	-1.03553E+000	3.57840E+000	10	...........
	67	0.905	1.40990E-003	-6.01617E-003	0.00000E+000	-8.48220E-006	-3.59960E-001	-1.04265E+000	3.57840E+000	10	...........
STARTTIMEOFFSET	QUANT	221.8133	Start Time Offset (s)