File: Data/CV_CRGO300517_1/PWRCCD_CRGO300517_1/CHARGE_DISCHARGE/DISCHARGE_#11.DTA
EXPLAIN
TAG	PWR800_DISCHARGE
TITLE	LABEL	PWR Cyclic Charge Discharge (Cell) - Discharge Step	Test &Identifier
DATE	LABEL	22-6-2017	Date
TIME	LABEL	15:35:27	Time
NOTES	NOTES	3	&Notes...
	supercap test cell
	0.6mg
	6M KOH
PSTAT	PSTAT	IFC5000-01520	Potentiostat
CAPACITY	QUANT	1.00000E-003	Capacity (A-hr)
CELLTYPE	SELECTOR	1	&Cell Type
WORKINGCONNECTION	SELECTOR	0	&Working Lead
MAXDISCHARGETIME	VARIABLEANDUNITS	1.00000E+002	s	1.00000E+002	second(s)	Max &Discharge Time
DISCHARGEMODE	MULTIPARAM	0	6.00000E-003	&Discharge Mode	Constant Current	Amp(s)
SAMPLETIME	QUANT	1.00000E-002	Sa&mple Period (s)
DISCHARGESTOPAT1	MULTIPARAM	3	0.00000E+000	Discharge Stop At &1	Voltage < Limit	V
DISCHARGESTOPAT2	MULTIPARAM	0	0.00000E+000	Discharge Stop At &2	None	N/A
AESBHCSELECTOR	TOGGLE	F	Save Both Half Cells
IRCOMP	TOGGLE	F	IR &Measure
EOC	QUANT	0	Open Circuit (V)
SEQUENCER	TOGGLE	TRUE	Run as Sequence
PSTATMODEL	IQUANT	53	Pstat Model
PSTATSECTION	LABEL	IFC5000-01520	Pstat Section
PSTATSERIALNO	LABEL	01520	Pstat Serial Number
CTRLMODE	IQUANT	0	Control Mode
ELECTROMETER	IQUANT	1	RE=0 or CS=1
IESTAB	IQUANT	0	I/E Stability
CASPEED	IQUANT	4	Control Amp Speed
CONVENTION	IQUANT	1	Current Convention
ICHRANGE	IQUANT	2	Ich Range
ICHRANGEMODE	TOGGLE	T	Ich Auto Range
ICHOFFSETENABLE	TOGGLE	F	Ich Offset Enable
ICHOFFSET	QUANT	0	Ich Offset (V)
ICHFILTER	IQUANT	1	Ich Filter
VCHRANGE	IQUANT	2	Vch Range
VCHRANGEMODE	TOGGLE	T	Vch Auto Range
VCHOFFSETENABLE	TOGGLE	F	Vch Offset Enable
VCHOFFSET	QUANT	0	Vch Offset (V)
VCHFILTER	IQUANT	1	Vch Filter
IERANGELOWERLIMIT	IQUANT	9	I/E Range Lower Limit
IERANGEMODE	TOGGLE	F	I/E AutoRange
IERANGE	IQUANT	10	I/E Range
ACHSELECT	IQUANT	1	Ach Select
ACHRANGE	IQUANT	2	Ach Range
ACHOFFSETENABLE	TOGGLE	F	Ach Offset Enable
ACHOFFSET	QUANT	0	Ach Offset (V)
ACHFILTER	IQUANT	1	Ach Filter
CABLEID	IQUANT	14	Cable ID
DCCALDATE	LABEL	20-10-2016	DC Calibration Date
ACCALDATE	LABEL	12/3/2015	AC Calibration Date
FRAMEWORKVERSION	QUANT	7.01	Framework Version
INSTRUMENTVERSION	LABEL	4.00	Instrument Version
CURVE	TABLE	79
	Pt	T	Vf	Im	Vu	Pwr	Sig	Ach	Temp	IERange	Over
	#	s	V	A	V	W	V	V	deg C	#	bits
	0	0.013333	4.52480E-001	-6.01485E-003	0.00000E+000	-2.72160E-003	-3.59960E-001	-9.81113E-001	3.57720E+000	10	...........
	1	0.026667	4.42841E-001	-6.01597E-003	0.00000E+000	-2.66411E-003	-3.59960E-001	-9.82423E-001	3.57720E+000	10	...........
	2	0.04	4.33913E-001	-6.01380E-003	0.00000E+000	-2.60946E-003	-3.59960E-001	-9.74352E-001	3.57720E+000	10	...........
	3	0.053333	4.25481E-001	-6.01559E-003	0.00000E+000	-2.55952E-003	-3.59960E-001	-9.81057E-001	3.57720E+000	10	...........
	4	0.066667	4.17369E-001	-6.01486E-003	0.00000E+000	-2.51041E-003	-3.59960E-001	-9.82327E-001	3.57720E+000	10	...........
	5	0.08	4.09463E-001	-6.01680E-003	0.00000E+000	-2.46365E-003	-3.59960E-001	-9.74004E-001	3.57720E+000	10	...........
	6	0.093333	4.01770E-001	-6.01420E-003	0.00000E+000	-2.41633E-003	-3.59960E-001	-9.81078E-001	3.57720E+000	10	...........
	7	0.106667	3.94251E-001	-6.01385E-003	0.00000E+000	-2.37097E-003	-3.59960E-001	-9.82288E-001	3.57720E+000	10	...........
	8	0.12	3.86816E-001	-6.01686E-003	0.00000E+000	-2.32742E-003	-3.59960E-001	-9.74182E-001	3.57720E+000	10	...........
	9	0.133333	3.79550E-001	-6.01833E-003	0.00000E+000	-2.28426E-003	-3.59960E-001	-9.81183E-001	3.57720E+000	10	...........
	10	0.146667	3.72414E-001	-6.01336E-003	0.00000E+000	-2.23946E-003	-3.59960E-001	-9.82558E-001	3.57720E+000	10	...........
	11	0.16	3.65371E-001	-6.01746E-003	0.00000E+000	-2.19860E-003	-3.59960E-001	-9.74277E-001	3.57720E+000	10	...........
	12	0.173333	3.58388E-001	-6.01528E-003	0.00000E+000	-2.15580E-003	-3.59960E-001	-9.81094E-001	3.57720E+000	10	...........
	13	0.186667	3.51465E-001	-6.01304E-003	0.00000E+000	-2.11338E-003	-3.59960E-001	-9.82726E-001	3.57720E+000	10	...........
	14	0.2	3.44635E-001	-6.01486E-003	0.00000E+000	-2.07293E-003	-3.59960E-001	-9.75068E-001	3.57720E+000	10	...........
	15	0.213333	3.37888E-001	-6.01495E-003	0.00000E+000	-2.03238E-003	-3.59960E-001	-9.81477E-001	3.57720E+000	10	...........
	16	0.226667	3.31218E-001	-6.01364E-003	0.00000E+000	-1.99183E-003	-3.59960E-001	-9.83128E-001	3.57720E+000	10	...........
	17	0.24	3.24653E-001	-6.01179E-003	0.00000E+000	-1.95175E-003	-3.59960E-001	-9.74633E-001	3.57720E+000	10	...........
	18	0.253333	3.18074E-001	-6.01220E-003	0.00000E+000	-1.91233E-003	-3.59960E-001	-9.81479E-001	3.57720E+000	10	...........
	19	0.266667	3.11580E-001	-6.01613E-003	0.00000E+000	-1.87451E-003	-3.59960E-001	-9.83397E-001	3.57720E+000	10	...........
	20	0.28	3.05212E-001	-6.01499E-003	0.00000E+000	-1.83585E-003	-3.59960E-001	-9.75106E-001	3.57720E+000	10	...........
	21	0.293333	2.98874E-001	-6.01288E-003	0.00000E+000	-1.79710E-003	-3.59960E-001	-9.81446E-001	3.57720E+000	10	...........
	22	0.306667	2.92558E-001	-6.01558E-003	0.00000E+000	-1.75990E-003	-3.59960E-001	-9.83096E-001	3.57720E+000	10	...........
	23	0.32	2.86281E-001	-6.01716E-003	0.00000E+000	-1.72260E-003	-3.59960E-001	-9.74908E-001	3.57720E+000	10	...........
	24	0.333333	2.80062E-001	-6.01752E-003	0.00000E+000	-1.68528E-003	-3.59960E-001	-9.81474E-001	3.57720E+000	10	...........
	25	0.346667	2.73890E-001	-6.01893E-003	0.00000E+000	-1.64852E-003	-3.59960E-001	-9.83326E-001	3.57720E+000	10	...........
	26	0.36	2.67779E-001	-6.01412E-003	0.00000E+000	-1.61045E-003	-3.59960E-001	-9.74829E-001	3.57720E+000	10	...........
	27	0.373333	2.61735E-001	-6.01838E-003	0.00000E+000	-1.57522E-003	-3.59960E-001	-9.80838E-001	3.57720E+000	10	...........
	28	0.386667	2.55721E-001	-6.01231E-003	0.00000E+000	-1.53747E-003	-3.59960E-001	-9.82733E-001	3.57720E+000	10	...........
	29	0.4	2.49753E-001	-6.01504E-003	0.00000E+000	-1.50227E-003	-3.59960E-001	-9.74569E-001	3.57720E+000	10	...........
	30	0.413333	2.43837E-001	-6.01547E-003	0.00000E+000	-1.46680E-003	-3.59960E-001	-9.80779E-001	3.57720E+000	10	...........
	31	0.426667	2.37916E-001	-6.01424E-003	0.00000E+000	-1.43088E-003	-3.59960E-001	-9.82778E-001	3.57720E+000	10	...........
	32	0.44	2.32087E-001	-6.01408E-003	0.00000E+000	-1.39579E-003	-3.59960E-001	-9.74123E-001	3.57720E+000	10	...........
	33	0.453333	2.26282E-001	-6.01811E-003	0.00000E+000	-1.36179E-003	-3.59960E-001	-9.80531E-001	3.57720E+000	10	...........
	34	0.466667	2.20516E-001	-6.01613E-003	0.00000E+000	-1.32665E-003	-3.59960E-001	-9.82557E-001	3.57720E+000	10	...........
	35	0.48	2.14775E-001	-6.01649E-003	0.00000E+000	-1.29219E-003	-3.59960E-001	-9.74344E-001	3.57720E+000	10	...........
	36	0.493333	2.09139E-001	-6.01246E-003	0.00000E+000	-1.25744E-003	-3.59960E-001	-9.80043E-001	3.57720E+000	10	...........
	37	0.506667	2.03543E-001	-6.01554E-003	0.00000E+000	-1.22442E-003	-3.59960E-001	-9.82361E-001	3.57720E+000	10	...........
	38	0.52	1.97954E-001	-6.01484E-003	0.00000E+000	-1.19066E-003	-3.59960E-001	-9.73896E-001	3.57720E+000	10	...........
	39	0.533333	1.92366E-001	-6.01328E-003	0.00000E+000	-1.15675E-003	-3.59960E-001	-9.79827E-001	3.57720E+000	10	...........
	40	0.546667	1.86847E-001	-6.01462E-003	0.00000E+000	-1.12382E-003	-3.59960E-001	-9.82126E-001	3.57720E+000	10	...........
	41	0.56	1.81334E-001	-6.01480E-003	0.00000E+000	-1.09069E-003	-3.59960E-001	-9.73683E-001	3.57720E+000	10	...........
	42	0.573333	1.75884E-001	-6.01878E-003	0.00000E+000	-1.05861E-003	-3.59960E-001	-9.79657E-001	3.57720E+000	10	...........
	43	0.586667	1.70427E-001	-6.01950E-003	0.00000E+000	-1.02588E-003	-3.59960E-001	-9.82077E-001	3.57720E+000	10	...........
	44	0.6	1.65015E-001	-6.01413E-003	0.00000E+000	-9.92421E-004	-3.59960E-001	-9.73629E-001	3.57720E+000	10	...........
	45	0.613333	1.59675E-001	-6.01289E-003	0.00000E+000	-9.60107E-004	-3.59960E-001	-9.79601E-001	3.57720E+000	10	...........
	46	0.626667	1.54345E-001	-6.01637E-003	0.00000E+000	-9.28596E-004	-3.59960E-001	-9.82072E-001	3.57720E+000	10	...........
	47	0.64	1.49036E-001	-6.01602E-003	0.00000E+000	-8.96604E-004	-3.59960E-001	-9.73081E-001	3.57720E+000	10	...........
	48	0.653333	1.43768E-001	-6.01542E-003	0.00000E+000	-8.64823E-004	-3.59960E-001	-9.78804E-001	3.57806E+000	10	...........
	49	0.666667	1.38539E-001	-6.01120E-003	0.00000E+000	-8.32788E-004	-3.59960E-001	-9.81582E-001	3.57860E+000	10	...........
	50	0.68	1.33354E-001	-6.01647E-003	0.00000E+000	-8.02320E-004	-3.59960E-001	-9.72871E-001	3.57860E+000	10	...........
	51	0.693333	1.28161E-001	-6.01469E-003	0.00000E+000	-7.70847E-004	-3.59960E-001	-9.78151E-001	3.57860E+000	10	...........
	52	0.706667	1.22997E-001	-6.01412E-003	0.00000E+000	-7.39717E-004	-3.59960E-001	-9.80256E-001	3.57860E+000	10	...........
	53	0.72	1.17886E-001	-6.01420E-003	0.00000E+000	-7.08991E-004	-3.59960E-001	-9.71612E-001	3.57860E+000	10	...........
	54	0.733333	1.12793E-001	-6.01469E-003	0.00000E+000	-6.78418E-004	-3.59960E-001	-9.76999E-001	3.57860E+000	10	...........
	55	0.746667	1.07710E-001	-6.01374E-003	0.00000E+000	-6.47743E-004	-3.59960E-001	-9.79699E-001	3.57860E+000	10	...........
	56	0.76	1.02671E-001	-6.01608E-003	0.00000E+000	-6.17678E-004	-3.59960E-001	-9.70707E-001	3.57860E+000	10	...........
	57	0.773333	9.76415E-002	-6.01569E-003	0.00000E+000	-5.87382E-004	-3.59960E-001	-9.76242E-001	3.57860E+000	10	...........
	58	0.786667	9.26574E-002	-6.01621E-003	0.00000E+000	-5.57446E-004	-3.59960E-001	-9.78939E-001	3.57860E+000	10	...........
	59	0.8	8.77186E-002	-6.01396E-003	0.00000E+000	-5.27536E-004	-3.59960E-001	-9.70479E-001	3.57860E+000	10	...........
	60	0.813333	8.27899E-002	-6.01529E-003	0.00000E+000	-4.98005E-004	-3.59960E-001	-9.75972E-001	3.57860E+000	10	...........
	61	0.826667	7.78558E-002	-6.01247E-003	0.00000E+000	-4.68106E-004	-3.59960E-001	-9.78582E-001	3.57860E+000	10	...........
	62	0.84	7.29531E-002	-6.01657E-003	0.00000E+000	-4.38928E-004	-3.59960E-001	-9.69651E-001	3.57860E+000	10	...........
	63	0.853333	6.81091E-002	-6.01178E-003	0.00000E+000	-4.09457E-004	-3.59960E-001	-9.75127E-001	3.57860E+000	10	...........
	64	0.866667	6.32716E-002	-6.01672E-003	0.00000E+000	-3.80687E-004	-3.59960E-001	-9.77792E-001	3.57860E+000	10	...........
	65	0.88	5.84639E-002	-6.01174E-003	0.00000E+000	-3.51470E-004	-3.59960E-001	-9.69236E-001	3.57860E+000	10	...........
	66	0.893333	5.36837E-002	-6.01666E-003	0.00000E+000	-3.22996E-004	-3.59960E-001	-9.73896E-001	3.57860E+000	10	...........
	67	0.906667	4.89439E-002	-6.01940E-003	0.00000E+000	-2.94612E-004	-3.59960E-001	-9.76283E-001	3.57860E+000	10	...........
	68	0.92	4.42273E-002	-6.01423E-003	0.00000E+000	-2.65993E-004	-3.59960E-001	-9.67494E-001	3.57860E+000	10	...........
	69	0.933333	3.95345E-002	-6.01481E-003	0.00000E+000	-2.37792E-004	-3.59960E-001	-9.71968E-001	3.57860E+000	10	...........
	70	0.946667	3.48092E-002	-6.01800E-003	0.00000E+000	-2.09482E-004	-3.59960E-001	-9.74288E-001	3.57860E+000	10	...........
	71	0.96	3.01690E-002	-6.01804E-003	0.00000E+000	-1.81558E-004	-3.59960E-001	-9.64699E-001	3.57860E+000	10	...........
	72	0.97333	2.55277E-002	-6.01393E-003	0.00000E+000	-1.53522E-004	-3.59960E-001	-9.68222E-001	3.57860E+000	10	...........
	73	0.98667	2.09058E-002	-6.02001E-003	0.00000E+000	-1.25853E-004	-3.59960E-001	-9.69962E-001	3.57860E+000	10	...........
	74	1	1.63274E-002	-6.01578E-003	0.00000E+000	-9.82222E-005	-3.59960E-001	-9.60906E-001	3.57860E+000	10	...........
	75	1.01333	1.17589E-002	-6.01416E-003	0.00000E+000	-7.07199E-005	-3.59960E-001	-9.64702E-001	3.57860E+000	10	...........
	76	1.02667	7.21521E-003	-6.01920E-003	0.00000E+000	-4.34298E-005	-3.59960E-001	-9.66101E-001	3.57860E+000	10	...........
	77	1.04	2.67439E-003	-6.01533E-003	0.00000E+000	-1.60873E-005	-3.59960E-001	-9.56741E-001	3.57860E+000	10	...........
	78	1.04333	-1.52299E-004	-6.01078E-003	0.00000E+000	9.15439E-007	-3.59960E-001	-9.70756E-001	3.57860E+000	10	...........
STARTTIMEOFFSET	QUANT	22.815	Start Time Offset (s)