File: Data/CV_CRGO300517_1/PWRCCD_CRGO300517_1/CHARGE_DISCHARGE/DISCHARGE_#117.DTA
EXPLAIN
TAG	PWR800_DISCHARGE
TITLE	LABEL	PWR Cyclic Charge Discharge (Cell) - Discharge Step	Test &Identifier
DATE	LABEL	22-6-2017	Date
TIME	LABEL	15:40:17	Time
NOTES	NOTES	3	&Notes...
	supercap test cell
	0.6mg
	6M KOH
PSTAT	PSTAT	IFC5000-01520	Potentiostat
CAPACITY	QUANT	1.00000E-003	Capacity (A-hr)
CELLTYPE	SELECTOR	1	&Cell Type
WORKINGCONNECTION	SELECTOR	0	&Working Lead
MAXDISCHARGETIME	VARIABLEANDUNITS	1.00000E+002	s	1.00000E+002	second(s)	Max &Discharge Time
DISCHARGEMODE	MULTIPARAM	0	6.00000E-003	&Discharge Mode	Constant Current	Amp(s)
SAMPLETIME	QUANT	1.00000E-002	Sa&mple Period (s)
DISCHARGESTOPAT1	MULTIPARAM	3	0.00000E+000	Discharge Stop At &1	Voltage < Limit	V
DISCHARGESTOPAT2	MULTIPARAM	0	0.00000E+000	Discharge Stop At &2	None	N/A
AESBHCSELECTOR	TOGGLE	F	Save Both Half Cells
IRCOMP	TOGGLE	F	IR &Measure
EOC	QUANT	0	Open Circuit (V)
SEQUENCER	TOGGLE	TRUE	Run as Sequence
PSTATMODEL	IQUANT	53	Pstat Model
PSTATSECTION	LABEL	IFC5000-01520	Pstat Section
PSTATSERIALNO	LABEL	01520	Pstat Serial Number
CTRLMODE	IQUANT	0	Control Mode
ELECTROMETER	IQUANT	1	RE=0 or CS=1
IESTAB	IQUANT	0	I/E Stability
CASPEED	IQUANT	4	Control Amp Speed
CONVENTION	IQUANT	1	Current Convention
ICHRANGE	IQUANT	2	Ich Range
ICHRANGEMODE	TOGGLE	T	Ich Auto Range
ICHOFFSETENABLE	TOGGLE	F	Ich Offset Enable
ICHOFFSET	QUANT	0	Ich Offset (V)
ICHFILTER	IQUANT	1	Ich Filter
VCHRANGE	IQUANT	2	Vch Range
VCHRANGEMODE	TOGGLE	T	Vch Auto Range
VCHOFFSETENABLE	TOGGLE	F	Vch Offset Enable
VCHOFFSET	QUANT	0	Vch Offset (V)
VCHFILTER	IQUANT	1	Vch Filter
IERANGELOWERLIMIT	IQUANT	9	I/E Range Lower Limit
IERANGEMODE	TOGGLE	F	I/E AutoRange
IERANGE	IQUANT	10	I/E Range
ACHSELECT	IQUANT	1	Ach Select
ACHRANGE	IQUANT	2	Ach Range
ACHOFFSETENABLE	TOGGLE	F	Ach Offset Enable
ACHOFFSET	QUANT	0	Ach Offset (V)
ACHFILTER	IQUANT	1	Ach Filter
CABLEID	IQUANT	14	Cable ID
DCCALDATE	LABEL	20-10-2016	DC Calibration Date
ACCALDATE	LABEL	12/3/2015	AC Calibration Date
FRAMEWORKVERSION	QUANT	7.01	Framework Version
INSTRUMENTVERSION	LABEL	4.00	Instrument Version
CURVE	TABLE	68
	Pt	T	Vf	Im	Vu	Pwr	Sig	Ach	Temp	IERange	Over
	#	s	V	A	V	W	V	V	deg C	#	bits
	0	0.013333	4.25885E-001	-6.01571E-003	0.00000E+000	-2.56200E-003	-3.59960E-001	-1.03027E+000	3.57730E+000	10	...........
	1	0.026667	4.15596E-001	-6.01141E-003	0.00000E+000	-2.49831E-003	-3.59960E-001	-1.04237E+000	3.57730E+000	10	...........
	2	0.04	4.06023E-001	-6.02176E-003	0.00000E+000	-2.44497E-003	-3.59960E-001	-1.03414E+000	3.57730E+000	10	...........
	3	0.053333	3.96952E-001	-6.01591E-003	0.00000E+000	-2.38803E-003	-3.59960E-001	-1.03021E+000	3.57730E+000	10	...........
	4	0.066667	3.88200E-001	-6.01578E-003	0.00000E+000	-2.33533E-003	-3.59960E-001	-1.04243E+000	3.57730E+000	10	...........
	5	0.08	3.79762E-001	-6.01247E-003	0.00000E+000	-2.28331E-003	-3.59960E-001	-1.03485E+000	3.57730E+000	10	...........
	6	0.093333	3.71503E-001	-6.02001E-003	0.00000E+000	-2.23645E-003	-3.59960E-001	-1.03080E+000	3.57730E+000	10	...........
	7	0.106667	3.63421E-001	-6.01194E-003	0.00000E+000	-2.18486E-003	-3.59960E-001	-1.04276E+000	3.57730E+000	10	...........
	8	0.12	3.55463E-001	-6.01423E-003	0.00000E+000	-2.13784E-003	-3.59960E-001	-1.03518E+000	3.57730E+000	10	...........
	9	0.133333	3.47636E-001	-6.01601E-003	0.00000E+000	-2.09138E-003	-3.59960E-001	-1.03095E+000	3.57730E+000	10	...........
	10	0.146667	3.39903E-001	-6.01235E-003	0.00000E+000	-2.04361E-003	-3.59960E-001	-1.04290E+000	3.57730E+000	10	...........
	11	0.16	3.32308E-001	-6.01021E-003	0.00000E+000	-1.99724E-003	-3.59960E-001	-1.03564E+000	3.57730E+000	10	...........
	12	0.173333	3.24802E-001	-6.01038E-003	0.00000E+000	-1.95219E-003	-3.59960E-001	-1.03128E+000	3.57730E+000	10	...........
	13	0.186667	3.17391E-001	-6.01323E-003	0.00000E+000	-1.90855E-003	-3.59960E-001	-1.04261E+000	3.57730E+000	10	...........
	14	0.2	3.10119E-001	-6.01093E-003	0.00000E+000	-1.86410E-003	-3.59960E-001	-1.03553E+000	3.57730E+000	10	...........
	15	0.213333	3.02872E-001	-6.01499E-003	0.00000E+000	-1.82178E-003	-3.59960E-001	-1.03109E+000	3.57726E+000	10	...........
	16	0.226667	2.95718E-001	-6.01541E-003	0.00000E+000	-1.77887E-003	-3.59960E-001	-1.04271E+000	3.57700E+000	10	...........
	17	0.24	2.88669E-001	-6.01595E-003	0.00000E+000	-1.73662E-003	-3.59960E-001	-1.03577E+000	3.57700E+000	10	...........
	18	0.253333	2.81659E-001	-6.01060E-003	0.00000E+000	-1.69294E-003	-3.59960E-001	-1.03077E+000	3.57700E+000	10	...........
	19	0.266667	2.74687E-001	-6.01208E-003	0.00000E+000	-1.65144E-003	-3.59960E-001	-1.04267E+000	3.57700E+000	10	...........
	20	0.28	2.67827E-001	-6.01688E-003	0.00000E+000	-1.61148E-003	-3.59960E-001	-1.03627E+000	3.57700E+000	10	...........
	21	0.293333	2.61020E-001	-6.01205E-003	0.00000E+000	-1.56927E-003	-3.59960E-001	-1.03140E+000	3.57700E+000	10	...........
	22	0.306667	2.54306E-001	-6.01678E-003	0.00000E+000	-1.53010E-003	-3.59960E-001	-1.04235E+000	3.57700E+000	10	...........
	23	0.32	2.47647E-001	-6.01666E-003	0.00000E+000	-1.49001E-003	-3.59960E-001	-1.03623E+000	3.57700E+000	10	...........
	24	0.333333	2.41003E-001	-6.01187E-003	0.00000E+000	-1.44887E-003	-3.59960E-001	-1.03146E+000	3.57700E+000	10	...........
	25	0.346667	2.34451E-001	-6.01673E-003	0.00000E+000	-1.41063E-003	-3.59960E-001	-1.04268E+000	3.57700E+000	10	...........
	26	0.36	2.27981E-001	-6.01623E-003	0.00000E+000	-1.37158E-003	-3.59960E-001	-1.03679E+000	3.57700E+000	10	...........
	27	0.373333	2.21541E-001	-6.01416E-003	0.00000E+000	-1.33238E-003	-3.59960E-001	-1.03146E+000	3.57700E+000	10	...........
	28	0.386667	2.15155E-001	-6.01499E-003	0.00000E+000	-1.29416E-003	-3.59960E-001	-1.04258E+000	3.57700E+000	10	...........
	29	0.4	2.08824E-001	-6.01515E-003	0.00000E+000	-1.25611E-003	-3.59960E-001	-1.03700E+000	3.57700E+000	10	...........
	30	0.413333	2.02581E-001	-6.01772E-003	0.00000E+000	-1.21908E-003	-3.59960E-001	-1.03193E+000	3.57700E+000	10	...........
	31	0.426667	1.96388E-001	-6.01799E-003	0.00000E+000	-1.18186E-003	-3.59960E-001	-1.04279E+000	3.57700E+000	10	...........
	32	0.44	1.90165E-001	-6.01609E-003	0.00000E+000	-1.14405E-003	-3.59960E-001	-1.03732E+000	3.57700E+000	10	...........
	33	0.453333	1.84039E-001	-6.01467E-003	0.00000E+000	-1.10693E-003	-3.59960E-001	-1.03177E+000	3.57700E+000	10	...........
	34	0.466667	1.77993E-001	-6.01084E-003	0.00000E+000	-1.06989E-003	-3.59960E-001	-1.04287E+000	3.57700E+000	10	...........
	35	0.48	1.72003E-001	-6.01059E-003	0.00000E+000	-1.03384E-003	-3.59960E-001	-1.03776E+000	3.57700E+000	10	...........
	36	0.493333	1.66023E-001	-6.01665E-003	0.00000E+000	-9.98901E-004	-3.59960E-001	-1.03230E+000	3.57700E+000	10	...........
	37	0.506667	1.60126E-001	-6.01644E-003	0.00000E+000	-9.63390E-004	-3.59960E-001	-1.04252E+000	3.57700E+000	10	...........
	38	0.52	1.54252E-001	-6.01664E-003	0.00000E+000	-9.28082E-004	-3.59960E-001	-1.03734E+000	3.57700E+000	10	...........
	39	0.533333	1.48436E-001	-6.01385E-003	0.00000E+000	-8.92669E-004	-3.59960E-001	-1.03184E+000	3.57700E+000	10	...........
	40	0.546667	1.42668E-001	-6.01311E-003	0.00000E+000	-8.57876E-004	-3.59960E-001	-1.04241E+000	3.57700E+000	10	...........
	41	0.56	1.36902E-001	-6.01578E-003	0.00000E+000	-8.23575E-004	-3.59960E-001	-1.03784E+000	3.57700E+000	10	...........
	42	0.573333	1.31221E-001	-6.01350E-003	0.00000E+000	-7.89095E-004	-3.59960E-001	-1.03206E+000	3.57700E+000	10	...........
	43	0.586667	1.25560E-001	-6.01689E-003	0.00000E+000	-7.55482E-004	-3.59960E-001	-1.04216E+000	3.57700E+000	10	...........
	44	0.6	1.19927E-001	-6.00907E-003	0.00000E+000	-7.20652E-004	-3.59960E-001	-1.03813E+000	3.57700E+000	10	...........
	45	0.613333	1.14349E-001	-6.01728E-003	0.00000E+000	-6.88072E-004	-3.59960E-001	-1.03245E+000	3.57700E+000	10	...........
	46	0.626667	1.08864E-001	-6.01847E-003	0.00000E+000	-6.55196E-004	-3.59960E-001	-1.04231E+000	3.57700E+000	10	...........
	47	0.64	1.03416E-001	-6.01547E-003	0.00000E+000	-6.22098E-004	-3.59960E-001	-1.03817E+000	3.57700E+000	10	...........
	48	0.653333	9.79566E-002	-6.01702E-003	0.00000E+000	-5.89407E-004	-3.59960E-001	-1.03224E+000	3.57700E+000	10	...........
	49	0.666667	9.25447E-002	-6.01712E-003	0.00000E+000	-5.56853E-004	-3.59960E-001	-1.04220E+000	3.57700E+000	10	...........
	50	0.68	8.71333E-002	-6.01723E-003	0.00000E+000	-5.24301E-004	-3.59960E-001	-1.03865E+000	3.57700E+000	10	...........
	51	0.693333	8.17966E-002	-6.02059E-003	0.00000E+000	-4.92463E-004	-3.59960E-001	-1.03242E+000	3.57700E+000	10	...........
	52	0.706667	7.65217E-002	-6.01600E-003	0.00000E+000	-4.60354E-004	-3.59960E-001	-1.04200E+000	3.57700E+000	10	...........
	53	0.72	7.12467E-002	-6.01689E-003	0.00000E+000	-4.28684E-004	-3.59960E-001	-1.03873E+000	3.57700E+000	10	...........
	54	0.733333	6.60253E-002	-6.01457E-003	0.00000E+000	-3.97114E-004	-3.59960E-001	-1.03267E+000	3.57700E+000	10	...........
	55	0.746667	6.08321E-002	-6.01240E-003	0.00000E+000	-3.65747E-004	-3.59960E-001	-1.04245E+000	3.57700E+000	10	...........
	56	0.76	5.56662E-002	-6.01650E-003	0.00000E+000	-3.34916E-004	-3.59960E-001	-1.03933E+000	3.57700E+000	10	...........
	57	0.773333	5.05529E-002	-6.01601E-003	0.00000E+000	-3.04127E-004	-3.59960E-001	-1.03264E+000	3.57700E+000	10	...........
	58	0.786667	4.55283E-002	-6.01522E-003	0.00000E+000	-2.73863E-004	-3.59960E-001	-1.04215E+000	3.57700E+000	10	...........
	59	0.8	4.04846E-002	-6.01437E-003	0.00000E+000	-2.43490E-004	-3.59960E-001	-1.03917E+000	3.57700E+000	10	...........
	60	0.813333	3.54353E-002	-6.00879E-003	0.00000E+000	-2.12924E-004	-3.59960E-001	-1.03294E+000	3.57700E+000	10	...........
	61	0.826667	3.04402E-002	-6.01130E-003	0.00000E+000	-1.82985E-004	-3.59960E-001	-1.04207E+000	3.57700E+000	10	...........
	62	0.84	2.54932E-002	-6.01454E-003	0.00000E+000	-1.53330E-004	-3.59960E-001	-1.03913E+000	3.57700E+000	10	...........
	63	0.853333	2.05606E-002	-6.02045E-003	0.00000E+000	-1.23784E-004	-3.59960E-001	-1.03228E+000	3.57700E+000	10	...........
	64	0.866667	1.56786E-002	-6.01598E-003	0.00000E+000	-9.43218E-005	-3.59960E-001	-1.04172E+000	3.57700E+000	10	...........
	65	0.88	1.08346E-002	-6.01734E-003	0.00000E+000	-6.51953E-005	-3.59960E-001	-1.03939E+000	3.57700E+000	10	...........
	66	0.893333	5.99824E-003	-6.01167E-003	0.00000E+000	-3.60594E-005	-3.59960E-001	-1.03252E+000	3.57700E+000	10	...........
	67	0.905	1.49080E-003	-6.01656E-003	0.00000E+000	-8.96952E-006	-3.59960E-001	-1.04478E+000	3.57700E+000	10	...........
STARTTIMEOFFSET	QUANT	227.26	Start Time Offset (s)