File: Data/CV_CRGO300517_1/PWRCCD_CRGO300517_1/CHARGE_DISCHARGE/DISCHARGE_#121.DTA
EXPLAIN
TAG	PWR800_DISCHARGE
TITLE	LABEL	PWR Cyclic Charge Discharge (Cell) - Discharge Step	Test &Identifier
DATE	LABEL	22-6-2017	Date
TIME	LABEL	15:40:27	Time
NOTES	NOTES	3	&Notes...
	supercap test cell
	0.6mg
	6M KOH
PSTAT	PSTAT	IFC5000-01520	Potentiostat
CAPACITY	QUANT	1.00000E-003	Capacity (A-hr)
CELLTYPE	SELECTOR	1	&Cell Type
WORKINGCONNECTION	SELECTOR	0	&Working Lead
MAXDISCHARGETIME	VARIABLEANDUNITS	1.00000E+002	s	1.00000E+002	second(s)	Max &Discharge Time
DISCHARGEMODE	MULTIPARAM	0	6.00000E-003	&Discharge Mode	Constant Current	Amp(s)
SAMPLETIME	QUANT	1.00000E-002	Sa&mple Period (s)
DISCHARGESTOPAT1	MULTIPARAM	3	0.00000E+000	Discharge Stop At &1	Voltage < Limit	V
DISCHARGESTOPAT2	MULTIPARAM	0	0.00000E+000	Discharge Stop At &2	None	N/A
AESBHCSELECTOR	TOGGLE	F	Save Both Half Cells
IRCOMP	TOGGLE	F	IR &Measure
EOC	QUANT	0	Open Circuit (V)
SEQUENCER	TOGGLE	TRUE	Run as Sequence
PSTATMODEL	IQUANT	53	Pstat Model
PSTATSECTION	LABEL	IFC5000-01520	Pstat Section
PSTATSERIALNO	LABEL	01520	Pstat Serial Number
CTRLMODE	IQUANT	0	Control Mode
ELECTROMETER	IQUANT	1	RE=0 or CS=1
IESTAB	IQUANT	0	I/E Stability
CASPEED	IQUANT	4	Control Amp Speed
CONVENTION	IQUANT	1	Current Convention
ICHRANGE	IQUANT	2	Ich Range
ICHRANGEMODE	TOGGLE	T	Ich Auto Range
ICHOFFSETENABLE	TOGGLE	F	Ich Offset Enable
ICHOFFSET	QUANT	0	Ich Offset (V)
ICHFILTER	IQUANT	1	Ich Filter
VCHRANGE	IQUANT	2	Vch Range
VCHRANGEMODE	TOGGLE	T	Vch Auto Range
VCHOFFSETENABLE	TOGGLE	F	Vch Offset Enable
VCHOFFSET	QUANT	0	Vch Offset (V)
VCHFILTER	IQUANT	1	Vch Filter
IERANGELOWERLIMIT	IQUANT	9	I/E Range Lower Limit
IERANGEMODE	TOGGLE	F	I/E AutoRange
IERANGE	IQUANT	10	I/E Range
ACHSELECT	IQUANT	1	Ach Select
ACHRANGE	IQUANT	2	Ach Range
ACHOFFSETENABLE	TOGGLE	F	Ach Offset Enable
ACHOFFSET	QUANT	0	Ach Offset (V)
ACHFILTER	IQUANT	1	Ach Filter
CABLEID	IQUANT	14	Cable ID
DCCALDATE	LABEL	20-10-2016	DC Calibration Date
ACCALDATE	LABEL	12/3/2015	AC Calibration Date
FRAMEWORKVERSION	QUANT	7.01	Framework Version
INSTRUMENTVERSION	LABEL	4.00	Instrument Version
CURVE	TABLE	68
	Pt	T	Vf	Im	Vu	Pwr	Sig	Ach	Temp	IERange	Over
	#	s	V	A	V	W	V	V	deg C	#	bits
	0	0.013333	4.24942E-001	-6.01257E-003	0.00000E+000	-2.55499E-003	-3.59960E-001	-1.03411E+000	3.57840E+000	10	...........
	1	0.026667	4.14591E-001	-6.01556E-003	0.00000E+000	-2.49399E-003	-3.59960E-001	-1.03809E+000	3.57840E+000	10	...........
	2	0.04	4.04973E-001	-6.01424E-003	0.00000E+000	-2.43561E-003	-3.59960E-001	-1.04549E+000	3.57840E+000	10	...........
	3	0.053333	3.95916E-001	-6.01499E-003	0.00000E+000	-2.38143E-003	-3.59960E-001	-1.03439E+000	3.57840E+000	10	...........
	4	0.066667	3.87171E-001	-6.01646E-003	0.00000E+000	-2.32940E-003	-3.59960E-001	-1.03798E+000	3.57840E+000	10	...........
	5	0.08	3.78692E-001	-6.01508E-003	0.00000E+000	-2.27786E-003	-3.59960E-001	-1.04559E+000	3.57840E+000	10	...........
	6	0.093333	3.70414E-001	-6.01765E-003	0.00000E+000	-2.22903E-003	-3.59960E-001	-1.03464E+000	3.57840E+000	10	...........
	7	0.106667	3.62342E-001	-6.00950E-003	0.00000E+000	-2.17749E-003	-3.59960E-001	-1.03830E+000	3.57840E+000	10	...........
	8	0.12	3.54375E-001	-6.01210E-003	0.00000E+000	-2.13054E-003	-3.59960E-001	-1.04535E+000	3.57840E+000	10	...........
	9	0.133333	3.46540E-001	-6.00991E-003	0.00000E+000	-2.08268E-003	-3.59960E-001	-1.03439E+000	3.57840E+000	10	...........
	10	0.146667	3.38780E-001	-6.01650E-003	0.00000E+000	-2.03827E-003	-3.59960E-001	-1.03810E+000	3.57840E+000	10	...........
	11	0.16	3.31158E-001	-6.01565E-003	0.00000E+000	-1.99213E-003	-3.59960E-001	-1.04575E+000	3.57840E+000	10	...........
	12	0.173333	3.23674E-001	-6.01127E-003	0.00000E+000	-1.94569E-003	-3.59960E-001	-1.03469E+000	3.57840E+000	10	...........
	13	0.186667	3.16229E-001	-6.01535E-003	0.00000E+000	-1.90223E-003	-3.59960E-001	-1.03794E+000	3.57840E+000	10	...........
	14	0.2	3.08870E-001	-6.01441E-003	0.00000E+000	-1.85767E-003	-3.59960E-001	-1.04568E+000	3.57840E+000	10	...........
	15	0.213333	3.01627E-001	-6.01134E-003	0.00000E+000	-1.81318E-003	-3.59960E-001	-1.03482E+000	3.57840E+000	10	...........
	16	0.226667	2.94451E-001	-6.01067E-003	0.00000E+000	-1.76985E-003	-3.59960E-001	-1.03845E+000	3.57840E+000	10	...........
	17	0.24	2.87366E-001	-6.02162E-003	0.00000E+000	-1.73041E-003	-3.59960E-001	-1.04584E+000	3.57840E+000	10	...........
	18	0.253333	2.80358E-001	-6.01786E-003	0.00000E+000	-1.68715E-003	-3.59960E-001	-1.03485E+000	3.57840E+000	10	...........
	19	0.266667	2.73419E-001	-6.01368E-003	0.00000E+000	-1.64426E-003	-3.59960E-001	-1.03847E+000	3.57840E+000	10	...........
	20	0.28	2.66522E-001	-6.01048E-003	0.00000E+000	-1.60193E-003	-3.59960E-001	-1.04617E+000	3.57840E+000	10	...........
	21	0.293333	2.59738E-001	-6.01398E-003	0.00000E+000	-1.56206E-003	-3.59960E-001	-1.03512E+000	3.57840E+000	10	...........
	22	0.306667	2.52990E-001	-6.01897E-003	0.00000E+000	-1.52274E-003	-3.59960E-001	-1.03879E+000	3.57840E+000	10	...........
	23	0.32	2.46290E-001	-6.01776E-003	0.00000E+000	-1.48212E-003	-3.59960E-001	-1.04598E+000	3.57840E+000	10	...........
	24	0.333333	2.39656E-001	-6.01501E-003	0.00000E+000	-1.44153E-003	-3.59960E-001	-1.03530E+000	3.57840E+000	10	...........
	25	0.346667	2.33105E-001	-6.01191E-003	0.00000E+000	-1.40141E-003	-3.59960E-001	-1.03890E+000	3.57840E+000	10	...........
	26	0.36	2.26603E-001	-6.01196E-003	0.00000E+000	-1.36233E-003	-3.59960E-001	-1.04632E+000	3.57840E+000	10	...........
	27	0.373333	2.20150E-001	-6.01637E-003	0.00000E+000	-1.32450E-003	-3.59960E-001	-1.03545E+000	3.57840E+000	10	...........
	28	0.386667	2.13769E-001	-6.01723E-003	0.00000E+000	-1.28630E-003	-3.59960E-001	-1.03885E+000	3.57840E+000	10	...........
	29	0.4	2.07431E-001	-6.01119E-003	0.00000E+000	-1.24691E-003	-3.59960E-001	-1.04640E+000	3.57840E+000	10	...........
	30	0.413333	2.01146E-001	-6.01235E-003	0.00000E+000	-1.20936E-003	-3.59960E-001	-1.03559E+000	3.57840E+000	10	...........
	31	0.426667	1.94913E-001	-6.01726E-003	0.00000E+000	-1.17284E-003	-3.59960E-001	-1.03929E+000	3.57840E+000	10	...........
	32	0.44	1.88744E-001	-6.01644E-003	0.00000E+000	-1.13557E-003	-3.59960E-001	-1.04640E+000	3.57840E+000	10	...........
	33	0.453333	1.82633E-001	-6.01412E-003	0.00000E+000	-1.09838E-003	-3.59960E-001	-1.03512E+000	3.57840E+000	10	...........
	34	0.466667	1.76592E-001	-6.01393E-003	0.00000E+000	-1.06201E-003	-3.59960E-001	-1.03880E+000	3.57840E+000	10	...........
	35	0.48	1.70597E-001	-6.01533E-003	0.00000E+000	-1.02620E-003	-3.59960E-001	-1.04656E+000	3.57840E+000	10	...........
	36	0.493333	1.64617E-001	-6.01444E-003	0.00000E+000	-9.90078E-004	-3.59960E-001	-1.03550E+000	3.57840E+000	10	...........
	37	0.506667	1.58672E-001	-6.01864E-003	0.00000E+000	-9.54991E-004	-3.59960E-001	-1.03891E+000	3.57840E+000	10	...........
	38	0.52	1.52799E-001	-6.01504E-003	0.00000E+000	-9.19093E-004	-3.59960E-001	-1.04639E+000	3.57840E+000	10	...........
	39	0.533333	1.46972E-001	-6.01270E-003	0.00000E+000	-8.83696E-004	-3.59960E-001	-1.03547E+000	3.57840E+000	10	...........
	40	0.546667	1.41211E-001	-6.01384E-003	0.00000E+000	-8.49222E-004	-3.59960E-001	-1.03921E+000	3.57840E+000	10	...........
	41	0.56	1.35502E-001	-6.01964E-003	0.00000E+000	-8.15675E-004	-3.59960E-001	-1.04677E+000	3.57821E+000	10	...........
	42	0.573333	1.29805E-001	-6.01584E-003	0.00000E+000	-7.80887E-004	-3.59960E-001	-1.03563E+000	3.57690E+000	10	...........
	43	0.586667	1.24140E-001	-6.01106E-003	0.00000E+000	-7.46211E-004	-3.59960E-001	-1.03930E+000	3.57690E+000	10	...........
	44	0.6	1.18506E-001	-6.01018E-003	0.00000E+000	-7.12245E-004	-3.59960E-001	-1.04675E+000	3.57690E+000	10	...........
	45	0.613333	1.12910E-001	-6.01455E-003	0.00000E+000	-6.79101E-004	-3.59960E-001	-1.03584E+000	3.57690E+000	10	...........
	46	0.626667	1.07346E-001	-6.01961E-003	0.00000E+000	-6.46179E-004	-3.59960E-001	-1.03949E+000	3.57690E+000	10	...........
	47	0.64	1.01902E-001	-6.01437E-003	0.00000E+000	-6.12879E-004	-3.59960E-001	-1.04689E+000	3.57690E+000	10	...........
	48	0.653333	9.64764E-002	-6.01754E-003	0.00000E+000	-5.80550E-004	-3.59960E-001	-1.03593E+000	3.57690E+000	10	...........
	49	0.666667	9.10622E-002	-6.01553E-003	0.00000E+000	-5.47787E-004	-3.59960E-001	-1.03945E+000	3.57690E+000	10	...........
	50	0.68	8.56702E-002	-6.01567E-003	0.00000E+000	-5.15364E-004	-3.59960E-001	-1.04725E+000	3.57690E+000	10	...........
	51	0.693333	8.03753E-002	-6.01582E-003	0.00000E+000	-4.83523E-004	-3.59960E-001	-1.03622E+000	3.57690E+000	10	...........
	52	0.706667	7.50737E-002	-6.01256E-003	0.00000E+000	-4.51385E-004	-3.59960E-001	-1.03963E+000	3.57690E+000	10	...........
	53	0.72	6.97915E-002	-6.01764E-003	0.00000E+000	-4.19980E-004	-3.59960E-001	-1.04712E+000	3.57690E+000	10	...........
	54	0.733333	6.45615E-002	-6.01147E-003	0.00000E+000	-3.88109E-004	-3.59960E-001	-1.03633E+000	3.57690E+000	10	...........
	55	0.746667	5.93571E-002	-6.01531E-003	0.00000E+000	-3.57051E-004	-3.59960E-001	-1.03955E+000	3.57690E+000	10	...........
	56	0.76	5.41847E-002	-6.01459E-003	0.00000E+000	-3.25899E-004	-3.59960E-001	-1.04709E+000	3.57690E+000	10	...........
	57	0.773333	4.90773E-002	-6.01186E-003	0.00000E+000	-2.95045E-004	-3.59960E-001	-1.03594E+000	3.57690E+000	10	...........
	58	0.786667	4.40372E-002	-6.01149E-003	0.00000E+000	-2.64729E-004	-3.59960E-001	-1.03923E+000	3.57690E+000	10	...........
	59	0.8	3.89849E-002	-6.01370E-003	0.00000E+000	-2.34444E-004	-3.59960E-001	-1.04684E+000	3.57690E+000	10	...........
	60	0.813333	3.39495E-002	-6.01683E-003	0.00000E+000	-2.04268E-004	-3.59960E-001	-1.03601E+000	3.57690E+000	10	...........
	61	0.826667	2.89709E-002	-6.01820E-003	0.00000E+000	-1.74353E-004	-3.59960E-001	-1.03953E+000	3.57690E+000	10	...........
	62	0.84	2.40070E-002	-6.01178E-003	0.00000E+000	-1.44325E-004	-3.59960E-001	-1.04703E+000	3.57690E+000	10	...........
	63	0.853333	1.91000E-002	-6.00854E-003	0.00000E+000	-1.14763E-004	-3.59960E-001	-1.03587E+000	3.57690E+000	10	...........
	64	0.866667	1.42172E-002	-6.01348E-003	0.00000E+000	-8.54949E-005	-3.59960E-001	-1.03953E+000	3.57690E+000	10	...........
	65	0.88	9.39639E-003	-6.01389E-003	0.00000E+000	-5.65088E-005	-3.59960E-001	-1.04713E+000	3.57690E+000	10	...........
	66	0.893333	4.56163E-003	-6.01756E-003	0.00000E+000	-2.74499E-005	-3.59960E-001	-1.03610E+000	3.57690E+000	10	...........
	67	0.901667	6.35679E-004	-6.01389E-003	0.00000E+000	-3.82290E-006	-3.59960E-001	-1.04877E+000	3.57690E+000	10	...........
STARTTIMEOFFSET	QUANT	234.515	Start Time Offset (s)