File: Data/CV_CRGO300517_1/PWRCCD_CRGO300517_1/CHARGE_DISCHARGE/DISCHARGE_#1000.DTA
EXPLAIN
TAG	PWR800_DISCHARGE
TITLE	LABEL	PWR Cyclic Charge Discharge (Cell) - Discharge Step	Test &Identifier
DATE	LABEL	22-6-2017	Date
TIME	LABEL	16:14:39	Time
NOTES	NOTES	3	&Notes...
	supercap test cell
	0.6mg
	6M KOH
PSTAT	PSTAT	IFC5000-01520	Potentiostat
CAPACITY	QUANT	1.00000E-003	Capacity (A-hr)
CELLTYPE	SELECTOR	1	&Cell Type
WORKINGCONNECTION	SELECTOR	0	&Working Lead
MAXDISCHARGETIME	VARIABLEANDUNITS	1.00000E+002	s	1.00000E+002	second(s)	Max &Discharge Time
DISCHARGEMODE	MULTIPARAM	0	6.00000E-003	&Discharge Mode	Constant Current	Amp(s)
SAMPLETIME	QUANT	1.00000E-002	Sa&mple Period (s)
DISCHARGESTOPAT1	MULTIPARAM	3	0.00000E+000	Discharge Stop At &1	Voltage < Limit	V
DISCHARGESTOPAT2	MULTIPARAM	0	0.00000E+000	Discharge Stop At &2	None	N/A
AESBHCSELECTOR	TOGGLE	F	Save Both Half Cells
IRCOMP	TOGGLE	F	IR &Measure
EOC	QUANT	0	Open Circuit (V)
SEQUENCER	TOGGLE	TRUE	Run as Sequence
PSTATMODEL	IQUANT	53	Pstat Model
PSTATSECTION	LABEL	IFC5000-01520	Pstat Section
PSTATSERIALNO	LABEL	01520	Pstat Serial Number
CTRLMODE	IQUANT	0	Control Mode
ELECTROMETER	IQUANT	1	RE=0 or CS=1
IESTAB	IQUANT	0	I/E Stability
CASPEED	IQUANT	4	Control Amp Speed
CONVENTION	IQUANT	1	Current Convention
ICHRANGE	IQUANT	2	Ich Range
ICHRANGEMODE	TOGGLE	T	Ich Auto Range
ICHOFFSETENABLE	TOGGLE	F	Ich Offset Enable
ICHOFFSET	QUANT	0	Ich Offset (V)
ICHFILTER	IQUANT	1	Ich Filter
VCHRANGE	IQUANT	2	Vch Range
VCHRANGEMODE	TOGGLE	T	Vch Auto Range
VCHOFFSETENABLE	TOGGLE	F	Vch Offset Enable
VCHOFFSET	QUANT	0	Vch Offset (V)
VCHFILTER	IQUANT	1	Vch Filter
IERANGELOWERLIMIT	IQUANT	9	I/E Range Lower Limit
IERANGEMODE	TOGGLE	F	I/E AutoRange
IERANGE	IQUANT	10	I/E Range
ACHSELECT	IQUANT	1	Ach Select
ACHRANGE	IQUANT	2	Ach Range
ACHOFFSETENABLE	TOGGLE	F	Ach Offset Enable
ACHOFFSET	QUANT	0	Ach Offset (V)
ACHFILTER	IQUANT	1	Ach Filter
CABLEID	IQUANT	14	Cable ID
DCCALDATE	LABEL	20-10-2016	DC Calibration Date
ACCALDATE	LABEL	12/3/2015	AC Calibration Date
FRAMEWORKVERSION	QUANT	7.01	Framework Version
INSTRUMENTVERSION	LABEL	4.00	Instrument Version
CURVE	TABLE	52
	Pt	T	Vf	Im	Vu	Pwr	Sig	Ach	Temp	IERange	Over
	#	s	V	A	V	W	V	V	deg C	#	bits
	0	0.013333	3.76501E-001	-6.01338E-003	0.00000E+000	-2.26404E-003	-3.59960E-001	-1.15140E+000	3.57780E+000	10	...........
	1	0.026667	3.64787E-001	-6.01765E-003	0.00000E+000	-2.19516E-003	-3.59960E-001	-1.14215E+000	3.57780E+000	10	...........
	2	0.04	3.53960E-001	-6.01558E-003	0.00000E+000	-2.12927E-003	-3.59960E-001	-1.14663E+000	3.57780E+000	10	...........
	3	0.053333	3.43665E-001	-6.01516E-003	0.00000E+000	-2.06720E-003	-3.59960E-001	-1.15208E+000	3.57780E+000	10	...........
	4	0.066667	3.33744E-001	-6.01314E-003	0.00000E+000	-2.00685E-003	-3.59960E-001	-1.14240E+000	3.57780E+000	10	...........
	5	0.08	3.24143E-001	-6.01821E-003	0.00000E+000	-1.95076E-003	-3.59960E-001	-1.14676E+000	3.57780E+000	10	...........
	6	0.093333	3.14798E-001	-6.01776E-003	0.00000E+000	-1.89438E-003	-3.59960E-001	-1.15195E+000	3.57780E+000	10	...........
	7	0.106667	3.05570E-001	-6.01167E-003	0.00000E+000	-1.83699E-003	-3.59960E-001	-1.14282E+000	3.57780E+000	10	...........
	8	0.12	2.96574E-001	-6.01562E-003	0.00000E+000	-1.78408E-003	-3.59960E-001	-1.14724E+000	3.57780E+000	10	...........
	9	0.133333	2.87709E-001	-6.01726E-003	0.00000E+000	-1.73122E-003	-3.59960E-001	-1.15224E+000	3.57780E+000	10	...........
	10	0.146667	2.78969E-001	-6.01469E-003	0.00000E+000	-1.67791E-003	-3.59960E-001	-1.14299E+000	3.57780E+000	10	...........
	11	0.16	2.70368E-001	-6.01485E-003	0.00000E+000	-1.62622E-003	-3.59960E-001	-1.14728E+000	3.57780E+000	10	...........
	12	0.173333	2.61892E-001	-6.01610E-003	0.00000E+000	-1.57557E-003	-3.59960E-001	-1.15247E+000	3.57780E+000	10	...........
	13	0.186667	2.53557E-001	-6.00974E-003	0.00000E+000	-1.52381E-003	-3.59960E-001	-1.14323E+000	3.57780E+000	10	...........
	14	0.2	2.45296E-001	-6.01533E-003	0.00000E+000	-1.47553E-003	-3.59960E-001	-1.14738E+000	3.57780E+000	10	...........
	15	0.213333	2.37132E-001	-6.01169E-003	0.00000E+000	-1.42557E-003	-3.59960E-001	-1.15259E+000	3.57780E+000	10	...........
	16	0.226667	2.29082E-001	-6.01491E-003	0.00000E+000	-1.37791E-003	-3.59960E-001	-1.14330E+000	3.57780E+000	10	...........
	17	0.24	2.21172E-001	-6.01322E-003	0.00000E+000	-1.32995E-003	-3.59960E-001	-1.14780E+000	3.57780E+000	10	...........
	18	0.253333	2.13350E-001	-6.01928E-003	0.00000E+000	-1.28421E-003	-3.59960E-001	-1.15293E+000	3.57780E+000	10	...........
	19	0.266667	2.05585E-001	-6.02036E-003	0.00000E+000	-1.23770E-003	-3.59960E-001	-1.14357E+000	3.57780E+000	10	...........
	20	0.28	1.97944E-001	-6.01920E-003	0.00000E+000	-1.19146E-003	-3.59960E-001	-1.14772E+000	3.57780E+000	10	...........
	21	0.293333	1.90383E-001	-6.01752E-003	0.00000E+000	-1.14563E-003	-3.59960E-001	-1.15292E+000	3.57780E+000	10	...........
	22	0.306667	1.82933E-001	-6.01361E-003	0.00000E+000	-1.10009E-003	-3.59960E-001	-1.14390E+000	3.57780E+000	10	...........
	23	0.32	1.75548E-001	-6.01186E-003	0.00000E+000	-1.05537E-003	-3.59960E-001	-1.14779E+000	3.57780E+000	10	...........
	24	0.333333	1.68274E-001	-6.01718E-003	0.00000E+000	-1.01253E-003	-3.59960E-001	-1.15268E+000	3.57780E+000	10	...........
	25	0.346667	1.61092E-001	-6.01738E-003	0.00000E+000	-9.69353E-004	-3.59960E-001	-1.14327E+000	3.57780E+000	10	...........
	26	0.36	1.53989E-001	-6.01533E-003	0.00000E+000	-9.26295E-004	-3.59960E-001	-1.14772E+000	3.57780E+000	10	...........
	27	0.373333	1.46986E-001	-6.01141E-003	0.00000E+000	-8.83592E-004	-3.59960E-001	-1.15309E+000	3.57780E+000	10	...........
	28	0.386667	1.40042E-001	-6.01511E-003	0.00000E+000	-8.42366E-004	-3.59960E-001	-1.14384E+000	3.57780E+000	10	...........
	29	0.4	1.33213E-001	-6.01560E-003	0.00000E+000	-8.01355E-004	-3.59960E-001	-1.14805E+000	3.57780E+000	10	...........
	30	0.413333	1.26388E-001	-6.01443E-003	0.00000E+000	-7.60152E-004	-3.59960E-001	-1.15305E+000	3.57780E+000	10	...........
	31	0.426667	1.19649E-001	-6.01412E-003	0.00000E+000	-7.19586E-004	-3.59960E-001	-1.14384E+000	3.57780E+000	10	...........
	32	0.44	1.13010E-001	-6.01512E-003	0.00000E+000	-6.79769E-004	-3.59960E-001	-1.14814E+000	3.57780E+000	10	...........
	33	0.453333	1.06463E-001	-6.00946E-003	0.00000E+000	-6.39784E-004	-3.59960E-001	-1.15308E+000	3.57780E+000	10	...........
	34	0.466667	9.99558E-002	-6.01371E-003	0.00000E+000	-6.01106E-004	-3.59960E-001	-1.14386E+000	3.57780E+000	10	...........
	35	0.48	9.35501E-002	-6.01481E-003	0.00000E+000	-5.62686E-004	-3.59960E-001	-1.14786E+000	3.57780E+000	10	...........
	36	0.493333	8.71902E-002	-6.01343E-003	0.00000E+000	-5.24312E-004	-3.59960E-001	-1.15331E+000	3.57780E+000	10	...........
	37	0.506667	8.08804E-002	-6.01260E-003	0.00000E+000	-4.86301E-004	-3.59960E-001	-1.14403E+000	3.57780E+000	10	...........
	38	0.52	7.46730E-002	-6.01806E-003	0.00000E+000	-4.49387E-004	-3.59960E-001	-1.14840E+000	3.57780E+000	10	...........
	39	0.533333	6.84905E-002	-6.01393E-003	0.00000E+000	-4.11897E-004	-3.59960E-001	-1.15348E+000	3.57780E+000	10	...........
	40	0.546667	6.23878E-002	-6.01530E-003	0.00000E+000	-3.75281E-004	-3.59960E-001	-1.14427E+000	3.57780E+000	10	...........
	41	0.56	5.63752E-002	-6.01646E-003	0.00000E+000	-3.39179E-004	-3.59960E-001	-1.14859E+000	3.57780E+000	10	...........
	42	0.573333	5.04171E-002	-6.01236E-003	0.00000E+000	-3.03126E-004	-3.59960E-001	-1.15388E+000	3.57780E+000	10	...........
	43	0.586667	4.45623E-002	-6.01177E-003	0.00000E+000	-2.67899E-004	-3.59960E-001	-1.14442E+000	3.57780E+000	10	...........
	44	0.6	3.86925E-002	-6.00987E-003	0.00000E+000	-2.32537E-004	-3.59960E-001	-1.14880E+000	3.57780E+000	10	...........
	45	0.613333	3.29088E-002	-6.01982E-003	0.00000E+000	-1.98105E-004	-3.59960E-001	-1.15352E+000	3.57780E+000	10	...........
	46	0.626667	2.71782E-002	-6.01508E-003	0.00000E+000	-1.63479E-004	-3.59960E-001	-1.14435E+000	3.57780E+000	10	...........
	47	0.64	2.15218E-002	-6.00984E-003	0.00000E+000	-1.29343E-004	-3.59960E-001	-1.14881E+000	3.57780E+000	10	...........
	48	0.653333	1.58663E-002	-6.01671E-003	0.00000E+000	-9.54628E-005	-3.59960E-001	-1.15355E+000	3.57780E+000	10	...........
	49	0.666667	1.02847E-002	-6.01305E-003	0.00000E+000	-6.18426E-005	-3.59960E-001	-1.14412E+000	3.57780E+000	10	...........
	50	0.68	4.73725E-003	-6.01406E-003	0.00000E+000	-2.84901E-005	-3.59960E-001	-1.14838E+000	3.57780E+000	10	...........
	51	0.686667	6.44228E-004	-6.02004E-003	0.00000E+000	-3.87828E-006	-3.59960E-001	-1.14921E+000	3.57780E+000	10	...........
STARTTIMEOFFSET	QUANT	1585.951	Start Time Offset (s)