File: Data/CV_Steel_Disk_No_Material_2/CV_#2.DTA
EXPLAIN
TAG	CV
TITLE	LABEL	Cyclic Voltammetry	Test Identifier
DATE	LABEL	12-7-2017	Date
TIME	LABEL	17:17:30	Time
NOTES	NOTES	1	Notes...

PSTAT	PSTAT	IFC5000-01520	Potentiostat
VINIT	POTEN	0.00000E+000	F	Initial E (V)
VLIMIT1	POTEN	-8.00000E-001	F	Scan Limit 1 (V)
VLIMIT2	POTEN	8.00000E-001	F	Scan Limit 2 (V)
VFINAL	POTEN	0.00000E+000	F	Final E (V)
SCANRATE	QUANT	4.99999E+001	A Real Number
STEPSIZE	QUANT	1.00000E+001	Step Size (mV)
CYCLES	IQUANT	3	Cycles (#)
IMODE	SELECTOR	0	I/E Range Mode
IRANGE	QUANT	2.50000E+002	Max Current (mA)
AREA	QUANT	3.84800E-001	A Real Number
EQDELAY	QUANT	1.00000E+000	Equil. Time (s)
IRCOMP	SELECTOR	0	IRComp
PFCOR	QUANT	2.50000E+002	PF Corr. (ohm)
SAMPLINGMODE	SELECTOR	0	Sampling Mode
EOC	QUANT	0	Open Circuit (V)
SEQUENCER	TOGGLE	TRUE	Run as Sequence
PSTATMODEL	IQUANT	53	Pstat Model
PSTATSECTION	LABEL	IFC5000-01520	Pstat Section
PSTATSERIALNO	LABEL	01520	Pstat Serial Number
CTRLMODE	IQUANT	1	Control Mode
ELECTROMETER	IQUANT	0	RE=0 or CS=1
IESTAB	IQUANT	2	I/E Stability
CASPEED	IQUANT	4	Control Amp Speed
CONVENTION	IQUANT	1	Current Convention
ICHRANGE	IQUANT	2	Ich Range
ICHRANGEMODE	TOGGLE	F	Ich Auto Range
ICHOFFSETENABLE	TOGGLE	F	Ich Offset Enable
ICHOFFSET	QUANT	0	Ich Offset (V)
ICHFILTER	IQUANT	4	Ich Filter
VCHRANGE	IQUANT	2	Vch Range
VCHRANGEMODE	TOGGLE	F	Vch Auto Range
VCHOFFSETENABLE	TOGGLE	F	Vch Offset Enable
VCHOFFSET	QUANT	0	Vch Offset (V)
VCHFILTER	IQUANT	4	Vch Filter
IERANGELOWERLIMIT	IQUANT	7	I/E Range Lower Limit
IERANGEMODE	TOGGLE	T	I/E AutoRange
IERANGE	IQUANT	11	I/E Range
ACHSELECT	IQUANT	1	Ach Select
ACHRANGE	IQUANT	2	Ach Range
ACHOFFSETENABLE	TOGGLE	F	Ach Offset Enable
ACHOFFSET	QUANT	0	Ach Offset (V)
ACHFILTER	IQUANT	1	Ach Filter
CABLEID	IQUANT	14	Cable ID
DCCALDATE	LABEL	5-7-2017	DC Calibration Date
ACCALDATE	LABEL	12/3/2015	AC Calibration Date
FRAMEWORKVERSION	QUANT	7.01	Framework Version
INSTRUMENTVERSION	LABEL	4.00	Instrument Version
CURVE1	TABLE
	Pt	T	Vf	Im	Vu	Sig	Ach	IERange	Over
	#	s	V vs. Ref.	A	V	V	V	#	bits
	0	0.2	-2.06485E-004	-2.80533E-005	0.00000E+000	0.00000E+000	-3.33723E-004	11	...........
	3	0.8	-3.04072E-002	-3.60083E-006	0.00000E+000	-2.99962E-002	-3.03448E-002	8	...........
	6	1.4	-6.04079E-002	-4.38879E-006	0.00000E+000	-5.99924E-002	-6.01558E-002	7	...........
	9	2	-9.04085E-002	-5.12035E-006	0.00000E+000	-8.99886E-002	-9.03670E-002	7	...........
	12	2.6	-1.20409E-001	-5.76338E-006	0.00000E+000	-1.19985E-001	-1.20378E-001	7	...........
	15	3.2	-1.50210E-001	-6.32958E-006	0.00000E+000	-1.49981E-001	-1.50389E-001	7	...........
	18	3.8	-1.80411E-001	-6.83900E-006	0.00000E+000	-1.79977E-001	-1.80200E-001	7	...........
	21	4.4	-2.10411E-001	-7.32336E-006	0.00000E+000	-2.10023E-001	-2.10411E-001	7	...........
	24	5	-2.40612E-001	-7.79770E-006	0.00000E+000	-2.40020E-001	-2.40222E-001	7	...........
	27	5.6	-2.70413E-001	-8.29876E-006	0.00000E+000	-2.70016E-001	-2.70233E-001	7	...........
	30	6.2	-3.00213E-001	-8.85327E-006	0.00000E+000	-3.00012E-001	-3.00245E-001	7	...........
	33	6.8	-3.30214E-001	-9.47793E-006	0.00000E+000	-3.30008E-001	-3.30256E-001	7	...........
	36	7.4	-3.60215E-001	-1.01894E-005	0.00000E+000	-3.60005E-001	-3.60267E-001	7	...........
	39	8	-3.90215E-001	-1.09928E-005	0.00000E+000	-3.90001E-001	-3.90078E-001	7	...........
	42	8.6	-4.20216E-001	-1.19081E-005	0.00000E+000	-4.19997E-001	-4.20089E-001	7	...........
	45	9.2	-4.50217E-001	-1.29403E-005	0.00000E+000	-4.49993E-001	-4.50100E-001	7	...........
	48	9.8	-4.80017E-001	-1.40927E-005	0.00000E+000	-4.79989E-001	-4.80111E-001	7	...........
	51	10.4	-5.10018E-001	-1.53771E-005	0.00000E+000	-5.09986E-001	-5.09922E-001	7	...........
	54	11	-5.40019E-001	-1.67985E-005	0.00000E+000	-5.39982E-001	-5.40133E-001	7	...........
	57	11.6	-5.70019E-001	-1.83735E-005	0.00000E+000	-5.69978E-001	-5.69944E-001	7	...........
	60	12.2	-6.00020E-001	-2.01439E-005	0.00000E+000	-5.99974E-001	-5.99955E-001	7	...........
	63	12.8	-6.30021E-001	-2.21315E-005	0.00000E+000	-6.30020E-001	-6.30167E-001	7	...........
	66	13.4	-6.60022E-001	-2.43612E-005	0.00000E+000	-6.60017E-001	-6.59978E-001	7	...........
	69	14	-6.89822E-001	-2.68849E-005	0.00000E+000	-6.90013E-001	-6.89989E-001	7	...........
	72	14.6	-7.20023E-001	-2.97660E-005	0.00000E+000	-7.20009E-001	-7.20000E-001	7	...........
	75	15.2	-7.50024E-001	-3.31248E-005	0.00000E+000	-7.50005E-001	-7.49811E-001	7	...........
	78	15.8	-7.79824E-001	-3.71250E-005	0.00000E+000	-7.80001E-001	-7.79622E-001	7	...........
	81	16.4	-7.89824E-001	-3.16500E-005	0.00000E+000	-7.90000E-001	-7.89825E-001	7	...........
	84	17	-7.59624E-001	-1.97397E-005	0.00000E+000	-7.60004E-001	-7.59814E-001	7	...........
	87	17.6	-7.29623E-001	-1.33211E-005	0.00000E+000	-7.30008E-001	-7.29803E-001	7	...........
	90	18.2	-6.99822E-001	-9.13554E-006	0.00000E+000	-7.00012E-001	-6.99792E-001	7	...........
	93	18.8	-6.69622E-001	-6.18594E-006	0.00000E+000	-6.70015E-001	-6.69981E-001	7	...........
	96	19.4	-6.39821E-001	-4.01132E-006	0.00000E+000	-6.40019E-001	-6.40170E-001	7	...........
	99	20	-6.09820E-001	-2.35614E-006	0.00000E+000	-6.10023E-001	-6.09959E-001	7	...........
	102	20.6	-5.79820E-001	-1.05171E-006	0.00000E+000	-5.79977E-001	-5.80148E-001	7	...........
	105	21.2	-5.49819E-001	-1.95139E-008	0.00000E+000	-5.49981E-001	-5.49937E-001	7	...........
	108	21.8	-5.19818E-001	8.15593E-007	0.00000E+000	-5.19984E-001	-5.20126E-001	7	...........
	111	22.4	-4.89818E-001	1.50873E-006	0.00000E+000	-4.89988E-001	-4.90115E-001	7	...........
	114	23	-4.59817E-001	2.07827E-006	0.00000E+000	-4.59992E-001	-4.60104E-001	7	...........
	117	23.6	-4.30016E-001	2.55262E-006	0.00000E+000	-4.29996E-001	-4.30093E-001	7	...........
	120	24.2	-4.00216E-001	2.94010E-006	0.00000E+000	-3.99999E-001	-4.00282E-001	7	...........
	123	24.8	-3.70015E-001	3.26079E-006	0.00000E+000	-3.70003E-001	-3.70270E-001	7	...........
	126	25.4	-3.40014E-001	3.51633E-006	0.00000E+000	-3.40007E-001	-3.40259E-001	7	...........
	129	26	-3.10014E-001	3.72009E-006	0.00000E+000	-3.10011E-001	-3.10248E-001	7	...........
	132	26.6	-2.80013E-001	3.88545E-006	0.00000E+000	-2.80015E-001	-2.80037E-001	7	...........
	135	27.2	-2.50012E-001	4.02240E-006	0.00000E+000	-2.50018E-001	-2.50026E-001	7	...........
	138	27.8	-2.20011E-001	4.14266E-006	0.00000E+000	-2.20022E-001	-2.20215E-001	7	...........
	141	28.4	-1.90011E-001	4.25456E-006	0.00000E+000	-1.89976E-001	-1.90204E-001	7	...........
	144	29	-1.60010E-001	4.35979E-006	0.00000E+000	-1.59980E-001	-1.60193E-001	7	...........
	147	29.6	-1.30009E-001	4.47336E-006	0.00000E+000	-1.29984E-001	-1.30382E-001	7	...........
	150	30.2	-1.00009E-001	4.59529E-006	0.00000E+000	-9.99874E-002	-1.00371E-001	7	...........
	153	30.8	-7.00081E-002	4.73057E-006	0.00000E+000	-6.99912E-002	-7.03596E-002	7	...........
	156	31.4	-4.00074E-002	4.87755E-006	0.00000E+000	-3.99949E-002	-4.05486E-002	7	...........
	159	32	-1.02067E-002	5.04123E-006	0.00000E+000	-9.99874E-003	-1.03374E-002	7	...........
	162	32.6	1.99940E-002	5.22162E-006	0.00000E+000	1.99975E-002	1.96737E-002	7	...........
	165	33.2	4.97947E-002	5.41870E-006	0.00000E+000	4.99937E-002	4.92846E-002	7	...........
	168	33.8	7.97953E-002	5.62915E-006	0.00000E+000	7.99899E-002	7.94958E-002	7	...........
	171	34.4	1.09796E-001	5.85797E-006	0.00000E+000	1.09986E-001	1.09507E-001	7	...........
	174	35	1.39797E-001	6.10683E-006	0.00000E+000	1.39982E-001	1.39518E-001	7	...........
	177	35.6	1.69797E-001	6.37406E-006	0.00000E+000	1.69979E-001	1.69329E-001	7	...........
	180	36.2	1.99598E-001	6.66134E-006	0.00000E+000	1.99975E-001	1.99140E-001	7	...........
	183	36.8	2.29799E-001	6.97200E-006	0.00000E+000	2.30021E-001	2.29351E-001	7	...........
	186	37.4	2.59599E-001	7.30103E-006	0.00000E+000	2.60017E-001	2.59362E-001	7	...........
	189	38	2.89600E-001	7.65846E-006	0.00000E+000	2.90013E-001	2.89373E-001	7	...........
	192	38.6	3.19801E-001	8.04261E-006	0.00000E+000	3.20010E-001	3.19184E-001	7	...........
	195	39.2	3.49601E-001	8.46016E-006	0.00000E+000	3.50006E-001	3.49195E-001	7	...........
	198	39.8	3.79802E-001	8.91279E-006	0.00000E+000	3.80002E-001	3.79207E-001	7	...........
	201	40.4	4.09603E-001	9.40717E-006	0.00000E+000	4.09998E-001	4.09218E-001	7	...........
	204	41	4.39604E-001	9.94164E-006	0.00000E+000	4.39994E-001	4.39029E-001	7	...........
	207	41.6	4.69404E-001	1.05129E-005	0.00000E+000	4.69991E-001	4.69040E-001	7	...........
	210	42.2	4.99405E-001	1.11191E-005	0.00000E+000	4.99987E-001	4.99251E-001	7	...........
	213	42.8	5.29406E-001	1.17638E-005	0.00000E+000	5.29983E-001	5.29262E-001	7	...........
	216	43.4	5.59406E-001	1.24436E-005	0.00000E+000	5.59979E-001	5.59273E-001	7	...........
	219	44	5.89407E-001	1.31635E-005	0.00000E+000	5.89975E-001	5.89084E-001	7	...........
	222	44.6	6.19408E-001	1.39502E-005	0.00000E+000	6.20022E-001	6.19095E-001	7	...........
	225	45.2	6.49408E-001	1.48003E-005	0.00000E+000	6.50018E-001	6.49306E-001	7	...........
	228	45.8	6.79209E-001	1.57406E-005	0.00000E+000	6.80014E-001	6.78917E-001	7	...........
	231	46.4	7.09410E-001	1.67945E-005	0.00000E+000	7.10010E-001	7.09129E-001	7	...........
	234	47	7.39410E-001	1.79854E-005	0.00000E+000	7.40007E-001	7.38940E-001	7	...........
	237	47.6	7.69411E-001	1.93449E-005	0.00000E+000	7.70003E-001	7.68751E-001	7	...........
	240	48.2	7.99412E-001	2.09016E-005	0.00000E+000	7.99999E-001	7.98962E-001	7	...........
CURVE2	TABLE
	Pt	T	Vf	Im	Vu	Sig	Ach	IERange	Over
	#	s	V vs. Ref.	A	V	V	V	#	bits
	241	48.4	7.88811E-001	1.65574E-005	0.00000E+000	7.90000E-001	7.88958E-001	7	...........
	244	49	7.59011E-001	1.04928E-005	0.00000E+000	7.60004E-001	7.58947E-001	7	...........
	247	49.6	7.29210E-001	7.30270E-006	0.00000E+000	7.30008E-001	7.28936E-001	7	...........
	250	50.2	6.99209E-001	5.20658E-006	0.00000E+000	7.00012E-001	6.99125E-001	7	...........
	253	50.8	6.69209E-001	3.68502E-006	0.00000E+000	6.70015E-001	6.69114E-001	7	...........
	256	51.4	6.39208E-001	2.51420E-006	0.00000E+000	6.40019E-001	6.39103E-001	7	...........
	259	52	6.09207E-001	1.57220E-006	0.00000E+000	6.10023E-001	6.09092E-001	7	...........
	262	52.6	5.79007E-001	7.85529E-007	0.00000E+000	5.79977E-001	5.79280E-001	7	...........
	265	53.2	5.49206E-001	1.25795E-007	0.00000E+000	5.49981E-001	5.49269E-001	7	...........
	268	53.8	5.19205E-001	-4.43748E-007	0.00000E+000	5.19984E-001	5.19058E-001	7	...........
	271	54.4	4.89205E-001	-9.36461E-007	0.00000E+000	4.89988E-001	4.89047E-001	7	...........
	274	55	4.59404E-001	-1.36905E-006	0.00000E+000	4.59992E-001	4.59236E-001	7	...........
	277	55.6	4.29203E-001	-1.74150E-006	0.00000E+000	4.29996E-001	4.29225E-001	7	...........
	280	56.2	3.99203E-001	-2.06887E-006	0.00000E+000	3.99999E-001	3.99214E-001	7	...........
	283	56.8	3.69402E-001	-2.35614E-006	0.00000E+000	3.70003E-001	3.69403E-001	7	...........
	286	57.4	3.39201E-001	-2.61837E-006	0.00000E+000	3.40007E-001	3.39192E-001	7	...........
	289	58	3.09401E-001	-2.85888E-006	0.00000E+000	3.10011E-001	3.09381E-001	7	...........
	292	58.6	2.79400E-001	-3.08770E-006	0.00000E+000	2.80015E-001	2.79370E-001	7	...........
	295	59.2	2.49399E-001	-3.30983E-006	0.00000E+000	2.50018E-001	2.49559E-001	7	...........
	298	59.8	2.19399E-001	-3.52863E-006	0.00000E+000	2.20022E-001	2.19347E-001	7	...........
	301	60.4	1.89398E-001	-3.74910E-006	0.00000E+000	1.90026E-001	1.89336E-001	7	...........
	304	61	1.59397E-001	-3.97458E-006	0.00000E+000	1.59980E-001	1.59325E-001	7	...........
	307	61.6	1.29596E-001	-4.20674E-006	0.00000E+000	1.29984E-001	1.29514E-001	7	...........
	310	62.2	9.95958E-002	-4.44224E-006	0.00000E+000	9.99874E-002	9.93031E-002	7	...........
	313	62.8	6.95951E-002	-4.68943E-006	0.00000E+000	6.99912E-002	6.94921E-002	7	...........
	316	63.4	3.95944E-002	-4.94497E-006	0.00000E+000	3.99949E-002	3.94810E-002	7	...........
	319	64	9.59374E-003	-5.20887E-006	0.00000E+000	9.99874E-003	9.46990E-003	7	...........
	322	64.6	-2.04069E-002	-5.47777E-006	0.00000E+000	-1.99975E-002	-2.01410E-002	7	...........
	325	65.2	-5.04076E-002	-5.73833E-006	0.00000E+000	-4.99937E-002	-5.03522E-002	7	...........
	328	65.8	-8.04083E-002	-5.99721E-006	0.00000E+000	-7.99899E-002	-8.05634E-002	7	...........
	331	66.4	-1.10609E-001	-6.24607E-006	0.00000E+000	-1.09986E-001	-1.10374E-001	7	...........
	334	67	-1.40410E-001	-6.50161E-006	0.00000E+000	-1.39982E-001	-1.40385E-001	7	...........
	337	67.6	-1.70210E-001	-6.77720E-006	0.00000E+000	-1.69979E-001	-1.70197E-001	7	...........
	340	68.2	-2.00411E-001	-7.07450E-006	0.00000E+000	-1.99975E-001	-2.00408E-001	7	...........
	343	68.8	-2.30212E-001	-7.42190E-006	0.00000E+000	-2.30021E-001	-2.30219E-001	7	...........
	346	69.4	-2.60212E-001	-7.81774E-006	0.00000E+000	-2.60017E-001	-2.60430E-001	7	...........
	349	70	-2.90213E-001	-8.27872E-006	0.00000E+000	-2.90013E-001	-2.90441E-001	7	...........
	352	70.6	-3.20214E-001	-8.81486E-006	0.00000E+000	-3.20010E-001	-3.20252E-001	7	...........
	355	71.2	-3.50214E-001	-9.43284E-006	0.00000E+000	-3.50006E-001	-3.50263E-001	7	...........
	358	71.8	-3.80215E-001	-1.01377E-005	0.00000E+000	-3.80002E-001	-3.80074E-001	7	...........
	361	72.4	-4.10016E-001	-1.09377E-005	0.00000E+000	-4.09998E-001	-4.10285E-001	7	...........
	364	73	-4.40016E-001	-1.18413E-005	0.00000E+000	-4.39994E-001	-4.40096E-001	7	...........
	367	73.6	-4.70017E-001	-1.28534E-005	0.00000E+000	-4.69991E-001	-4.70107E-001	7	...........
	370	74.2	-5.00218E-001	-1.39741E-005	0.00000E+000	-4.99987E-001	-4.99918E-001	7	...........
	373	74.8	-5.30019E-001	-1.52268E-005	0.00000E+000	-5.29983E-001	-5.30130E-001	7	...........
	376	75.4	-5.60019E-001	-1.66248E-005	0.00000E+000	-5.59979E-001	-5.59941E-001	7	...........
	379	76	-5.90020E-001	-1.81948E-005	0.00000E+000	-5.89975E-001	-5.90152E-001	7	...........
	382	76.6	-6.20221E-001	-1.99652E-005	0.00000E+000	-6.20022E-001	-6.19963E-001	7	...........
	385	77.2	-6.50221E-001	-2.19494E-005	0.00000E+000	-6.50018E-001	-6.49974E-001	7	...........
	388	77.8	-6.80022E-001	-2.42226E-005	0.00000E+000	-6.80014E-001	-6.79785E-001	7	...........
	391	78.4	-7.10023E-001	-2.68615E-005	0.00000E+000	-7.10010E-001	-7.09796E-001	7	...........
	394	79	-7.40023E-001	-2.99648E-005	0.00000E+000	-7.40007E-001	-7.40007E-001	7	...........
	397	79.6	-7.69824E-001	-3.37027E-005	0.00000E+000	-7.70003E-001	-7.69818E-001	7	...........
	400	80.2	-7.99825E-001	-3.82540E-005	0.00000E+000	-7.99999E-001	-7.99829E-001	7	...........
	403	80.8	-7.69624E-001	-2.12245E-005	0.00000E+000	-7.70003E-001	-7.70018E-001	7	...........
	406	81.4	-7.39823E-001	-1.39708E-005	0.00000E+000	-7.40007E-001	-7.39807E-001	7	...........
	409	82	-7.09623E-001	-9.44620E-006	0.00000E+000	-7.10010E-001	-7.09796E-001	7	...........
	412	82.6	-6.79622E-001	-6.32791E-006	0.00000E+000	-6.80014E-001	-6.79985E-001	7	...........
	415	83.2	-6.49621E-001	-4.06811E-006	0.00000E+000	-6.50018E-001	-6.49774E-001	7	...........
	418	83.8	-6.19821E-001	-2.36616E-006	0.00000E+000	-6.20022E-001	-6.20163E-001	7	...........
	421	84.4	-5.89820E-001	-1.04837E-006	0.00000E+000	-5.89975E-001	-5.89952E-001	7	...........
	424	85	-5.59819E-001	-1.28330E-008	0.00000E+000	-5.59979E-001	-5.59941E-001	7	...........
	427	85.6	-5.30019E-001	8.23944E-007	0.00000E+000	-5.29983E-001	-5.29930E-001	7	...........
	430	86.2	-5.00018E-001	1.50873E-006	0.00000E+000	-4.99987E-001	-5.00118E-001	7	...........
	433	86.8	-4.69817E-001	2.07660E-006	0.00000E+000	-4.69991E-001	-4.69907E-001	7	...........
	436	87.4	-4.39817E-001	2.55094E-006	0.00000E+000	-4.39994E-001	-4.40096E-001	7	...........
	439	88	-4.10016E-001	2.94177E-006	0.00000E+000	-4.09998E-001	-4.10085E-001	7	...........
	442	88.6	-3.80015E-001	3.27081E-006	0.00000E+000	-3.80002E-001	-3.80074E-001	7	...........
	445	89.2	-3.50014E-001	3.53804E-006	0.00000E+000	-3.50006E-001	-3.50263E-001	7	...........
	448	89.8	-3.20014E-001	3.75684E-006	0.00000E+000	-3.20010E-001	-3.20252E-001	7	...........
	451	90.4	-2.89813E-001	3.93054E-006	0.00000E+000	-2.90013E-001	-2.90241E-001	7	...........
	454	91	-2.59812E-001	4.07418E-006	0.00000E+000	-2.60017E-001	-2.60430E-001	7	...........
	457	91.6	-2.30012E-001	4.19778E-006	0.00000E+000	-2.30021E-001	-2.30219E-001	7	...........
	460	92.2	-2.00011E-001	4.30467E-006	0.00000E+000	-1.99975E-001	-2.00208E-001	7	...........
	463	92.8	-1.70010E-001	4.40655E-006	0.00000E+000	-1.69979E-001	-1.70197E-001	7	...........
	466	93.4	-1.40010E-001	4.50844E-006	0.00000E+000	-1.39982E-001	-1.40185E-001	7	...........
	469	94	-1.10209E-001	4.61366E-006	0.00000E+000	-1.09986E-001	-1.10374E-001	7	...........
	472	94.6	-8.02083E-002	4.72723E-006	0.00000E+000	-7.99899E-002	-8.03633E-002	7	...........
	475	95.2	-5.00076E-002	4.85751E-006	0.00000E+000	-4.99937E-002	-5.03522E-002	7	...........
	478	95.8	-2.02069E-002	5.00282E-006	0.00000E+000	-1.99975E-002	-2.05412E-002	7	...........
	481	96.4	9.79374E-003	5.16149E-006	0.00000E+000	9.99874E-003	9.26983E-003	7	...........
	484	97	3.99944E-002	5.33519E-006	0.00000E+000	3.99949E-002	3.94810E-002	7	...........
	487	97.6	6.99951E-002	5.52894E-006	0.00000E+000	6.99912E-002	6.96922E-002	7	...........
	490	98.2	9.95958E-002	5.73771E-006	0.00000E+000	9.99874E-002	9.95032E-002	7	...........
	493	98.8	1.29796E-001	5.96486E-006	0.00000E+000	1.29984E-001	1.29314E-001	7	...........
	496	99.4	1.59597E-001	6.21539E-006	0.00000E+000	1.59980E-001	1.59325E-001	7	...........
	499	100	1.89798E-001	6.48597E-006	0.00000E+000	1.90026E-001	1.89536E-001	7	...........
[...]
	840	168.2	3.99803E-001	8.93951E-006	0.00000E+000	3.99999E-001	3.99014E-001	7	...........
	843	168.8	4.29403E-001	9.43891E-006	0.00000E+000	4.29996E-001	4.29225E-001	7	...........
	846	169.4	4.59604E-001	9.98340E-006	0.00000E+000	4.59992E-001	4.59236E-001	7	...........
	849	170	4.89605E-001	1.05713E-005	0.00000E+000	4.89988E-001	4.89047E-001	7	...........
	852	170.6	5.19405E-001	1.11976E-005	0.00000E+000	5.19984E-001	5.18858E-001	7	...........
	855	171.2	5.49406E-001	1.18674E-005	0.00000E+000	5.49981E-001	5.49069E-001	7	...........
	858	171.8	5.79407E-001	1.25889E-005	0.00000E+000	5.79977E-001	5.79080E-001	7	...........
	861	172.4	6.09607E-001	1.33706E-005	0.00000E+000	6.10023E-001	6.09092E-001	7	...........
	864	173	6.39408E-001	1.42224E-005	0.00000E+000	6.40019E-001	6.38903E-001	7	...........
	867	173.6	6.69409E-001	1.51644E-005	0.00000E+000	6.70015E-001	6.68914E-001	7	...........
	870	174.2	6.99409E-001	1.62216E-005	0.00000E+000	7.00012E-001	6.98925E-001	7	...........
	873	174.8	7.29410E-001	1.74175E-005	0.00000E+000	7.30008E-001	7.28936E-001	7	...........
	876	175.4	7.59411E-001	1.87854E-005	0.00000E+000	7.60004E-001	7.58947E-001	7	...........
	879	176	7.89411E-001	2.03554E-005	0.00000E+000	7.90000E-001	7.89158E-001	7	...........
	880	176.2	7.99412E-001	2.09316E-005	0.00000E+000	7.99999E-001	7.98962E-001	7	...........
CURVE4	TABLE
	Pt	T	Vf	Im	Vu	Sig	Ach	IERange	Over
	#	s	V vs. Ref.	A	V	V	V	#	bits
	881	176.4	7.89011E-001	1.66175E-005	0.00000E+000	7.90000E-001	7.88958E-001	7	...........
	882	176.6	7.79011E-001	1.39969E-005	0.00000E+000	7.80001E-001	7.78954E-001	7	...........
	883	176.8	7.69211E-001	1.20895E-005	0.00000E+000	7.70003E-001	7.69151E-001	7	...........
	884	177	7.59211E-001	1.05880E-005	0.00000E+000	7.60004E-001	7.59147E-001	7	...........
	885	177.2	7.49211E-001	9.34872E-006	0.00000E+000	7.50005E-001	7.49143E-001	7	...........
	886	177.4	7.39010E-001	8.30483E-006	0.00000E+000	7.40007E-001	7.38739E-001	7	...........
	887	177.6	7.29010E-001	7.40626E-006	0.00000E+000	7.30008E-001	7.29136E-001	7	...........
	888	177.8	7.19210E-001	6.62126E-006	0.00000E+000	7.20009E-001	7.19132E-001	7	...........
	889	178	7.09210E-001	5.92812E-006	0.00000E+000	7.10010E-001	7.08928E-001	7	...........
	890	178.2	6.99209E-001	5.30680E-006	0.00000E+000	7.00012E-001	6.98925E-001	7	...........
	891	178.4	6.89009E-001	4.74895E-006	0.00000E+000	6.90013E-001	6.89121E-001	7	...........
	892	178.6	6.79009E-001	4.24120E-006	0.00000E+000	6.80014E-001	6.79117E-001	7	...........
	893	178.8	6.69009E-001	3.77855E-006	0.00000E+000	6.70015E-001	6.68914E-001	7	...........
	894	179	6.59208E-001	3.35432E-006	0.00000E+000	6.60017E-001	6.58910E-001	7	...........
	895	179.2	6.49208E-001	2.96683E-006	0.00000E+000	6.50018E-001	6.49106E-001	7	...........
	896	179.4	6.39208E-001	2.59938E-006	0.00000E+000	6.40019E-001	6.38903E-001	7	...........
	897	179.6	6.29008E-001	2.26367E-006	0.00000E+000	6.30020E-001	6.29099E-001	7	...........
	898	179.8	6.19008E-001	1.94466E-006	0.00000E+000	6.20022E-001	6.19095E-001	7	...........
	899	180	6.09207E-001	1.65070E-006	0.00000E+000	6.10023E-001	6.09292E-001	7	...........
	900	180.2	5.99207E-001	1.37344E-006	0.00000E+000	6.00024E-001	5.99088E-001	7	...........
	901	180.4	5.89207E-001	1.10454E-006	0.00000E+000	5.89975E-001	5.89084E-001	7	...........
	902	180.6	5.79207E-001	8.60689E-007	0.00000E+000	5.79977E-001	5.79080E-001	7	...........
	903	180.8	5.69206E-001	6.25189E-007	0.00000E+000	5.69978E-001	5.69077E-001	7	...........
	904	181	5.59206E-001	4.03050E-007	0.00000E+000	5.59979E-001	5.59273E-001	7	...........
	905	181.2	5.49206E-001	1.92603E-007	0.00000E+000	5.49981E-001	5.49069E-001	7	...........
	906	181.4	5.39206E-001	-9.49260E-009	0.00000E+000	5.39982E-001	5.39266E-001	7	...........
	907	181.6	5.29206E-001	-1.99897E-007	0.00000E+000	5.29983E-001	5.29062E-001	7	...........
	908	181.8	5.19205E-001	-3.81950E-007	0.00000E+000	5.19984E-001	5.19058E-001	7	...........
	909	182	5.09405E-001	-5.55652E-007	0.00000E+000	5.09986E-001	5.09055E-001	7	...........
	910	182.2	4.99205E-001	-7.19333E-007	0.00000E+000	4.99987E-001	4.99051E-001	7	...........
	911	182.4	4.89205E-001	-8.78004E-007	0.00000E+000	4.89988E-001	4.89047E-001	7	...........
	912	182.6	4.79204E-001	-1.02665E-006	0.00000E+000	4.79989E-001	4.79043E-001	7	...........
	913	182.8	4.69204E-001	-1.16862E-006	0.00000E+000	4.69991E-001	4.69240E-001	7	...........
	914	183	4.59204E-001	-1.30725E-006	0.00000E+000	4.59992E-001	4.59036E-001	7	...........
	915	183.2	4.49204E-001	-1.43586E-006	0.00000E+000	4.49993E-001	4.49433E-001	7	...........
	916	183.4	4.39404E-001	-1.56112E-006	0.00000E+000	4.39994E-001	4.39229E-001	7	...........
	917	183.6	4.29403E-001	-1.67971E-006	0.00000E+000	4.29996E-001	4.29225E-001	7	...........
	918	183.8	4.19403E-001	-1.78994E-006	0.00000E+000	4.19997E-001	4.19221E-001	7	...........
	919	184	4.09203E-001	-1.89850E-006	0.00000E+000	4.09998E-001	4.09218E-001	7	...........
	920	184.2	3.99203E-001	-1.99872E-006	0.00000E+000	3.99999E-001	3.99214E-001	7	...........
	921	184.4	3.89402E-001	-2.10060E-006	0.00000E+000	3.90001E-001	3.89410E-001	7	...........
	922	184.6	3.79202E-001	-2.19413E-006	0.00000E+000	3.80002E-001	3.79407E-001	7	...........
	923	184.8	3.69402E-001	-2.28599E-006	0.00000E+000	3.70003E-001	3.69203E-001	7	...........
	924	185	3.59402E-001	-2.37284E-006	0.00000E+000	3.60005E-001	3.59199E-001	7	...........
	925	185.2	3.49201E-001	-2.45970E-006	0.00000E+000	3.50006E-001	3.49396E-001	7	...........
	926	185.4	3.39401E-001	-2.54321E-006	0.00000E+000	3.40007E-001	3.39192E-001	7	...........
	927	185.6	3.29201E-001	-2.62338E-006	0.00000E+000	3.30008E-001	3.29388E-001	7	...........
	928	185.8	3.19401E-001	-2.70021E-006	0.00000E+000	3.20010E-001	3.19384E-001	7	...........
	929	186	3.09401E-001	-2.77871E-006	0.00000E+000	3.10011E-001	3.09181E-001	7	...........
	930	186.2	2.99200E-001	-2.85387E-006	0.00000E+000	3.00012E-001	2.99177E-001	7	...........
	931	186.4	2.89400E-001	-2.92736E-006	0.00000E+000	2.90013E-001	2.89173E-001	7	...........
	932	186.6	2.79400E-001	-3.00252E-006	0.00000E+000	2.80015E-001	2.79370E-001	7	...........
	933	186.8	2.69400E-001	-3.07433E-006	0.00000E+000	2.70016E-001	2.69366E-001	7	...........
	934	187	2.59199E-001	-3.14782E-006	0.00000E+000	2.60017E-001	2.59362E-001	7	...........
	935	187.2	2.49399E-001	-3.21797E-006	0.00000E+000	2.50018E-001	2.49359E-001	7	...........
	936	187.4	2.39399E-001	-3.28979E-006	0.00000E+000	2.40020E-001	2.39355E-001	7	...........
	937	187.6	2.29399E-001	-3.35994E-006	0.00000E+000	2.30021E-001	2.29351E-001	7	...........
	938	187.8	2.19399E-001	-3.43009E-006	0.00000E+000	2.20022E-001	2.19347E-001	7	...........
	939	188	2.09398E-001	-3.50191E-006	0.00000E+000	2.10023E-001	2.09344E-001	7	...........
	940	188.2	1.99398E-001	-3.57039E-006	0.00000E+000	2.00025E-001	1.99340E-001	7	...........
	941	188.4	1.89398E-001	-3.64054E-006	0.00000E+000	1.90026E-001	1.89336E-001	7	...........
	942	188.6	1.79398E-001	-3.71904E-006	0.00000E+000	1.79977E-001	1.79533E-001	7	...........
	943	188.8	1.69397E-001	-3.78752E-006	0.00000E+000	1.69979E-001	1.69129E-001	7	...........
	944	189	1.59597E-001	-3.85934E-006	0.00000E+000	1.59980E-001	1.59325E-001	7	...........
	945	189.2	1.49397E-001	-3.93115E-006	0.00000E+000	1.49981E-001	1.49322E-001	7	...........
	946	189.4	1.39597E-001	-4.00297E-006	0.00000E+000	1.39982E-001	1.39518E-001	7	...........
	947	189.6	1.29596E-001	-4.07479E-006	0.00000E+000	1.29984E-001	1.29514E-001	7	...........
	948	189.8	1.19396E-001	-4.14828E-006	0.00000E+000	1.19985E-001	1.19511E-001	7	...........
	949	190	1.09396E-001	-4.22344E-006	0.00000E+000	1.09986E-001	1.09307E-001	7	...........
	950	190.2	9.93958E-002	-4.29860E-006	0.00000E+000	9.99874E-002	9.95032E-002	7	...........
	951	190.4	8.91955E-002	-4.37376E-006	0.00000E+000	8.99886E-002	8.92994E-002	7	...........
	952	190.6	7.93953E-002	-4.44892E-006	0.00000E+000	7.99899E-002	7.94958E-002	7	...........
	953	190.8	6.93951E-002	-4.52742E-006	0.00000E+000	6.99912E-002	6.94921E-002	7	...........
	954	191	5.93949E-002	-4.60592E-006	0.00000E+000	5.99924E-002	5.94884E-002	7	...........
	955	191.2	4.93946E-002	-4.68442E-006	0.00000E+000	4.99937E-002	4.94847E-002	7	...........
	956	191.4	3.95944E-002	-4.76292E-006	0.00000E+000	3.99949E-002	3.94810E-002	7	...........
	957	191.6	2.95942E-002	-4.84142E-006	0.00000E+000	2.99962E-002	2.96774E-002	7	...........
	958	191.8	1.95940E-002	-4.92326E-006	0.00000E+000	1.99975E-002	1.96737E-002	7	...........
	959	192	9.59374E-003	-5.00176E-006	0.00000E+000	9.99874E-003	9.46990E-003	7	...........
	960	192.2	-4.06489E-004	-5.08193E-006	0.00000E+000	0.00000E+000	-3.33723E-004	7	...........