File: Data/CV_Steel_Disk_No_Material_2/CV_#4.DTA
EXPLAIN
TAG	CV
TITLE	LABEL	Cyclic Voltammetry	Test Identifier
DATE	LABEL	12-7-2017	Date
TIME	LABEL	17:22:23	Time
NOTES	NOTES	1	Notes...

PSTAT	PSTAT	IFC5000-01520	Potentiostat
VINIT	POTEN	0.00000E+000	F	Initial E (V)
VLIMIT1	POTEN	-8.00000E-001	F	Scan Limit 1 (V)
VLIMIT2	POTEN	8.00000E-001	F	Scan Limit 2 (V)
VFINAL	POTEN	0.00000E+000	F	Final E (V)
SCANRATE	QUANT	2.00000E+002	A Real Number
STEPSIZE	QUANT	1.00000E+001	Step Size (mV)
CYCLES	IQUANT	3	Cycles (#)
IMODE	SELECTOR	0	I/E Range Mode
IRANGE	QUANT	2.50000E+002	Max Current (mA)
AREA	QUANT	3.84800E-001	A Real Number
EQDELAY	QUANT	1.00000E+000	Equil. Time (s)
IRCOMP	SELECTOR	0	IRComp
PFCOR	QUANT	2.50000E+002	PF Corr. (ohm)
SAMPLINGMODE	SELECTOR	0	Sampling Mode
EOC	QUANT	0	Open Circuit (V)
SEQUENCER	TOGGLE	TRUE	Run as Sequence
PSTATMODEL	IQUANT	53	Pstat Model
PSTATSECTION	LABEL	IFC5000-01520	Pstat Section
PSTATSERIALNO	LABEL	01520	Pstat Serial Number
CTRLMODE	IQUANT	1	Control Mode
ELECTROMETER	IQUANT	0	RE=0 or CS=1
IESTAB	IQUANT	2	I/E Stability
CASPEED	IQUANT	4	Control Amp Speed
CONVENTION	IQUANT	1	Current Convention
ICHRANGE	IQUANT	2	Ich Range
ICHRANGEMODE	TOGGLE	F	Ich Auto Range
ICHOFFSETENABLE	TOGGLE	F	Ich Offset Enable
ICHOFFSET	QUANT	0	Ich Offset (V)
ICHFILTER	IQUANT	3	Ich Filter
VCHRANGE	IQUANT	2	Vch Range
VCHRANGEMODE	TOGGLE	F	Vch Auto Range
VCHOFFSETENABLE	TOGGLE	F	Vch Offset Enable
VCHOFFSET	QUANT	0	Vch Offset (V)
VCHFILTER	IQUANT	3	Vch Filter
IERANGELOWERLIMIT	IQUANT	7	I/E Range Lower Limit
IERANGEMODE	TOGGLE	T	I/E AutoRange
IERANGE	IQUANT	11	I/E Range
ACHSELECT	IQUANT	1	Ach Select
ACHRANGE	IQUANT	2	Ach Range
ACHOFFSETENABLE	TOGGLE	F	Ach Offset Enable
ACHOFFSET	QUANT	0	Ach Offset (V)
ACHFILTER	IQUANT	1	Ach Filter
CABLEID	IQUANT	14	Cable ID
DCCALDATE	LABEL	5-7-2017	DC Calibration Date
ACCALDATE	LABEL	12/3/2015	AC Calibration Date
FRAMEWORKVERSION	QUANT	7.01	Framework Version
INSTRUMENTVERSION	LABEL	4.00	Instrument Version
CURVE1	TABLE
	Pt	T	Vf	Im	Vu	Sig	Ach	IERange	Over
	#	s	V vs. Ref.	A	V	V	V	#	bits
	0	0.05	-3.65120E-004	-5.33904E-006	0.00000E+000	0.00000E+000	-5.33797E-004	11	...........
	3	0.2	-3.01651E-002	-6.85017E-006	0.00000E+000	-2.99962E-002	-3.05449E-002	8	...........
	6	0.35	-6.03651E-002	-8.57526E-006	0.00000E+000	-5.99924E-002	-6.03559E-002	7	...........
	9	0.5	-9.01651E-002	-1.01335E-005	0.00000E+000	-8.99886E-002	-9.03670E-002	7	...........
	12	0.65	-1.20365E-001	-1.15432E-005	0.00000E+000	-1.19985E-001	-1.20378E-001	7	...........
	15	0.8	-1.50165E-001	-1.29244E-005	0.00000E+000	-1.49981E-001	-1.50389E-001	7	...........
	18	0.95	-1.80165E-001	-1.41303E-005	0.00000E+000	-1.79977E-001	-1.80400E-001	7	...........
	21	1.1	-2.10165E-001	-1.53328E-005	0.00000E+000	-2.10023E-001	-2.10211E-001	7	...........
	24	1.25	-2.40165E-001	-1.66890E-005	0.00000E+000	-2.40020E-001	-2.40222E-001	7	...........
	27	1.4	-2.70165E-001	-1.79083E-005	0.00000E+000	-2.70016E-001	-2.70233E-001	7	...........
	30	1.55	-3.00165E-001	-1.94448E-005	0.00000E+000	-3.00012E-001	-3.00445E-001	7	...........
	33	1.7	-3.30165E-001	-2.09664E-005	0.00000E+000	-3.30008E-001	-3.30256E-001	7	...........
	36	1.85	-3.60165E-001	-2.26065E-005	0.00000E+000	-3.60005E-001	-3.60067E-001	7	...........
	39	2	-3.90165E-001	-2.45122E-005	0.00000E+000	-3.90001E-001	-3.90078E-001	7	...........
	42	2.15	-4.19965E-001	-2.63110E-005	0.00000E+000	-4.19997E-001	-4.20089E-001	7	...........
	45	2.3	-4.49965E-001	-2.84521E-005	0.00000E+000	-4.49993E-001	-4.50100E-001	7	...........
	48	2.45	-4.79965E-001	-3.08589E-005	0.00000E+000	-4.79989E-001	-4.80111E-001	7	...........
	51	2.6	-5.09965E-001	-3.34911E-005	0.00000E+000	-5.09986E-001	-5.10122E-001	7	...........
	54	2.75	-5.39965E-001	-3.63638E-005	0.00000E+000	-5.39982E-001	-5.40133E-001	7	...........
	57	2.9	-5.69965E-001	-3.93234E-005	0.00000E+000	-5.69978E-001	-5.69744E-001	7	...........
	60	3.05	-5.99965E-001	-4.27823E-005	0.00000E+000	-5.99974E-001	-6.00155E-001	7	...........
	63	3.2	-6.29965E-001	-4.64165E-005	0.00000E+000	-6.30020E-001	-6.29966E-001	8	...........
	66	3.35	-6.59965E-001	-5.07905E-005	0.00000E+000	-6.60017E-001	-6.59978E-001	8	...........
	69	3.5	-6.89965E-001	-5.52313E-005	0.00000E+000	-6.90013E-001	-6.89989E-001	8	...........
	72	3.65	-7.19965E-001	-6.02063E-005	0.00000E+000	-7.20009E-001	-7.20000E-001	8	...........
	75	3.8	-7.49765E-001	-6.64835E-005	0.00000E+000	-7.50005E-001	-7.50011E-001	8	...........
	78	3.95	-7.79965E-001	-7.30612E-005	0.00000E+000	-7.80001E-001	-7.79822E-001	8	...........
	81	4.1	-7.89765E-001	-5.93382E-005	0.00000E+000	-7.90000E-001	-7.90026E-001	8	...........
	84	4.25	-7.59765E-001	-3.10075E-005	0.00000E+000	-7.60004E-001	-7.59614E-001	7	...........
	87	4.4	-7.29965E-001	-1.65654E-005	0.00000E+000	-7.30008E-001	-7.29803E-001	7	...........
	90	4.55	-6.99765E-001	-7.84205E-006	0.00000E+000	-7.00012E-001	-6.99992E-001	7	...........
	93	4.7	-6.69765E-001	-1.92960E-006	0.00000E+000	-6.70015E-001	-6.70181E-001	7	...........
	96	4.85	-6.39765E-001	1.85504E-006	0.00000E+000	-6.40019E-001	-6.39970E-001	7	...........
	99	5	-6.09965E-001	4.73110E-006	0.00000E+000	-6.10023E-001	-6.09759E-001	7	...........
	102	5.15	-5.79965E-001	6.73532E-006	0.00000E+000	-5.79977E-001	-5.80148E-001	7	...........
	105	5.3	-5.49765E-001	8.20341E-006	0.00000E+000	-5.49981E-001	-5.50137E-001	7	...........
	108	5.45	-5.20165E-001	9.20719E-006	0.00000E+000	-5.19984E-001	-5.20126E-001	7	...........
	111	5.6	-4.89965E-001	1.02293E-005	0.00000E+000	-4.89988E-001	-4.90115E-001	7	...........
	114	5.75	-4.59965E-001	1.08507E-005	0.00000E+000	-4.59992E-001	-4.60104E-001	7	...........
	117	5.9	-4.29965E-001	1.10728E-005	0.00000E+000	-4.29996E-001	-4.30093E-001	7	...........
	120	6.05	-3.99965E-001	1.17008E-005	0.00000E+000	-3.99999E-001	-3.99881E-001	7	...........
	123	6.2	-3.69965E-001	1.16473E-005	0.00000E+000	-3.70003E-001	-3.70270E-001	7	...........
	126	6.35	-3.39965E-001	1.21000E-005	0.00000E+000	-3.40007E-001	-3.40259E-001	7	...........
	129	6.5	-3.10365E-001	1.22870E-005	0.00000E+000	-3.10011E-001	-3.10248E-001	7	...........
	132	6.65	-2.80165E-001	1.23538E-005	0.00000E+000	-2.80015E-001	-2.80237E-001	7	...........
	135	6.8	-2.50165E-001	1.26879E-005	0.00000E+000	-2.50018E-001	-2.50226E-001	7	...........
	138	6.95	-2.20165E-001	1.24290E-005	0.00000E+000	-2.20022E-001	-2.20215E-001	7	...........
	141	7.1	-1.90165E-001	1.27380E-005	0.00000E+000	-1.89976E-001	-1.90204E-001	7	...........
	144	7.25	-1.60165E-001	1.27363E-005	0.00000E+000	-1.59980E-001	-1.60393E-001	7	...........
	147	7.4	-1.30365E-001	1.28398E-005	0.00000E+000	-1.29984E-001	-1.30382E-001	7	...........
	150	7.55	-1.00165E-001	1.31021E-005	0.00000E+000	-9.99874E-002	-1.00371E-001	7	...........
	153	7.7	-7.01651E-002	1.31722E-005	0.00000E+000	-6.99912E-002	-7.03596E-002	7	...........
	156	7.85	-4.03651E-002	1.34177E-005	0.00000E+000	-3.99949E-002	-4.03485E-002	7	...........
	159	8	-1.03651E-002	1.37067E-005	0.00000E+000	-9.99874E-003	-1.05375E-002	7	...........
	162	8.15	1.96349E-002	1.40942E-005	0.00000E+000	1.99975E-002	1.96737E-002	7	...........
	165	8.3	4.96349E-002	1.44733E-005	0.00000E+000	4.99937E-002	4.94847E-002	7	...........
	168	8.45	7.96349E-002	1.51714E-005	0.00000E+000	7.99899E-002	7.94958E-002	7	...........
	171	8.6	1.09635E-001	1.54721E-005	0.00000E+000	1.09986E-001	1.09507E-001	7	...........
	174	8.75	1.39635E-001	1.60366E-005	0.00000E+000	1.39982E-001	1.39518E-001	7	...........
	177	8.9	1.69435E-001	1.65710E-005	0.00000E+000	1.69979E-001	1.69329E-001	7	...........
	180	9.05	1.99435E-001	1.73210E-005	0.00000E+000	1.99975E-001	1.99140E-001	7	...........
	183	9.2	2.29435E-001	1.80391E-005	0.00000E+000	2.30021E-001	2.29351E-001	7	...........
	186	9.35	2.59635E-001	1.85803E-005	0.00000E+000	2.60017E-001	2.59362E-001	7	...........
	189	9.5	2.89635E-001	1.93218E-005	0.00000E+000	2.90013E-001	2.89173E-001	7	...........
	192	9.65	3.19635E-001	2.02822E-005	0.00000E+000	3.20010E-001	3.19184E-001	7	...........
	195	9.8	3.49635E-001	2.11256E-005	0.00000E+000	3.50006E-001	3.49195E-001	7	...........
	198	9.95	3.79435E-001	2.21812E-005	0.00000E+000	3.80002E-001	3.79207E-001	7	...........
	201	10.1	4.09435E-001	2.34255E-005	0.00000E+000	4.09998E-001	4.09218E-001	7	...........
	204	10.25	4.39435E-001	2.45295E-005	0.00000E+000	4.39994E-001	4.39029E-001	7	...........
	207	10.4	4.69435E-001	2.58489E-005	0.00000E+000	4.69991E-001	4.69240E-001	7	...........
	210	10.55	4.99235E-001	2.71149E-005	0.00000E+000	4.99987E-001	4.99051E-001	7	...........
	213	10.7	5.29235E-001	2.84962E-005	0.00000E+000	5.29983E-001	5.29062E-001	7	...........
	216	10.85	5.59235E-001	2.99726E-005	0.00000E+000	5.59979E-001	5.59073E-001	7	...........
	219	11	5.89235E-001	3.17146E-005	0.00000E+000	5.89975E-001	5.89084E-001	7	...........
	222	11.15	6.19435E-001	3.33213E-005	0.00000E+000	6.20022E-001	6.19095E-001	7	...........
	225	11.3	6.49435E-001	3.49932E-005	0.00000E+000	6.50018E-001	6.48906E-001	7	...........
	228	11.45	6.79235E-001	3.71110E-005	0.00000E+000	6.80014E-001	6.78917E-001	7	...........
	231	11.6	7.09235E-001	3.91987E-005	0.00000E+000	7.10010E-001	7.08928E-001	7	...........
	234	11.75	7.39235E-001	4.17040E-005	0.00000E+000	7.40007E-001	7.38940E-001	7	...........
	237	11.9	7.69235E-001	4.45032E-005	0.00000E+000	7.70003E-001	7.68751E-001	7	...........
	240	12.05	7.99235E-001	4.76579E-005	0.00000E+000	7.99999E-001	7.98962E-001	8	...........
CURVE2	TABLE
	Pt	T	Vf	Im	Vu	Sig	Ach	IERange	Over
	#	s	V vs. Ref.	A	V	V	V	#	bits
	241	12.1	7.89035E-001	3.59550E-005	0.00000E+000	7.90000E-001	7.89158E-001	8	...........
	244	12.25	7.59235E-001	2.02087E-005	0.00000E+000	7.60004E-001	7.58947E-001	7	...........
	247	12.4	7.29435E-001	1.21935E-005	0.00000E+000	7.30008E-001	7.29136E-001	7	...........
	250	12.55	6.99235E-001	7.26978E-006	0.00000E+000	7.00012E-001	6.99125E-001	7	...........
	253	12.7	6.69435E-001	3.70895E-006	0.00000E+000	6.70015E-001	6.69114E-001	7	...........
	256	12.85	6.39435E-001	1.08676E-006	0.00000E+000	6.40019E-001	6.38903E-001	7	...........
	259	13	6.09235E-001	-8.17256E-007	0.00000E+000	6.10023E-001	6.09092E-001	7	...........
	262	13.15	5.79435E-001	-2.65613E-006	0.00000E+000	5.79977E-001	5.78880E-001	7	...........
	265	13.3	5.49235E-001	-4.03069E-006	0.00000E+000	5.49981E-001	5.49069E-001	7	...........
	268	13.45	5.19235E-001	-5.19314E-006	0.00000E+000	5.19984E-001	5.19458E-001	7	...........
	271	13.6	4.89435E-001	-6.27375E-006	0.00000E+000	4.89988E-001	4.89047E-001	7	...........
	274	13.75	4.59235E-001	-7.05707E-006	0.00000E+000	4.59992E-001	4.59236E-001	7	...........
	277	13.9	4.29235E-001	-7.75353E-006	0.00000E+000	4.29996E-001	4.29225E-001	7	...........
	280	14.05	3.99435E-001	-8.32474E-006	0.00000E+000	3.99999E-001	3.99414E-001	7	...........
	283	14.2	3.69435E-001	-8.89260E-006	0.00000E+000	3.70003E-001	3.69203E-001	7	...........
	286	14.35	3.39435E-001	-9.19490E-006	0.00000E+000	3.40007E-001	3.39392E-001	7	...........
	289	14.5	3.09435E-001	-9.63750E-006	0.00000E+000	3.10011E-001	3.09181E-001	7	...........
	292	14.65	2.79635E-001	-1.01202E-005	0.00000E+000	2.80015E-001	2.79170E-001	7	...........
	295	14.8	2.49635E-001	-1.05043E-005	0.00000E+000	2.50018E-001	2.49559E-001	7	...........
	298	14.95	2.19835E-001	-1.08517E-005	0.00000E+000	2.20022E-001	2.19347E-001	7	...........
	301	15.1	1.89835E-001	-1.11841E-005	0.00000E+000	1.90026E-001	1.89136E-001	7	...........
	304	15.25	1.59635E-001	-1.14246E-005	0.00000E+000	1.59980E-001	1.59525E-001	7	...........
	307	15.4	1.29635E-001	-1.20025E-005	0.00000E+000	1.29984E-001	1.29314E-001	7	...........
	310	15.55	9.96349E-002	-1.22113E-005	0.00000E+000	9.99874E-002	9.93031E-002	7	...........
	313	15.7	6.96349E-002	-1.27507E-005	0.00000E+000	6.99912E-002	6.94921E-002	7	...........
	316	15.85	3.96349E-002	-1.32985E-005	0.00000E+000	3.99949E-002	3.92809E-002	7	...........
	319	16	9.63488E-003	-1.34706E-005	0.00000E+000	9.99874E-003	9.46990E-003	7	...........
	322	16.15	-2.03651E-002	-1.40318E-005	0.00000E+000	-1.99975E-002	-2.03411E-002	7	...........
	325	16.3	-5.03651E-002	-1.42405E-005	0.00000E+000	-4.99937E-002	-5.05523E-002	7	...........
	328	16.45	-8.01651E-002	-1.47650E-005	0.00000E+000	-7.99899E-002	-8.03633E-002	7	...........
	331	16.6	-1.10365E-001	-1.52159E-005	0.00000E+000	-1.09986E-001	-1.10374E-001	7	...........
	334	16.75	-1.40165E-001	-1.58706E-005	0.00000E+000	-1.39982E-001	-1.40185E-001	7	...........
	337	16.9	-1.70165E-001	-1.63015E-005	0.00000E+000	-1.69979E-001	-1.70197E-001	7	...........
	340	17.05	-2.00365E-001	-1.72819E-005	0.00000E+000	-1.99975E-001	-2.00208E-001	7	...........
	343	17.2	-2.30165E-001	-1.78849E-005	0.00000E+000	-2.30021E-001	-2.30219E-001	7	...........
	346	17.35	-2.60165E-001	-1.87567E-005	0.00000E+000	-2.60017E-001	-2.60230E-001	7	...........
	349	17.5	-2.90165E-001	-1.99075E-005	0.00000E+000	-2.90013E-001	-2.90241E-001	7	...........
	352	17.65	-3.20165E-001	-2.09129E-005	0.00000E+000	-3.20010E-001	-3.20252E-001	7	...........
	355	17.8	-3.49965E-001	-2.24528E-005	0.00000E+000	-3.50006E-001	-3.50263E-001	7	...........
	358	17.95	-3.80165E-001	-2.39493E-005	0.00000E+000	-3.80002E-001	-3.80074E-001	7	...........
	361	18.1	-4.09965E-001	-2.55210E-005	0.00000E+000	-4.09998E-001	-4.10085E-001	7	...........
	364	18.25	-4.39965E-001	-2.74617E-005	0.00000E+000	-4.39994E-001	-4.39896E-001	7	...........
	367	18.4	-4.69965E-001	-2.95778E-005	0.00000E+000	-4.69991E-001	-4.70107E-001	7	...........
	370	18.55	-4.99965E-001	-3.15954E-005	0.00000E+000	-4.99987E-001	-5.00118E-001	7	...........
	373	18.7	-5.29965E-001	-3.42577E-005	0.00000E+000	-5.29983E-001	-5.30130E-001	7	...........
	376	18.85	-5.59765E-001	-3.71354E-005	0.00000E+000	-5.59979E-001	-5.59941E-001	7	...........
	379	19	-5.89965E-001	-4.00733E-005	0.00000E+000	-5.89975E-001	-5.89952E-001	7	...........
	382	19.15	-6.19965E-001	-4.35255E-005	0.00000E+000	-6.20022E-001	-6.19963E-001	7	...........
	385	19.3	-6.49765E-001	-4.67838E-005	0.00000E+000	-6.50018E-001	-6.49974E-001	8	...........
	388	19.45	-6.79965E-001	-5.16253E-005	0.00000E+000	-6.80014E-001	-6.79985E-001	8	...........
	391	19.6	-7.09765E-001	-5.63833E-005	0.00000E+000	-7.10010E-001	-7.09996E-001	8	...........
	394	19.75	-7.39765E-001	-6.17923E-005	0.00000E+000	-7.40007E-001	-7.39807E-001	8	...........
	397	19.9	-7.69765E-001	-6.79360E-005	0.00000E+000	-7.70003E-001	-7.69818E-001	8	...........
	400	20.05	-7.99765E-001	-7.56155E-005	0.00000E+000	-7.99999E-001	-7.99629E-001	8	...........
	403	20.2	-7.69965E-001	-3.62328E-005	0.00000E+000	-7.70003E-001	-7.70018E-001	8	...........
	406	20.35	-7.39765E-001	-1.90473E-005	0.00000E+000	-7.40007E-001	-7.39807E-001	7	...........
	409	20.5	-7.09965E-001	-9.23332E-006	0.00000E+000	-7.10010E-001	-7.09996E-001	7	...........
	412	20.65	-6.79765E-001	-2.74131E-006	0.00000E+000	-6.80014E-001	-6.79985E-001	7	...........
	415	20.8	-6.49965E-001	1.41411E-006	0.00000E+000	-6.50018E-001	-6.49974E-001	7	...........
	418	20.95	-6.19965E-001	4.50729E-006	0.00000E+000	-6.20022E-001	-6.19963E-001	7	...........
	421	21.1	-5.89965E-001	6.71194E-006	0.00000E+000	-5.89975E-001	-5.89952E-001	7	...........
	424	21.25	-5.59765E-001	8.10487E-006	0.00000E+000	-5.59979E-001	-5.59941E-001	7	...........
	427	21.4	-5.29765E-001	9.14373E-006	0.00000E+000	-5.29983E-001	-5.29930E-001	7	...........
	430	21.55	-5.00165E-001	1.00055E-005	0.00000E+000	-4.99987E-001	-4.99918E-001	7	...........
	433	21.7	-4.70165E-001	1.07421E-005	0.00000E+000	-4.69991E-001	-4.70107E-001	7	...........
	436	21.85	-4.39965E-001	1.12431E-005	0.00000E+000	-4.39994E-001	-4.40096E-001	7	...........
	439	22	-4.09965E-001	1.17642E-005	0.00000E+000	-4.09998E-001	-4.10085E-001	7	...........
	442	22.15	-3.80165E-001	1.18711E-005	0.00000E+000	-3.80002E-001	-3.79874E-001	7	...........
	445	22.3	-3.50165E-001	1.22586E-005	0.00000E+000	-3.50006E-001	-3.50263E-001	7	...........
	448	22.45	-3.19965E-001	1.23906E-005	0.00000E+000	-3.20010E-001	-3.20252E-001	7	...........
	451	22.6	-2.90165E-001	1.25309E-005	0.00000E+000	-2.90013E-001	-2.90241E-001	7	...........
	454	22.75	-2.60165E-001	1.25609E-005	0.00000E+000	-2.60017E-001	-2.60230E-001	7	...........
	457	22.9	-2.30165E-001	1.26043E-005	0.00000E+000	-2.30021E-001	-2.30219E-001	7	...........
	460	23.05	-2.00165E-001	1.27847E-005	0.00000E+000	-1.99975E-001	-2.00208E-001	7	...........
	463	23.2	-1.70165E-001	1.28165E-005	0.00000E+000	-1.69979E-001	-1.70197E-001	7	...........
	466	23.35	-1.40165E-001	1.29183E-005	0.00000E+000	-1.39982E-001	-1.40385E-001	7	...........
	469	23.5	-1.10365E-001	1.31154E-005	0.00000E+000	-1.09986E-001	-1.10374E-001	7	...........
	472	23.65	-8.01651E-002	1.31305E-005	0.00000E+000	-7.99899E-002	-8.01632E-002	7	...........
	475	23.8	-5.03651E-002	1.34645E-005	0.00000E+000	-4.99937E-002	-5.05523E-002	7	...........
	478	23.95	-2.03651E-002	1.36015E-005	0.00000E+000	-1.99975E-002	-2.03411E-002	7	...........
	481	24.1	9.63488E-003	1.39572E-005	0.00000E+000	9.99874E-003	9.46990E-003	7	...........
	484	24.25	3.94349E-002	1.43347E-005	0.00000E+000	3.99949E-002	3.94810E-002	7	...........
	487	24.4	6.96349E-002	1.48925E-005	0.00000E+000	6.99912E-002	6.94921E-002	7	...........
	490	24.55	9.96349E-002	1.54103E-005	0.00000E+000	9.99874E-002	9.93031E-002	7	...........
	493	24.7	1.29435E-001	1.55673E-005	0.00000E+000	1.29984E-001	1.29514E-001	7	...........
	496	24.85	1.59435E-001	1.62754E-005	0.00000E+000	1.59980E-001	1.59525E-001	7	...........
[...]
	840	42.05	3.99435E-001	2.26204E-005	0.00000E+000	3.99999E-001	3.99414E-001	7	...........
	843	42.2	4.29235E-001	2.36443E-005	0.00000E+000	4.29996E-001	4.29025E-001	7	...........
	846	42.35	4.59435E-001	2.48802E-005	0.00000E+000	4.59992E-001	4.59036E-001	7	...........
	849	42.5	4.89435E-001	2.61195E-005	0.00000E+000	4.89988E-001	4.89047E-001	7	...........
	852	42.65	5.19235E-001	2.75709E-005	0.00000E+000	5.19984E-001	5.19258E-001	7	...........
	855	42.8	5.49235E-001	2.92578E-005	0.00000E+000	5.49981E-001	5.49069E-001	7	...........
	858	42.95	5.79235E-001	3.06641E-005	0.00000E+000	5.79977E-001	5.79080E-001	7	...........
	861	43.1	6.09435E-001	3.21689E-005	0.00000E+000	6.10023E-001	6.09092E-001	7	...........
	864	43.25	6.39435E-001	3.39927E-005	0.00000E+000	6.40019E-001	6.39103E-001	7	...........
	867	43.4	6.69235E-001	3.57598E-005	0.00000E+000	6.70015E-001	6.68914E-001	7	...........
	870	43.55	6.99235E-001	3.82450E-005	0.00000E+000	7.00012E-001	6.99125E-001	7	...........
	873	43.7	7.29235E-001	4.05282E-005	0.00000E+000	7.30008E-001	7.28736E-001	7	...........
	876	43.85	7.59035E-001	4.33942E-005	0.00000E+000	7.60004E-001	7.59147E-001	7	...........
	879	44	7.89235E-001	4.67898E-005	0.00000E+000	7.90000E-001	7.88958E-001	8	...........
	880	44.05	7.99235E-001	4.77748E-005	0.00000E+000	7.99999E-001	7.98762E-001	8	...........
CURVE4	TABLE
	Pt	T	Vf	Im	Vu	Sig	Ach	IERange	Over
	#	s	V vs. Ref.	A	V	V	V	#	bits
	881	44.1	7.89235E-001	3.55376E-005	0.00000E+000	7.90000E-001	7.88958E-001	8	...........
	882	44.15	7.79035E-001	2.88152E-005	0.00000E+000	7.80001E-001	7.78754E-001	7	...........
	883	44.2	7.69235E-001	2.39583E-005	0.00000E+000	7.70003E-001	7.68951E-001	7	...........
	884	44.25	7.59035E-001	2.00166E-005	0.00000E+000	7.60004E-001	7.58947E-001	7	...........
	885	44.3	7.49035E-001	1.69335E-005	0.00000E+000	7.50005E-001	7.48943E-001	7	...........
	886	44.35	7.39235E-001	1.43547E-005	0.00000E+000	7.40007E-001	7.38940E-001	7	...........
	887	44.4	7.29235E-001	1.23104E-005	0.00000E+000	7.30008E-001	7.28736E-001	7	...........
	888	44.45	7.19235E-001	1.04582E-005	0.00000E+000	7.20009E-001	7.19132E-001	7	...........
	889	44.5	7.09235E-001	8.65269E-006	0.00000E+000	7.10010E-001	7.08928E-001	7	...........
	890	44.55	6.99235E-001	7.32490E-006	0.00000E+000	7.00012E-001	6.99125E-001	7	...........
	891	44.6	6.89235E-001	6.01046E-006	0.00000E+000	6.90013E-001	6.89121E-001	7	...........
	892	44.65	6.79235E-001	4.67264E-006	0.00000E+000	6.80014E-001	6.79117E-001	7	...........
	893	44.7	6.69235E-001	3.74736E-006	0.00000E+000	6.70015E-001	6.68914E-001	7	...........
	894	44.75	6.59235E-001	2.97072E-006	0.00000E+000	6.60017E-001	6.59310E-001	7	...........
	895	44.8	6.49235E-001	1.82665E-006	0.00000E+000	6.50018E-001	6.49106E-001	7	...........
	896	44.85	6.39235E-001	1.10012E-006	0.00000E+000	6.40019E-001	6.38903E-001	7	...........
	897	44.9	6.29235E-001	4.80478E-007	0.00000E+000	6.30020E-001	6.29299E-001	7	...........
	898	44.95	6.19235E-001	-1.19118E-007	0.00000E+000	6.20022E-001	6.19095E-001	7	...........
	899	45	6.09435E-001	-8.25606E-007	0.00000E+000	6.10023E-001	6.09092E-001	7	...........
	900	45.05	5.99435E-001	-1.40516E-006	0.00000E+000	6.00024E-001	5.99088E-001	7	...........
	901	45.1	5.89235E-001	-1.91791E-006	0.00000E+000	5.89975E-001	5.89084E-001	7	...........
	902	45.15	5.79435E-001	-2.60936E-006	0.00000E+000	5.79977E-001	5.79080E-001	7	...........
	903	45.2	5.69435E-001	-2.95008E-006	0.00000E+000	5.69978E-001	5.69077E-001	7	...........
	904	45.25	5.59035E-001	-3.37598E-006	0.00000E+000	5.59979E-001	5.59073E-001	7	...........
	905	45.3	5.49435E-001	-4.08247E-006	0.00000E+000	5.49981E-001	5.49269E-001	7	...........
	906	45.35	5.39235E-001	-4.35471E-006	0.00000E+000	5.39982E-001	5.39066E-001	7	...........
	907	45.4	5.29435E-001	-4.75221E-006	0.00000E+000	5.29983E-001	5.29062E-001	7	...........
	908	45.45	5.19435E-001	-5.15306E-006	0.00000E+000	5.19984E-001	5.19258E-001	7	...........
	909	45.5	5.09435E-001	-5.43866E-006	0.00000E+000	5.09986E-001	5.09255E-001	7	...........
	910	45.55	4.99235E-001	-5.80610E-006	0.00000E+000	4.99987E-001	4.99251E-001	7	...........
	911	45.6	4.89235E-001	-6.02155E-006	0.00000E+000	4.89988E-001	4.89247E-001	7	...........
	912	45.65	4.79435E-001	-6.54265E-006	0.00000E+000	4.79989E-001	4.78843E-001	7	...........
	913	45.7	4.69435E-001	-6.67626E-006	0.00000E+000	4.69991E-001	4.69240E-001	7	...........
	914	45.75	4.59235E-001	-7.02700E-006	0.00000E+000	4.59992E-001	4.59036E-001	7	...........
	915	45.8	4.49435E-001	-7.11385E-006	0.00000E+000	4.49993E-001	4.49433E-001	7	...........
	916	45.85	4.39235E-001	-7.44622E-006	0.00000E+000	4.39994E-001	4.39229E-001	7	...........
	917	45.9	4.29235E-001	-7.70343E-006	0.00000E+000	4.29996E-001	4.29225E-001	7	...........
	918	45.95	4.19435E-001	-7.89550E-006	0.00000E+000	4.19997E-001	4.19221E-001	7	...........
	919	46	4.09235E-001	-7.92723E-006	0.00000E+000	4.09998E-001	4.09218E-001	7	...........
	920	46.05	3.99435E-001	-8.17275E-006	0.00000E+000	3.99999E-001	3.99214E-001	7	...........
	921	46.1	3.89635E-001	-8.45501E-006	0.00000E+000	3.90001E-001	3.89210E-001	7	...........
	922	46.15	3.79435E-001	-8.50679E-006	0.00000E+000	3.80002E-001	3.79407E-001	7	...........
	923	46.2	3.69435E-001	-8.66713E-006	0.00000E+000	3.70003E-001	3.69203E-001	7	...........
	924	46.25	3.59435E-001	-8.85920E-006	0.00000E+000	3.60005E-001	3.59199E-001	7	...........
	925	46.3	3.49435E-001	-9.06964E-006	0.00000E+000	3.50006E-001	3.49396E-001	7	...........
	926	46.35	3.39435E-001	-9.20158E-006	0.00000E+000	3.40007E-001	3.39392E-001	7	...........
	927	46.4	3.29635E-001	-9.40535E-006	0.00000E+000	3.30008E-001	3.29388E-001	7	...........
	928	46.45	3.19435E-001	-9.54731E-006	0.00000E+000	3.20010E-001	3.19184E-001	7	...........
	929	46.5	3.09635E-001	-9.65587E-006	0.00000E+000	3.10011E-001	3.09381E-001	7	...........
	930	46.55	2.99435E-001	-9.70264E-006	0.00000E+000	3.00012E-001	2.99377E-001	7	...........
	931	46.6	2.89435E-001	-9.84293E-006	0.00000E+000	2.90013E-001	2.89173E-001	7	...........
	932	46.65	2.79235E-001	-9.87634E-006	0.00000E+000	2.80015E-001	2.79370E-001	7	...........
	933	46.7	2.69635E-001	-1.03139E-005	0.00000E+000	2.70016E-001	2.69366E-001	7	...........
	934	46.75	2.59635E-001	-1.03457E-005	0.00000E+000	2.60017E-001	2.59162E-001	7	...........
	935	46.8	2.49435E-001	-1.04175E-005	0.00000E+000	2.50018E-001	2.49359E-001	7	...........
	936	46.85	2.39435E-001	-1.04743E-005	0.00000E+000	2.40020E-001	2.39355E-001	7	...........
	937	46.9	2.29435E-001	-1.05928E-005	0.00000E+000	2.30021E-001	2.29351E-001	7	...........
	938	46.95	2.19635E-001	-1.07766E-005	0.00000E+000	2.20022E-001	2.19548E-001	7	...........
	939	47	2.09435E-001	-1.07465E-005	0.00000E+000	2.10023E-001	2.09344E-001	7	...........
	940	47.05	1.99435E-001	-1.10438E-005	0.00000E+000	2.00025E-001	1.99540E-001	7	...........
	941	47.1	1.89635E-001	-1.10805E-005	0.00000E+000	1.90026E-001	1.89336E-001	7	...........
	942	47.15	1.79435E-001	-1.13411E-005	0.00000E+000	1.79977E-001	1.79333E-001	7	...........
	943	47.2	1.69635E-001	-1.12225E-005	0.00000E+000	1.69979E-001	1.69329E-001	7	...........
	944	47.25	1.59635E-001	-1.15749E-005	0.00000E+000	1.59980E-001	1.59525E-001	7	...........
	945	47.3	1.49635E-001	-1.14363E-005	0.00000E+000	1.49981E-001	1.49322E-001	7	...........
	946	47.35	1.39635E-001	-1.17369E-005	0.00000E+000	1.39982E-001	1.39318E-001	7	...........
	947	47.4	1.29635E-001	-1.17486E-005	0.00000E+000	1.29984E-001	1.29314E-001	7	...........
	948	47.45	1.19635E-001	-1.20242E-005	0.00000E+000	1.19985E-001	1.19310E-001	7	...........
	949	47.5	1.09635E-001	-1.20275E-005	0.00000E+000	1.09986E-001	1.09307E-001	7	...........
	950	47.55	9.96349E-002	-1.21277E-005	0.00000E+000	9.99874E-002	9.95032E-002	7	...........
	951	47.6	8.96349E-002	-1.22998E-005	0.00000E+000	8.99886E-002	8.92994E-002	7	...........
	952	47.65	7.96349E-002	-1.24985E-005	0.00000E+000	7.99899E-002	7.92957E-002	7	...........
	953	47.7	6.96349E-002	-1.25269E-005	0.00000E+000	6.99912E-002	6.94921E-002	7	...........
	954	47.75	5.96349E-002	-1.26488E-005	0.00000E+000	5.99924E-002	5.92883E-002	7	...........
	955	47.8	4.96349E-002	-1.28142E-005	0.00000E+000	4.99937E-002	4.94847E-002	7	...........
	956	47.85	3.98349E-002	-1.28476E-005	0.00000E+000	3.99949E-002	3.94810E-002	7	...........
	957	47.9	2.96349E-002	-1.30397E-005	0.00000E+000	2.99962E-002	2.96774E-002	7	...........
	958	47.95	1.96349E-002	-1.30263E-005	0.00000E+000	1.99975E-002	1.96737E-002	7	...........
	959	48	9.63488E-003	-1.30397E-005	0.00000E+000	9.99874E-003	9.46990E-003	7	...........
	960	48.05	-3.65120E-004	-1.34689E-005	0.00000E+000	0.00000E+000	-5.33797E-004	7	...........