File: Data/CV_Steel_Disk_No_Material_2/CV_#3.DTA
EXPLAIN
TAG	CV
TITLE	LABEL	Cyclic Voltammetry	Test Identifier
DATE	LABEL	12-7-2017	Date
TIME	LABEL	17:20:45	Time
NOTES	NOTES	1	Notes...

PSTAT	PSTAT	IFC5000-01520	Potentiostat
VINIT	POTEN	0.00000E+000	F	Initial E (V)
VLIMIT1	POTEN	-8.00000E-001	F	Scan Limit 1 (V)
VLIMIT2	POTEN	8.00000E-001	F	Scan Limit 2 (V)
VFINAL	POTEN	0.00000E+000	F	Final E (V)
SCANRATE	QUANT	9.99998E+001	A Real Number
STEPSIZE	QUANT	1.00000E+001	Step Size (mV)
CYCLES	IQUANT	3	Cycles (#)
IMODE	SELECTOR	0	I/E Range Mode
IRANGE	QUANT	2.50000E+002	Max Current (mA)
AREA	QUANT	3.84800E-001	A Real Number
EQDELAY	QUANT	1.00000E+000	Equil. Time (s)
IRCOMP	SELECTOR	0	IRComp
PFCOR	QUANT	2.50000E+002	PF Corr. (ohm)
SAMPLINGMODE	SELECTOR	0	Sampling Mode
EOC	QUANT	0	Open Circuit (V)
SEQUENCER	TOGGLE	TRUE	Run as Sequence
PSTATMODEL	IQUANT	53	Pstat Model
PSTATSECTION	LABEL	IFC5000-01520	Pstat Section
PSTATSERIALNO	LABEL	01520	Pstat Serial Number
CTRLMODE	IQUANT	1	Control Mode
ELECTROMETER	IQUANT	0	RE=0 or CS=1
IESTAB	IQUANT	2	I/E Stability
CASPEED	IQUANT	4	Control Amp Speed
CONVENTION	IQUANT	1	Current Convention
ICHRANGE	IQUANT	2	Ich Range
ICHRANGEMODE	TOGGLE	F	Ich Auto Range
ICHOFFSETENABLE	TOGGLE	F	Ich Offset Enable
ICHOFFSET	QUANT	0	Ich Offset (V)
ICHFILTER	IQUANT	4	Ich Filter
VCHRANGE	IQUANT	2	Vch Range
VCHRANGEMODE	TOGGLE	F	Vch Auto Range
VCHOFFSETENABLE	TOGGLE	F	Vch Offset Enable
VCHOFFSET	QUANT	0	Vch Offset (V)
VCHFILTER	IQUANT	4	Vch Filter
IERANGELOWERLIMIT	IQUANT	7	I/E Range Lower Limit
IERANGEMODE	TOGGLE	T	I/E AutoRange
IERANGE	IQUANT	11	I/E Range
ACHSELECT	IQUANT	1	Ach Select
ACHRANGE	IQUANT	2	Ach Range
ACHOFFSETENABLE	TOGGLE	F	Ach Offset Enable
ACHOFFSET	QUANT	0	Ach Offset (V)
ACHFILTER	IQUANT	1	Ach Filter
CABLEID	IQUANT	14	Cable ID
DCCALDATE	LABEL	5-7-2017	DC Calibration Date
ACCALDATE	LABEL	12/3/2015	AC Calibration Date
FRAMEWORKVERSION	QUANT	7.01	Framework Version
INSTRUMENTVERSION	LABEL	4.00	Instrument Version
CURVE1	TABLE
	Pt	T	Vf	Im	Vu	Sig	Ach	IERange	Over
	#	s	V vs. Ref.	A	V	V	V	#	bits
	0	0.1	-2.06485E-004	-2.80533E-005	0.00000E+000	0.00000E+000	-5.33797E-004	11	...........
	3	0.4	-3.00072E-002	-7.07338E-006	0.00000E+000	-2.99962E-002	-3.03448E-002	8	...........
	6	0.7	-6.00078E-002	-8.18686E-006	0.00000E+000	-5.99924E-002	-6.03559E-002	7	...........
	9	1	-9.00085E-002	-9.25580E-006	0.00000E+000	-8.99886E-002	-9.03670E-002	7	...........
	12	1.3	-1.20009E-001	-1.01794E-005	0.00000E+000	-1.19985E-001	-1.20378E-001	7	...........
	15	1.6	-1.50010E-001	-1.10129E-005	0.00000E+000	-1.49981E-001	-1.50389E-001	7	...........
	18	1.9	-1.80011E-001	-1.18012E-005	0.00000E+000	-1.79977E-001	-1.80400E-001	7	...........
	21	2.2	-2.10011E-001	-1.25895E-005	0.00000E+000	-2.10023E-001	-2.10411E-001	7	...........
	24	2.5	-2.40012E-001	-1.33846E-005	0.00000E+000	-2.40020E-001	-2.40222E-001	7	...........
	27	2.8	-2.70013E-001	-1.42564E-005	0.00000E+000	-2.70016E-001	-2.70233E-001	7	...........
	30	3.1	-2.99813E-001	-1.52034E-005	0.00000E+000	-3.00012E-001	-3.00245E-001	7	...........
	33	3.4	-3.29814E-001	-1.62506E-005	0.00000E+000	-3.30008E-001	-3.30256E-001	7	...........
	36	3.7	-3.59815E-001	-1.74114E-005	0.00000E+000	-3.60005E-001	-3.60067E-001	7	...........
	39	4	-3.89815E-001	-1.87042E-005	0.00000E+000	-3.90001E-001	-3.90278E-001	7	...........
	42	4.3	-4.19816E-001	-2.01322E-005	0.00000E+000	-4.19997E-001	-4.20089E-001	7	...........
	45	4.6	-4.50017E-001	-2.17206E-005	0.00000E+000	-4.49993E-001	-4.50100E-001	7	...........
	48	4.9	-4.79617E-001	-2.34676E-005	0.00000E+000	-4.79989E-001	-4.80111E-001	7	...........
	51	5.2	-5.09618E-001	-2.53834E-005	0.00000E+000	-5.09986E-001	-5.09922E-001	7	...........
	54	5.5	-5.39619E-001	-2.74678E-005	0.00000E+000	-5.39982E-001	-5.40133E-001	7	...........
	57	5.8	-5.69819E-001	-2.97443E-005	0.00000E+000	-5.69978E-001	-5.69944E-001	7	...........
	60	6.1	-5.99620E-001	-3.22580E-005	0.00000E+000	-5.99974E-001	-5.99955E-001	7	...........
	63	6.4	-6.29821E-001	-3.50456E-005	0.00000E+000	-6.30020E-001	-6.29966E-001	7	...........
	66	6.7	-6.59622E-001	-3.81304E-005	0.00000E+000	-6.60017E-001	-6.59978E-001	7	...........
	69	7	-6.89622E-001	-4.15861E-005	0.00000E+000	-6.90013E-001	-6.89989E-001	7	...........
	72	7.3	-7.19623E-001	-4.54794E-005	0.00000E+000	-7.20009E-001	-7.19800E-001	7	...........
	75	7.6	-7.49624E-001	-5.14152E-005	0.00000E+000	-7.50005E-001	-7.50011E-001	8	...........
	78	7.9	-7.79624E-001	-5.59562E-005	0.00000E+000	-7.80001E-001	-7.80022E-001	8	...........
	81	8.2	-7.90424E-001	-3.80926E-005	0.00000E+000	-7.90000E-001	-7.89825E-001	8	...........
	84	8.5	-7.60024E-001	-1.92754E-005	0.00000E+000	-7.60004E-001	-7.59614E-001	7	...........
	87	8.8	-7.30023E-001	-9.96062E-006	0.00000E+000	-7.30008E-001	-7.29803E-001	7	...........
	90	9.1	-7.00222E-001	-4.25016E-006	0.00000E+000	-7.00012E-001	-6.99992E-001	7	...........
	93	9.4	-6.70222E-001	-4.62121E-007	0.00000E+000	-6.70015E-001	-6.70181E-001	7	...........
	96	9.7	-6.40021E-001	2.18350E-006	0.00000E+000	-6.40019E-001	-6.40170E-001	7	...........
	99	10	-6.10220E-001	4.08253E-006	0.00000E+000	-6.10023E-001	-6.09959E-001	7	...........
	102	10.3	-5.80020E-001	5.50054E-006	0.00000E+000	-5.79977E-001	-5.79948E-001	7	...........
	105	10.6	-5.50219E-001	6.54109E-006	0.00000E+000	-5.49981E-001	-5.49937E-001	7	...........
	108	10.9	-5.20218E-001	7.33277E-006	0.00000E+000	-5.19984E-001	-5.19926E-001	7	...........
	111	11.2	-4.90218E-001	7.93738E-006	0.00000E+000	-4.89988E-001	-4.90115E-001	7	...........
	114	11.5	-4.60217E-001	8.40337E-006	0.00000E+000	-4.59992E-001	-4.59904E-001	7	...........
	117	11.8	-4.30216E-001	8.77249E-006	0.00000E+000	-4.29996E-001	-4.30093E-001	7	...........
	120	12.1	-4.00216E-001	9.05309E-006	0.00000E+000	-3.99999E-001	-4.00081E-001	7	...........
	123	12.4	-3.70415E-001	9.26687E-006	0.00000E+000	-3.70003E-001	-3.70070E-001	7	...........
	126	12.7	-3.40414E-001	9.41552E-006	0.00000E+000	-3.40007E-001	-3.40259E-001	7	...........
	129	13	-3.10214E-001	9.51741E-006	0.00000E+000	-3.10011E-001	-3.10248E-001	7	...........
	132	13.3	-2.80413E-001	9.58422E-006	0.00000E+000	-2.80015E-001	-2.80237E-001	7	...........
	135	13.6	-2.50412E-001	9.63432E-006	0.00000E+000	-2.50018E-001	-2.50226E-001	7	...........
	138	13.9	-2.20411E-001	9.67608E-006	0.00000E+000	-2.20022E-001	-2.20215E-001	7	...........
	141	14.2	-1.90411E-001	9.72451E-006	0.00000E+000	-1.89976E-001	-1.90204E-001	7	...........
	144	14.5	-1.60610E-001	9.78297E-006	0.00000E+000	-1.59980E-001	-1.60393E-001	7	...........
	147	14.8	-1.30409E-001	9.86481E-006	0.00000E+000	-1.29984E-001	-1.30582E-001	7	...........
	150	15.1	-1.00409E-001	9.97671E-006	0.00000E+000	-9.99874E-002	-1.00171E-001	7	...........
	153	15.4	-7.02081E-002	1.01304E-005	0.00000E+000	-6.99912E-002	-7.03596E-002	7	...........
	156	15.7	-4.06074E-002	1.03124E-005	0.00000E+000	-3.99949E-002	-4.05486E-002	7	...........
	159	16	-1.04067E-002	1.05279E-005	0.00000E+000	-9.99874E-003	-1.05375E-002	7	...........
	162	16.3	1.93940E-002	1.07717E-005	0.00000E+000	1.99975E-002	1.94736E-002	7	...........
	165	16.6	4.95946E-002	1.10507E-005	0.00000E+000	4.99937E-002	4.94847E-002	7	...........
	168	16.9	7.93953E-002	1.13580E-005	0.00000E+000	7.99899E-002	7.92957E-002	7	...........
	171	17.2	1.09396E-001	1.16970E-005	0.00000E+000	1.09986E-001	1.09507E-001	7	...........
	174	17.5	1.39397E-001	1.20645E-005	0.00000E+000	1.39982E-001	1.39518E-001	7	...........
	177	17.8	1.69397E-001	1.24620E-005	0.00000E+000	1.69979E-001	1.69329E-001	7	...........
	180	18.1	1.99398E-001	1.28946E-005	0.00000E+000	1.99975E-001	1.99340E-001	7	...........
	183	18.4	2.29399E-001	1.33706E-005	0.00000E+000	2.30021E-001	2.29351E-001	7	...........
	186	18.7	2.59199E-001	1.38867E-005	0.00000E+000	2.60017E-001	2.59362E-001	7	...........
	189	19	2.89400E-001	1.44495E-005	0.00000E+000	2.90013E-001	2.89573E-001	7	...........
	192	19.3	3.19201E-001	1.50625E-005	0.00000E+000	3.20010E-001	3.19384E-001	7	...........
	195	19.6	3.49201E-001	1.57273E-005	0.00000E+000	3.50006E-001	3.49396E-001	7	...........
	198	19.9	3.79202E-001	1.64538E-005	0.00000E+000	3.80002E-001	3.79207E-001	7	...........
	201	20.2	4.09203E-001	1.72388E-005	0.00000E+000	4.09998E-001	4.09218E-001	7	...........
	204	20.5	4.39404E-001	1.80956E-005	0.00000E+000	4.39994E-001	4.39229E-001	7	...........
	207	20.8	4.69204E-001	1.90042E-005	0.00000E+000	4.69991E-001	4.69240E-001	7	...........
	210	21.1	4.99005E-001	1.99629E-005	0.00000E+000	4.99987E-001	4.99251E-001	7	...........
	213	21.4	5.29006E-001	2.09667E-005	0.00000E+000	5.29983E-001	5.29062E-001	7	...........
	216	21.7	5.59006E-001	2.20173E-005	0.00000E+000	5.59979E-001	5.58873E-001	7	...........
	219	22	5.89207E-001	2.31280E-005	0.00000E+000	5.89975E-001	5.89284E-001	7	...........
	222	22.3	6.19008E-001	2.43322E-005	0.00000E+000	6.20022E-001	6.19095E-001	7	...........
	225	22.6	6.49008E-001	2.56233E-005	0.00000E+000	6.50018E-001	6.49106E-001	7	...........
	228	22.9	6.79009E-001	2.70413E-005	0.00000E+000	6.80014E-001	6.78917E-001	7	...........
	231	23.2	7.09010E-001	2.86263E-005	0.00000E+000	7.10010E-001	7.08928E-001	7	...........
	234	23.5	7.39010E-001	3.04185E-005	0.00000E+000	7.40007E-001	7.38940E-001	7	...........
	237	23.8	7.69211E-001	3.24728E-005	0.00000E+000	7.70003E-001	7.68751E-001	7	...........
	240	24.1	7.99212E-001	3.48412E-005	0.00000E+000	7.99999E-001	7.98962E-001	7	...........
CURVE2	TABLE
	Pt	T	Vf	Im	Vu	Sig	Ach	IERange	Over
	#	s	V vs. Ref.	A	V	V	V	#	bits
	241	24.2	7.89811E-001	2.13325E-005	0.00000E+000	7.90000E-001	7.88758E-001	7	...........
	244	24.5	7.59411E-001	1.11258E-005	0.00000E+000	7.60004E-001	7.58947E-001	7	...........
	247	24.8	7.29410E-001	6.13522E-006	0.00000E+000	7.30008E-001	7.29136E-001	7	...........
	250	25.1	6.99409E-001	3.00524E-006	0.00000E+000	7.00012E-001	6.98925E-001	7	...........
	253	25.4	6.69609E-001	8.05572E-007	0.00000E+000	6.70015E-001	6.69114E-001	7	...........
	256	25.7	6.39608E-001	-8.56291E-007	0.00000E+000	6.40019E-001	6.38903E-001	7	...........
	259	26	6.09607E-001	-2.16407E-006	0.00000E+000	6.10023E-001	6.09092E-001	7	...........
	262	26.3	5.79607E-001	-3.25305E-006	0.00000E+000	5.79977E-001	5.79080E-001	7	...........
	265	26.6	5.49606E-001	-4.16331E-006	0.00000E+000	5.49981E-001	5.49269E-001	7	...........
	268	26.9	5.19405E-001	-4.93829E-006	0.00000E+000	5.19984E-001	5.19258E-001	7	...........
	271	27.2	4.89605E-001	-5.59803E-006	0.00000E+000	4.89988E-001	4.89047E-001	7	...........
	274	27.5	4.59804E-001	-6.14920E-006	0.00000E+000	4.59992E-001	4.59036E-001	7	...........
	277	27.8	4.29603E-001	-6.61018E-006	0.00000E+000	4.29996E-001	4.29225E-001	7	...........
	280	28.1	3.99803E-001	-6.98932E-006	0.00000E+000	3.99999E-001	3.99214E-001	7	...........
	283	28.4	3.69602E-001	-7.31668E-006	0.00000E+000	3.70003E-001	3.69403E-001	7	...........
	286	28.7	3.39801E-001	-7.60395E-006	0.00000E+000	3.40007E-001	3.39392E-001	7	...........
	289	29	3.09601E-001	-7.86618E-006	0.00000E+000	3.10011E-001	3.09181E-001	7	...........
	292	29.3	2.79800E-001	-8.11003E-006	0.00000E+000	2.80015E-001	2.79370E-001	7	...........
	295	29.6	2.49799E-001	-8.35221E-006	0.00000E+000	2.50018E-001	2.49359E-001	7	...........
	298	29.9	2.19799E-001	-8.59606E-006	0.00000E+000	2.20022E-001	2.19347E-001	7	...........
	301	30.2	1.89798E-001	-8.84993E-006	0.00000E+000	1.90026E-001	1.89536E-001	7	...........
	304	30.5	1.59797E-001	-9.11383E-006	0.00000E+000	1.59980E-001	1.59325E-001	7	...........
	307	30.8	1.29796E-001	-9.38607E-006	0.00000E+000	1.29984E-001	1.29314E-001	7	...........
	310	31.1	9.97958E-002	-9.67001E-006	0.00000E+000	9.99874E-002	9.93031E-002	7	...........
	313	31.4	6.99951E-002	-9.96230E-006	0.00000E+000	6.99912E-002	6.94921E-002	7	...........
	316	31.7	3.97944E-002	-1.02629E-005	0.00000E+000	3.99949E-002	3.94810E-002	7	...........
	319	32	9.99375E-003	-1.05636E-005	0.00000E+000	9.99874E-003	9.46990E-003	7	...........
	322	32.3	-2.00069E-002	-1.08559E-005	0.00000E+000	-1.99975E-002	-2.03411E-002	7	...........
	325	32.6	-5.02076E-002	-1.11448E-005	0.00000E+000	-4.99937E-002	-5.03522E-002	7	...........
	328	32.9	-8.00083E-002	-1.14421E-005	0.00000E+000	-7.99899E-002	-8.03633E-002	7	...........
	331	33.2	-1.10009E-001	-1.17611E-005	0.00000E+000	-1.09986E-001	-1.10374E-001	7	...........
	334	33.5	-1.40010E-001	-1.21252E-005	0.00000E+000	-1.39982E-001	-1.40385E-001	7	...........
	337	33.8	-1.70210E-001	-1.25428E-005	0.00000E+000	-1.69979E-001	-1.70197E-001	7	...........
	340	34.1	-1.99811E-001	-1.30338E-005	0.00000E+000	-1.99975E-001	-2.00208E-001	7	...........
	343	34.4	-2.30012E-001	-1.36067E-005	0.00000E+000	-2.30021E-001	-2.30419E-001	7	...........
	346	34.7	-2.59812E-001	-1.42631E-005	0.00000E+000	-2.60017E-001	-2.60030E-001	7	...........
	349	35	-2.90013E-001	-1.50164E-005	0.00000E+000	-2.90013E-001	-2.90241E-001	7	...........
	352	35.3	-3.19814E-001	-1.58849E-005	0.00000E+000	-3.20010E-001	-3.20452E-001	7	...........
	355	35.6	-3.49614E-001	-1.68703E-005	0.00000E+000	-3.50006E-001	-3.50263E-001	7	...........
	358	35.9	-3.80015E-001	-1.79793E-005	0.00000E+000	-3.80002E-001	-3.80074E-001	7	...........
	361	36.2	-4.09816E-001	-1.92236E-005	0.00000E+000	-4.09998E-001	-4.10085E-001	7	...........
	364	36.5	-4.39817E-001	-2.06066E-005	0.00000E+000	-4.39994E-001	-4.40496E-001	7	...........
	367	36.8	-4.69817E-001	-2.21398E-005	0.00000E+000	-4.69991E-001	-4.70107E-001	7	...........
	370	37.1	-4.99618E-001	-2.38267E-005	0.00000E+000	-4.99987E-001	-5.00118E-001	7	...........
	373	37.4	-5.29619E-001	-2.56823E-005	0.00000E+000	-5.29983E-001	-5.29930E-001	7	...........
	376	37.7	-5.59619E-001	-2.77401E-005	0.00000E+000	-5.59979E-001	-5.60141E-001	7	...........
	379	38	-5.89620E-001	-3.00082E-005	0.00000E+000	-5.89975E-001	-5.89952E-001	7	...........
	382	38.3	-6.19621E-001	-3.25653E-005	0.00000E+000	-6.20022E-001	-6.19963E-001	7	...........
	385	38.6	-6.49621E-001	-3.53662E-005	0.00000E+000	-6.50018E-001	-6.49974E-001	7	...........
	388	38.9	-6.79622E-001	-3.85530E-005	0.00000E+000	-6.80014E-001	-6.79985E-001	7	...........
	391	39.2	-7.09623E-001	-4.21774E-005	0.00000E+000	-7.10010E-001	-7.09996E-001	7	...........
	394	39.5	-7.39623E-001	-5.60731E-005	0.00000E+000	-7.40007E-001	-7.39607E-001	8	...........
	397	39.8	-7.69624E-001	-5.20496E-005	0.00000E+000	-7.70003E-001	-7.69818E-001	8	...........
	400	40.1	-7.99825E-001	-5.79095E-005	0.00000E+000	-7.99999E-001	-7.99829E-001	8	...........
	403	40.4	-7.70024E-001	-2.28647E-005	0.00000E+000	-7.70003E-001	-7.69818E-001	7	...........
	406	40.7	-7.40023E-001	-1.12667E-005	0.00000E+000	-7.40007E-001	-7.39807E-001	7	...........
	409	41	-7.10023E-001	-4.88485E-006	0.00000E+000	-7.10010E-001	-7.09996E-001	7	...........
	412	41.3	-6.80222E-001	-7.62759E-007	0.00000E+000	-6.80014E-001	-6.79785E-001	7	...........
	415	41.6	-6.50021E-001	2.05823E-006	0.00000E+000	-6.50018E-001	-6.50174E-001	7	...........
	418	41.9	-6.20221E-001	4.05748E-006	0.00000E+000	-6.20022E-001	-6.20163E-001	7	...........
	421	42.2	-5.90020E-001	5.52059E-006	0.00000E+000	-5.89975E-001	-5.89952E-001	7	...........
	424	42.5	-5.60019E-001	6.59119E-006	0.00000E+000	-5.59979E-001	-5.59741E-001	7	...........
	427	42.8	-5.30219E-001	7.40626E-006	0.00000E+000	-5.29983E-001	-5.29930E-001	7	...........
	430	43.1	-5.00018E-001	8.01588E-006	0.00000E+000	-4.99987E-001	-5.00118E-001	7	...........
	433	43.4	-4.70217E-001	8.48521E-006	0.00000E+000	-4.69991E-001	-4.70107E-001	7	...........
	436	43.7	-4.40216E-001	8.84598E-006	0.00000E+000	-4.39994E-001	-4.40296E-001	7	...........
	439	44	-4.10216E-001	9.12491E-006	0.00000E+000	-4.09998E-001	-4.09885E-001	7	...........
	442	44.3	-3.80215E-001	9.34537E-006	0.00000E+000	-3.80002E-001	-3.80074E-001	7	...........
	445	44.6	-3.50414E-001	9.50738E-006	0.00000E+000	-3.50006E-001	-3.50063E-001	7	...........
	448	44.9	-3.20414E-001	9.62263E-006	0.00000E+000	-3.20010E-001	-3.20252E-001	7	...........
	451	45.2	-2.90413E-001	9.69779E-006	0.00000E+000	-2.90013E-001	-2.90441E-001	7	...........
	454	45.5	-2.60412E-001	9.74623E-006	0.00000E+000	-2.60017E-001	-2.60230E-001	7	...........
	457	45.8	-2.30212E-001	9.77963E-006	0.00000E+000	-2.30021E-001	-2.30219E-001	7	...........
	460	46.1	-2.00411E-001	9.81805E-006	0.00000E+000	-1.99975E-001	-2.00208E-001	7	...........
	463	46.4	-1.70410E-001	9.86648E-006	0.00000E+000	-1.69979E-001	-1.70197E-001	7	...........
	466	46.7	-1.40410E-001	9.92327E-006	0.00000E+000	-1.39982E-001	-1.40385E-001	7	...........
	469	47	-1.10409E-001	1.00101E-005	0.00000E+000	-1.09986E-001	-1.10374E-001	7	...........
	472	47.3	-8.06083E-002	1.01237E-005	0.00000E+000	-7.99899E-002	-8.03633E-002	7	...........
	475	47.6	-5.06076E-002	1.02707E-005	0.00000E+000	-4.99937E-002	-5.03522E-002	7	...........
	478	47.9	-2.06069E-002	1.04544E-005	0.00000E+000	-1.99975E-002	-2.05412E-002	7	...........
	481	48.2	9.39373E-003	1.06765E-005	0.00000E+000	9.99874E-003	9.66997E-003	7	...........
	484	48.5	3.93944E-002	1.09304E-005	0.00000E+000	3.99949E-002	3.92809E-002	7	...........
	487	48.8	6.93951E-002	1.12093E-005	0.00000E+000	6.99912E-002	6.94921E-002	7	...........
	490	49.1	9.93958E-002	1.15200E-005	0.00000E+000	9.99874E-002	9.93031E-002	7	...........
	493	49.4	1.29396E-001	1.18641E-005	0.00000E+000	1.29984E-001	1.29314E-001	7	...........
	496	49.7	1.59397E-001	1.22415E-005	0.00000E+000	1.59980E-001	1.59525E-001	7	...........
	499	50	1.89398E-001	1.26691E-005	0.00000E+000	1.90026E-001	1.89336E-001	7	...........
[...]
	840	84.1	3.99203E-001	1.66442E-005	0.00000E+000	3.99999E-001	3.99214E-001	7	...........
	843	84.4	4.29203E-001	1.74509E-005	0.00000E+000	4.29996E-001	4.29225E-001	7	...........
	846	84.7	4.59204E-001	1.83278E-005	0.00000E+000	4.59992E-001	4.59036E-001	7	...........
	849	85	4.89005E-001	1.92631E-005	0.00000E+000	4.89988E-001	4.89047E-001	7	...........
	852	85.3	5.19205E-001	2.02519E-005	0.00000E+000	5.19984E-001	5.19258E-001	7	...........
	855	85.6	5.49206E-001	2.12974E-005	0.00000E+000	5.49981E-001	5.49069E-001	7	...........
	858	85.9	5.79007E-001	2.23998E-005	0.00000E+000	5.79977E-001	5.78880E-001	7	...........
	861	86.2	6.09007E-001	2.35906E-005	0.00000E+000	6.10023E-001	6.09092E-001	7	...........
	864	86.5	6.39208E-001	2.48650E-005	0.00000E+000	6.40019E-001	6.39103E-001	7	...........
	867	86.8	6.69009E-001	2.62613E-005	0.00000E+000	6.70015E-001	6.68914E-001	7	...........
	870	87.1	6.99009E-001	2.78313E-005	0.00000E+000	7.00012E-001	6.98925E-001	7	...........
	873	87.4	7.29210E-001	2.95984E-005	0.00000E+000	7.30008E-001	7.28936E-001	7	...........
	876	87.7	7.59011E-001	3.16244E-005	0.00000E+000	7.60004E-001	7.59147E-001	7	...........
	879	88	7.89011E-001	3.39643E-005	0.00000E+000	7.90000E-001	7.88958E-001	7	...........
	880	88.1	7.98812E-001	3.48195E-005	0.00000E+000	7.99999E-001	7.98762E-001	7	...........
CURVE4	TABLE
	Pt	T	Vf	Im	Vu	Sig	Ach	IERange	Over
	#	s	V vs. Ref.	A	V	V	V	#	bits
	881	88.2	7.89611E-001	2.13308E-005	0.00000E+000	7.90000E-001	7.88758E-001	7	...........
	882	88.3	7.79611E-001	1.68079E-005	0.00000E+000	7.80001E-001	7.78954E-001	7	...........
	883	88.4	7.69411E-001	1.36412E-005	0.00000E+000	7.70003E-001	7.68951E-001	7	...........
	884	88.5	7.59411E-001	1.11843E-005	0.00000E+000	7.60004E-001	7.58947E-001	7	...........
	885	88.6	7.49411E-001	9.21677E-006	0.00000E+000	7.50005E-001	7.49143E-001	7	...........
	886	88.7	7.39410E-001	7.58497E-006	0.00000E+000	7.40007E-001	7.38940E-001	7	...........
	887	88.8	7.29410E-001	6.21539E-006	0.00000E+000	7.30008E-001	7.29136E-001	7	...........
	888	88.9	7.19610E-001	5.02620E-006	0.00000E+000	7.20009E-001	7.18932E-001	7	...........
	889	89	7.09410E-001	3.99902E-006	0.00000E+000	7.10010E-001	7.08928E-001	7	...........
	890	89.1	6.99409E-001	3.08875E-006	0.00000E+000	7.00012E-001	6.99125E-001	7	...........
	891	89.2	6.89409E-001	2.27369E-006	0.00000E+000	6.90013E-001	6.89121E-001	7	...........
	892	89.3	6.79409E-001	1.55049E-006	0.00000E+000	6.80014E-001	6.78917E-001	7	...........
	893	89.4	6.69409E-001	8.85742E-007	0.00000E+000	6.70015E-001	6.69114E-001	7	...........
	894	89.5	6.59608E-001	2.86135E-007	0.00000E+000	6.60017E-001	6.59110E-001	7	...........
	895	89.6	6.49608E-001	-2.61695E-007	0.00000E+000	6.50018E-001	6.49106E-001	7	...........
	896	89.7	6.39608E-001	-7.76121E-007	0.00000E+000	6.40019E-001	6.39103E-001	7	...........
	897	89.8	6.29608E-001	-1.24378E-006	0.00000E+000	6.30020E-001	6.28899E-001	7	...........
	898	89.9	6.19608E-001	-1.68639E-006	0.00000E+000	6.20022E-001	6.19095E-001	7	...........
	899	90	6.09607E-001	-2.08891E-006	0.00000E+000	6.10023E-001	6.09092E-001	7	...........
	900	90.1	5.99607E-001	-2.47473E-006	0.00000E+000	6.00024E-001	5.99088E-001	7	...........
	901	90.2	5.89607E-001	-2.86389E-006	0.00000E+000	5.89975E-001	5.89084E-001	7	...........
	902	90.3	5.79607E-001	-3.18123E-006	0.00000E+000	5.79977E-001	5.79080E-001	7	...........
	903	90.4	5.69406E-001	-3.50191E-006	0.00000E+000	5.69978E-001	5.69277E-001	7	...........
	904	90.5	5.59606E-001	-3.80589E-006	0.00000E+000	5.59979E-001	5.59073E-001	7	...........
	905	90.6	5.49606E-001	-4.08815E-006	0.00000E+000	5.49981E-001	5.49269E-001	7	...........
	906	90.7	5.39406E-001	-4.36374E-006	0.00000E+000	5.39982E-001	5.39066E-001	7	...........
	907	90.8	5.29606E-001	-4.61594E-006	0.00000E+000	5.29983E-001	5.29062E-001	7	...........
	908	90.9	5.19605E-001	-4.85979E-006	0.00000E+000	5.19984E-001	5.19258E-001	7	...........
	909	91	5.09405E-001	-5.09028E-006	0.00000E+000	5.09986E-001	5.09055E-001	7	...........
	910	91.1	4.99605E-001	-5.30240E-006	0.00000E+000	4.99987E-001	4.99051E-001	7	...........
	911	91.2	4.89405E-001	-5.51118E-006	0.00000E+000	4.89988E-001	4.89247E-001	7	...........
	912	91.3	4.79604E-001	-5.70492E-006	0.00000E+000	4.79989E-001	4.79244E-001	7	...........
	913	91.4	4.69604E-001	-5.88530E-006	0.00000E+000	4.69991E-001	4.69040E-001	7	...........
	914	91.5	4.59604E-001	-6.05567E-006	0.00000E+000	4.59992E-001	4.59236E-001	7	...........
	915	91.6	4.49604E-001	-6.21267E-006	0.00000E+000	4.49993E-001	4.49232E-001	7	...........
	916	91.7	4.39804E-001	-6.36633E-006	0.00000E+000	4.39994E-001	4.39229E-001	7	...........
	917	91.8	4.29603E-001	-6.50829E-006	0.00000E+000	4.29996E-001	4.29225E-001	7	...........
	918	91.9	4.19603E-001	-6.63690E-006	0.00000E+000	4.19997E-001	4.19421E-001	7	...........
	919	92	4.09803E-001	-6.76718E-006	0.00000E+000	4.09998E-001	4.09418E-001	7	...........
	920	92.1	3.99803E-001	-6.88075E-006	0.00000E+000	3.99999E-001	3.99214E-001	7	...........
	921	92.2	3.89602E-001	-6.99767E-006	0.00000E+000	3.90001E-001	3.89210E-001	7	...........
	922	92.3	3.79802E-001	-7.09955E-006	0.00000E+000	3.80002E-001	3.79207E-001	7	...........
	923	92.4	3.69602E-001	-7.20310E-006	0.00000E+000	3.70003E-001	3.69403E-001	7	...........
	924	92.5	3.59802E-001	-7.30499E-006	0.00000E+000	3.60005E-001	3.59199E-001	7	...........
	925	92.6	3.49601E-001	-7.39685E-006	0.00000E+000	3.50006E-001	3.49396E-001	7	...........
	926	92.7	3.39601E-001	-7.48537E-006	0.00000E+000	3.40007E-001	3.39192E-001	7	...........
	927	92.8	3.29601E-001	-7.57556E-006	0.00000E+000	3.30008E-001	3.29388E-001	7	...........
	928	92.9	3.19801E-001	-7.66074E-006	0.00000E+000	3.20010E-001	3.19184E-001	7	...........
	929	93	3.10001E-001	-7.74592E-006	0.00000E+000	3.10011E-001	3.09381E-001	7	...........
	930	93.1	2.99600E-001	-7.82442E-006	0.00000E+000	3.00012E-001	2.99377E-001	7	...........
	931	93.2	2.89800E-001	-7.90793E-006	0.00000E+000	2.90013E-001	2.89373E-001	7	...........
	932	93.3	2.79800E-001	-7.98977E-006	0.00000E+000	2.80015E-001	2.79370E-001	7	...........
	933	93.4	2.69600E-001	-8.06493E-006	0.00000E+000	2.70016E-001	2.69366E-001	7	...........
	934	93.5	2.59799E-001	-8.15011E-006	0.00000E+000	2.60017E-001	2.59362E-001	7	...........
	935	93.6	2.49799E-001	-8.22527E-006	0.00000E+000	2.50018E-001	2.49359E-001	7	...........
	936	93.7	2.39799E-001	-8.30377E-006	0.00000E+000	2.40020E-001	2.39355E-001	7	...........
	937	93.8	2.29799E-001	-8.38895E-006	0.00000E+000	2.30021E-001	2.29151E-001	7	...........
	938	93.9	2.19799E-001	-8.46745E-006	0.00000E+000	2.20022E-001	2.19347E-001	7	...........
	939	94	2.09998E-001	-8.55096E-006	0.00000E+000	2.10023E-001	2.09544E-001	7	...........
	940	94.1	1.99798E-001	-8.62946E-006	0.00000E+000	2.00025E-001	1.99540E-001	7	...........
	941	94.2	1.89798E-001	-8.71298E-006	0.00000E+000	1.90026E-001	1.89536E-001	7	...........
	942	94.3	1.79598E-001	-8.81653E-006	0.00000E+000	1.79977E-001	1.79533E-001	7	...........
	943	94.4	1.69797E-001	-8.88167E-006	0.00000E+000	1.69979E-001	1.69329E-001	7	...........
	944	94.5	1.59997E-001	-8.96852E-006	0.00000E+000	1.59980E-001	1.59325E-001	7	...........
	945	94.6	1.49797E-001	-9.05537E-006	0.00000E+000	1.49981E-001	1.49322E-001	7	...........
	946	94.7	1.39797E-001	-9.13721E-006	0.00000E+000	1.39982E-001	1.39518E-001	7	...........
	947	94.8	1.29796E-001	-9.22740E-006	0.00000E+000	1.29984E-001	1.29714E-001	7	...........
	948	94.9	1.19796E-001	-9.31258E-006	0.00000E+000	1.19985E-001	1.19511E-001	7	...........
	949	95	1.09796E-001	-9.40277E-006	0.00000E+000	1.09986E-001	1.09307E-001	7	...........
	950	95.1	9.99958E-002	-9.49631E-006	0.00000E+000	9.99874E-002	9.95032E-002	7	...........
	951	95.2	8.97956E-002	-9.58149E-006	0.00000E+000	8.99886E-002	8.94995E-002	7	...........
	952	95.3	7.97953E-002	-9.67335E-006	0.00000E+000	7.99899E-002	7.94958E-002	7	...........
	953	95.4	6.97951E-002	-9.76521E-006	0.00000E+000	6.99912E-002	6.96922E-002	7	...........
	954	95.5	5.99949E-002	-9.85540E-006	0.00000E+000	5.99924E-002	5.92883E-002	7	...........
	955	95.6	4.99947E-002	-9.94726E-006	0.00000E+000	4.99937E-002	4.92846E-002	7	...........
	956	95.7	3.99944E-002	-1.00358E-005	0.00000E+000	3.99949E-002	3.94810E-002	7	...........
	957	95.8	2.99942E-002	-1.01276E-005	0.00000E+000	2.99962E-002	2.94773E-002	7	...........
	958	95.9	1.99940E-002	-1.02145E-005	0.00000E+000	1.99975E-002	1.94736E-002	7	...........
	959	96	9.99375E-003	-1.02997E-005	0.00000E+000	9.99874E-003	9.46990E-003	7	...........
	960	96.1	-2.06485E-004	-1.03899E-005	0.00000E+000	0.00000E+000	-5.33797E-004	7	...........