File: Data/CV_Steel_Disk_No_Material_2/CV_#1.DTA
EXPLAIN
TAG	CV
TITLE	LABEL	Cyclic Voltammetry	Test Identifier
DATE	LABEL	12-7-2017	Date
TIME	LABEL	17:11:04	Time
NOTES	NOTES	1	Notes...

PSTAT	PSTAT	IFC5000-01520	Potentiostat
VINIT	POTEN	0.00000E+000	F	Initial E (V)
VLIMIT1	POTEN	-8.00000E-001	F	Scan Limit 1 (V)
VLIMIT2	POTEN	8.00000E-001	F	Scan Limit 2 (V)
VFINAL	POTEN	0.00000E+000	F	Final E (V)
SCANRATE	QUANT	2.50000E+001	A Real Number
STEPSIZE	QUANT	1.00000E+001	Step Size (mV)
CYCLES	IQUANT	3	Cycles (#)
IMODE	SELECTOR	0	I/E Range Mode
IRANGE	QUANT	2.50000E+002	Max Current (mA)
AREA	QUANT	3.84800E-001	A Real Number
EQDELAY	QUANT	1.00000E+000	Equil. Time (s)
IRCOMP	SELECTOR	0	IRComp
PFCOR	QUANT	2.50000E+002	PF Corr. (ohm)
SAMPLINGMODE	SELECTOR	0	Sampling Mode
EOC	QUANT	0	Open Circuit (V)
SEQUENCER	TOGGLE	TRUE	Run as Sequence
PSTATMODEL	IQUANT	53	Pstat Model
PSTATSECTION	LABEL	IFC5000-01520	Pstat Section
PSTATSERIALNO	LABEL	01520	Pstat Serial Number
CTRLMODE	IQUANT	1	Control Mode
ELECTROMETER	IQUANT	0	RE=0 or CS=1
IESTAB	IQUANT	2	I/E Stability
CASPEED	IQUANT	4	Control Amp Speed
CONVENTION	IQUANT	1	Current Convention
ICHRANGE	IQUANT	2	Ich Range
ICHRANGEMODE	TOGGLE	F	Ich Auto Range
ICHOFFSETENABLE	TOGGLE	F	Ich Offset Enable
ICHOFFSET	QUANT	0	Ich Offset (V)
ICHFILTER	IQUANT	3	Ich Filter
VCHRANGE	IQUANT	2	Vch Range
VCHRANGEMODE	TOGGLE	F	Vch Auto Range
VCHOFFSETENABLE	TOGGLE	F	Vch Offset Enable
VCHOFFSET	QUANT	0	Vch Offset (V)
VCHFILTER	IQUANT	3	Vch Filter
IERANGELOWERLIMIT	IQUANT	7	I/E Range Lower Limit
IERANGEMODE	TOGGLE	T	I/E AutoRange
IERANGE	IQUANT	11	I/E Range
ACHSELECT	IQUANT	1	Ach Select
ACHRANGE	IQUANT	2	Ach Range
ACHOFFSETENABLE	TOGGLE	F	Ach Offset Enable
ACHOFFSET	QUANT	0	Ach Offset (V)
ACHFILTER	IQUANT	1	Ach Filter
CABLEID	IQUANT	14	Cable ID
DCCALDATE	LABEL	5-7-2017	DC Calibration Date
ACCALDATE	LABEL	12/3/2015	AC Calibration Date
FRAMEWORKVERSION	QUANT	7.01	Framework Version
INSTRUMENTVERSION	LABEL	4.00	Instrument Version
CURVE1	TABLE
	Pt	T	Vf	Im	Vu	Sig	Ach	IERange	Over
	#	s	V vs. Ref.	A	V	V	V	#	bits
	0	0.4	-3.65120E-004	1.13247E-005	0.00000E+000	0.00000E+000	-7.33871E-004	11	...........
	3	1.6	-3.03651E-002	-1.87515E-006	0.00000E+000	-2.99962E-002	-3.05449E-002	8	...........
	6	2.8	-6.05651E-002	-2.24526E-006	0.00000E+000	-5.99924E-002	-6.05560E-002	7	...........
	9	4	-9.01651E-002	-2.62273E-006	0.00000E+000	-8.99886E-002	-9.05671E-002	7	...........
	12	5.2	-1.20365E-001	-3.01689E-006	0.00000E+000	-1.19985E-001	-1.20378E-001	7	...........
	15	6.4	-1.50165E-001	-3.39268E-006	0.00000E+000	-1.49981E-001	-1.50389E-001	7	...........
	18	7.6	-1.80165E-001	-4.10752E-006	0.00000E+000	-1.79977E-001	-1.80600E-001	7	...........
	21	8.8	-2.10165E-001	-4.82069E-006	0.00000E+000	-2.10023E-001	-2.10411E-001	7	...........
	24	10	-2.40165E-001	-5.51883E-006	0.00000E+000	-2.40020E-001	-2.40222E-001	7	...........
	27	11.2	-2.70165E-001	-6.39400E-006	0.00000E+000	-2.70016E-001	-2.70233E-001	7	...........
	30	12.4	-3.00165E-001	-6.84161E-006	0.00000E+000	-3.00012E-001	-3.00445E-001	7	...........
	33	13.6	-3.30165E-001	-7.79028E-006	0.00000E+000	-3.30008E-001	-3.30256E-001	7	...........
	36	14.8	-3.60165E-001	-8.61201E-006	0.00000E+000	-3.60005E-001	-3.60467E-001	7	...........
	39	16	-3.89965E-001	-9.54564E-006	0.00000E+000	-3.90001E-001	-3.90278E-001	7	...........
	42	17.2	-4.19965E-001	-1.02505E-005	0.00000E+000	-4.19997E-001	-4.20089E-001	7	...........
	45	18.4	-4.49965E-001	-1.13411E-005	0.00000E+000	-4.49993E-001	-4.50100E-001	7	...........
	48	19.6	-4.79765E-001	-1.25336E-005	0.00000E+000	-4.79989E-001	-4.79911E-001	7	...........
	51	20.8	-5.09965E-001	-1.37729E-005	0.00000E+000	-5.09986E-001	-5.10122E-001	7	...........
	54	22	-5.39965E-001	-1.50773E-005	0.00000E+000	-5.39982E-001	-5.40133E-001	7	...........
	57	23.2	-5.69965E-001	-1.66473E-005	0.00000E+000	-5.69978E-001	-5.69944E-001	7	...........
	60	24.4	-5.99965E-001	-1.83425E-005	0.00000E+000	-6.00024E-001	-5.99955E-001	7	...........
	63	25.6	-6.29965E-001	-2.04753E-005	0.00000E+000	-6.30020E-001	-6.30167E-001	7	...........
	66	26.8	-6.59965E-001	-2.26633E-005	0.00000E+000	-6.60017E-001	-6.60178E-001	7	...........
	69	28	-6.89965E-001	-2.59435E-005	0.00000E+000	-6.90013E-001	-6.89989E-001	7	...........
	72	29.2	-7.19965E-001	-2.92371E-005	0.00000E+000	-7.20009E-001	-7.20000E-001	7	...........
	75	30.4	-7.49765E-001	-3.30218E-005	0.00000E+000	-7.50005E-001	-7.50011E-001	7	...........
	78	31.6	-7.79965E-001	-3.69517E-005	0.00000E+000	-7.80001E-001	-7.79822E-001	7	...........
	81	32.8	-7.89765E-001	-3.39470E-005	0.00000E+000	-7.90000E-001	-7.89825E-001	7	...........
	84	34	-7.59765E-001	-2.36370E-005	0.00000E+000	-7.60004E-001	-7.59814E-001	7	...........
	87	35.2	-7.29765E-001	-1.74206E-005	0.00000E+000	-7.30008E-001	-7.30003E-001	7	...........
	90	36.4	-6.99965E-001	-1.29712E-005	0.00000E+000	-7.00012E-001	-6.99992E-001	7	...........
	93	37.6	-6.69765E-001	-9.77279E-006	0.00000E+000	-6.70015E-001	-6.69981E-001	7	...........
	96	38.8	-6.39765E-001	-7.43620E-006	0.00000E+000	-6.40019E-001	-6.40170E-001	7	...........
	99	40	-6.09965E-001	-5.60902E-006	0.00000E+000	-6.10023E-001	-6.09959E-001	7	...........
	102	41.2	-5.79965E-001	-4.13925E-006	0.00000E+000	-5.79977E-001	-5.80148E-001	7	...........
	105	42.4	-5.49965E-001	-2.78640E-006	0.00000E+000	-5.49981E-001	-5.49937E-001	7	...........
	108	43.6	-5.19765E-001	-2.07657E-006	0.00000E+000	-5.19984E-001	-5.20126E-001	7	...........
	111	44.8	-4.89965E-001	-9.67572E-007	0.00000E+000	-4.89988E-001	-4.90115E-001	7	...........
	114	46	-4.59965E-001	-3.29562E-007	0.00000E+000	-4.59992E-001	-4.60104E-001	7	...........
	117	47.2	-4.30165E-001	1.19718E-007	0.00000E+000	-4.29996E-001	-4.30093E-001	7	...........
	120	48.4	-4.00165E-001	6.17433E-007	0.00000E+000	-3.99999E-001	-4.00081E-001	7	...........
	123	49.6	-3.69965E-001	8.94684E-007	0.00000E+000	-3.70003E-001	-3.70070E-001	7	...........
	126	50.8	-3.40165E-001	1.24375E-006	0.00000E+000	-3.40007E-001	-3.40459E-001	7	...........
	129	52	-3.10165E-001	1.43415E-006	0.00000E+000	-3.10011E-001	-3.10448E-001	7	...........
	132	53.2	-2.80165E-001	1.73479E-006	0.00000E+000	-2.80015E-001	-2.80037E-001	7	...........
	135	54.4	-2.50165E-001	1.77153E-006	0.00000E+000	-2.50018E-001	-2.50026E-001	7	...........
	138	55.6	-2.20165E-001	2.02540E-006	0.00000E+000	-2.20022E-001	-2.20215E-001	7	...........
	141	56.8	-1.90165E-001	2.10223E-006	0.00000E+000	-1.89976E-001	-1.90404E-001	7	...........
	144	58	-1.60165E-001	2.16068E-006	0.00000E+000	-1.59980E-001	-1.60193E-001	7	...........
	147	59.2	-1.30165E-001	2.43626E-006	0.00000E+000	-1.29984E-001	-1.30382E-001	7	...........
	150	60.4	-1.00165E-001	2.45464E-006	0.00000E+000	-9.99874E-002	-1.00371E-001	7	...........
	153	61.6	-7.03651E-002	2.52812E-006	0.00000E+000	-6.99912E-002	-7.03596E-002	7	...........
	156	62.8	-4.03651E-002	2.73523E-006	0.00000E+000	-3.99949E-002	-4.03485E-002	7	...........
	159	64	-1.01651E-002	2.96070E-006	0.00000E+000	-9.99874E-003	-1.03374E-002	7	...........
	162	65.2	1.96349E-002	3.00413E-006	0.00000E+000	1.99975E-002	1.94736E-002	7	...........
	165	66.4	4.94349E-002	3.22292E-006	0.00000E+000	4.99937E-002	4.94847E-002	7	...........
	168	67.6	7.96349E-002	3.47345E-006	0.00000E+000	7.99899E-002	7.94958E-002	7	...........
	171	68.8	1.09435E-001	3.57533E-006	0.00000E+000	1.09986E-001	1.09507E-001	7	...........
	174	70	1.39635E-001	3.94778E-006	0.00000E+000	1.39982E-001	1.39318E-001	7	...........
	177	71.2	1.69635E-001	4.12649E-006	0.00000E+000	1.69979E-001	1.69329E-001	7	...........
	180	72.4	1.99635E-001	4.33694E-006	0.00000E+000	2.00025E-001	1.99340E-001	7	...........
	183	73.6	2.29435E-001	4.57577E-006	0.00000E+000	2.30021E-001	2.29151E-001	7	...........
	186	74.8	2.59635E-001	4.93486E-006	0.00000E+000	2.60017E-001	2.59362E-001	7	...........
	189	76	2.89635E-001	5.24050E-006	0.00000E+000	2.90013E-001	2.89373E-001	7	...........
	192	77.2	3.19435E-001	5.51776E-006	0.00000E+000	3.20010E-001	3.19585E-001	7	...........
	195	78.4	3.49435E-001	5.75325E-006	0.00000E+000	3.50006E-001	3.49195E-001	7	...........
	198	79.6	3.79435E-001	5.95033E-006	0.00000E+000	3.80002E-001	3.79007E-001	7	...........
	201	80.8	4.09435E-001	6.44805E-006	0.00000E+000	4.09998E-001	4.09418E-001	7	...........
	204	82	4.39635E-001	6.72530E-006	0.00000E+000	4.39994E-001	4.39229E-001	7	...........
	207	83.2	4.69435E-001	7.08773E-006	0.00000E+000	4.69991E-001	4.69040E-001	7	...........
	210	84.4	4.99435E-001	7.60382E-006	0.00000E+000	4.99987E-001	4.99051E-001	7	...........
	213	85.6	5.29235E-001	7.95121E-006	0.00000E+000	5.29983E-001	5.29062E-001	7	...........
	216	86.8	5.59435E-001	8.48233E-006	0.00000E+000	5.59979E-001	5.59273E-001	7	...........
	219	88	5.89235E-001	8.83808E-006	0.00000E+000	5.89975E-001	5.89084E-001	7	...........
	222	89.2	6.19435E-001	9.54624E-006	0.00000E+000	6.20022E-001	6.19095E-001	7	...........
	225	90.4	6.49235E-001	1.01291E-005	0.00000E+000	6.50018E-001	6.49106E-001	7	...........
	228	91.6	6.79235E-001	1.06385E-005	0.00000E+000	6.80014E-001	6.79117E-001	7	...........
	231	92.8	7.09235E-001	1.13333E-005	0.00000E+000	7.10010E-001	7.08728E-001	7	...........
	234	94	7.39235E-001	1.20498E-005	0.00000E+000	7.40007E-001	7.38940E-001	7	...........
	237	95.2	7.69035E-001	1.30653E-005	0.00000E+000	7.70003E-001	7.69151E-001	7	...........
	240	96.4	7.99235E-001	1.39889E-005	0.00000E+000	7.99999E-001	7.98962E-001	7	...........
CURVE2	TABLE
	Pt	T	Vf	Im	Vu	Sig	Ach	IERange	Over
	#	s	V vs. Ref.	A	V	V	V	#	bits
	241	96.8	7.89235E-001	1.18311E-005	0.00000E+000	7.90000E-001	7.89158E-001	7	...........
	244	98	7.59235E-001	7.85267E-006	0.00000E+000	7.60004E-001	7.58947E-001	7	...........
	247	99.2	7.29235E-001	5.67308E-006	0.00000E+000	7.30008E-001	7.28936E-001	7	...........
	250	100.4	6.99235E-001	4.22670E-006	0.00000E+000	7.00012E-001	6.98925E-001	7	...........
	253	101.6	6.69435E-001	3.21290E-006	0.00000E+000	6.70015E-001	6.69114E-001	7	...........
	256	102.8	6.39235E-001	2.58825E-006	0.00000E+000	6.40019E-001	6.39103E-001	7	...........
	259	104	6.09235E-001	1.85671E-006	0.00000E+000	6.10023E-001	6.09092E-001	7	...........
	262	105.2	5.79235E-001	1.25043E-006	0.00000E+000	5.79977E-001	5.79080E-001	7	...........
	265	106.4	5.49435E-001	7.34346E-007	0.00000E+000	5.49981E-001	5.49069E-001	7	...........
	268	107.6	5.19435E-001	4.06990E-007	0.00000E+000	5.19984E-001	5.19058E-001	7	...........
	271	108.8	4.89235E-001	2.78580E-008	0.00000E+000	4.89988E-001	4.89047E-001	7	...........
	274	110	4.59435E-001	-2.15989E-007	0.00000E+000	4.59992E-001	4.59236E-001	7	...........
	277	111.2	4.29435E-001	-4.83219E-007	0.00000E+000	4.29996E-001	4.29225E-001	7	...........
	280	112.4	3.99435E-001	-8.28947E-007	0.00000E+000	3.99999E-001	3.99014E-001	7	...........
	283	113.6	3.69435E-001	-1.01601E-006	0.00000E+000	3.70003E-001	3.69203E-001	7	...........
	286	114.8	3.39635E-001	-1.05609E-006	0.00000E+000	3.40007E-001	3.39392E-001	7	...........
	289	116	3.09635E-001	-1.32165E-006	0.00000E+000	3.10011E-001	3.09381E-001	7	...........
	292	117.2	2.79435E-001	-1.67907E-006	0.00000E+000	2.80015E-001	2.78970E-001	7	...........
	295	118.4	2.49635E-001	-1.52040E-006	0.00000E+000	2.50018E-001	2.49359E-001	7	...........
	298	119.6	2.19635E-001	-1.92960E-006	0.00000E+000	2.20022E-001	2.19147E-001	7	...........
	301	120.8	1.89235E-001	-2.12000E-006	0.00000E+000	1.89976E-001	1.89336E-001	7	...........
	304	122	1.59635E-001	-2.22021E-006	0.00000E+000	1.59980E-001	1.59325E-001	7	...........
	307	123.2	1.29635E-001	-2.44068E-006	0.00000E+000	1.29984E-001	1.29514E-001	7	...........
	310	124.4	9.94349E-002	-2.64277E-006	0.00000E+000	9.99874E-002	9.95032E-002	7	...........
	313	125.6	6.98349E-002	-2.86824E-006	0.00000E+000	6.99912E-002	6.96922E-002	7	...........
	316	126.8	3.98349E-002	-3.10374E-006	0.00000E+000	3.99949E-002	3.94810E-002	7	...........
	319	128	9.83488E-003	-3.37097E-006	0.00000E+000	9.99874E-003	9.46990E-003	7	...........
	322	129.2	-2.01651E-002	-3.50458E-006	0.00000E+000	-1.99975E-002	-2.05412E-002	7	...........
	325	130.4	-5.03651E-002	-3.69331E-006	0.00000E+000	-4.99937E-002	-5.03522E-002	7	...........
	328	131.6	-8.01651E-002	-4.01733E-006	0.00000E+000	-7.99899E-002	-8.05634E-002	7	...........
	331	132.8	-1.10165E-001	-4.45826E-006	0.00000E+000	-1.09986E-001	-1.10574E-001	7	...........
	334	134	-1.40165E-001	-4.71714E-006	0.00000E+000	-1.39982E-001	-1.40385E-001	7	...........
	337	135.2	-1.70165E-001	-5.00274E-006	0.00000E+000	-1.69979E-001	-1.70197E-001	7	...........
	340	136.4	-2.00165E-001	-5.30337E-006	0.00000E+000	-2.00025E-001	-2.00208E-001	7	...........
	343	137.6	-2.30165E-001	-5.52551E-006	0.00000E+000	-2.30021E-001	-2.30019E-001	7	...........
	346	138.8	-2.60165E-001	-5.80443E-006	0.00000E+000	-2.60017E-001	-2.60230E-001	7	...........
	349	140	-2.90165E-001	-6.04660E-006	0.00000E+000	-2.90013E-001	-2.90041E-001	7	...........
	352	141.2	-3.20165E-001	-6.46081E-006	0.00000E+000	-3.20010E-001	-3.20252E-001	7	...........
	355	142.4	-3.50165E-001	-7.04705E-006	0.00000E+000	-3.50006E-001	-3.50063E-001	7	...........
	358	143.6	-3.80165E-001	-7.33098E-006	0.00000E+000	-3.80002E-001	-3.80274E-001	7	...........
	361	144.8	-4.09965E-001	-7.93224E-006	0.00000E+000	-4.09998E-001	-4.10085E-001	7	...........
	364	146	-4.39965E-001	-8.66879E-006	0.00000E+000	-4.39994E-001	-4.40096E-001	7	...........
	367	147.2	-4.70165E-001	-9.51057E-006	0.00000E+000	-4.69991E-001	-4.69907E-001	7	...........
	370	148.4	-4.99965E-001	-1.04191E-005	0.00000E+000	-4.99987E-001	-4.99918E-001	7	...........
	373	149.6	-5.29965E-001	-1.13912E-005	0.00000E+000	-5.29983E-001	-5.30130E-001	7	...........
	376	150.8	-5.59965E-001	-1.24918E-005	0.00000E+000	-5.59979E-001	-5.59941E-001	7	...........
	379	152	-5.89965E-001	-1.39516E-005	0.00000E+000	-5.89975E-001	-5.89952E-001	7	...........
	382	153.2	-6.19965E-001	-1.54447E-005	0.00000E+000	-6.20022E-001	-6.19963E-001	7	...........
	385	154.4	-6.49765E-001	-1.70180E-005	0.00000E+000	-6.50018E-001	-6.50174E-001	7	...........
	388	155.6	-6.79965E-001	-1.90306E-005	0.00000E+000	-6.80014E-001	-6.79785E-001	7	...........
	391	156.8	-7.09765E-001	-2.14624E-005	0.00000E+000	-7.10010E-001	-7.09996E-001	7	...........
	394	158	-7.39765E-001	-2.42216E-005	0.00000E+000	-7.40007E-001	-7.40007E-001	7	...........
	397	159.2	-7.69765E-001	-2.73966E-005	0.00000E+000	-7.70003E-001	-7.69818E-001	7	...........
	400	160.4	-7.99765E-001	-3.16572E-005	0.00000E+000	-7.99999E-001	-8.00029E-001	7	...........
	403	161.6	-7.69765E-001	-2.10165E-005	0.00000E+000	-7.70003E-001	-7.69818E-001	7	...........
	406	162.8	-7.39765E-001	-1.48284E-005	0.00000E+000	-7.40007E-001	-7.40007E-001	7	...........
	409	164	-7.09965E-001	-1.12359E-005	0.00000E+000	-7.10010E-001	-7.09996E-001	7	...........
	412	165.2	-6.79965E-001	-8.50345E-006	0.00000E+000	-6.80014E-001	-6.79985E-001	7	...........
	415	166.4	-6.49965E-001	-6.40402E-006	0.00000E+000	-6.50018E-001	-6.49974E-001	7	...........
	418	167.6	-6.19965E-001	-4.86745E-006	0.00000E+000	-6.20022E-001	-6.19963E-001	7	...........
	421	168.8	-5.89965E-001	-3.23067E-006	0.00000E+000	-5.89975E-001	-5.89752E-001	7	...........
	424	170	-5.59765E-001	-2.39224E-006	0.00000E+000	-5.59979E-001	-5.59941E-001	7	...........
	427	171.2	-5.29965E-001	-1.55381E-006	0.00000E+000	-5.29983E-001	-5.29930E-001	7	...........
	430	172.4	-5.00165E-001	-7.35416E-007	0.00000E+000	-4.99987E-001	-5.00118E-001	7	...........
	433	173.6	-4.69965E-001	-1.55862E-007	0.00000E+000	-4.69991E-001	-4.69907E-001	7	...........
	436	174.8	-4.40165E-001	4.10330E-007	0.00000E+000	-4.39994E-001	-4.40096E-001	7	...........
	439	176	-4.09965E-001	6.89251E-007	0.00000E+000	-4.09998E-001	-4.10285E-001	7	...........
	442	177.2	-3.80165E-001	9.91555E-007	0.00000E+000	-3.80002E-001	-3.80274E-001	7	...........
	445	178.4	-3.50165E-001	1.34563E-006	0.00000E+000	-3.50006E-001	-3.50063E-001	7	...........
	448	179.6	-3.19965E-001	1.59783E-006	0.00000E+000	-3.20010E-001	-3.20252E-001	7	...........
	451	180.8	-2.90165E-001	1.89679E-006	0.00000E+000	-2.90013E-001	-2.90241E-001	7	...........
	454	182	-2.60165E-001	1.92352E-006	0.00000E+000	-2.60017E-001	-2.60230E-001	7	...........
	457	183.2	-2.30165E-001	2.11392E-006	0.00000E+000	-2.30021E-001	-2.30219E-001	7	...........
	460	184.4	-2.00365E-001	2.16235E-006	0.00000E+000	-2.00025E-001	-2.00408E-001	7	...........
	463	185.6	-1.70365E-001	2.55986E-006	0.00000E+000	-1.69979E-001	-1.70197E-001	7	...........
	466	186.8	-1.40165E-001	2.36779E-006	0.00000E+000	-1.39982E-001	-1.40385E-001	7	...........
	469	188	-1.10165E-001	2.54817E-006	0.00000E+000	-1.09986E-001	-1.10574E-001	7	...........
	472	189.2	-8.03651E-002	2.59994E-006	0.00000E+000	-7.99899E-002	-8.03633E-002	7	...........
	475	190.4	-5.03651E-002	2.72187E-006	0.00000E+000	-4.99937E-002	-5.03522E-002	7	...........
	478	191.6	-2.01651E-002	2.97406E-006	0.00000E+000	-1.99975E-002	-2.05412E-002	7	...........
	481	192.8	9.63488E-003	2.98409E-006	0.00000E+000	9.99874E-003	9.46990E-003	7	...........
	484	194	3.96349E-002	3.21290E-006	0.00000E+000	3.99949E-002	3.94810E-002	7	...........
	487	195.2	6.98349E-002	3.39161E-006	0.00000E+000	6.99912E-002	6.94921E-002	7	...........
	490	196.4	9.96349E-002	3.46844E-006	0.00000E+000	9.99874E-002	9.93031E-002	7	...........
	493	197.6	1.29635E-001	3.70728E-006	0.00000E+000	1.29984E-001	1.29514E-001	7	...........
	496	198.8	1.59635E-001	3.88933E-006	0.00000E+000	1.59980E-001	1.59325E-001	7	...........
[...]
	840	336.4	3.99435E-001	5.80837E-006	0.00000E+000	3.99999E-001	3.99214E-001	7	...........
	843	337.6	4.29435E-001	6.17748E-006	0.00000E+000	4.29996E-001	4.29225E-001	7	...........
	846	338.8	4.59635E-001	6.43302E-006	0.00000E+000	4.59992E-001	4.59236E-001	7	...........
	849	340	4.89435E-001	7.02092E-006	0.00000E+000	4.89988E-001	4.89247E-001	7	...........
	852	341.2	5.19435E-001	7.38335E-006	0.00000E+000	5.19984E-001	5.19058E-001	7	...........
	855	342.4	5.49435E-001	7.72741E-006	0.00000E+000	5.49981E-001	5.49269E-001	7	...........
	858	343.6	5.79235E-001	8.55916E-006	0.00000E+000	5.79977E-001	5.79080E-001	7	...........
	861	344.8	6.09235E-001	8.89153E-006	0.00000E+000	6.10023E-001	6.09292E-001	7	...........
	864	346	6.39235E-001	9.48945E-006	0.00000E+000	6.40019E-001	6.39103E-001	7	...........
	867	347.2	6.69435E-001	9.99385E-006	0.00000E+000	6.70015E-001	6.69114E-001	7	...........
	870	348.4	6.99435E-001	1.10795E-005	0.00000E+000	7.00012E-001	6.99125E-001	7	...........
	873	349.6	7.29235E-001	1.16874E-005	0.00000E+000	7.30008E-001	7.28936E-001	7	...........
	876	350.8	7.59235E-001	1.25609E-005	0.00000E+000	7.60004E-001	7.59147E-001	7	...........
	879	352	7.89035E-001	1.38687E-005	0.00000E+000	7.90000E-001	7.88958E-001	7	...........
	880	352.4	7.99235E-001	1.41710E-005	0.00000E+000	7.99999E-001	7.98962E-001	7	...........
CURVE4	TABLE
	Pt	T	Vf	Im	Vu	Sig	Ach	IERange	Over
	#	s	V vs. Ref.	A	V	V	V	#	bits
	881	352.8	7.89235E-001	1.18528E-005	0.00000E+000	7.90000E-001	7.88958E-001	7	...........
	882	353.2	7.79435E-001	1.01425E-005	0.00000E+000	7.80001E-001	7.78954E-001	7	...........
	883	353.6	7.69035E-001	9.24227E-006	0.00000E+000	7.70003E-001	7.68951E-001	7	...........
	884	354	7.59235E-001	8.15665E-006	0.00000E+000	7.60004E-001	7.58947E-001	7	...........
	885	354.4	7.49235E-001	7.30151E-006	0.00000E+000	7.50005E-001	7.49143E-001	7	...........
	886	354.8	7.39035E-001	6.45306E-006	0.00000E+000	7.40007E-001	7.38940E-001	7	...........
	887	355.2	7.29235E-001	6.03050E-006	0.00000E+000	7.30008E-001	7.28936E-001	7	...........
	888	355.6	7.19235E-001	5.40585E-006	0.00000E+000	7.20009E-001	7.19132E-001	7	...........
	889	356	7.09235E-001	5.06681E-006	0.00000E+000	7.10010E-001	7.08928E-001	7	...........
	890	356.4	6.99435E-001	4.46387E-006	0.00000E+000	7.00012E-001	6.99125E-001	7	...........
	891	356.8	6.89235E-001	4.14987E-006	0.00000E+000	6.90013E-001	6.88921E-001	7	...........
	892	357.2	6.79435E-001	4.09476E-006	0.00000E+000	6.80014E-001	6.78917E-001	7	...........
	893	357.6	6.69435E-001	3.39161E-006	0.00000E+000	6.70015E-001	6.69114E-001	7	...........
	894	358	6.59235E-001	3.16112E-006	0.00000E+000	6.60017E-001	6.59110E-001	7	...........
	895	358.4	6.49435E-001	3.01582E-006	0.00000E+000	6.50018E-001	6.49106E-001	7	...........
	896	358.8	6.39235E-001	2.62165E-006	0.00000E+000	6.40019E-001	6.39103E-001	7	...........
	897	359.2	6.29435E-001	2.44128E-006	0.00000E+000	6.30020E-001	6.29099E-001	7	...........
	898	359.6	6.19235E-001	2.27593E-006	0.00000E+000	6.20022E-001	6.19095E-001	7	...........
	899	360	6.09235E-001	1.92352E-006	0.00000E+000	6.10023E-001	6.08891E-001	7	...........
	900	360.4	5.99235E-001	1.81496E-006	0.00000E+000	6.00024E-001	5.99288E-001	7	...........
	901	360.8	5.89435E-001	1.64293E-006	0.00000E+000	5.89975E-001	5.89084E-001	7	...........
	902	361.2	5.79435E-001	1.21536E-006	0.00000E+000	5.79977E-001	5.79280E-001	7	...........
	903	361.6	5.69435E-001	1.11014E-006	0.00000E+000	5.69978E-001	5.68877E-001	7	...........
	904	362	5.59235E-001	1.08174E-006	0.00000E+000	5.59979E-001	5.58873E-001	7	...........
	905	362.4	5.49235E-001	1.02329E-006	0.00000E+000	5.49981E-001	5.49069E-001	7	...........
	906	362.8	5.39435E-001	8.51259E-007	0.00000E+000	5.39982E-001	5.39066E-001	7	...........
	907	363.2	5.29235E-001	7.79441E-007	0.00000E+000	5.29983E-001	5.29062E-001	7	...........
	908	363.6	5.19435E-001	3.20140E-007	0.00000E+000	5.19984E-001	5.19058E-001	7	...........
	909	364	5.09435E-001	3.31832E-007	0.00000E+000	5.09986E-001	5.09055E-001	7	...........
	910	364.4	4.99635E-001	1.56462E-007	0.00000E+000	4.99987E-001	4.99051E-001	7	...........
	911	364.8	4.89235E-001	3.28686E-008	0.00000E+000	4.89988E-001	4.89247E-001	7	...........
	912	365.2	4.79235E-001	1.29739E-007	0.00000E+000	4.79989E-001	4.79244E-001	7	...........
	913	365.6	4.69435E-001	-3.72792E-008	0.00000E+000	4.69991E-001	4.69240E-001	7	...........
	914	366	4.59435E-001	-8.07040E-008	0.00000E+000	4.59992E-001	4.59036E-001	7	...........
	915	366.4	4.49435E-001	-2.42712E-007	0.00000E+000	4.49993E-001	4.49032E-001	7	...........
	916	366.8	4.39435E-001	-4.21422E-007	0.00000E+000	4.39994E-001	4.39229E-001	7	...........
	917	367.2	4.29435E-001	-4.46474E-007	0.00000E+000	4.29996E-001	4.29225E-001	7	...........
	918	367.6	4.19235E-001	-6.48567E-007	0.00000E+000	4.19997E-001	4.19221E-001	7	...........
	919	368	4.09435E-001	-6.68609E-007	0.00000E+000	4.09998E-001	4.09218E-001	7	...........
	920	368.4	3.99435E-001	-6.65269E-007	0.00000E+000	3.99999E-001	3.99214E-001	7	...........
	921	368.8	3.89435E-001	-7.03683E-007	0.00000E+000	3.90001E-001	3.89410E-001	7	...........
	922	369.2	3.79435E-001	-6.93662E-007	0.00000E+000	3.80002E-001	3.79207E-001	7	...........
	923	369.6	3.69435E-001	-7.65480E-007	0.00000E+000	3.70003E-001	3.69403E-001	7	...........
	924	370	3.59435E-001	-8.57340E-007	0.00000E+000	3.60005E-001	3.59199E-001	7	...........
	925	370.4	3.49235E-001	-1.02269E-006	0.00000E+000	3.50006E-001	3.49396E-001	7	...........
	926	370.8	3.39635E-001	-1.15296E-006	0.00000E+000	3.40007E-001	3.39392E-001	7	...........
	927	371.2	3.29435E-001	-1.17969E-006	0.00000E+000	3.30008E-001	3.29188E-001	7	...........
	928	371.6	3.19635E-001	-1.23814E-006	0.00000E+000	3.20010E-001	3.19384E-001	7	...........
	929	372	3.09635E-001	-1.20975E-006	0.00000E+000	3.10011E-001	3.09181E-001	7	...........
	930	372.4	2.99635E-001	-1.29827E-006	0.00000E+000	3.00012E-001	2.99177E-001	7	...........
	931	372.8	2.89635E-001	-1.30662E-006	0.00000E+000	2.90013E-001	2.89373E-001	7	...........
	932	373.2	2.79635E-001	-1.48867E-006	0.00000E+000	2.80015E-001	2.79170E-001	7	...........
	933	373.6	2.69635E-001	-1.61393E-006	0.00000E+000	2.70016E-001	2.69566E-001	7	...........
	934	374	2.59435E-001	-1.73085E-006	0.00000E+000	2.60017E-001	2.59362E-001	7	...........
	935	374.4	2.49435E-001	-1.63398E-006	0.00000E+000	2.50018E-001	2.49359E-001	7	...........
	936	374.8	2.39435E-001	-1.67907E-006	0.00000E+000	2.40020E-001	2.39555E-001	7	...........
	937	375.2	2.29635E-001	-1.67573E-006	0.00000E+000	2.30021E-001	2.29351E-001	7	...........
	938	375.6	2.19635E-001	-1.81937E-006	0.00000E+000	2.20022E-001	2.19347E-001	7	...........
	939	376	2.09635E-001	-1.94630E-006	0.00000E+000	2.10023E-001	2.09144E-001	7	...........
	940	376.4	1.99435E-001	-2.04317E-006	0.00000E+000	2.00025E-001	1.99140E-001	7	...........
	941	376.8	1.89435E-001	-1.86780E-006	0.00000E+000	1.89976E-001	1.89136E-001	7	...........
	942	377.2	1.79635E-001	-2.02480E-006	0.00000E+000	1.79977E-001	1.79533E-001	7	...........
	943	377.6	1.69435E-001	-2.00977E-006	0.00000E+000	1.69979E-001	1.69129E-001	7	...........
	944	378	1.59635E-001	-2.18681E-006	0.00000E+000	1.59980E-001	1.59325E-001	7	...........
	945	378.4	1.49635E-001	-2.20351E-006	0.00000E+000	1.49981E-001	1.49322E-001	7	...........
	946	378.8	1.39635E-001	-2.48243E-006	0.00000E+000	1.39982E-001	1.39318E-001	7	...........
	947	379.2	1.29635E-001	-2.41228E-006	0.00000E+000	1.29984E-001	1.29514E-001	7	...........
	948	379.6	1.19635E-001	-2.37554E-006	0.00000E+000	1.19985E-001	1.19511E-001	7	...........
	949	380	1.09635E-001	-2.51583E-006	0.00000E+000	1.09986E-001	1.09307E-001	7	...........
	950	380.4	9.94349E-002	-2.53421E-006	0.00000E+000	9.99874E-002	9.95032E-002	7	...........
	951	380.8	8.96349E-002	-2.56093E-006	0.00000E+000	8.99886E-002	8.92994E-002	7	...........
	952	381.2	7.96349E-002	-2.80311E-006	0.00000E+000	7.99899E-002	7.92957E-002	7	...........
	953	381.6	6.96349E-002	-2.76970E-006	0.00000E+000	6.99912E-002	6.96922E-002	7	...........
	954	382	5.96349E-002	-2.80144E-006	0.00000E+000	5.99924E-002	5.96885E-002	7	...........
	955	382.4	4.96349E-002	-2.87659E-006	0.00000E+000	4.99937E-002	4.92846E-002	7	...........
	956	382.8	3.94349E-002	-2.94173E-006	0.00000E+000	3.99949E-002	3.96811E-002	7	...........
	957	383.2	2.94349E-002	-2.89998E-006	0.00000E+000	2.99962E-002	2.94773E-002	7	...........
	958	383.6	1.98349E-002	-3.11042E-006	0.00000E+000	1.99975E-002	1.94736E-002	7	...........
	959	384	9.83488E-003	-3.11376E-006	0.00000E+000	9.99874E-003	9.46990E-003	7	...........
	960	384.4	-1.65120E-004	-3.16220E-006	0.00000E+000	0.00000E+000	-5.33797E-004	7	...........